Data from SampG_HRD10591_00099.txt Node
Date: Mon Jan 19 11:54:17 EST 2026
User: Yrep
Spectrometer: HR+D1059
Trigger mode: 0
Integration Time (sec): 3.443000E-1
Scans to average: 1
Electric dark correction enabled: true
Nonlinearity correction enabled: false
Boxcar width: 0
XAxis mode: Wavelengths
Number of Pixels in Spectrum: 2048
>>>>>Begin Spectral Data<<<<<
223.165	-28.31
223.4	-28.31
223.635	-28.31
223.869	-21.31
224.104	-17.31
224.338	-20.31
224.573	-27.31
224.808	-3.31
225.042	-0.31
225.277	3.69
225.511	-2.31
225.746	4.69
225.98	9.69
226.215	14.69
226.449	28.69
226.683	14.69
226.918	13.69
227.152	30.69
227.387	36.69
227.621	46.69
227.856	57.69
228.09	46.69
228.324	56.69
228.559	63.69
228.793	67.69
229.027	87.69
229.262	77.69
229.496	75.69
229.73	75.69
229.964	100.69
230.199	84.69
230.433	69.69
230.667	83.69
230.901	70.69
231.136	93.69
231.37	86.69
231.604	84.69
231.838	74.69
232.072	86.69
232.306	94.69
232.541	78.69
232.775	67.69
233.009	93.69
233.243	90.69
233.477	92.69
233.711	79.69
233.945	93.69
234.179	84.69
234.413	75.69
234.647	94.69
234.881	91.69
235.115	84.69
235.349	87.69
235.583	84.69
235.817	90.69
236.051	67.69
236.285	80.69
236.519	77.69
236.753	82.69
236.987	87.69
237.221	98.69
237.455	82.69
237.689	86.69
237.922	81.69
238.156	86.69
238.39	75.69
238.624	85.69
238.858	89.69
239.091	86.69
239.325	74.69
239.559	95.69
239.793	80.69
240.027	95.69
240.26	87.69
240.494	79.69
240.728	78.69
240.961	77.69
241.195	77.69
241.429	87.69
241.662	88.69
241.896	83.69
242.13	71.69
242.363	86.69
242.597	85.69
242.83	88.69
243.064	66.69
243.298	108.69
243.531	90.69
243.765	97.69
243.998	93.69
244.232	103.69
244.465	84.69
244.699	96.69
244.932	91.69
245.166	88.69
245.399	90.69
245.633	89.69
245.866	82.69
246.099	88.69
246.333	85.69
246.566	99.69
246.8	91.69
247.033	84.69
247.266	90.69
247.5	88.69
247.733	84.69
247.966	91.69
248.2	95.69
248.433	90.69
248.666	87.69
248.899	88.69
249.133	88.69
249.366	90.69
249.599	102.69
249.832	96.69
250.066	99.69
250.299	87.69
250.532	92.69
250.765	91.69
250.998	77.69
251.231	89.69
251.465	97.69
251.698	93.69
251.931	99.69
252.164	91.69
252.397	89.69
252.63	100.69
252.863	91.69
253.096	78.69
253.329	96.69
253.562	93.69
253.795	97.69
254.028	99.69
254.261	102.69
254.494	107.69
254.727	91.69
254.96	87.69
255.193	99.69
255.426	100.69
255.659	88.69
255.892	109.69
256.124	96.69
256.357	94.69
256.59	94.69
256.823	98.69
257.056	96.69
257.289	99.69
257.521	95.69
257.754	97.69
257.987	103.69
258.22	107.69
258.452	99.69
258.685	98.69
258.918	104.69
259.151	105.69
259.383	87.69
259.616	99.69
259.849	105.69
260.081	112.69
260.314	87.69
260.547	94.69
260.779	82.69
261.012	99.69
261.244	94.69
261.477	102.69
261.71	97.69
261.942	94.69
262.175	111.69
262.407	98.69
262.64	92.69
262.872	92.69
263.105	91.69
263.337	115.69
263.57	95.69
263.802	114.69
264.035	110.69
264.267	114.69
264.499	102.69
264.732	115.69
264.964	102.69
265.197	114.69
265.429	116.69
265.661	106.69
265.894	97.69
266.126	115.69
266.358	110.69
266.591	84.69
266.823	105.69
267.055	109.69
267.287	108.69
267.52	103.69
267.752	116.69
267.984	123.69
268.216	114.69
268.448	116.69
268.681	106.69
268.913	108.69
269.145	103.69
269.377	102.69
269.609	108.69
269.841	111.69
270.073	118.69
270.306	127.69
270.538	109.69
270.77	106.69
271.002	104.69
271.234	108.69
271.466	109.69
271.698	117.69
271.93	98.69
272.162	102.69
272.394	130.69
272.626	111.69
272.858	104.69
273.09	109.69
273.322	101.69
273.553	100.69
273.785	114.69
274.017	95.69
274.249	111.69
274.481	111.69
274.713	98.69
274.945	113.69
275.176	103.69
275.408	111.69
275.64	117.69
275.872	104.69
276.104	122.69
276.335	109.69
276.567	118.69
276.799	95.69
277.031	110.69
277.262	129.69
277.494	110.69
277.726	106.69
277.957	112.69
278.189	110.69
278.421	110.69
278.652	115.69
278.884	120.69
279.115	96.69
279.347	112.69
279.579	120.69
279.81	113.69
280.042	107.69
280.273	117.69
280.505	124.69
280.736	121.69
280.968	135.69
281.199	109.69
281.431	113.69
281.662	110.69
281.894	111.69
282.125	125.69
282.356	114.69
282.588	107.69
282.819	117.69
283.051	111.69
283.282	115.69
283.513	135.69
283.745	108.69
283.976	114.69
284.207	106.69
284.439	122.69
284.67	116.69
284.901	123.69
285.132	114.69
285.364	130.69
285.595	128.69
285.826	119.69
286.057	119.69
286.288	135.69
286.52	113.69
286.751	125.69
286.982	126.69
287.213	132.69
287.444	129.69
287.675	114.69
287.906	133.69
288.138	117.69
288.369	125.69
288.6	117.69
288.831	115.69
289.062	118.69
289.293	135.69
289.524	109.69
289.755	110.69
289.986	121.69
290.217	107.69
290.448	112.69
290.679	119.69
290.91	134.69
291.141	124.69
291.371	122.69
291.602	116.69
291.833	120.69
292.064	124.69
292.295	127.69
292.526	108.69
292.757	122.69
292.987	125.69
293.218	116.69
293.449	122.69
293.68	146.69
293.91	130.69
294.141	121.69
294.372	112.69
294.603	136.69
294.833	110.69
295.064	120.69
295.295	119.69
295.525	135.69
295.756	119.69
295.987	119.69
296.217	121.69
296.448	109.69
296.679	126.69
296.909	132.69
297.14	134.69
297.37	137.69
297.601	116.69
297.831	135.69
298.062	133.69
298.292	125.69
298.523	136.69
298.753	129.69
298.984	126.69
299.214	128.69
299.445	123.69
299.675	131.69
299.905	137.69
300.136	126.69
300.366	136.69
300.597	119.69
300.827	131.69
301.057	131.69
301.288	125.69
301.518	126.69
301.748	121.69
301.979	157.69
302.209	119.69
302.439	126.69
302.669	144.69
302.9	131.69
303.13	141.69
303.36	138.69
303.59	123.69
303.82	146.69
304.051	128.69
304.281	124.69
304.511	134.69
304.741	112.69
304.971	114.69
305.201	133.69
305.431	126.69
305.661	128.69
305.891	127.69
306.121	130.69
306.352	138.69
306.582	118.69
306.812	130.69
307.042	120.69
307.272	142.69
307.502	126.69
307.731	119.69
307.961	121.69
308.191	117.69
308.421	117.69
308.651	126.69
308.881	133.69
309.111	132.69
309.341	117.69
309.571	130.69
309.8	121.69
310.03	127.69
310.26	137.69
310.49	138.69
310.72	114.69
310.949	144.69
311.179	128.69
311.409	137.69
311.639	142.69
311.868	123.69
312.098	137.69
312.328	139.69
312.557	131.69
312.787	126.69
313.017	117.69
313.246	138.69
313.476	135.69
313.706	138.69
313.935	124.69
314.165	121.69
314.394	134.69
314.624	136.69
314.853	129.69
315.083	129.69
315.312	133.69
315.542	138.69
315.771	125.69
316.001	133.69
316.23	122.69
316.46	134.69
316.689	116.69
316.919	135.69
317.148	128.69
317.377	124.69
317.607	138.69
317.836	128.69
318.065	123.69
318.295	125.69
318.524	140.69
318.753	134.69
318.983	125.69
319.212	134.69
319.441	125.69
319.67	125.69
319.9	122.69
320.129	110.69
320.358	127.69
320.587	135.69
320.816	112.69
321.046	128.69
321.275	141.69
321.504	124.69
321.733	143.69
321.962	134.69
322.191	127.69
322.42	139.69
322.649	147.69
322.878	142.69
323.108	138.69
323.337	143.69
323.566	139.69
323.795	136.69
324.024	125.69
324.253	126.69
324.482	134.69
324.71	127.69
324.939	120.69
325.168	123.69
325.397	137.69
325.626	141.69
325.855	143.69
326.084	141.69
326.313	149.69
326.542	133.69
326.77	147.69
326.999	141.69
327.228	129.69
327.457	137.69
327.686	124.69
327.914	122.69
328.143	138.69
328.372	138.69
328.6	142.69
328.829	136.69
329.058	143.69
329.287	130.69
329.515	132.69
329.744	152.69
329.972	135.69
330.201	158.69
330.43	146.69
330.658	144.69
330.887	130.69
331.115	141.69
331.344	140.69
331.572	154.69
331.801	133.69
332.03	148.69
332.258	154.69
332.486	160.69
332.715	143.69
332.943	143.69
333.172	163.69
333.4	163.69
333.629	162.69
333.857	148.69
334.085	159.69
334.314	168.69
334.542	150.69
334.771	156.69
334.999	151.69
335.227	123.69
335.455	158.69
335.684	166.69
335.912	144.69
336.14	135.69
336.369	157.69
336.597	158.69
336.825	138.69
337.053	141.69
337.281	139.69
337.51	163.69
337.738	157.69
337.966	150.69
338.194	146.69
338.422	148.69
338.65	153.69
338.878	166.69
339.106	141.69
339.334	137.69
339.562	134.69
339.79	141.69
340.018	141.69
340.246	151.69
340.474	147.69
340.702	140.69
340.93	140.69
341.158	135.69
341.386	137.69
341.614	131.69
341.842	137.69
342.07	144.69
342.298	145.69
342.526	138.69
342.754	116.69
342.981	130.69
343.209	146.69
343.437	176.69
343.665	137.69
343.893	166.69
344.12	153.69
344.348	148.69
344.576	159.69
344.804	141.69
345.031	150.69
345.259	150.69
345.487	138.69
345.714	137.69
345.942	159.69
346.17	146.69
346.397	139.69
346.625	133.69
346.853	140.69
347.08	138.69
347.308	149.69
347.535	152.69
347.763	142.69
347.99	148.69
348.218	142.69
348.445	129.69
348.673	136.69
348.9	143.69
349.128	140.69
349.355	137.69
349.583	151.69
349.81	133.69
350.037	144.69
350.265	139.69
350.492	133.69
350.72	148.69
350.947	136.69
351.174	144.69
351.402	132.69
351.629	141.69
351.856	124.69
352.083	131.69
352.311	130.69
352.538	141.69
352.765	133.69
352.992	162.69
353.22	138.69
353.447	133.69
353.674	144.69
353.901	163.69
354.128	136.69
354.355	134.69
354.583	135.69
354.81	126.69
355.037	129.69
355.264	129.69
355.491	141.69
355.718	132.69
355.945	146.69
356.172	140.69
356.399	146.69
356.626	141.69
356.853	138.69
357.08	132.69
357.307	143.69
357.534	134.69
357.761	146.69
357.988	132.69
358.215	144.69
358.441	139.69
358.668	125.69
358.895	128.69
359.122	144.69
359.349	111.69
359.576	137.69
359.802	138.69
360.029	151.69
360.256	133.69
360.483	137.69
360.709	131.69
360.936	163.69
361.163	136.69
361.39	134.69
361.616	135.69
361.843	132.69
362.07	125.69
362.296	146.69
362.523	125.69
362.749	139.69
362.976	133.69
363.203	151.69
363.429	126.69
363.656	146.69
363.882	140.69
364.109	146.69
364.335	141.69
364.562	154.69
364.788	135.69
365.015	143.69
365.241	138.69
365.468	144.69
365.694	148.69
365.92	137.69
366.147	130.69
366.373	147.69
366.599	147.69
366.826	119.69
367.052	135.69
367.278	151.69
367.505	129.69
367.731	164.69
367.957	143.69
368.184	143.69
368.41	150.69
368.636	143.69
368.862	133.69
369.089	127.69
369.315	135.69
369.541	135.69
369.767	148.69
369.993	126.69
370.219	130.69
370.445	133.69
370.672	147.69
370.898	136.69
371.124	129.69
371.35	164.69
371.576	150.69
371.802	143.69
372.028	138.69
372.254	135.69
372.48	136.69
372.706	153.69
372.932	142.69
373.158	147.69
373.384	152.69
373.61	138.69
373.835	138.69
374.061	139.69
374.287	140.69
374.513	148.69
374.739	149.69
374.965	170.69
375.191	153.69
375.416	158.69
375.642	138.69
375.868	158.69
376.094	142.69
376.319	138.69
376.545	145.69
376.771	146.69
376.997	139.69
377.222	130.69
377.448	130.69
377.674	141.69
377.899	124.69
378.125	139.69
378.35	143.69
378.576	143.69
378.802	146.69
379.027	149.69
379.253	135.69
379.478	148.69
379.704	155.69
379.929	139.69
380.155	146.69
380.38	162.69
380.606	153.69
380.831	154.69
381.057	148.69
381.282	151.69
381.507	138.69
381.733	142.69
381.958	157.69
382.184	152.69
382.409	157.69
382.634	158.69
382.86	155.69
383.085	163.69
383.31	160.69
383.535	149.69
383.761	148.69
383.986	148.69
384.211	169.69
384.436	140.69
384.662	156.69
384.887	171.69
385.112	171.69
385.337	151.69
385.562	161.69
385.787	154.69
386.013	162.69
386.238	168.69
386.463	163.69
386.688	194.69
386.913	169.69
387.138	171.69
387.363	164.69
387.588	152.69
387.813	159.69
388.038	156.69
388.263	152.69
388.488	148.69
388.713	161.69
388.938	160.69
389.163	158.69
389.387	146.69
389.612	153.69
389.837	149.69
390.062	162.69
390.287	167.69
390.512	165.69
390.736	159.69
390.961	172.69
391.186	150.69
391.411	180.69
391.636	180.69
391.86	167.69
392.085	158.69
392.31	158.69
392.534	174.69
392.759	173.69
392.984	168.69
393.208	162.69
393.433	139.69
393.658	158.69
393.882	166.69
394.107	158.69
394.331	147.69
394.556	152.69
394.78	166.69
395.005	166.69
395.229	163.69
395.454	177.69
395.678	159.69
395.903	184.69
396.127	175.69
396.352	181.69
396.576	167.69
396.801	153.69
397.025	140.69
397.249	170.69
397.474	188.69
397.698	163.69
397.922	156.69
398.147	176.69
398.371	192.69
398.595	183.69
398.82	175.69
399.044	192.69
399.268	220.69
399.492	250.69
399.717	250.69
399.941	214.69
400.165	213.69
400.389	190.69
400.613	179.69
400.837	187.69
401.062	197.69
401.286	181.69
401.51	179.69
401.734	167.69
401.958	175.69
402.182	179.69
402.406	192.69
402.63	200.69
402.854	184.69
403.078	186.69
403.302	206.69
403.526	169.69
403.75	198.69
403.974	200.69
404.198	200.69
404.422	200.69
404.645	197.69
404.869	190.69
405.093	188.69
405.317	187.69
405.541	185.69
405.765	180.69
405.988	180.69
406.212	183.69
406.436	181.69
406.66	205.69
406.883	194.69
407.107	208.69
407.331	199.69
407.555	211.69
407.778	180.69
408.002	199.69
408.226	188.69
408.449	196.69
408.673	202.69
408.896	196.69
409.12	206.69
409.344	195.69
409.567	182.69
409.791	178.69
410.014	211.69
410.238	214.69
410.461	185.69
410.685	193.69
410.908	188.69
411.132	166.69
411.355	169.69
411.578	169.69
411.802	187.69
412.025	178.69
412.249	168.69
412.472	179.69
412.695	168.69
412.919	162.69
413.142	166.69
413.365	187.69
413.589	184.69
413.812	159.69
414.035	175.69
414.258	179.69
414.482	181.69
414.705	181.69
414.928	190.69
415.151	191.69
415.374	180.69
415.597	173.69
415.821	181.69
416.044	186.69
416.267	183.69
416.49	167.69
416.713	166.69
416.936	173.69
417.159	186.69
417.382	186.69
417.605	184.69
417.828	195.69
418.051	173.69
418.274	193.69
418.497	172.69
418.72	186.69
418.943	179.69
419.166	202.69
419.389	189.69
419.611	187.69
419.834	186.69
420.057	192.69
420.28	184.69
420.503	176.69
420.726	177.69
420.948	166.69
421.171	171.69
421.394	192.69
421.617	168.69
421.839	170.69
422.062	176.69
422.285	186.69
422.507	190.69
422.73	191.69
422.953	182.69
423.175	181.69
423.398	187.69
423.621	187.69
423.843	200.69
424.066	198.69
424.288	190.69
424.511	172.69
424.733	179.69
424.956	190.69
425.178	182.69
425.401	179.69
425.623	172.69
425.846	173.69
426.068	170.69
426.291	194.69
426.513	170.69
426.735	179.69
426.958	162.69
427.18	168.69
427.402	180.69
427.625	156.69
427.847	169.69
428.069	169.69
428.292	174.69
428.514	166.69
428.736	161.69
428.958	163.69
429.181	166.69
429.403	161.69
429.625	154.69
429.847	151.69
430.069	176.69
430.292	182.69
430.514	162.69
430.736	143.69
430.958	168.69
431.18	164.69
431.402	165.69
431.624	155.69
431.846	166.69
432.068	177.69
432.29	184.69
432.512	165.69
432.734	171.69
432.956	168.69
433.178	176.69
433.4	186.69
433.622	175.69
433.844	187.69
434.066	178.69
434.287	168.69
434.509	156.69
434.731	172.69
434.953	163.69
435.175	186.69
435.397	180.69
435.618	159.69
435.84	161.69
436.062	174.69
436.284	170.69
436.505	164.69
436.727	164.69
436.949	168.69
437.17	159.69
437.392	171.69
437.614	166.69
437.835	165.69
438.057	155.69
438.278	166.69
438.5	152.69
438.721	174.69
438.943	183.69
439.165	174.69
439.386	149.69
439.608	167.69
439.829	165.69
440.05	159.69
440.272	167.69
440.493	150.69
440.715	179.69
440.936	171.69
441.158	174.69
441.379	171.69
441.6	185.69
441.822	175.69
442.043	171.69
442.264	168.69
442.486	190.69
442.707	175.69
442.928	181.69
443.149	173.69
443.371	164.69
443.592	170.69
443.813	194.69
444.034	179.69
444.255	177.69
444.476	187.69
444.698	216.69
444.919	214.69
445.14	466.69
445.361	298.69
445.582	188.69
445.803	181.69
446.024	176.69
446.245	174.69
446.466	163.69
446.687	146.69
446.908	159.69
447.129	162.69
447.35	162.69
447.571	139.69
447.792	142.69
448.013	149.69
448.234	166.69
448.455	161.69
448.675	164.69
448.896	172.69
449.117	161.69
449.338	164.69
449.559	164.69
449.779	168.69
450	164.69
450.221	155.69
450.442	161.69
450.662	158.69
450.883	166.69
451.104	141.69
451.324	166.69
451.545	157.69
451.766	150.69
451.986	148.69
452.207	147.69
452.428	160.69
452.648	159.69
452.869	158.69
453.089	134.69
453.31	150.69
453.53	161.69
453.751	161.69
453.971	157.69
454.192	129.69
454.412	163.69
454.633	151.69
454.853	153.69
455.073	161.69
455.294	140.69
455.514	171.69
455.734	150.69
455.955	149.69
456.175	147.69
456.395	158.69
456.616	133.69
456.836	154.69
457.056	151.69
457.276	137.69
457.497	146.69
457.717	143.69
457.937	166.69
458.157	158.69
458.377	137.69
458.598	151.69
458.818	173.69
459.038	147.69
459.258	156.69
459.478	174.69
459.698	164.69
459.918	163.69
460.138	186.69
460.358	182.69
460.578	172.69
460.798	195.69
461.018	198.69
461.238	179.69
461.458	194.69
461.678	185.69
461.898	190.69
462.118	187.69
462.338	196.69
462.558	193.69
462.777	214.69
462.997	227.69
463.217	231.69
463.437	216.69
463.657	220.69
463.876	207.69
464.096	195.69
464.316	223.69
464.536	203.69
464.755	204.69
464.975	192.69
465.195	162.69
465.414	182.69
465.634	184.69
465.854	152.69
466.073	160.69
466.293	145.69
466.512	171.69
466.732	159.69
466.951	159.69
467.171	164.69
467.391	160.69
467.61	163.69
467.829	162.69
468.049	175.69
468.268	160.69
468.488	146.69
468.707	175.69
468.927	154.69
469.146	163.69
469.365	170.69
469.585	174.69
469.804	177.69
470.023	151.69
470.243	153.69
470.462	179.69
470.681	177.69
470.901	162.69
471.12	159.69
471.339	151.69
471.558	176.69
471.777	165.69
471.997	170.69
472.216	165.69
472.435	143.69
472.654	174.69
472.873	157.69
473.092	151.69
473.311	153.69
473.53	155.69
473.749	161.69
473.968	144.69
474.187	158.69
474.406	155.69
474.625	153.69
474.844	160.69
475.063	155.69
475.282	159.69
475.501	166.69
475.72	186.69
475.939	167.69
476.158	174.69
476.377	166.69
476.596	148.69
476.814	152.69
477.033	179.69
477.252	179.69
477.471	160.69
477.69	174.69
477.908	176.69
478.127	175.69
478.346	167.69
478.564	179.69
478.783	174.69
479.002	172.69
479.22	167.69
479.439	173.69
479.658	172.69
479.876	178.69
480.095	184.69
480.313	204.69
480.532	197.69
480.751	191.69
480.969	176.69
481.188	169.69
481.406	183.69
481.624	155.69
481.843	180.69
482.061	164.69
482.28	157.69
482.498	175.69
482.717	180.69
482.935	155.69
483.153	169.69
483.372	179.69
483.59	178.69
483.808	176.69
484.027	187.69
484.245	185.69
484.463	159.69
484.681	186.69
484.9	167.69
485.118	177.69
485.336	163.69
485.554	175.69
485.772	169.69
485.99	180.69
486.209	182.69
486.427	197.69
486.645	187.69
486.863	185.69
487.081	176.69
487.299	177.69
487.517	182.69
487.735	172.69
487.953	176.69
488.171	169.69
488.389	166.69
488.607	162.69
488.825	187.69
489.043	170.69
489.261	177.69
489.479	168.69
489.696	173.69
489.914	174.69
490.132	186.69
490.35	182.69
490.568	176.69
490.786	182.69
491.003	176.69
491.221	160.69
491.439	186.69
491.657	178.69
491.874	185.69
492.092	171.69
492.31	194.69
492.527	184.69
492.745	163.69
492.963	175.69
493.18	193.69
493.398	194.69
493.615	168.69
493.833	176.69
494.05	176.69
494.268	192.69
494.485	182.69
494.703	181.69
494.92	194.69
495.138	177.69
495.355	179.69
495.573	188.69
495.79	183.69
496.008	185.69
496.225	195.69
496.442	176.69
496.66	190.69
496.877	194.69
497.094	191.69
497.312	181.69
497.529	195.69
497.746	207.69
497.963	195.69
498.181	219.69
498.398	228.69
498.615	228.69
498.832	218.69
499.049	239.69
499.267	274.69
499.484	266.69
499.701	284.69
499.918	331.69
500.135	370.69
500.352	408.69
500.569	404.69
500.786	407.69
501.003	381.69
501.22	314.69
501.437	285.69
501.654	262.69
501.871	266.69
502.088	259.69
502.305	258.69
502.522	236.69
502.739	238.69
502.956	221.69
503.172	214.69
503.389	189.69
503.606	190.69
503.823	197.69
504.04	202.69
504.256	216.69
504.473	214.69
504.69	199.69
