Data from SampG_HRD10591_00029.txt Node
Date: Mon Jan 19 11:53:53 EST 2026
User: Yrep
Spectrometer: HR+D1059
Trigger mode: 0
Integration Time (sec): 3.443000E-1
Scans to average: 1
Electric dark correction enabled: true
Nonlinearity correction enabled: false
Boxcar width: 0
XAxis mode: Wavelengths
Number of Pixels in Spectrum: 2048
>>>>>Begin Spectral Data<<<<<
223.165	-24.31
223.4	-24.31
223.635	-24.31
223.869	-17.31
224.104	-24.31
224.338	-6.31
224.573	-5.31
224.808	-13.31
225.042	-10.31
225.277	-17.31
225.511	-9.31
225.746	10.69
225.98	26.69
226.215	15.69
226.449	-2.31
226.683	15.69
226.918	19.69
227.152	41.69
227.387	47.69
227.621	39.69
227.856	49.69
228.09	37.69
228.324	41.69
228.559	66.69
228.793	73.69
229.027	75.69
229.262	71.69
229.496	62.69
229.73	60.69
229.964	79.69
230.199	69.69
230.433	72.69
230.667	63.69
230.901	84.69
231.136	82.69
231.37	77.69
231.604	87.69
231.838	70.69
232.072	103.69
232.306	74.69
232.541	79.69
232.775	89.69
233.009	91.69
233.243	85.69
233.477	86.69
233.711	91.69
233.945	94.69
234.179	97.69
234.413	76.69
234.647	88.69
234.881	89.69
235.115	88.69
235.349	88.69
235.583	79.69
235.817	85.69
236.051	92.69
236.285	87.69
236.519	84.69
236.753	86.69
236.987	85.69
237.221	96.69
237.455	93.69
237.689	84.69
237.922	88.69
238.156	77.69
238.39	87.69
238.624	79.69
238.858	78.69
239.091	85.69
239.325	86.69
239.559	87.69
239.793	81.69
240.027	94.69
240.26	90.69
240.494	97.69
240.728	68.69
240.961	83.69
241.195	84.69
241.429	69.69
241.662	93.69
241.896	76.69
242.13	89.69
242.363	72.69
242.597	76.69
242.83	80.69
243.064	69.69
243.298	82.69
243.531	90.69
243.765	88.69
243.998	77.69
244.232	98.69
244.465	73.69
244.699	94.69
244.932	83.69
245.166	78.69
245.399	80.69
245.633	84.69
245.866	80.69
246.099	76.69
246.333	85.69
246.566	79.69
246.8	89.69
247.033	92.69
247.266	86.69
247.5	79.69
247.733	85.69
247.966	98.69
248.2	109.69
248.433	90.69
248.666	69.69
248.899	93.69
249.133	87.69
249.366	96.69
249.599	92.69
249.832	95.69
250.066	112.69
250.299	87.69
250.532	96.69
250.765	107.69
250.998	83.69
251.231	85.69
251.465	97.69
251.698	81.69
251.931	87.69
252.164	88.69
252.397	84.69
252.63	87.69
252.863	97.69
253.096	83.69
253.329	105.69
253.562	91.69
253.795	87.69
254.028	93.69
254.261	95.69
254.494	87.69
254.727	96.69
254.96	83.69
255.193	103.69
255.426	82.69
255.659	90.69
255.892	90.69
256.124	107.69
256.357	111.69
256.59	105.69
256.823	99.69
257.056	92.69
257.289	89.69
257.521	104.69
257.754	91.69
257.987	87.69
258.22	107.69
258.452	107.69
258.685	116.69
258.918	82.69
259.151	101.69
259.383	115.69
259.616	97.69
259.849	96.69
260.081	89.69
260.314	106.69
260.547	92.69
260.779	97.69
261.012	91.69
261.244	106.69
261.477	108.69
261.71	101.69
261.942	98.69
262.175	101.69
262.407	100.69
262.64	98.69
262.872	99.69
263.105	92.69
263.337	115.69
263.57	90.69
263.802	98.69
264.035	100.69
264.267	96.69
264.499	103.69
264.732	115.69
264.964	99.69
265.197	99.69
265.429	95.69
265.661	95.69
265.894	91.69
266.126	112.69
266.358	109.69
266.591	100.69
266.823	91.69
267.055	105.69
267.287	115.69
267.52	96.69
267.752	97.69
267.984	108.69
268.216	97.69
268.448	100.69
268.681	102.69
268.913	106.69
269.145	105.69
269.377	98.69
269.609	97.69
269.841	93.69
270.073	107.69
270.306	103.69
270.538	108.69
270.77	104.69
271.002	112.69
271.234	125.69
271.466	98.69
271.698	113.69
271.93	108.69
272.162	111.69
272.394	105.69
272.626	97.69
272.858	104.69
273.09	106.69
273.322	111.69
273.553	99.69
273.785	112.69
274.017	111.69
274.249	101.69
274.481	88.69
274.713	91.69
274.945	127.69
275.176	95.69
275.408	108.69
275.64	108.69
275.872	103.69
276.104	112.69
276.335	107.69
276.567	112.69
276.799	104.69
277.031	116.69
277.262	111.69
277.494	115.69
277.726	104.69
277.957	103.69
278.189	100.69
278.421	109.69
278.652	108.69
278.884	111.69
279.115	101.69
279.347	119.69
279.579	105.69
279.81	123.69
280.042	118.69
280.273	96.69
280.505	99.69
280.736	110.69
280.968	122.69
281.199	114.69
281.431	121.69
281.662	107.69
281.894	125.69
282.125	106.69
282.356	114.69
282.588	118.69
282.819	123.69
283.051	111.69
283.282	105.69
283.513	116.69
283.745	107.69
283.976	97.69
284.207	107.69
284.439	111.69
284.67	123.69
284.901	113.69
285.132	112.69
285.364	102.69
285.595	122.69
285.826	122.69
286.057	125.69
286.288	122.69
286.52	124.69
286.751	123.69
286.982	113.69
287.213	117.69
287.444	124.69
287.675	122.69
287.906	126.69
288.138	128.69
288.369	112.69
288.6	114.69
288.831	91.69
289.062	109.69
289.293	124.69
289.524	119.69
289.755	120.69
289.986	116.69
290.217	124.69
290.448	103.69
290.679	131.69
290.91	111.69
291.141	131.69
291.371	115.69
291.602	116.69
291.833	110.69
292.064	105.69
292.295	114.69
292.526	114.69
292.757	117.69
292.987	120.69
293.218	112.69
293.449	121.69
293.68	124.69
293.91	110.69
294.141	125.69
294.372	118.69
294.603	133.69
294.833	121.69
295.064	113.69
295.295	107.69
295.525	123.69
295.756	138.69
295.987	124.69
296.217	115.69
296.448	114.69
296.679	101.69
296.909	135.69
297.14	123.69
297.37	128.69
297.601	111.69
297.831	130.69
298.062	139.69
298.292	123.69
298.523	125.69
298.753	132.69
298.984	116.69
299.214	130.69
299.445	115.69
299.675	132.69
299.905	126.69
300.136	136.69
300.366	121.69
300.597	124.69
300.827	125.69
301.057	95.69
301.288	122.69
301.518	130.69
301.748	127.69
301.979	168.69
302.209	132.69
302.439	117.69
302.669	121.69
302.9	127.69
303.13	105.69
303.36	138.69
303.59	148.69
303.82	124.69
304.051	117.69
304.281	116.69
304.511	134.69
304.741	131.69
304.971	108.69
305.201	120.69
305.431	117.69
305.661	127.69
305.891	133.69
306.121	133.69
306.352	112.69
306.582	107.69
306.812	108.69
307.042	128.69
307.272	108.69
307.502	136.69
307.731	140.69
307.961	131.69
308.191	128.69
308.421	135.69
308.651	122.69
308.881	123.69
309.111	120.69
309.341	117.69
309.571	117.69
309.8	120.69
310.03	116.69
310.26	112.69
310.49	130.69
310.72	113.69
310.949	117.69
311.179	129.69
311.409	131.69
311.639	134.69
311.868	136.69
312.098	137.69
312.328	127.69
312.557	141.69
312.787	124.69
313.017	133.69
313.246	120.69
313.476	124.69
313.706	123.69
313.935	127.69
314.165	121.69
314.394	125.69
314.624	130.69
314.853	130.69
315.083	118.69
315.312	132.69
315.542	130.69
315.771	121.69
316.001	119.69
316.23	140.69
316.46	124.69
316.689	122.69
316.919	123.69
317.148	129.69
317.377	144.69
317.607	132.69
317.836	126.69
318.065	110.69
318.295	125.69
318.524	142.69
318.753	128.69
318.983	131.69
319.212	118.69
319.441	118.69
319.67	126.69
319.9	122.69
320.129	128.69
320.358	135.69
320.587	125.69
320.816	134.69
321.046	135.69
321.275	117.69
321.504	118.69
321.733	131.69
321.962	117.69
322.191	128.69
322.42	119.69
322.649	129.69
322.878	133.69
323.108	138.69
323.337	133.69
323.566	124.69
323.795	126.69
324.024	114.69
324.253	131.69
324.482	146.69
324.71	122.69
324.939	131.69
325.168	124.69
325.397	121.69
325.626	131.69
325.855	111.69
326.084	137.69
326.313	124.69
326.542	132.69
326.77	142.69
326.999	132.69
327.228	126.69
327.457	144.69
327.686	136.69
327.914	138.69
328.143	128.69
328.372	143.69
328.6	123.69
328.829	131.69
329.058	135.69
329.287	129.69
329.515	129.69
329.744	141.69
329.972	127.69
330.201	123.69
330.43	128.69
330.658	116.69
330.887	116.69
331.115	131.69
331.344	146.69
331.572	141.69
331.801	146.69
332.03	129.69
332.258	140.69
332.486	149.69
332.715	145.69
332.943	145.69
333.172	149.69
333.4	143.69
333.629	158.69
333.857	173.69
334.085	163.69
334.314	161.69
334.542	139.69
334.771	147.69
334.999	165.69
335.227	158.69
335.455	148.69
335.684	147.69
335.912	155.69
336.14	152.69
336.369	159.69
336.597	145.69
336.825	147.69
337.053	147.69
337.281	132.69
337.51	130.69
337.738	149.69
337.966	136.69
338.194	124.69
338.422	144.69
338.65	133.69
338.878	134.69
339.106	137.69
339.334	143.69
339.562	140.69
339.79	139.69
340.018	145.69
340.246	131.69
340.474	134.69
340.702	139.69
340.93	132.69
341.158	133.69
341.386	112.69
341.614	132.69
341.842	133.69
342.07	133.69
342.298	136.69
342.526	130.69
342.754	135.69
342.981	147.69
343.209	127.69
343.437	161.69
343.665	142.69
343.893	133.69
344.12	144.69
344.348	142.69
344.576	150.69
344.804	139.69
345.031	139.69
345.259	120.69
345.487	131.69
345.714	131.69
345.942	128.69
346.17	129.69
346.397	127.69
346.625	140.69
346.853	135.69
347.08	147.69
347.308	145.69
347.535	130.69
347.763	126.69
347.99	132.69
348.218	134.69
348.445	126.69
348.673	127.69
348.9	142.69
349.128	122.69
349.355	139.69
349.583	110.69
349.81	124.69
350.037	118.69
350.265	129.69
350.492	123.69
350.72	133.69
350.947	124.69
351.174	130.69
351.402	127.69
351.629	136.69
351.856	129.69
352.083	128.69
352.311	128.69
352.538	104.69
352.765	118.69
352.992	145.69
353.22	127.69
353.447	131.69
353.674	132.69
353.901	142.69
354.128	116.69
354.355	121.69
354.583	123.69
354.81	128.69
355.037	131.69
355.264	124.69
355.491	134.69
355.718	118.69
355.945	129.69
356.172	124.69
356.399	147.69
356.626	129.69
356.853	139.69
357.08	146.69
357.307	131.69
357.534	129.69
357.761	142.69
357.988	150.69
358.215	132.69
358.441	127.69
358.668	115.69
358.895	132.69
359.122	127.69
359.349	145.69
359.576	127.69
359.802	132.69
360.029	124.69
360.256	123.69
360.483	132.69
360.709	124.69
360.936	141.69
361.163	122.69
361.39	120.69
361.616	145.69
361.843	124.69
362.07	148.69
362.296	120.69
362.523	121.69
362.749	123.69
362.976	144.69
363.203	155.69
363.429	120.69
363.656	144.69
363.882	132.69
364.109	137.69
364.335	137.69
364.562	133.69
364.788	140.69
365.015	136.69
365.241	117.69
365.468	140.69
365.694	146.69
365.92	130.69
366.147	125.69
366.373	139.69
366.599	115.69
366.826	138.69
367.052	144.69
367.278	145.69
367.505	141.69
367.731	133.69
367.957	124.69
368.184	128.69
368.41	132.69
368.636	144.69
368.862	140.69
369.089	125.69
369.315	127.69
369.541	134.69
369.767	156.69
369.993	135.69
370.219	125.69
370.445	138.69
370.672	133.69
370.898	126.69
371.124	145.69
371.35	139.69
371.576	130.69
371.802	131.69
372.028	142.69
372.254	140.69
372.48	130.69
372.706	133.69
372.932	137.69
373.158	143.69
373.384	147.69
373.61	138.69
373.835	140.69
374.061	129.69
374.287	147.69
374.513	157.69
374.739	143.69
374.965	150.69
375.191	145.69
375.416	151.69
375.642	151.69
375.868	148.69
376.094	111.69
376.319	146.69
376.545	119.69
376.771	138.69
376.997	141.69
377.222	130.69
377.448	133.69
377.674	122.69
377.899	134.69
378.125	122.69
378.35	143.69
378.576	146.69
378.802	146.69
379.027	138.69
379.253	131.69
379.478	152.69
379.704	126.69
379.929	137.69
380.155	144.69
380.38	140.69
380.606	130.69
380.831	146.69
381.057	134.69
381.282	146.69
381.507	137.69
381.733	124.69
381.958	145.69
382.184	153.69
382.409	130.69
382.634	133.69
382.86	138.69
383.085	147.69
383.31	146.69
383.535	147.69
383.761	143.69
383.986	152.69
384.211	145.69
384.436	158.69
384.662	153.69
384.887	148.69
385.112	155.69
385.337	152.69
385.562	145.69
385.787	140.69
386.013	164.69
386.238	163.69
386.463	137.69
386.688	182.69
386.913	153.69
387.138	147.69
387.363	143.69
387.588	170.69
387.813	155.69
388.038	140.69
388.263	157.69
388.488	144.69
388.713	160.69
388.938	159.69
389.163	144.69
389.387	145.69
389.612	159.69
389.837	141.69
390.062	149.69
390.287	146.69
390.512	146.69
390.736	141.69
390.961	163.69
391.186	146.69
391.411	150.69
391.636	167.69
391.86	148.69
392.085	163.69
392.31	146.69
392.534	146.69
392.759	171.69
392.984	172.69
393.208	157.69
393.433	153.69
393.658	172.69
393.882	148.69
394.107	168.69
394.331	169.69
394.556	155.69
394.78	169.69
395.005	158.69
395.229	164.69
395.454	165.69
395.678	160.69
395.903	161.69
396.127	149.69
396.352	174.69
396.576	173.69
396.801	163.69
397.025	151.69
397.249	155.69
397.474	146.69
397.698	156.69
397.922	153.69
398.147	152.69
398.371	170.69
398.595	162.69
398.82	174.69
399.044	186.69
399.268	206.69
399.492	223.69
399.717	240.69
399.941	202.69
400.165	202.69
400.389	183.69
400.613	172.69
400.837	182.69
401.062	188.69
401.286	174.69
401.51	167.69
401.734	166.69
401.958	176.69
402.182	173.69
402.406	191.69
402.63	166.69
402.854	189.69
403.078	195.69
403.302	183.69
403.526	174.69
403.75	187.69
403.974	205.69
404.198	171.69
404.422	189.69
404.645	185.69
404.869	180.69
405.093	205.69
405.317	190.69
405.541	193.69
405.765	176.69
405.988	195.69
406.212	208.69
406.436	186.69
406.66	201.69
406.883	196.69
407.107	198.69
407.331	198.69
407.555	199.69
407.778	189.69
408.002	190.69
408.226	192.69
408.449	211.69
408.673	189.69
408.896	191.69
409.12	193.69
409.344	187.69
409.567	181.69
409.791	185.69
410.014	189.69
410.238	183.69
410.461	189.69
410.685	190.69
410.908	182.69
411.132	168.69
411.355	165.69
411.578	188.69
411.802	192.69
412.025	180.69
412.249	164.69
412.472	171.69
412.695	177.69
412.919	172.69
413.142	178.69
413.365	172.69
413.589	165.69
413.812	166.69
414.035	189.69
414.258	172.69
414.482	175.69
414.705	166.69
414.928	172.69
415.151	176.69
415.374	174.69
415.597	177.69
415.821	169.69
416.044	162.69
416.267	172.69
416.49	164.69
416.713	176.69
416.936	182.69
417.159	163.69
417.382	149.69
417.605	153.69
417.828	169.69
418.051	166.69
418.274	178.69
418.497	171.69
418.72	194.69
418.943	180.69
419.166	173.69
419.389	191.69
419.611	177.69
419.834	165.69
420.057	193.69
420.28	160.69
420.503	180.69
420.726	169.69
420.948	180.69
421.171	180.69
421.394	172.69
421.617	158.69
421.839	179.69
422.062	172.69
422.285	159.69
422.507	179.69
422.73	172.69
422.953	184.69
423.175	175.69
423.398	183.69
423.621	186.69
423.843	173.69
424.066	175.69
424.288	163.69
424.511	183.69
424.733	181.69
424.956	182.69
425.178	183.69
425.401	162.69
425.623	178.69
425.846	169.69
426.068	177.69
426.291	173.69
426.513	165.69
426.735	170.69
426.958	164.69
427.18	166.69
427.402	174.69
427.625	159.69
427.847	153.69
428.069	168.69
428.292	170.69
428.514	164.69
428.736	148.69
428.958	181.69
429.181	177.69
429.403	159.69
429.625	157.69
429.847	160.69
430.069	157.69
430.292	168.69
430.514	170.69
430.736	149.69
430.958	173.69
431.18	140.69
431.402	174.69
431.624	157.69
431.846	153.69
432.068	150.69
432.29	153.69
432.512	170.69
432.734	164.69
432.956	163.69
433.178	185.69
433.4	160.69
433.622	164.69
433.844	171.69
434.066	160.69
434.287	152.69
434.509	164.69
434.731	176.69
434.953	163.69
435.175	173.69
435.397	176.69
435.618	146.69
435.84	167.69
436.062	151.69
436.284	155.69
436.505	158.69
436.727	172.69
436.949	158.69
437.17	159.69
437.392	162.69
437.614	173.69
437.835	152.69
438.057	165.69
438.278	144.69
438.5	165.69
438.721	165.69
438.943	169.69
439.165	167.69
439.386	151.69
439.608	173.69
439.829	161.69
440.05	136.69
440.272	147.69
440.493	159.69
440.715	169.69
440.936	165.69
441.158	164.69
441.379	174.69
441.6	176.69
441.822	177.69
442.043	177.69
442.264	174.69
442.486	168.69
442.707	171.69
442.928	169.69
443.149	181.69
443.371	167.69
443.592	163.69
443.813	171.69
444.034	185.69
444.255	186.69
444.476	183.69
444.698	194.69
444.919	195.69
445.14	459.69
445.361	305.69
445.582	176.69
445.803	149.69
446.024	160.69
446.245	176.69
446.466	175.69
446.687	151.69
446.908	159.69
447.129	161.69
447.35	163.69
447.571	178.69
447.792	167.69
448.013	145.69
448.234	167.69
448.455	149.69
448.675	151.69
448.896	146.69
449.117	141.69
449.338	143.69
449.559	169.69
449.779	151.69
450	167.69
450.221	149.69
450.442	164.69
450.662	154.69
450.883	146.69
451.104	141.69
451.324	149.69
451.545	159.69
451.766	161.69
451.986	144.69
452.207	146.69
452.428	157.69
452.648	164.69
452.869	153.69
453.089	163.69
453.31	162.69
453.53	140.69
453.751	153.69
453.971	163.69
454.192	153.69
454.412	133.69
454.633	136.69
454.853	160.69
455.073	127.69
455.294	146.69
455.514	139.69
455.734	155.69
455.955	165.69
456.175	161.69
456.395	144.69
456.616	161.69
456.836	140.69
457.056	135.69
457.276	144.69
457.497	135.69
457.717	137.69
457.937	139.69
458.157	141.69
458.377	145.69
458.598	156.69
458.818	152.69
459.038	150.69
459.258	159.69
459.478	178.69
459.698	169.69
459.918	163.69
460.138	172.69
460.358	198.69
460.578	187.69
460.798	186.69
461.018	188.69
461.238	187.69
461.458	182.69
461.678	179.69
461.898	192.69
462.118	195.69
462.338	188.69
462.558	197.69
462.777	203.69
462.997	211.69
463.217	208.69
463.437	223.69
463.657	203.69
463.876	200.69
464.096	202.69
464.316	194.69
464.536	202.69
464.755	197.69
464.975	178.69
465.195	186.69
465.414	170.69
465.634	177.69
465.854	161.69
466.073	171.69
466.293	167.69
466.512	159.69
466.732	161.69
466.951	170.69
467.171	152.69
467.391	172.69
467.61	148.69
467.829	154.69
468.049	155.69
468.268	154.69
468.488	149.69
468.707	171.69
468.927	142.69
469.146	160.69
469.365	156.69
469.585	157.69
469.804	146.69
470.023	143.69
470.243	167.69
470.462	169.69
470.681	185.69
470.901	148.69
471.12	145.69
471.339	176.69
471.558	158.69
471.777	159.69
471.997	155.69
472.216	143.69
472.435	159.69
472.654	164.69
472.873	179.69
473.092	158.69
473.311	161.69
473.53	163.69
473.749	157.69
473.968	182.69
474.187	157.69
474.406	142.69
474.625	163.69
474.844	169.69
475.063	152.69
475.282	165.69
475.501	158.69
475.72	172.69
475.939	149.69
476.158	165.69
476.377	151.69
476.596	140.69
476.814	151.69
477.033	143.69
477.252	163.69
477.471	177.69
477.69	171.69
477.908	170.69
478.127	162.69
478.346	167.69
478.564	172.69
478.783	155.69
479.002	160.69
479.22	191.69
479.439	185.69
479.658	179.69
479.876	177.69
480.095	177.69
480.313	170.69
480.532	176.69
480.751	178.69
480.969	164.69
481.188	188.69
481.406	169.69
481.624	167.69
481.843	170.69
482.061	141.69
482.28	156.69
482.498	154.69
482.717	155.69
482.935	185.69
483.153	161.69
483.372	160.69
483.59	165.69
483.808	172.69
484.027	180.69
484.245	187.69
484.463	161.69
484.681	179.69
484.9	177.69
485.118	179.69
485.336	168.69
485.554	164.69
485.772	179.69
485.99	172.69
486.209	183.69
486.427	179.69
486.645	163.69
486.863	171.69
487.081	172.69
487.299	167.69
487.517	158.69
487.735	180.69
487.953	174.69
488.171	172.69
488.389	159.69
488.607	169.69
488.825	164.69
489.043	177.69
489.261	176.69
489.479	182.69
489.696	172.69
489.914	169.69
490.132	175.69
490.35	166.69
490.568	151.69
490.786	171.69
491.003	152.69
491.221	167.69
491.439	160.69
491.657	164.69
491.874	168.69
492.092	180.69
492.31	173.69
492.527	164.69
492.745	167.69
492.963	180.69
493.18	184.69
493.398	160.69
493.615	175.69
493.833	186.69
494.05	181.69
494.268	188.69
494.485	180.69
494.703	191.69
494.92	186.69
495.138	179.69
495.355	183.69
495.573	173.69
495.79	171.69
496.008	183.69
496.225	183.69
496.442	179.69
496.66	189.69
496.877	176.69
497.094	188.69
497.312	191.69
497.529	199.69
497.746	196.69
497.963	192.69
498.181	202.69
498.398	217.69
498.615	224.69
498.832	225.69
499.049	228.69
499.267	262.69
499.484	273.69
499.701	298.69
499.918	330.69
500.135	364.69
500.352	397.69
500.569	407.69
500.786	400.69
501.003	376.69
501.22	326.69
501.437	294.69
501.654	288.69
501.871	256.69
502.088	261.69
502.305	243.69
502.522	227.69
502.739	216.69
502.956	205.69
503.172	194.69
503.389	199.69
503.606	189.69
503.823	203.69
504.04	199.69
504.256	201.69
504.473	194.69
504.69	200.69
