Data from SampG_HRD10591_00085.txt Node
Date: Mon Jan 19 11:54:12 EST 2026
User: Yrep
Spectrometer: HR+D1059
Trigger mode: 0
Integration Time (sec): 3.443000E-1
Scans to average: 1
Electric dark correction enabled: true
Nonlinearity correction enabled: false
Boxcar width: 0
XAxis mode: Wavelengths
Number of Pixels in Spectrum: 2048
>>>>>Begin Spectral Data<<<<<
223.165	-16.81
223.4	-16.81
223.635	-16.81
223.869	-20.81
224.104	-35.81
224.338	-16.81
224.573	-19.81
224.808	-10.81
225.042	-7.81
225.277	-6.81
225.511	-7.81
225.746	10.19
225.98	12.19
226.215	24.19
226.449	16.19
226.683	19.19
226.918	24.19
227.152	37.19
227.387	36.19
227.621	45.19
227.856	69.19
228.09	44.19
228.324	47.19
228.559	51.19
228.793	62.19
229.027	52.19
229.262	70.19
229.496	64.19
229.73	65.19
229.964	70.19
230.199	78.19
230.433	90.19
230.667	77.19
230.901	78.19
231.136	72.19
231.37	81.19
231.604	70.19
231.838	84.19
232.072	73.19
232.306	84.19
232.541	95.19
232.775	82.19
233.009	96.19
233.243	73.19
233.477	75.19
233.711	87.19
233.945	70.19
234.179	86.19
234.413	82.19
234.647	72.19
234.881	83.19
235.115	80.19
235.349	85.19
235.583	95.19
235.817	92.19
236.051	69.19
236.285	85.19
236.519	82.19
236.753	81.19
236.987	70.19
237.221	68.19
237.455	70.19
237.689	89.19
237.922	82.19
238.156	72.19
238.39	79.19
238.624	76.19
238.858	70.19
239.091	88.19
239.325	74.19
239.559	89.19
239.793	82.19
240.027	88.19
240.26	60.19
240.494	75.19
240.728	93.19
240.961	71.19
241.195	79.19
241.429	82.19
241.662	66.19
241.896	68.19
242.13	80.19
242.363	80.19
242.597	80.19
242.83	69.19
243.064	77.19
243.298	84.19
243.531	75.19
243.765	82.19
243.998	84.19
244.232	97.19
244.465	80.19
244.699	82.19
244.932	102.19
245.166	80.19
245.399	84.19
245.633	96.19
245.866	70.19
246.099	84.19
246.333	89.19
246.566	74.19
246.8	80.19
247.033	90.19
247.266	85.19
247.5	67.19
247.733	81.19
247.966	76.19
248.2	76.19
248.433	77.19
248.666	76.19
248.899	80.19
249.133	80.19
249.366	99.19
249.599	75.19
249.832	84.19
250.066	88.19
250.299	83.19
250.532	97.19
250.765	89.19
250.998	77.19
251.231	90.19
251.465	78.19
251.698	77.19
251.931	70.19
252.164	88.19
252.397	92.19
252.63	79.19
252.863	89.19
253.096	91.19
253.329	88.19
253.562	80.19
253.795	72.19
254.028	92.19
254.261	80.19
254.494	82.19
254.727	98.19
254.96	70.19
255.193	64.19
255.426	77.19
255.659	91.19
255.892	84.19
256.124	85.19
256.357	97.19
256.59	100.19
256.823	75.19
257.056	94.19
257.289	90.19
257.521	102.19
257.754	84.19
257.987	90.19
258.22	84.19
258.452	94.19
258.685	93.19
258.918	88.19
259.151	94.19
259.383	80.19
259.616	94.19
259.849	81.19
260.081	82.19
260.314	105.19
260.547	92.19
260.779	89.19
261.012	97.19
261.244	81.19
261.477	80.19
261.71	81.19
261.942	91.19
262.175	106.19
262.407	91.19
262.64	88.19
262.872	97.19
263.105	102.19
263.337	92.19
263.57	86.19
263.802	96.19
264.035	91.19
264.267	91.19
264.499	101.19
264.732	108.19
264.964	89.19
265.197	82.19
265.429	94.19
265.661	90.19
265.894	94.19
266.126	105.19
266.358	94.19
266.591	91.19
266.823	78.19
267.055	77.19
267.287	96.19
267.52	92.19
267.752	85.19
267.984	69.19
268.216	98.19
268.448	100.19
268.681	92.19
268.913	102.19
269.145	97.19
269.377	90.19
269.609	107.19
269.841	90.19
270.073	101.19
270.306	98.19
270.538	92.19
270.77	85.19
271.002	93.19
271.234	85.19
271.466	96.19
271.698	92.19
271.93	89.19
272.162	98.19
272.394	102.19
272.626	75.19
272.858	97.19
273.09	100.19
273.322	97.19
273.553	85.19
273.785	94.19
274.017	102.19
274.249	91.19
274.481	98.19
274.713	87.19
274.945	85.19
275.176	88.19
275.408	102.19
275.64	96.19
275.872	91.19
276.104	93.19
276.335	78.19
276.567	93.19
276.799	94.19
277.031	93.19
277.262	94.19
277.494	107.19
277.726	91.19
277.957	89.19
278.189	102.19
278.421	106.19
278.652	107.19
278.884	81.19
279.115	103.19
279.347	99.19
279.579	98.19
279.81	90.19
280.042	98.19
280.273	103.19
280.505	85.19
280.736	101.19
280.968	100.19
281.199	95.19
281.431	93.19
281.662	96.19
281.894	102.19
282.125	108.19
282.356	102.19
282.588	98.19
282.819	97.19
283.051	84.19
283.282	90.19
283.513	110.19
283.745	102.19
283.976	91.19
284.207	108.19
284.439	98.19
284.67	86.19
284.901	93.19
285.132	98.19
285.364	105.19
285.595	108.19
285.826	95.19
286.057	100.19
286.288	94.19
286.52	99.19
286.751	96.19
286.982	104.19
287.213	104.19
287.444	99.19
287.675	86.19
287.906	93.19
288.138	99.19
288.369	108.19
288.6	110.19
288.831	93.19
289.062	96.19
289.293	100.19
289.524	96.19
289.755	101.19
289.986	106.19
290.217	108.19
290.448	96.19
290.679	94.19
290.91	106.19
291.141	97.19
291.371	99.19
291.602	94.19
291.833	98.19
292.064	94.19
292.295	97.19
292.526	103.19
292.757	94.19
292.987	105.19
293.218	91.19
293.449	102.19
293.68	94.19
293.91	92.19
294.141	109.19
294.372	99.19
294.603	100.19
294.833	100.19
295.064	99.19
295.295	106.19
295.525	96.19
295.756	98.19
295.987	108.19
296.217	103.19
296.448	100.19
296.679	92.19
296.909	105.19
297.14	112.19
297.37	113.19
297.601	94.19
297.831	114.19
298.062	112.19
298.292	103.19
298.523	102.19
298.753	117.19
298.984	105.19
299.214	99.19
299.445	102.19
299.675	107.19
299.905	93.19
300.136	90.19
300.366	99.19
300.597	101.19
300.827	101.19
301.057	96.19
301.288	102.19
301.518	115.19
301.748	94.19
301.979	128.19
302.209	120.19
302.439	124.19
302.669	100.19
302.9	110.19
303.13	107.19
303.36	105.19
303.59	113.19
303.82	98.19
304.051	113.19
304.281	90.19
304.511	120.19
304.741	110.19
304.971	92.19
305.201	115.19
305.431	108.19
305.661	102.19
305.891	119.19
306.121	111.19
306.352	108.19
306.582	116.19
306.812	100.19
307.042	106.19
307.272	104.19
307.502	104.19
307.731	101.19
307.961	104.19
308.191	94.19
308.421	93.19
308.651	114.19
308.881	98.19
309.111	104.19
309.341	101.19
309.571	97.19
309.8	111.19
310.03	98.19
310.26	93.19
310.49	114.19
310.72	106.19
310.949	112.19
311.179	108.19
311.409	110.19
311.639	105.19
311.868	108.19
312.098	108.19
312.328	109.19
312.557	108.19
312.787	106.19
313.017	117.19
313.246	103.19
313.476	110.19
313.706	100.19
313.935	107.19
314.165	99.19
314.394	104.19
314.624	118.19
314.853	103.19
315.083	112.19
315.312	104.19
315.542	98.19
315.771	108.19
316.001	122.19
316.23	112.19
316.46	99.19
316.689	96.19
316.919	124.19
317.148	104.19
317.377	109.19
317.607	126.19
317.836	106.19
318.065	100.19
318.295	116.19
318.524	101.19
318.753	96.19
318.983	108.19
319.212	103.19
319.441	99.19
319.67	98.19
319.9	109.19
320.129	96.19
320.358	129.19
320.587	109.19
320.816	98.19
321.046	110.19
321.275	109.19
321.504	90.19
321.733	105.19
321.962	108.19
322.191	97.19
322.42	99.19
322.649	117.19
322.878	100.19
323.108	101.19
323.337	103.19
323.566	96.19
323.795	98.19
324.024	122.19
324.253	98.19
324.482	112.19
324.71	109.19
324.939	118.19
325.168	118.19
325.397	116.19
325.626	106.19
325.855	109.19
326.084	134.19
326.313	118.19
326.542	93.19
326.77	120.19
326.999	107.19
327.228	110.19
327.457	121.19
327.686	106.19
327.914	112.19
328.143	112.19
328.372	108.19
328.6	95.19
328.829	108.19
329.058	112.19
329.287	109.19
329.515	111.19
329.744	98.19
329.972	104.19
330.201	115.19
330.43	108.19
330.658	101.19
330.887	115.19
331.115	120.19
331.344	114.19
331.572	101.19
331.801	96.19
332.03	107.19
332.258	124.19
332.486	107.19
332.715	110.19
332.943	109.19
333.172	121.19
333.4	107.19
333.629	119.19
333.857	121.19
334.085	119.19
334.314	113.19
334.542	118.19
334.771	127.19
334.999	110.19
335.227	113.19
335.455	106.19
335.684	113.19
335.912	110.19
336.14	111.19
336.369	118.19
336.597	111.19
336.825	99.19
337.053	117.19
337.281	122.19
337.51	116.19
337.738	132.19
337.966	96.19
338.194	107.19
338.422	105.19
338.65	118.19
338.878	107.19
339.106	109.19
339.334	119.19
339.562	96.19
339.79	108.19
340.018	110.19
340.246	101.19
340.474	89.19
340.702	113.19
340.93	118.19
341.158	106.19
341.386	99.19
341.614	92.19
341.842	114.19
342.07	98.19
342.298	119.19
342.526	109.19
342.754	103.19
342.981	107.19
343.209	110.19
343.437	149.19
343.665	115.19
343.893	110.19
344.12	116.19
344.348	108.19
344.576	119.19
344.804	108.19
345.031	103.19
345.259	107.19
345.487	114.19
345.714	107.19
345.942	96.19
346.17	100.19
346.397	114.19
346.625	116.19
346.853	102.19
347.08	83.19
347.308	108.19
347.535	109.19
347.763	102.19
347.99	110.19
348.218	113.19
348.445	87.19
348.673	114.19
348.9	112.19
349.128	114.19
349.355	104.19
349.583	97.19
349.81	101.19
350.037	105.19
350.265	106.19
350.492	97.19
350.72	109.19
350.947	108.19
351.174	112.19
351.402	117.19
351.629	116.19
351.856	106.19
352.083	99.19
352.311	102.19
352.538	100.19
352.765	99.19
352.992	131.19
353.22	113.19
353.447	107.19
353.674	117.19
353.901	107.19
354.128	101.19
354.355	90.19
354.583	113.19
354.81	114.19
355.037	123.19
355.264	102.19
355.491	106.19
355.718	111.19
355.945	109.19
356.172	98.19
356.399	118.19
356.626	107.19
356.853	105.19
357.08	119.19
357.307	105.19
357.534	120.19
357.761	105.19
357.988	103.19
358.215	106.19
358.441	102.19
358.668	102.19
358.895	105.19
359.122	111.19
359.349	97.19
359.576	94.19
359.802	109.19
360.029	107.19
360.256	99.19
360.483	93.19
360.709	88.19
360.936	114.19
361.163	102.19
361.39	106.19
361.616	105.19
361.843	113.19
362.07	108.19
362.296	104.19
362.523	101.19
362.749	100.19
362.976	111.19
363.203	119.19
363.429	101.19
363.656	102.19
363.882	116.19
364.109	112.19
364.335	116.19
364.562	116.19
364.788	102.19
365.015	108.19
365.241	110.19
365.468	110.19
365.694	103.19
365.92	123.19
366.147	103.19
366.373	99.19
366.599	101.19
366.826	89.19
367.052	111.19
367.278	114.19
367.505	117.19
367.731	128.19
367.957	120.19
368.184	93.19
368.41	106.19
368.636	119.19
368.862	125.19
369.089	97.19
369.315	109.19
369.541	114.19
369.767	114.19
369.993	96.19
370.219	99.19
370.445	119.19
370.672	102.19
370.898	104.19
371.124	108.19
371.35	104.19
371.576	115.19
371.802	88.19
372.028	116.19
372.254	111.19
372.48	103.19
372.706	104.19
372.932	119.19
373.158	104.19
373.384	115.19
373.61	128.19
373.835	116.19
374.061	110.19
374.287	115.19
374.513	123.19
374.739	101.19
374.965	118.19
375.191	119.19
375.416	112.19
375.642	112.19
375.868	118.19
376.094	115.19
376.319	106.19
376.545	117.19
376.771	110.19
376.997	103.19
377.222	102.19
377.448	120.19
377.674	111.19
377.899	93.19
378.125	117.19
378.35	109.19
378.576	113.19
378.802	109.19
379.027	112.19
379.253	98.19
379.478	126.19
379.704	103.19
379.929	102.19
380.155	109.19
380.38	108.19
380.606	112.19
380.831	116.19
381.057	120.19
381.282	120.19
381.507	124.19
381.733	101.19
381.958	108.19
382.184	115.19
382.409	105.19
382.634	123.19
382.86	116.19
383.085	107.19
383.31	110.19
383.535	112.19
383.761	117.19
383.986	99.19
384.211	111.19
384.436	115.19
384.662	91.19
384.887	120.19
385.112	120.19
385.337	115.19
385.562	113.19
385.787	124.19
386.013	125.19
386.238	130.19
386.463	115.19
386.688	157.19
386.913	126.19
387.138	105.19
387.363	124.19
387.588	134.19
387.813	122.19
388.038	114.19
388.263	114.19
388.488	107.19
388.713	121.19
388.938	104.19
389.163	110.19
389.387	123.19
389.612	107.19
389.837	109.19
390.062	119.19
390.287	113.19
390.512	119.19
390.736	106.19
390.961	114.19
391.186	110.19
391.411	119.19
391.636	115.19
391.86	122.19
392.085	120.19
392.31	116.19
392.534	121.19
392.759	105.19
392.984	126.19
393.208	129.19
393.433	121.19
393.658	124.19
393.882	129.19
394.107	130.19
394.331	124.19
394.556	114.19
394.78	117.19
395.005	119.19
395.229	125.19
395.454	121.19
395.678	122.19
395.903	127.19
396.127	118.19
396.352	120.19
396.576	113.19
396.801	102.19
397.025	110.19
397.249	116.19
397.474	114.19
397.698	121.19
397.922	135.19
398.147	113.19
398.371	121.19
398.595	126.19
398.82	94.19
399.044	126.19
399.268	131.19
399.492	149.19
399.717	150.19
399.941	133.19
400.165	135.19
400.389	139.19
400.613	142.19
400.837	122.19
401.062	124.19
401.286	122.19
401.51	124.19
401.734	122.19
401.958	134.19
402.182	121.19
402.406	125.19
402.63	128.19
402.854	115.19
403.078	137.19
403.302	120.19
403.526	136.19
403.75	131.19
403.974	132.19
404.198	131.19
404.422	141.19
404.645	121.19
404.869	132.19
405.093	144.19
405.317	121.19
405.541	129.19
405.765	142.19
405.988	145.19
406.212	146.19
406.436	132.19
406.66	142.19
406.883	134.19
407.107	137.19
407.331	124.19
407.555	139.19
407.778	136.19
408.002	146.19
408.226	126.19
408.449	132.19
408.673	136.19
408.896	135.19
409.12	134.19
409.344	124.19
409.567	128.19
409.791	140.19
410.014	130.19
410.238	115.19
410.461	137.19
410.685	137.19
410.908	118.19
411.132	124.19
411.355	114.19
411.578	137.19
411.802	123.19
412.025	119.19
412.249	119.19
412.472	113.19
412.695	131.19
412.919	136.19
413.142	139.19
413.365	129.19
413.589	120.19
413.812	129.19
414.035	126.19
414.258	124.19
414.482	103.19
414.705	142.19
414.928	133.19
415.151	134.19
415.374	127.19
415.597	118.19
415.821	127.19
416.044	122.19
416.267	127.19
416.49	110.19
416.713	105.19
416.936	116.19
417.159	125.19
417.382	135.19
417.605	124.19
417.828	116.19
418.051	122.19
418.274	130.19
418.497	129.19
418.72	123.19
418.943	131.19
419.166	123.19
419.389	132.19
419.611	130.19
419.834	100.19
420.057	130.19
420.28	107.19
420.503	118.19
420.726	129.19
420.948	111.19
421.171	118.19
421.394	126.19
421.617	123.19
421.839	111.19
422.062	120.19
422.285	111.19
422.507	117.19
422.73	129.19
422.953	122.19
423.175	128.19
423.398	125.19
423.621	126.19
423.843	128.19
424.066	136.19
424.288	136.19
424.511	141.19
424.733	128.19
424.956	124.19
425.178	134.19
425.401	133.19
425.623	117.19
425.846	124.19
426.068	106.19
426.291	106.19
426.513	110.19
426.735	113.19
426.958	134.19
427.18	116.19
427.402	131.19
427.625	129.19
427.847	122.19
428.069	112.19
428.292	129.19
428.514	113.19
428.736	117.19
428.958	114.19
429.181	112.19
429.403	105.19
429.625	122.19
429.847	125.19
430.069	107.19
430.292	109.19
430.514	107.19
430.736	108.19
430.958	127.19
431.18	120.19
431.402	116.19
431.624	129.19
431.846	119.19
432.068	118.19
432.29	106.19
432.512	113.19
432.734	126.19
432.956	120.19
433.178	135.19
433.4	118.19
433.622	136.19
433.844	128.19
434.066	136.19
434.287	125.19
434.509	120.19
434.731	134.19
434.953	126.19
435.175	133.19
435.397	112.19
435.618	125.19
435.84	107.19
436.062	109.19
436.284	113.19
436.505	123.19
436.727	103.19
436.949	118.19
437.17	104.19
437.392	113.19
437.614	120.19
437.835	100.19
438.057	117.19
438.278	124.19
438.5	116.19
438.721	118.19
438.943	130.19
439.165	120.19
439.386	111.19
439.608	116.19
439.829	116.19
440.05	124.19
440.272	128.19
440.493	122.19
440.715	114.19
440.936	135.19
441.158	136.19
441.379	114.19
441.6	128.19
441.822	120.19
442.043	121.19
442.264	130.19
442.486	126.19
442.707	125.19
442.928	128.19
443.149	133.19
443.371	131.19
443.592	131.19
443.813	122.19
444.034	125.19
444.255	128.19
444.476	115.19
444.698	142.19
444.919	140.19
445.14	338.19
445.361	229.19
445.582	123.19
445.803	126.19
446.024	117.19
446.245	145.19
446.466	103.19
446.687	120.19
446.908	136.19
447.129	113.19
447.35	119.19
447.571	129.19
447.792	119.19
448.013	116.19
448.234	118.19
448.455	112.19
448.675	125.19
448.896	121.19
449.117	116.19
449.338	105.19
449.559	122.19
449.779	124.19
450	101.19
450.221	122.19
450.442	114.19
450.662	115.19
450.883	124.19
451.104	122.19
451.324	115.19
451.545	129.19
451.766	105.19
451.986	108.19
452.207	129.19
452.428	99.19
452.648	116.19
452.869	115.19
453.089	117.19
453.31	124.19
453.53	116.19
453.751	93.19
453.971	117.19
454.192	117.19
454.412	121.19
454.633	117.19
454.853	128.19
455.073	101.19
455.294	101.19
455.514	115.19
455.734	116.19
455.955	104.19
456.175	97.19
456.395	109.19
456.616	126.19
456.836	122.19
457.056	121.19
457.276	108.19
457.497	119.19
457.717	125.19
457.937	120.19
458.157	125.19
458.377	112.19
458.598	117.19
458.818	110.19
459.038	108.19
459.258	108.19
459.478	116.19
459.698	127.19
459.918	114.19
460.138	118.19
460.358	120.19
460.578	129.19
460.798	132.19
461.018	135.19
461.238	122.19
461.458	146.19
461.678	134.19
461.898	135.19
462.118	128.19
462.338	132.19
462.558	150.19
462.777	135.19
462.997	132.19
463.217	150.19
463.437	137.19
463.657	135.19
463.876	117.19
464.096	145.19
464.316	132.19
464.536	129.19
464.755	134.19
464.975	138.19
465.195	139.19
465.414	124.19
465.634	117.19
465.854	123.19
466.073	113.19
466.293	127.19
466.512	125.19
466.732	129.19
466.951	114.19
467.171	115.19
467.391	120.19
467.61	119.19
467.829	117.19
468.049	117.19
468.268	115.19
468.488	109.19
468.707	110.19
468.927	115.19
469.146	122.19
469.365	123.19
469.585	123.19
469.804	116.19
470.023	124.19
470.243	114.19
470.462	126.19
470.681	129.19
470.901	116.19
471.12	89.19
471.339	125.19
471.558	123.19
471.777	126.19
471.997	100.19
472.216	116.19
472.435	100.19
472.654	108.19
472.873	128.19
473.092	114.19
473.311	116.19
473.53	117.19
473.749	101.19
473.968	136.19
474.187	119.19
474.406	111.19
474.625	119.19
474.844	116.19
475.063	118.19
475.282	121.19
475.501	114.19
475.72	141.19
475.939	114.19
476.158	117.19
476.377	129.19
476.596	119.19
476.814	106.19
477.033	118.19
477.252	107.19
477.471	119.19
477.69	122.19
477.908	124.19
478.127	133.19
478.346	128.19
478.564	136.19
478.783	128.19
479.002	131.19
479.22	139.19
479.439	134.19
479.658	110.19
479.876	123.19
480.095	134.19
480.313	128.19
480.532	158.19
480.751	128.19
480.969	123.19
481.188	112.19
481.406	116.19
481.624	115.19
481.843	110.19
482.061	127.19
482.28	122.19
482.498	130.19
482.717	111.19
482.935	112.19
483.153	102.19
483.372	112.19
483.59	123.19
483.808	125.19
484.027	126.19
484.245	126.19
484.463	113.19
484.681	138.19
484.9	129.19
485.118	137.19
485.336	137.19
485.554	123.19
485.772	119.19
485.99	112.19
486.209	126.19
486.427	109.19
486.645	121.19
486.863	120.19
487.081	126.19
487.299	123.19
487.517	129.19
487.735	130.19
487.953	125.19
488.171	121.19
488.389	128.19
488.607	122.19
488.825	119.19
489.043	123.19
489.261	146.19
489.479	131.19
489.696	132.19
489.914	128.19
490.132	129.19
490.35	137.19
490.568	126.19
490.786	101.19
491.003	118.19
491.221	117.19
491.439	121.19
491.657	120.19
491.874	126.19
492.092	136.19
492.31	123.19
492.527	124.19
492.745	138.19
492.963	124.19
493.18	123.19
493.398	124.19
493.615	126.19
493.833	116.19
494.05	120.19
494.268	123.19
494.485	121.19
494.703	120.19
494.92	121.19
495.138	129.19
495.355	130.19
495.573	133.19
495.79	125.19
496.008	137.19
496.225	112.19
496.442	129.19
496.66	141.19
496.877	130.19
497.094	160.19
497.312	131.19
497.529	130.19
497.746	135.19
497.963	133.19
498.181	148.19
498.398	153.19
498.615	149.19
498.832	165.19
499.049	153.19
499.267	166.19
499.484	193.19
499.701	199.19
499.918	216.19
500.135	193.19
500.352	242.19
500.569	239.19
500.786	252.19
501.003	226.19
501.22	194.19
501.437	191.19
501.654	169.19
501.871	150.19
502.088	140.19
502.305	158.19
502.522	165.19
502.739	152.19
502.956	168.19
503.172	150.19
503.389	130.19
503.606	127.19
503.823	145.19
504.04	125.19
504.256	151.19
504.473	131.19
504.69	155.19
504.907	137.19
505.123	137.19
505.34	128.19
505.557	125.19
505.773	136.19
505.99	116.19
506.207	125.19
506.423	123.19
506.64	132.19
506.856	112.19
507.073	131.19
