Data from SampG_HRD10591_00055.txt Node
Date: Mon Jan 19 11:54:02 EST 2026
User: Yrep
Spectrometer: HR+D1059
Trigger mode: 0
Integration Time (sec): 3.443000E-1
Scans to average: 1
Electric dark correction enabled: true
Nonlinearity correction enabled: false
Boxcar width: 0
XAxis mode: Wavelengths
Number of Pixels in Spectrum: 2048
>>>>>Begin Spectral Data<<<<<
223.165	-15.06
223.4	-15.06
223.635	-15.06
223.869	-14.06
224.104	-22.06
224.338	-19.06
224.573	-24.06
224.808	0.94
225.042	-0.06
225.277	-10.06
225.511	-6.06
225.746	11.94
225.98	6.94
226.215	-2.06
226.449	24.94
226.683	17.94
226.918	27.94
227.152	21.94
227.387	31.94
227.621	35.94
227.856	43.94
228.09	44.94
228.324	59.94
228.559	74.94
228.793	66.94
229.027	54.94
229.262	60.94
229.496	70.94
229.73	68.94
229.964	83.94
230.199	85.94
230.433	62.94
230.667	74.94
230.901	93.94
231.136	60.94
231.37	82.94
231.604	89.94
231.838	95.94
232.072	87.94
232.306	80.94
232.541	99.94
232.775	99.94
233.009	74.94
233.243	80.94
233.477	79.94
233.711	82.94
233.945	85.94
234.179	88.94
234.413	91.94
234.647	83.94
234.881	58.94
235.115	82.94
235.349	85.94
235.583	91.94
235.817	82.94
236.051	69.94
236.285	81.94
236.519	74.94
236.753	89.94
236.987	86.94
237.221	69.94
237.455	71.94
237.689	81.94
237.922	86.94
238.156	81.94
238.39	87.94
238.624	86.94
238.858	75.94
239.091	80.94
239.325	75.94
239.559	87.94
239.793	76.94
240.027	83.94
240.26	81.94
240.494	90.94
240.728	87.94
240.961	83.94
241.195	75.94
241.429	73.94
241.662	82.94
241.896	87.94
242.13	78.94
242.363	76.94
242.597	90.94
242.83	85.94
243.064	83.94
243.298	87.94
243.531	87.94
243.765	89.94
243.998	78.94
244.232	101.94
244.465	95.94
244.699	84.94
244.932	79.94
245.166	83.94
245.399	97.94
245.633	93.94
245.866	87.94
246.099	73.94
246.333	72.94
246.566	95.94
246.8	86.94
247.033	87.94
247.266	83.94
247.5	76.94
247.733	79.94
247.966	95.94
248.2	86.94
248.433	93.94
248.666	80.94
248.899	96.94
249.133	95.94
249.366	101.94
249.599	95.94
249.832	89.94
250.066	106.94
250.299	83.94
250.532	72.94
250.765	85.94
250.998	91.94
251.231	86.94
251.465	95.94
251.698	91.94
251.931	76.94
252.164	69.94
252.397	82.94
252.63	105.94
252.863	105.94
253.096	82.94
253.329	106.94
253.562	100.94
253.795	115.94
254.028	84.94
254.261	101.94
254.494	84.94
254.727	100.94
254.96	86.94
255.193	85.94
255.426	79.94
255.659	90.94
255.892	90.94
256.124	81.94
256.357	113.94
256.59	88.94
256.823	98.94
257.056	96.94
257.289	97.94
257.521	89.94
257.754	90.94
257.987	99.94
258.22	103.94
258.452	95.94
258.685	95.94
258.918	105.94
259.151	91.94
259.383	106.94
259.616	89.94
259.849	92.94
260.081	95.94
260.314	94.94
260.547	85.94
260.779	108.94
261.012	94.94
261.244	94.94
261.477	101.94
261.71	85.94
261.942	99.94
262.175	91.94
262.407	96.94
262.64	88.94
262.872	103.94
263.105	110.94
263.337	108.94
263.57	78.94
263.802	107.94
264.035	101.94
264.267	102.94
264.499	95.94
264.732	116.94
264.964	98.94
265.197	100.94
265.429	110.94
265.661	100.94
265.894	104.94
266.126	91.94
266.358	107.94
266.591	103.94
266.823	96.94
267.055	102.94
267.287	109.94
267.52	115.94
267.752	99.94
267.984	101.94
268.216	98.94
268.448	105.94
268.681	95.94
268.913	124.94
269.145	108.94
269.377	108.94
269.609	113.94
269.841	120.94
270.073	101.94
270.306	100.94
270.538	94.94
270.77	89.94
271.002	97.94
271.234	105.94
271.466	119.94
271.698	101.94
271.93	112.94
272.162	107.94
272.394	109.94
272.626	119.94
272.858	103.94
273.09	112.94
273.322	105.94
273.553	117.94
273.785	102.94
274.017	124.94
274.249	115.94
274.481	118.94
274.713	104.94
274.945	98.94
275.176	95.94
275.408	109.94
275.64	120.94
275.872	98.94
276.104	112.94
276.335	104.94
276.567	109.94
276.799	120.94
277.031	106.94
277.262	118.94
277.494	128.94
277.726	106.94
277.957	118.94
278.189	100.94
278.421	98.94
278.652	120.94
278.884	107.94
279.115	119.94
279.347	115.94
279.579	122.94
279.81	106.94
280.042	120.94
280.273	103.94
280.505	102.94
280.736	109.94
280.968	117.94
281.199	117.94
281.431	123.94
281.662	98.94
281.894	115.94
282.125	109.94
282.356	117.94
282.588	117.94
282.819	121.94
283.051	112.94
283.282	106.94
283.513	118.94
283.745	123.94
283.976	116.94
284.207	107.94
284.439	118.94
284.67	115.94
284.901	112.94
285.132	117.94
285.364	119.94
285.595	145.94
285.826	115.94
286.057	129.94
286.288	113.94
286.52	112.94
286.751	115.94
286.982	119.94
287.213	113.94
287.444	109.94
287.675	121.94
287.906	130.94
288.138	122.94
288.369	125.94
288.6	126.94
288.831	129.94
289.062	118.94
289.293	122.94
289.524	122.94
289.755	116.94
289.986	128.94
290.217	118.94
290.448	126.94
290.679	130.94
290.91	118.94
291.141	117.94
291.371	122.94
291.602	123.94
291.833	120.94
292.064	133.94
292.295	115.94
292.526	119.94
292.757	104.94
292.987	102.94
293.218	116.94
293.449	115.94
293.68	118.94
293.91	117.94
294.141	121.94
294.372	107.94
294.603	113.94
294.833	127.94
295.064	109.94
295.295	129.94
295.525	129.94
295.756	121.94
295.987	116.94
296.217	112.94
296.448	119.94
296.679	128.94
296.909	108.94
297.14	123.94
297.37	134.94
297.601	123.94
297.831	106.94
298.062	124.94
298.292	123.94
298.523	131.94
298.753	125.94
298.984	123.94
299.214	126.94
299.445	124.94
299.675	127.94
299.905	140.94
300.136	120.94
300.366	123.94
300.597	116.94
300.827	135.94
301.057	123.94
301.288	128.94
301.518	132.94
301.748	116.94
301.979	165.94
302.209	120.94
302.439	137.94
302.669	129.94
302.9	125.94
303.13	122.94
303.36	147.94
303.59	120.94
303.82	147.94
304.051	125.94
304.281	131.94
304.511	133.94
304.741	121.94
304.971	116.94
305.201	136.94
305.431	112.94
305.661	120.94
305.891	115.94
306.121	135.94
306.352	129.94
306.582	119.94
306.812	123.94
307.042	125.94
307.272	128.94
307.502	109.94
307.731	126.94
307.961	135.94
308.191	123.94
308.421	118.94
308.651	120.94
308.881	138.94
309.111	121.94
309.341	121.94
309.571	102.94
309.8	116.94
310.03	123.94
310.26	118.94
310.49	117.94
310.72	136.94
310.949	132.94
311.179	138.94
311.409	120.94
311.639	137.94
311.868	121.94
312.098	139.94
312.328	138.94
312.557	137.94
312.787	122.94
313.017	132.94
313.246	124.94
313.476	122.94
313.706	119.94
313.935	138.94
314.165	138.94
314.394	128.94
314.624	131.94
314.853	130.94
315.083	120.94
315.312	137.94
315.542	124.94
315.771	119.94
316.001	116.94
316.23	124.94
316.46	120.94
316.689	125.94
316.919	143.94
317.148	135.94
317.377	125.94
317.607	129.94
317.836	126.94
318.065	119.94
318.295	122.94
318.524	122.94
318.753	125.94
318.983	128.94
319.212	137.94
319.441	133.94
319.67	134.94
319.9	122.94
320.129	138.94
320.358	119.94
320.587	148.94
320.816	135.94
321.046	122.94
321.275	130.94
321.504	139.94
321.733	134.94
321.962	131.94
322.191	123.94
322.42	119.94
322.649	128.94
322.878	144.94
323.108	127.94
323.337	128.94
323.566	136.94
323.795	119.94
324.024	133.94
324.253	121.94
324.482	151.94
324.71	130.94
324.939	139.94
325.168	136.94
325.397	132.94
325.626	139.94
325.855	129.94
326.084	137.94
326.313	130.94
326.542	129.94
326.77	129.94
326.999	133.94
327.228	128.94
327.457	137.94
327.686	144.94
327.914	145.94
328.143	154.94
328.372	143.94
328.6	129.94
328.829	134.94
329.058	125.94
329.287	127.94
329.515	133.94
329.744	140.94
329.972	130.94
330.201	138.94
330.43	134.94
330.658	136.94
330.887	128.94
331.115	131.94
331.344	138.94
331.572	141.94
331.801	141.94
332.03	137.94
332.258	144.94
332.486	148.94
332.715	146.94
332.943	140.94
333.172	168.94
333.4	153.94
333.629	155.94
333.857	151.94
334.085	156.94
334.314	154.94
334.542	154.94
334.771	163.94
334.999	143.94
335.227	132.94
335.455	159.94
335.684	171.94
335.912	147.94
336.14	135.94
336.369	144.94
336.597	163.94
336.825	164.94
337.053	141.94
337.281	155.94
337.51	131.94
337.738	138.94
337.966	158.94
338.194	153.94
338.422	140.94
338.65	138.94
338.878	155.94
339.106	138.94
339.334	156.94
339.562	149.94
339.79	138.94
340.018	129.94
340.246	144.94
340.474	128.94
340.702	140.94
340.93	140.94
341.158	143.94
341.386	135.94
341.614	141.94
341.842	145.94
342.07	137.94
342.298	146.94
342.526	140.94
342.754	144.94
342.981	135.94
343.209	155.94
343.437	178.94
343.665	153.94
343.893	166.94
344.12	160.94
344.348	143.94
344.576	146.94
344.804	150.94
345.031	140.94
345.259	140.94
345.487	147.94
345.714	138.94
345.942	137.94
346.17	148.94
346.397	128.94
346.625	136.94
346.853	131.94
347.08	136.94
347.308	139.94
347.535	124.94
347.763	123.94
347.99	150.94
348.218	133.94
348.445	144.94
348.673	140.94
348.9	133.94
349.128	132.94
349.355	138.94
349.583	135.94
349.81	125.94
350.037	132.94
350.265	136.94
350.492	127.94
350.72	117.94
350.947	124.94
351.174	137.94
351.402	129.94
351.629	130.94
351.856	113.94
352.083	130.94
352.311	150.94
352.538	136.94
352.765	144.94
352.992	151.94
353.22	144.94
353.447	129.94
353.674	151.94
353.901	138.94
354.128	127.94
354.355	138.94
354.583	139.94
354.81	149.94
355.037	129.94
355.264	147.94
355.491	136.94
355.718	140.94
355.945	116.94
356.172	122.94
356.399	127.94
356.626	134.94
356.853	138.94
357.08	138.94
357.307	133.94
357.534	130.94
357.761	140.94
357.988	144.94
358.215	144.94
358.441	152.94
358.668	130.94
358.895	135.94
359.122	135.94
359.349	141.94
359.576	136.94
359.802	129.94
360.029	137.94
360.256	118.94
360.483	135.94
360.709	131.94
360.936	155.94
361.163	133.94
361.39	140.94
361.616	136.94
361.843	135.94
362.07	128.94
362.296	132.94
362.523	149.94
362.749	125.94
362.976	145.94
363.203	143.94
363.429	118.94
363.656	134.94
363.882	135.94
364.109	138.94
364.335	136.94
364.562	135.94
364.788	133.94
365.015	131.94
365.241	136.94
365.468	140.94
365.694	127.94
365.92	136.94
366.147	132.94
366.373	132.94
366.599	122.94
366.826	133.94
367.052	128.94
367.278	149.94
367.505	134.94
367.731	151.94
367.957	127.94
368.184	130.94
368.41	132.94
368.636	136.94
368.862	129.94
369.089	144.94
369.315	147.94
369.541	140.94
369.767	146.94
369.993	133.94
370.219	122.94
370.445	129.94
370.672	135.94
370.898	136.94
371.124	132.94
371.35	135.94
371.576	129.94
371.802	139.94
372.028	139.94
372.254	146.94
372.48	138.94
372.706	138.94
372.932	140.94
373.158	131.94
373.384	153.94
373.61	145.94
373.835	132.94
374.061	151.94
374.287	153.94
374.513	149.94
374.739	155.94
374.965	141.94
375.191	149.94
375.416	145.94
375.642	144.94
375.868	148.94
376.094	133.94
376.319	128.94
376.545	140.94
376.771	138.94
376.997	133.94
377.222	145.94
377.448	127.94
377.674	139.94
377.899	131.94
378.125	146.94
378.35	134.94
378.576	136.94
378.802	137.94
379.027	159.94
379.253	124.94
379.478	153.94
379.704	141.94
379.929	147.94
380.155	139.94
380.38	137.94
380.606	141.94
380.831	137.94
381.057	166.94
381.282	149.94
381.507	117.94
381.733	153.94
381.958	122.94
382.184	135.94
382.409	136.94
382.634	140.94
382.86	148.94
383.085	151.94
383.31	139.94
383.535	150.94
383.761	166.94
383.986	133.94
384.211	143.94
384.436	160.94
384.662	154.94
384.887	177.94
385.112	152.94
385.337	157.94
385.562	168.94
385.787	178.94
386.013	141.94
386.238	157.94
386.463	145.94
386.688	198.94
386.913	143.94
387.138	161.94
387.363	143.94
387.588	161.94
387.813	160.94
388.038	162.94
388.263	162.94
388.488	160.94
388.713	167.94
388.938	172.94
389.163	153.94
389.387	151.94
389.612	140.94
389.837	163.94
390.062	153.94
390.287	153.94
390.512	167.94
390.736	157.94
390.961	168.94
391.186	166.94
391.411	152.94
391.636	157.94
391.86	156.94
392.085	149.94
392.31	161.94
392.534	160.94
392.759	169.94
392.984	171.94
393.208	147.94
393.433	155.94
393.658	160.94
393.882	173.94
394.107	159.94
394.331	182.94
394.556	171.94
394.78	160.94
395.005	164.94
395.229	164.94
395.454	168.94
395.678	173.94
395.903	162.94
396.127	176.94
396.352	159.94
396.576	154.94
396.801	176.94
397.025	137.94
397.249	181.94
397.474	185.94
397.698	173.94
397.922	157.94
398.147	151.94
398.371	188.94
398.595	190.94
398.82	189.94
399.044	200.94
399.268	219.94
399.492	240.94
399.717	242.94
399.941	227.94
400.165	193.94
400.389	193.94
400.613	185.94
400.837	193.94
401.062	185.94
401.286	176.94
401.51	192.94
401.734	166.94
401.958	189.94
402.182	178.94
402.406	190.94
402.63	182.94
402.854	201.94
403.078	185.94
403.302	200.94
403.526	209.94
403.75	211.94
403.974	197.94
404.198	184.94
404.422	191.94
404.645	200.94
404.869	208.94
405.093	197.94
405.317	199.94
405.541	200.94
405.765	201.94
405.988	182.94
406.212	195.94
406.436	202.94
406.66	199.94
406.883	201.94
407.107	203.94
407.331	196.94
407.555	223.94
407.778	204.94
408.002	209.94
408.226	195.94
408.449	213.94
408.673	195.94
408.896	189.94
409.12	181.94
409.344	195.94
409.567	188.94
409.791	195.94
410.014	202.94
410.238	200.94
410.461	203.94
410.685	184.94
410.908	167.94
411.132	184.94
411.355	182.94
411.578	195.94
411.802	173.94
412.025	191.94
412.249	191.94
412.472	182.94
412.695	171.94
412.919	181.94
413.142	175.94
413.365	173.94
413.589	173.94
413.812	169.94
414.035	182.94
414.258	181.94
414.482	172.94
414.705	193.94
414.928	189.94
415.151	170.94
415.374	174.94
415.597	182.94
415.821	174.94
416.044	175.94
416.267	179.94
416.49	172.94
416.713	169.94
416.936	161.94
417.159	170.94
417.382	169.94
417.605	165.94
417.828	180.94
418.051	161.94
418.274	169.94
418.497	168.94
418.72	191.94
418.943	183.94
419.166	179.94
419.389	188.94
419.611	174.94
419.834	167.94
420.057	199.94
420.28	176.94
420.503	186.94
420.726	174.94
420.948	184.94
421.171	186.94
421.394	163.94
421.617	174.94
421.839	166.94
422.062	187.94
422.285	169.94
422.507	188.94
422.73	164.94
422.953	200.94
423.175	177.94
423.398	188.94
423.621	188.94
423.843	182.94
424.066	187.94
424.288	192.94
424.511	193.94
424.733	187.94
424.956	179.94
425.178	184.94
425.401	187.94
425.623	183.94
425.846	173.94
426.068	171.94
426.291	164.94
426.513	189.94
426.735	183.94
426.958	159.94
427.18	171.94
427.402	167.94
427.625	166.94
427.847	176.94
428.069	178.94
428.292	155.94
428.514	167.94
428.736	169.94
428.958	170.94
429.181	179.94
429.403	160.94
429.625	148.94
429.847	156.94
430.069	165.94
430.292	162.94
430.514	154.94
430.736	154.94
430.958	160.94
431.18	153.94
431.402	180.94
431.624	178.94
431.846	174.94
432.068	185.94
432.29	150.94
432.512	164.94
432.734	161.94
432.956	173.94
433.178	181.94
433.4	174.94
433.622	172.94
433.844	176.94
434.066	171.94
434.287	181.94
434.509	183.94
434.731	179.94
434.953	177.94
435.175	177.94
435.397	176.94
435.618	154.94
435.84	164.94
436.062	170.94
436.284	160.94
436.505	169.94
436.727	166.94
436.949	165.94
437.17	148.94
437.392	156.94
437.614	159.94
437.835	155.94
438.057	159.94
438.278	139.94
438.5	160.94
438.721	164.94
438.943	164.94
439.165	152.94
439.386	156.94
439.608	171.94
439.829	165.94
440.05	159.94
440.272	150.94
440.493	171.94
440.715	161.94
440.936	160.94
441.158	166.94
441.379	171.94
441.6	176.94
441.822	187.94
442.043	173.94
442.264	180.94
442.486	167.94
442.707	171.94
442.928	202.94
443.149	177.94
443.371	184.94
443.592	185.94
443.813	172.94
444.034	172.94
444.255	195.94
444.476	187.94
444.698	198.94
444.919	207.94
445.14	453.94
445.361	301.94
445.582	173.94
445.803	163.94
446.024	166.94
446.245	167.94
446.466	187.94
446.687	161.94
446.908	169.94
447.129	167.94
447.35	159.94
447.571	172.94
447.792	151.94
448.013	161.94
448.234	166.94
448.455	163.94
448.675	149.94
448.896	147.94
449.117	147.94
449.338	127.94
449.559	168.94
449.779	170.94
450	165.94
450.221	162.94
450.442	159.94
450.662	128.94
450.883	157.94
451.104	148.94
451.324	163.94
451.545	148.94
451.766	177.94
451.986	148.94
452.207	162.94
452.428	157.94
452.648	153.94
452.869	169.94
453.089	152.94
453.31	161.94
453.53	152.94
453.751	159.94
453.971	161.94
454.192	144.94
454.412	146.94
454.633	161.94
454.853	165.94
455.073	156.94
455.294	147.94
455.514	167.94
455.734	160.94
455.955	151.94
456.175	152.94
456.395	156.94
456.616	137.94
456.836	147.94
457.056	156.94
457.276	153.94
457.497	145.94
457.717	155.94
457.937	156.94
458.157	163.94
458.377	153.94
458.598	151.94
458.818	168.94
459.038	158.94
459.258	155.94
459.478	148.94
459.698	148.94
459.918	180.94
460.138	172.94
460.358	192.94
460.578	191.94
460.798	178.94
461.018	194.94
461.238	170.94
461.458	196.94
461.678	173.94
461.898	193.94
462.118	198.94
462.338	198.94
462.558	209.94
462.777	207.94
462.997	222.94
463.217	233.94
463.437	218.94
463.657	214.94
463.876	205.94
464.096	205.94
464.316	195.94
464.536	210.94
464.755	216.94
464.975	202.94
465.195	199.94
465.414	194.94
465.634	182.94
465.854	168.94
466.073	174.94
466.293	154.94
466.512	154.94
466.732	173.94
466.951	167.94
467.171	160.94
467.391	165.94
467.61	157.94
467.829	157.94
468.049	173.94
468.268	161.94
468.488	162.94
468.707	150.94
468.927	164.94
469.146	159.94
469.365	168.94
469.585	153.94
469.804	161.94
470.023	172.94
470.243	183.94
470.462	177.94
470.681	159.94
470.901	161.94
471.12	168.94
471.339	161.94
471.558	161.94
471.777	166.94
471.997	167.94
472.216	173.94
472.435	147.94
472.654	153.94
472.873	161.94
473.092	162.94
473.311	167.94
473.53	145.94
473.749	173.94
473.968	168.94
474.187	150.94
474.406	160.94
474.625	146.94
474.844	155.94
475.063	146.94
475.282	166.94
475.501	156.94
475.72	177.94
475.939	152.94
476.158	159.94
476.377	151.94
476.596	160.94
476.814	156.94
477.033	181.94
477.252	163.94
477.471	174.94
477.69	185.94
477.908	163.94
478.127	176.94
478.346	179.94
478.564	172.94
478.783	174.94
479.002	168.94
479.22	182.94
479.439	185.94
479.658	180.94
479.876	176.94
480.095	180.94
480.313	174.94
480.532	181.94
480.751	185.94
480.969	162.94
481.188	167.94
481.406	176.94
481.624	175.94
481.843	166.94
482.061	168.94
482.28	164.94
482.498	171.94
482.717	167.94
482.935	163.94
483.153	155.94
483.372	169.94
483.59	175.94
483.808	170.94
484.027	163.94
484.245	187.94
484.463	169.94
484.681	198.94
484.9	183.94
485.118	178.94
485.336	191.94
485.554	170.94
485.772	178.94
485.99	191.94
486.209	194.94
486.427	179.94
486.645	173.94
486.863	171.94
487.081	181.94
487.299	193.94
487.517	194.94
487.735	178.94
487.953	176.94
488.171	186.94
488.389	172.94
488.607	156.94
488.825	170.94
489.043	166.94
489.261	178.94
489.479	174.94
489.696	179.94
489.914	180.94
490.132	168.94
490.35	182.94
490.568	181.94
490.786	188.94
491.003	182.94
491.221	180.94
491.439	166.94
491.657	153.94
491.874	187.94
492.092	191.94
492.31	188.94
492.527	169.94
492.745	169.94
492.963	187.94
493.18	177.94
493.398	187.94
493.615	195.94
493.833	179.94
494.05	202.94
494.268	172.94
494.485	173.94
494.703	173.94
494.92	191.94
495.138	162.94
495.355	175.94
495.573	177.94
495.79	191.94
496.008	172.94
496.225	174.94
496.442	175.94
496.66	202.94
496.877	208.94
497.094	194.94
497.312	193.94
497.529	199.94
497.746	208.94
497.963	217.94
498.181	208.94
498.398	194.94
498.615	242.94
498.832	233.94
499.049	239.94
499.267	274.94
499.484	293.94
499.701	319.94
499.918	326.94
500.135	362.94
500.352	426.94
500.569	411.94
500.786	416.94
501.003	365.94
501.22	344.94
501.437	295.94
501.654	277.94
501.871	278.94
502.088	260.94
502.305	249.94
502.522	239.94
502.739	243.94
502.956	215.94
503.172	200.94
503.389	186.94
503.606	204.94
503.823	205.94
504.04	217.94
504.256	207.94
504.473	193.94
504.69	208.94
