Data from SampG_HRD10591_00093.txt Node
Date: Mon Jan 19 11:54:15 EST 2026
User: Yrep
Spectrometer: HR+D1059
Trigger mode: 0
Integration Time (sec): 3.443000E-1
Scans to average: 1
Electric dark correction enabled: true
Nonlinearity correction enabled: false
Boxcar width: 0
XAxis mode: Wavelengths
Number of Pixels in Spectrum: 2048
>>>>>Begin Spectral Data<<<<<
223.165	-26.75
223.4	-26.75
223.635	-26.75
223.869	-28.75
224.104	-24.75
224.338	-18.75
224.573	-7.75
224.808	-6.75
225.042	-1.75
225.277	7.25
225.511	-9.75
225.746	-1.75
225.98	20.25
226.215	17.25
226.449	23.25
226.683	19.25
226.918	18.25
227.152	21.25
227.387	40.25
227.621	35.25
227.856	49.25
228.09	52.25
228.324	59.25
228.559	63.25
228.793	71.25
229.027	62.25
229.262	90.25
229.496	70.25
229.73	72.25
229.964	93.25
230.199	91.25
230.433	81.25
230.667	93.25
230.901	66.25
231.136	73.25
231.37	102.25
231.604	88.25
231.838	77.25
232.072	78.25
232.306	73.25
232.541	85.25
232.775	104.25
233.009	87.25
233.243	88.25
233.477	82.25
233.711	94.25
233.945	75.25
234.179	87.25
234.413	87.25
234.647	74.25
234.881	85.25
235.115	85.25
235.349	98.25
235.583	100.25
235.817	88.25
236.051	87.25
236.285	84.25
236.519	71.25
236.753	74.25
236.987	82.25
237.221	91.25
237.455	83.25
237.689	87.25
237.922	86.25
238.156	74.25
238.39	76.25
238.624	73.25
238.858	76.25
239.091	70.25
239.325	71.25
239.559	78.25
239.793	77.25
240.027	84.25
240.26	97.25
240.494	83.25
240.728	76.25
240.961	70.25
241.195	90.25
241.429	83.25
241.662	79.25
241.896	66.25
242.13	74.25
242.363	78.25
242.597	72.25
242.83	76.25
243.064	84.25
243.298	78.25
243.531	72.25
243.765	78.25
243.998	92.25
244.232	89.25
244.465	78.25
244.699	73.25
244.932	91.25
245.166	81.25
245.399	94.25
245.633	90.25
245.866	86.25
246.099	71.25
246.333	92.25
246.566	76.25
246.8	71.25
247.033	84.25
247.266	74.25
247.5	75.25
247.733	84.25
247.966	91.25
248.2	95.25
248.433	95.25
248.666	73.25
248.899	66.25
249.133	77.25
249.366	93.25
249.599	83.25
249.832	91.25
250.066	89.25
250.299	97.25
250.532	92.25
250.765	85.25
250.998	73.25
251.231	93.25
251.465	85.25
251.698	73.25
251.931	72.25
252.164	82.25
252.397	73.25
252.63	81.25
252.863	84.25
253.096	87.25
253.329	99.25
253.562	105.25
253.795	97.25
254.028	97.25
254.261	93.25
254.494	76.25
254.727	84.25
254.96	77.25
255.193	91.25
255.426	87.25
255.659	91.25
255.892	87.25
256.124	89.25
256.357	83.25
256.59	86.25
256.823	83.25
257.056	80.25
257.289	83.25
257.521	89.25
257.754	93.25
257.987	82.25
258.22	88.25
258.452	84.25
258.685	77.25
258.918	83.25
259.151	79.25
259.383	87.25
259.616	94.25
259.849	90.25
260.081	87.25
260.314	88.25
260.547	80.25
260.779	95.25
261.012	91.25
261.244	88.25
261.477	113.25
261.71	90.25
261.942	90.25
262.175	82.25
262.407	92.25
262.64	91.25
262.872	66.25
263.105	86.25
263.337	83.25
263.57	105.25
263.802	102.25
264.035	93.25
264.267	87.25
264.499	96.25
264.732	94.25
264.964	90.25
265.197	79.25
265.429	103.25
265.661	85.25
265.894	102.25
266.126	101.25
266.358	114.25
266.591	92.25
266.823	86.25
267.055	74.25
267.287	94.25
267.52	87.25
267.752	94.25
267.984	89.25
268.216	85.25
268.448	95.25
268.681	109.25
268.913	106.25
269.145	99.25
269.377	94.25
269.609	93.25
269.841	98.25
270.073	94.25
270.306	78.25
270.538	86.25
270.77	94.25
271.002	86.25
271.234	93.25
271.466	102.25
271.698	84.25
271.93	97.25
272.162	100.25
272.394	98.25
272.626	94.25
272.858	89.25
273.09	86.25
273.322	98.25
273.553	102.25
273.785	94.25
274.017	101.25
274.249	99.25
274.481	89.25
274.713	95.25
274.945	104.25
275.176	91.25
275.408	89.25
275.64	113.25
275.872	99.25
276.104	94.25
276.335	102.25
276.567	87.25
276.799	91.25
277.031	100.25
277.262	93.25
277.494	99.25
277.726	89.25
277.957	95.25
278.189	99.25
278.421	102.25
278.652	98.25
278.884	102.25
279.115	86.25
279.347	86.25
279.579	84.25
279.81	111.25
280.042	101.25
280.273	79.25
280.505	112.25
280.736	103.25
280.968	98.25
281.199	95.25
281.431	102.25
281.662	104.25
281.894	102.25
282.125	99.25
282.356	98.25
282.588	84.25
282.819	97.25
283.051	93.25
283.282	90.25
283.513	111.25
283.745	112.25
283.976	94.25
284.207	93.25
284.439	105.25
284.67	100.25
284.901	92.25
285.132	104.25
285.364	94.25
285.595	98.25
285.826	98.25
286.057	103.25
286.288	86.25
286.52	103.25
286.751	94.25
286.982	96.25
287.213	90.25
287.444	103.25
287.675	107.25
287.906	101.25
288.138	121.25
288.369	115.25
288.6	92.25
288.831	104.25
289.062	104.25
289.293	93.25
289.524	92.25
289.755	107.25
289.986	99.25
290.217	100.25
290.448	105.25
290.679	86.25
290.91	111.25
291.141	101.25
291.371	105.25
291.602	90.25
291.833	115.25
292.064	88.25
292.295	106.25
292.526	97.25
292.757	107.25
292.987	106.25
293.218	96.25
293.449	92.25
293.68	111.25
293.91	99.25
294.141	94.25
294.372	105.25
294.603	94.25
294.833	103.25
295.064	98.25
295.295	98.25
295.525	100.25
295.756	106.25
295.987	109.25
296.217	97.25
296.448	101.25
296.679	111.25
296.909	116.25
297.14	123.25
297.37	138.25
297.601	95.25
297.831	105.25
298.062	107.25
298.292	116.25
298.523	113.25
298.753	115.25
298.984	98.25
299.214	99.25
299.445	99.25
299.675	106.25
299.905	82.25
300.136	100.25
300.366	118.25
300.597	99.25
300.827	104.25
301.057	101.25
301.288	118.25
301.518	117.25
301.748	109.25
301.979	114.25
302.209	105.25
302.439	105.25
302.669	114.25
302.9	113.25
303.13	110.25
303.36	99.25
303.59	100.25
303.82	112.25
304.051	95.25
304.281	115.25
304.511	102.25
304.741	101.25
304.971	110.25
305.201	116.25
305.431	105.25
305.661	107.25
305.891	114.25
306.121	107.25
306.352	109.25
306.582	110.25
306.812	98.25
307.042	101.25
307.272	111.25
307.502	106.25
307.731	109.25
307.961	106.25
308.191	93.25
308.421	98.25
308.651	93.25
308.881	104.25
309.111	93.25
309.341	103.25
309.571	105.25
309.8	101.25
310.03	98.25
310.26	122.25
310.49	115.25
310.72	91.25
310.949	79.25
311.179	103.25
311.409	112.25
311.639	99.25
311.868	111.25
312.098	115.25
312.328	102.25
312.557	116.25
312.787	101.25
313.017	117.25
313.246	107.25
313.476	101.25
313.706	105.25
313.935	99.25
314.165	111.25
314.394	106.25
314.624	103.25
314.853	103.25
315.083	105.25
315.312	102.25
315.542	113.25
315.771	103.25
316.001	98.25
316.23	107.25
316.46	91.25
316.689	93.25
316.919	106.25
317.148	87.25
317.377	108.25
317.607	122.25
317.836	118.25
318.065	93.25
318.295	123.25
318.524	113.25
318.753	97.25
318.983	119.25
319.212	112.25
319.441	110.25
319.67	107.25
319.9	95.25
320.129	106.25
320.358	106.25
320.587	102.25
320.816	89.25
321.046	110.25
321.275	110.25
321.504	95.25
321.733	113.25
321.962	109.25
322.191	108.25
322.42	100.25
322.649	100.25
322.878	120.25
323.108	123.25
323.337	103.25
323.566	99.25
323.795	94.25
324.024	113.25
324.253	97.25
324.482	103.25
324.71	114.25
324.939	108.25
325.168	108.25
325.397	105.25
325.626	99.25
325.855	115.25
326.084	116.25
326.313	113.25
326.542	114.25
326.77	101.25
326.999	109.25
327.228	110.25
327.457	110.25
327.686	114.25
327.914	105.25
328.143	121.25
328.372	108.25
328.6	114.25
328.829	107.25
329.058	106.25
329.287	105.25
329.515	95.25
329.744	110.25
329.972	107.25
330.201	116.25
330.43	91.25
330.658	106.25
330.887	114.25
331.115	97.25
331.344	125.25
331.572	115.25
331.801	104.25
332.03	108.25
332.258	108.25
332.486	94.25
332.715	111.25
332.943	105.25
333.172	128.25
333.4	115.25
333.629	114.25
333.857	134.25
334.085	120.25
334.314	126.25
334.542	106.25
334.771	113.25
334.999	123.25
335.227	110.25
335.455	117.25
335.684	132.25
335.912	126.25
336.14	111.25
336.369	115.25
336.597	108.25
336.825	106.25
337.053	103.25
337.281	116.25
337.51	119.25
337.738	111.25
337.966	107.25
338.194	101.25
338.422	110.25
338.65	98.25
338.878	124.25
339.106	114.25
339.334	111.25
339.562	113.25
339.79	121.25
340.018	92.25
340.246	110.25
340.474	103.25
340.702	99.25
340.93	109.25
341.158	114.25
341.386	122.25
341.614	111.25
341.842	116.25
342.07	96.25
342.298	121.25
342.526	109.25
342.754	92.25
342.981	105.25
343.209	115.25
343.437	152.25
343.665	105.25
343.893	123.25
344.12	131.25
344.348	105.25
344.576	102.25
344.804	116.25
345.031	103.25
345.259	106.25
345.487	109.25
345.714	121.25
345.942	120.25
346.17	114.25
346.397	112.25
346.625	112.25
346.853	110.25
347.08	99.25
347.308	118.25
347.535	109.25
347.763	100.25
347.99	113.25
348.218	125.25
348.445	98.25
348.673	108.25
348.9	119.25
349.128	109.25
349.355	108.25
349.583	110.25
349.81	103.25
350.037	103.25
350.265	95.25
350.492	107.25
350.72	108.25
350.947	112.25
351.174	126.25
351.402	105.25
351.629	112.25
351.856	108.25
352.083	106.25
352.311	103.25
352.538	94.25
352.765	122.25
352.992	109.25
353.22	102.25
353.447	101.25
353.674	99.25
353.901	121.25
354.128	126.25
354.355	107.25
354.583	110.25
354.81	107.25
355.037	109.25
355.264	113.25
355.491	120.25
355.718	106.25
355.945	109.25
356.172	99.25
356.399	107.25
356.626	106.25
356.853	98.25
357.08	110.25
357.307	105.25
357.534	113.25
357.761	114.25
357.988	120.25
358.215	116.25
358.441	106.25
358.668	113.25
358.895	110.25
359.122	99.25
359.349	104.25
359.576	107.25
359.802	100.25
360.029	108.25
360.256	111.25
360.483	116.25
360.709	88.25
360.936	120.25
361.163	130.25
361.39	109.25
361.616	101.25
361.843	104.25
362.07	111.25
362.296	111.25
362.523	111.25
362.749	107.25
362.976	123.25
363.203	115.25
363.429	101.25
363.656	108.25
363.882	104.25
364.109	103.25
364.335	114.25
364.562	114.25
364.788	108.25
365.015	115.25
365.241	104.25
365.468	106.25
365.694	111.25
365.92	109.25
366.147	98.25
366.373	96.25
366.599	108.25
366.826	107.25
367.052	111.25
367.278	101.25
367.505	111.25
367.731	116.25
367.957	109.25
368.184	100.25
368.41	108.25
368.636	111.25
368.862	113.25
369.089	108.25
369.315	118.25
369.541	110.25
369.767	116.25
369.993	115.25
370.219	107.25
370.445	106.25
370.672	110.25
370.898	92.25
371.124	117.25
371.35	105.25
371.576	109.25
371.802	106.25
372.028	105.25
372.254	91.25
372.48	112.25
372.706	110.25
372.932	133.25
373.158	115.25
373.384	122.25
373.61	125.25
373.835	117.25
374.061	114.25
374.287	132.25
374.513	113.25
374.739	127.25
374.965	108.25
375.191	117.25
375.416	104.25
375.642	120.25
375.868	105.25
376.094	112.25
376.319	103.25
376.545	106.25
376.771	110.25
376.997	113.25
377.222	127.25
377.448	110.25
377.674	108.25
377.899	95.25
378.125	117.25
378.35	120.25
378.576	102.25
378.802	102.25
379.027	108.25
379.253	113.25
379.478	112.25
379.704	105.25
379.929	101.25
380.155	111.25
380.38	104.25
380.606	108.25
380.831	103.25
381.057	119.25
381.282	102.25
381.507	111.25
381.733	108.25
381.958	97.25
382.184	99.25
382.409	109.25
382.634	115.25
382.86	118.25
383.085	125.25
383.31	121.25
383.535	115.25
383.761	106.25
383.986	129.25
384.211	113.25
384.436	102.25
384.662	111.25
384.887	116.25
385.112	120.25
385.337	109.25
385.562	113.25
385.787	109.25
386.013	109.25
386.238	114.25
386.463	110.25
386.688	134.25
386.913	109.25
387.138	100.25
387.363	105.25
387.588	111.25
387.813	115.25
388.038	120.25
388.263	119.25
388.488	110.25
388.713	115.25
388.938	103.25
389.163	104.25
389.387	126.25
389.612	132.25
389.837	106.25
390.062	117.25
390.287	102.25
390.512	130.25
390.736	94.25
390.961	113.25
391.186	123.25
391.411	122.25
391.636	116.25
391.86	126.25
392.085	124.25
392.31	118.25
392.534	107.25
392.759	121.25
392.984	115.25
393.208	119.25
393.433	113.25
393.658	123.25
393.882	119.25
394.107	109.25
394.331	133.25
394.556	113.25
394.78	131.25
395.005	114.25
395.229	123.25
395.454	124.25
395.678	127.25
395.903	115.25
396.127	126.25
396.352	126.25
396.576	107.25
396.801	118.25
397.025	113.25
397.249	117.25
397.474	126.25
397.698	124.25
397.922	127.25
398.147	128.25
398.371	119.25
398.595	137.25
398.82	123.25
399.044	139.25
399.268	129.25
399.492	153.25
399.717	162.25
399.941	148.25
400.165	145.25
400.389	125.25
400.613	127.25
400.837	108.25
401.062	124.25
401.286	137.25
401.51	127.25
401.734	131.25
401.958	134.25
402.182	127.25
402.406	126.25
402.63	135.25
402.854	125.25
403.078	135.25
403.302	128.25
403.526	128.25
403.75	140.25
403.974	131.25
404.198	136.25
404.422	148.25
404.645	140.25
404.869	125.25
405.093	132.25
405.317	123.25
405.541	131.25
405.765	124.25
405.988	116.25
406.212	129.25
406.436	129.25
406.66	141.25
406.883	136.25
407.107	147.25
407.331	153.25
407.555	149.25
407.778	123.25
408.002	128.25
408.226	124.25
408.449	130.25
408.673	141.25
408.896	121.25
409.12	128.25
409.344	137.25
409.567	127.25
409.791	139.25
410.014	141.25
410.238	124.25
410.461	128.25
410.685	132.25
410.908	125.25
411.132	136.25
411.355	124.25
411.578	129.25
411.802	135.25
412.025	126.25
412.249	121.25
412.472	129.25
412.695	134.25
412.919	119.25
413.142	133.25
413.365	117.25
413.589	111.25
413.812	141.25
414.035	141.25
414.258	131.25
414.482	114.25
414.705	117.25
414.928	130.25
415.151	131.25
415.374	136.25
415.597	123.25
415.821	126.25
416.044	133.25
416.267	130.25
416.49	122.25
416.713	146.25
416.936	129.25
417.159	132.25
417.382	110.25
417.605	118.25
417.828	139.25
418.051	127.25
418.274	137.25
418.497	124.25
418.72	131.25
418.943	140.25
419.166	140.25
419.389	138.25
419.611	126.25
419.834	125.25
420.057	137.25
420.28	115.25
420.503	125.25
420.726	123.25
420.948	125.25
421.171	127.25
421.394	126.25
421.617	126.25
421.839	129.25
422.062	117.25
422.285	109.25
422.507	130.25
422.73	126.25
422.953	117.25
423.175	126.25
423.398	132.25
423.621	131.25
423.843	130.25
424.066	143.25
424.288	111.25
424.511	111.25
424.733	115.25
424.956	126.25
425.178	130.25
425.401	127.25
425.623	116.25
425.846	114.25
426.068	103.25
426.291	124.25
426.513	109.25
426.735	137.25
426.958	113.25
427.18	111.25
427.402	121.25
427.625	108.25
427.847	126.25
428.069	123.25
428.292	122.25
428.514	113.25
428.736	101.25
428.958	118.25
429.181	104.25
429.403	122.25
429.625	115.25
429.847	115.25
430.069	130.25
430.292	136.25
430.514	111.25
430.736	117.25
430.958	127.25
431.18	133.25
431.402	125.25
431.624	116.25
431.846	124.25
432.068	131.25
432.29	124.25
432.512	135.25
432.734	116.25
432.956	136.25
433.178	118.25
433.4	114.25
433.622	136.25
433.844	134.25
434.066	116.25
434.287	129.25
434.509	122.25
434.731	117.25
434.953	119.25
435.175	123.25
435.397	118.25
435.618	130.25
435.84	115.25
436.062	125.25
436.284	125.25
436.505	131.25
436.727	134.25
436.949	119.25
437.17	119.25
437.392	122.25
437.614	125.25
437.835	118.25
438.057	103.25
438.278	124.25
438.5	102.25
438.721	137.25
438.943	112.25
439.165	109.25
439.386	126.25
439.608	134.25
439.829	121.25
440.05	119.25
440.272	129.25
440.493	126.25
440.715	125.25
440.936	128.25
441.158	114.25
441.379	135.25
441.6	138.25
441.822	131.25
442.043	129.25
442.264	122.25
442.486	111.25
442.707	125.25
442.928	141.25
443.149	137.25
443.371	114.25
443.592	124.25
443.813	140.25
444.034	130.25
444.255	146.25
444.476	135.25
444.698	139.25
444.919	140.25
445.14	326.25
445.361	230.25
445.582	134.25
445.803	115.25
446.024	116.25
446.245	131.25
446.466	126.25
446.687	110.25
446.908	119.25
447.129	117.25
447.35	119.25
447.571	123.25
447.792	117.25
448.013	117.25
448.234	105.25
448.455	111.25
448.675	115.25
448.896	122.25
449.117	118.25
449.338	119.25
449.559	113.25
449.779	114.25
450	103.25
450.221	115.25
450.442	102.25
450.662	119.25
450.883	125.25
451.104	118.25
451.324	132.25
451.545	105.25
451.766	126.25
451.986	109.25
452.207	125.25
452.428	108.25
452.648	125.25
452.869	126.25
453.089	119.25
453.31	97.25
453.53	115.25
453.751	111.25
453.971	114.25
454.192	112.25
454.412	125.25
454.633	116.25
454.853	102.25
455.073	115.25
455.294	114.25
455.514	112.25
455.734	117.25
455.955	113.25
456.175	109.25
456.395	110.25
456.616	109.25
456.836	106.25
457.056	108.25
457.276	100.25
457.497	110.25
457.717	100.25
457.937	111.25
458.157	119.25
458.377	114.25
458.598	121.25
458.818	119.25
459.038	111.25
459.258	127.25
459.478	119.25
459.698	125.25
459.918	127.25
460.138	129.25
460.358	127.25
460.578	134.25
460.798	130.25
461.018	140.25
461.238	139.25
461.458	133.25
461.678	125.25
461.898	115.25
462.118	145.25
462.338	121.25
462.558	127.25
462.777	130.25
462.997	141.25
463.217	149.25
463.437	147.25
463.657	145.25
463.876	136.25
464.096	126.25
464.316	119.25
464.536	135.25
464.755	137.25
464.975	129.25
465.195	107.25
465.414	121.25
465.634	125.25
465.854	118.25
466.073	124.25
466.293	116.25
466.512	110.25
466.732	110.25
466.951	128.25
467.171	125.25
467.391	131.25
467.61	117.25
467.829	101.25
468.049	116.25
468.268	111.25
468.488	111.25
468.707	109.25
468.927	112.25
469.146	122.25
469.365	139.25
469.585	116.25
469.804	106.25
470.023	106.25
470.243	130.25
470.462	114.25
470.681	132.25
470.901	107.25
471.12	110.25
471.339	123.25
471.558	109.25
471.777	107.25
471.997	131.25
472.216	115.25
472.435	128.25
472.654	109.25
472.873	109.25
473.092	114.25
473.311	120.25
473.53	121.25
473.749	110.25
473.968	129.25
474.187	111.25
474.406	113.25
474.625	126.25
474.844	115.25
475.063	118.25
475.282	137.25
475.501	113.25
475.72	108.25
475.939	106.25
476.158	119.25
476.377	119.25
476.596	134.25
476.814	123.25
477.033	131.25
477.252	116.25
477.471	124.25
477.69	124.25
477.908	129.25
478.127	133.25
478.346	117.25
478.564	106.25
478.783	122.25
479.002	119.25
479.22	122.25
479.439	127.25
479.658	103.25
479.876	120.25
480.095	121.25
480.313	124.25
480.532	136.25
480.751	124.25
480.969	116.25
481.188	135.25
481.406	133.25
481.624	110.25
481.843	131.25
482.061	112.25
482.28	116.25
482.498	121.25
482.717	114.25
482.935	137.25
483.153	137.25
483.372	128.25
483.59	110.25
483.808	111.25
484.027	116.25
484.245	130.25
484.463	125.25
484.681	143.25
484.9	126.25
485.118	120.25
485.336	121.25
485.554	139.25
485.772	119.25
485.99	131.25
486.209	129.25
486.427	118.25
486.645	132.25
486.863	129.25
487.081	136.25
487.299	142.25
487.517	134.25
487.735	122.25
487.953	134.25
488.171	130.25
488.389	126.25
488.607	125.25
488.825	114.25
489.043	117.25
489.261	126.25
489.479	132.25
489.696	116.25
489.914	119.25
490.132	136.25
490.35	123.25
490.568	133.25
490.786	121.25
491.003	135.25
491.221	122.25
491.439	123.25
491.657	113.25
491.874	129.25
492.092	120.25
492.31	133.25
492.527	134.25
492.745	135.25
492.963	151.25
493.18	121.25
493.398	117.25
493.615	120.25
493.833	123.25
494.05	114.25
494.268	113.25
494.485	119.25
494.703	115.25
494.92	111.25
495.138	127.25
495.355	122.25
495.573	123.25
495.79	114.25
496.008	134.25
496.225	121.25
496.442	127.25
496.66	129.25
496.877	123.25
497.094	137.25
497.312	125.25
497.529	131.25
497.746	141.25
497.963	138.25
498.181	142.25
498.398	151.25
498.615	163.25
498.832	147.25
499.049	155.25
499.267	168.25
499.484	172.25
499.701	183.25
499.918	191.25
500.135	221.25
500.352	247.25
500.569	239.25
500.786	227.25
501.003	228.25
501.22	201.25
501.437	187.25
501.654	172.25
501.871	165.25
502.088	149.25
502.305	149.25
502.522	159.25
502.739	162.25
502.956	152.25
503.172	126.25
503.389	131.25
503.606	146.25
503.823	141.25
504.04	153.25
504.256	159.25
504.473	141.25
504.69	150.25
504.907	150.25
505.123	152.25
505.34	135.25
505.557	121.25
505.773	132.25
505.99	123.25
506.207	127.25
506.423	102.25
506.64	119.25
