Data from SampG_HRD10591_00077.txt Node
Date: Mon Jan 19 11:54:09 EST 2026
User: Yrep
Spectrometer: HR+D1059
Trigger mode: 0
Integration Time (sec): 3.443000E-1
Scans to average: 1
Electric dark correction enabled: true
Nonlinearity correction enabled: false
Boxcar width: 0
XAxis mode: Wavelengths
Number of Pixels in Spectrum: 2048
>>>>>Begin Spectral Data<<<<<
223.165	-23.94
223.4	-23.94
223.635	-23.94
223.869	-33.94
224.104	-19.94
224.338	3.06
224.573	-6.94
224.808	-22.94
225.042	-13.94
225.277	-4.94
225.511	2.06
225.746	16.06
225.98	15.06
226.215	2.06
226.449	9.06
226.683	21.06
226.918	29.06
227.152	29.06
227.387	46.06
227.621	45.06
227.856	47.06
228.09	47.06
228.324	55.06
228.559	54.06
228.793	51.06
229.027	58.06
229.262	69.06
229.496	55.06
229.73	85.06
229.964	65.06
230.199	67.06
230.433	75.06
230.667	75.06
230.901	73.06
231.136	72.06
231.37	88.06
231.604	95.06
231.838	80.06
232.072	88.06
232.306	83.06
232.541	71.06
232.775	69.06
233.009	99.06
233.243	77.06
233.477	80.06
233.711	81.06
233.945	79.06
234.179	93.06
234.413	76.06
234.647	82.06
234.881	87.06
235.115	91.06
235.349	79.06
235.583	69.06
235.817	71.06
236.051	78.06
236.285	71.06
236.519	76.06
236.753	88.06
236.987	92.06
237.221	71.06
237.455	75.06
237.689	81.06
237.922	82.06
238.156	76.06
238.39	71.06
238.624	86.06
238.858	81.06
239.091	87.06
239.325	83.06
239.559	77.06
239.793	83.06
240.027	95.06
240.26	89.06
240.494	91.06
240.728	81.06
240.961	71.06
241.195	90.06
241.429	89.06
241.662	66.06
241.896	74.06
242.13	72.06
242.363	87.06
242.597	84.06
242.83	83.06
243.064	76.06
243.298	90.06
243.531	74.06
243.765	82.06
243.998	82.06
244.232	91.06
244.465	80.06
244.699	95.06
244.932	104.06
245.166	81.06
245.399	60.06
245.633	94.06
245.866	80.06
246.099	89.06
246.333	81.06
246.566	91.06
246.8	84.06
247.033	86.06
247.266	83.06
247.5	76.06
247.733	91.06
247.966	88.06
248.2	81.06
248.433	86.06
248.666	73.06
248.899	93.06
249.133	102.06
249.366	115.06
249.599	91.06
249.832	77.06
250.066	88.06
250.299	92.06
250.532	91.06
250.765	86.06
250.998	83.06
251.231	98.06
251.465	86.06
251.698	96.06
251.931	105.06
252.164	98.06
252.397	95.06
252.63	101.06
252.863	89.06
253.096	95.06
253.329	98.06
253.562	82.06
253.795	91.06
254.028	98.06
254.261	87.06
254.494	91.06
254.727	97.06
254.96	86.06
255.193	80.06
255.426	92.06
255.659	89.06
255.892	103.06
256.124	89.06
256.357	110.06
256.59	97.06
256.823	97.06
257.056	116.06
257.289	95.06
257.521	98.06
257.754	96.06
257.987	76.06
258.22	96.06
258.452	95.06
258.685	87.06
258.918	97.06
259.151	93.06
259.383	97.06
259.616	91.06
259.849	90.06
260.081	82.06
260.314	90.06
260.547	80.06
260.779	92.06
261.012	103.06
261.244	101.06
261.477	93.06
261.71	88.06
261.942	106.06
262.175	98.06
262.407	107.06
262.64	95.06
262.872	101.06
263.105	101.06
263.337	100.06
263.57	102.06
263.802	105.06
264.035	97.06
264.267	96.06
264.499	100.06
264.732	83.06
264.964	95.06
265.197	88.06
265.429	104.06
265.661	91.06
265.894	102.06
266.126	106.06
266.358	94.06
266.591	95.06
266.823	88.06
267.055	91.06
267.287	117.06
267.52	103.06
267.752	105.06
267.984	107.06
268.216	98.06
268.448	89.06
268.681	108.06
268.913	96.06
269.145	101.06
269.377	106.06
269.609	107.06
269.841	100.06
270.073	100.06
270.306	88.06
270.538	119.06
270.77	104.06
271.002	106.06
271.234	103.06
271.466	114.06
271.698	99.06
271.93	110.06
272.162	112.06
272.394	113.06
272.626	103.06
272.858	96.06
273.09	108.06
273.322	102.06
273.553	106.06
273.785	108.06
274.017	99.06
274.249	97.06
274.481	102.06
274.713	99.06
274.945	104.06
275.176	98.06
275.408	116.06
275.64	115.06
275.872	111.06
276.104	108.06
276.335	100.06
276.567	113.06
276.799	107.06
277.031	108.06
277.262	98.06
277.494	114.06
277.726	123.06
277.957	108.06
278.189	108.06
278.421	101.06
278.652	101.06
278.884	115.06
279.115	104.06
279.347	92.06
279.579	108.06
279.81	108.06
280.042	122.06
280.273	114.06
280.505	118.06
280.736	109.06
280.968	109.06
281.199	117.06
281.431	105.06
281.662	116.06
281.894	122.06
282.125	106.06
282.356	115.06
282.588	108.06
282.819	117.06
283.051	111.06
283.282	115.06
283.513	132.06
283.745	134.06
283.976	128.06
284.207	114.06
284.439	112.06
284.67	123.06
284.901	113.06
285.132	124.06
285.364	123.06
285.595	113.06
285.826	114.06
286.057	125.06
286.288	112.06
286.52	113.06
286.751	109.06
286.982	108.06
287.213	115.06
287.444	109.06
287.675	120.06
287.906	116.06
288.138	119.06
288.369	131.06
288.6	108.06
288.831	112.06
289.062	129.06
289.293	108.06
289.524	95.06
289.755	94.06
289.986	119.06
290.217	123.06
290.448	114.06
290.679	116.06
290.91	119.06
291.141	121.06
291.371	118.06
291.602	126.06
291.833	127.06
292.064	120.06
292.295	121.06
292.526	118.06
292.757	126.06
292.987	109.06
293.218	122.06
293.449	128.06
293.68	113.06
293.91	125.06
294.141	133.06
294.372	117.06
294.603	127.06
294.833	121.06
295.064	112.06
295.295	114.06
295.525	136.06
295.756	118.06
295.987	119.06
296.217	116.06
296.448	102.06
296.679	107.06
296.909	115.06
297.14	108.06
297.37	129.06
297.601	135.06
297.831	115.06
298.062	135.06
298.292	124.06
298.523	145.06
298.753	135.06
298.984	125.06
299.214	129.06
299.445	134.06
299.675	128.06
299.905	129.06
300.136	117.06
300.366	129.06
300.597	126.06
300.827	125.06
301.057	119.06
301.288	128.06
301.518	129.06
301.748	119.06
301.979	165.06
302.209	123.06
302.439	127.06
302.669	125.06
302.9	127.06
303.13	121.06
303.36	111.06
303.59	115.06
303.82	121.06
304.051	131.06
304.281	124.06
304.511	141.06
304.741	105.06
304.971	127.06
305.201	131.06
305.431	124.06
305.661	128.06
305.891	125.06
306.121	119.06
306.352	125.06
306.582	121.06
306.812	124.06
307.042	141.06
307.272	112.06
307.502	129.06
307.731	133.06
307.961	125.06
308.191	124.06
308.421	121.06
308.651	132.06
308.881	117.06
309.111	124.06
309.341	123.06
309.571	116.06
309.8	140.06
310.03	127.06
310.26	129.06
310.49	138.06
310.72	120.06
310.949	126.06
311.179	126.06
311.409	109.06
311.639	135.06
311.868	117.06
312.098	119.06
312.328	127.06
312.557	144.06
312.787	126.06
313.017	123.06
313.246	129.06
313.476	126.06
313.706	119.06
313.935	144.06
314.165	126.06
314.394	135.06
314.624	147.06
314.853	132.06
315.083	133.06
315.312	131.06
315.542	124.06
315.771	134.06
316.001	128.06
316.23	131.06
316.46	130.06
316.689	120.06
316.919	137.06
317.148	135.06
317.377	128.06
317.607	143.06
317.836	119.06
318.065	131.06
318.295	134.06
318.524	132.06
318.753	124.06
318.983	115.06
319.212	131.06
319.441	143.06
319.67	139.06
319.9	127.06
320.129	136.06
320.358	130.06
320.587	132.06
320.816	132.06
321.046	133.06
321.275	124.06
321.504	123.06
321.733	136.06
321.962	132.06
322.191	136.06
322.42	120.06
322.649	133.06
322.878	117.06
323.108	128.06
323.337	136.06
323.566	124.06
323.795	124.06
324.024	130.06
324.253	131.06
324.482	128.06
324.71	135.06
324.939	132.06
325.168	149.06
325.397	128.06
325.626	130.06
325.855	141.06
326.084	135.06
326.313	135.06
326.542	137.06
326.77	126.06
326.999	133.06
327.228	129.06
327.457	136.06
327.686	145.06
327.914	144.06
328.143	143.06
328.372	134.06
328.6	136.06
328.829	134.06
329.058	121.06
329.287	135.06
329.515	123.06
329.744	147.06
329.972	128.06
330.201	153.06
330.43	148.06
330.658	130.06
330.887	124.06
331.115	140.06
331.344	131.06
331.572	142.06
331.801	137.06
332.03	155.06
332.258	152.06
332.486	136.06
332.715	147.06
332.943	155.06
333.172	161.06
333.4	155.06
333.629	158.06
333.857	150.06
334.085	171.06
334.314	166.06
334.542	138.06
334.771	157.06
334.999	172.06
335.227	146.06
335.455	149.06
335.684	166.06
335.912	154.06
336.14	149.06
336.369	160.06
336.597	159.06
336.825	159.06
337.053	148.06
337.281	131.06
337.51	144.06
337.738	146.06
337.966	145.06
338.194	143.06
338.422	145.06
338.65	141.06
338.878	132.06
339.106	143.06
339.334	148.06
339.562	134.06
339.79	131.06
340.018	141.06
340.246	138.06
340.474	144.06
340.702	136.06
340.93	144.06
341.158	137.06
341.386	152.06
341.614	137.06
341.842	132.06
342.07	135.06
342.298	135.06
342.526	118.06
342.754	133.06
342.981	149.06
343.209	139.06
343.437	177.06
343.665	162.06
343.893	163.06
344.12	158.06
344.348	159.06
344.576	140.06
344.804	132.06
345.031	135.06
345.259	138.06
345.487	129.06
345.714	125.06
345.942	121.06
346.17	125.06
346.397	143.06
346.625	125.06
346.853	122.06
347.08	125.06
347.308	147.06
347.535	122.06
347.763	135.06
347.99	139.06
348.218	143.06
348.445	137.06
348.673	128.06
348.9	157.06
349.128	135.06
349.355	155.06
349.583	128.06
349.81	133.06
350.037	132.06
350.265	122.06
350.492	127.06
350.72	132.06
350.947	131.06
351.174	134.06
351.402	121.06
351.629	123.06
351.856	121.06
352.083	139.06
352.311	128.06
352.538	130.06
352.765	137.06
352.992	148.06
353.22	130.06
353.447	115.06
353.674	138.06
353.901	136.06
354.128	131.06
354.355	127.06
354.583	128.06
354.81	134.06
355.037	143.06
355.264	150.06
355.491	149.06
355.718	130.06
355.945	135.06
356.172	133.06
356.399	135.06
356.626	148.06
356.853	134.06
357.08	139.06
357.307	131.06
357.534	132.06
357.761	134.06
357.988	141.06
358.215	133.06
358.441	127.06
358.668	127.06
358.895	134.06
359.122	128.06
359.349	138.06
359.576	135.06
359.802	135.06
360.029	137.06
360.256	136.06
360.483	123.06
360.709	142.06
360.936	153.06
361.163	130.06
361.39	140.06
361.616	153.06
361.843	143.06
362.07	129.06
362.296	140.06
362.523	126.06
362.749	131.06
362.976	130.06
363.203	146.06
363.429	120.06
363.656	127.06
363.882	130.06
364.109	149.06
364.335	145.06
364.562	134.06
364.788	132.06
365.015	153.06
365.241	127.06
365.468	138.06
365.694	128.06
365.92	135.06
366.147	130.06
366.373	145.06
366.599	133.06
366.826	124.06
367.052	143.06
367.278	152.06
367.505	135.06
367.731	160.06
367.957	136.06
368.184	128.06
368.41	157.06
368.636	135.06
368.862	140.06
369.089	120.06
369.315	131.06
369.541	132.06
369.767	142.06
369.993	140.06
370.219	129.06
370.445	137.06
370.672	136.06
370.898	120.06
371.124	147.06
371.35	141.06
371.576	131.06
371.802	122.06
372.028	123.06
372.254	144.06
372.48	163.06
372.706	144.06
372.932	139.06
373.158	161.06
373.384	160.06
373.61	150.06
373.835	144.06
374.061	135.06
374.287	136.06
374.513	161.06
374.739	143.06
374.965	154.06
375.191	160.06
375.416	144.06
375.642	132.06
375.868	147.06
376.094	143.06
376.319	128.06
376.545	139.06
376.771	128.06
376.997	127.06
377.222	136.06
377.448	148.06
377.674	147.06
377.899	132.06
378.125	127.06
378.35	137.06
378.576	136.06
378.802	117.06
379.027	131.06
379.253	143.06
379.478	148.06
379.704	126.06
379.929	141.06
380.155	146.06
380.38	118.06
380.606	125.06
380.831	145.06
381.057	146.06
381.282	155.06
381.507	137.06
381.733	134.06
381.958	134.06
382.184	152.06
382.409	136.06
382.634	152.06
382.86	159.06
383.085	154.06
383.31	144.06
383.535	139.06
383.761	155.06
383.986	143.06
384.211	149.06
384.436	145.06
384.662	166.06
384.887	163.06
385.112	139.06
385.337	171.06
385.562	167.06
385.787	151.06
386.013	169.06
386.238	143.06
386.463	157.06
386.688	177.06
386.913	159.06
387.138	163.06
387.363	131.06
387.588	136.06
387.813	162.06
388.038	163.06
388.263	161.06
388.488	162.06
388.713	164.06
388.938	149.06
389.163	161.06
389.387	150.06
389.612	153.06
389.837	144.06
390.062	156.06
390.287	149.06
390.512	162.06
390.736	148.06
390.961	167.06
391.186	165.06
391.411	174.06
391.636	173.06
391.86	167.06
392.085	155.06
392.31	154.06
392.534	156.06
392.759	152.06
392.984	158.06
393.208	172.06
393.433	164.06
393.658	171.06
393.882	167.06
394.107	157.06
394.331	167.06
394.556	153.06
394.78	166.06
395.005	163.06
395.229	150.06
395.454	180.06
395.678	161.06
395.903	173.06
396.127	176.06
396.352	161.06
396.576	151.06
396.801	165.06
397.025	161.06
397.249	167.06
397.474	191.06
397.698	165.06
397.922	183.06
398.147	179.06
398.371	177.06
398.595	175.06
398.82	174.06
399.044	173.06
399.268	199.06
399.492	216.06
399.717	240.06
399.941	232.06
400.165	198.06
400.389	188.06
400.613	171.06
400.837	196.06
401.062	192.06
401.286	186.06
401.51	159.06
401.734	188.06
401.958	187.06
402.182	173.06
402.406	173.06
402.63	190.06
402.854	185.06
403.078	185.06
403.302	195.06
403.526	195.06
403.75	197.06
403.974	186.06
404.198	192.06
404.422	207.06
404.645	189.06
404.869	191.06
405.093	184.06
405.317	191.06
405.541	203.06
405.765	193.06
405.988	191.06
406.212	190.06
406.436	184.06
406.66	200.06
406.883	204.06
407.107	208.06
407.331	221.06
407.555	217.06
407.778	209.06
408.002	200.06
408.226	194.06
408.449	189.06
408.673	193.06
408.896	175.06
409.12	202.06
409.344	197.06
409.567	204.06
409.791	181.06
410.014	200.06
410.238	178.06
410.461	193.06
410.685	182.06
410.908	175.06
411.132	211.06
411.355	178.06
411.578	187.06
411.802	185.06
412.025	178.06
412.249	171.06
412.472	176.06
412.695	176.06
412.919	172.06
413.142	187.06
413.365	173.06
413.589	189.06
413.812	171.06
414.035	184.06
414.258	167.06
414.482	196.06
414.705	181.06
414.928	172.06
415.151	186.06
415.374	175.06
415.597	185.06
415.821	166.06
416.044	172.06
416.267	167.06
416.49	177.06
416.713	179.06
416.936	200.06
417.159	177.06
417.382	184.06
417.605	169.06
417.828	174.06
418.051	159.06
418.274	173.06
418.497	175.06
418.72	172.06
418.943	192.06
419.166	188.06
419.389	194.06
419.611	169.06
419.834	201.06
420.057	184.06
420.28	183.06
420.503	182.06
420.726	163.06
420.948	168.06
421.171	171.06
421.394	175.06
421.617	191.06
421.839	178.06
422.062	175.06
422.285	177.06
422.507	171.06
422.73	187.06
422.953	177.06
423.175	187.06
423.398	192.06
423.621	188.06
423.843	181.06
424.066	197.06
424.288	185.06
424.511	181.06
424.733	173.06
424.956	172.06
425.178	177.06
425.401	185.06
425.623	173.06
425.846	172.06
426.068	167.06
426.291	157.06
426.513	157.06
426.735	171.06
426.958	171.06
427.18	165.06
427.402	173.06
427.625	174.06
427.847	170.06
428.069	167.06
428.292	158.06
428.514	162.06
428.736	156.06
428.958	169.06
429.181	161.06
429.403	168.06
429.625	163.06
429.847	156.06
430.069	178.06
430.292	175.06
430.514	162.06
430.736	171.06
430.958	170.06
431.18	160.06
431.402	168.06
431.624	163.06
431.846	172.06
432.068	169.06
432.29	176.06
432.512	177.06
432.734	168.06
432.956	167.06
433.178	170.06
433.4	166.06
433.622	168.06
433.844	170.06
434.066	165.06
434.287	158.06
434.509	160.06
434.731	165.06
434.953	180.06
435.175	166.06
435.397	168.06
435.618	167.06
435.84	158.06
436.062	170.06
436.284	163.06
436.505	158.06
436.727	172.06
436.949	157.06
437.17	170.06
437.392	154.06
437.614	141.06
437.835	141.06
438.057	153.06
438.278	161.06
438.5	137.06
438.721	157.06
438.943	161.06
439.165	169.06
439.386	152.06
439.608	177.06
439.829	154.06
440.05	179.06
440.272	144.06
440.493	165.06
440.715	159.06
440.936	179.06
441.158	184.06
441.379	177.06
441.6	179.06
441.822	174.06
442.043	178.06
442.264	185.06
442.486	175.06
442.707	176.06
442.928	180.06
443.149	166.06
443.371	192.06
443.592	169.06
443.813	171.06
444.034	182.06
444.255	178.06
444.476	180.06
444.698	194.06
444.919	179.06
445.14	396.06
445.361	281.06
445.582	177.06
445.803	171.06
446.024	182.06
446.245	175.06
446.466	184.06
446.687	169.06
446.908	170.06
447.129	176.06
447.35	149.06
447.571	163.06
447.792	139.06
448.013	150.06
448.234	163.06
448.455	162.06
448.675	164.06
448.896	155.06
449.117	147.06
449.338	143.06
449.559	169.06
449.779	139.06
450	170.06
450.221	150.06
450.442	161.06
450.662	163.06
450.883	161.06
451.104	150.06
451.324	137.06
451.545	159.06
451.766	150.06
451.986	152.06
452.207	147.06
452.428	161.06
452.648	168.06
452.869	177.06
453.089	159.06
453.31	150.06
453.53	161.06
453.751	149.06
453.971	164.06
454.192	147.06
454.412	155.06
454.633	160.06
454.853	157.06
455.073	151.06
455.294	140.06
455.514	147.06
455.734	161.06
455.955	156.06
456.175	151.06
456.395	137.06
456.616	146.06
456.836	145.06
457.056	141.06
457.276	165.06
457.497	143.06
457.717	140.06
457.937	155.06
458.157	143.06
458.377	143.06
458.598	141.06
458.818	152.06
459.038	168.06
459.258	168.06
459.478	161.06
459.698	166.06
459.918	178.06
460.138	173.06
460.358	177.06
460.578	199.06
460.798	186.06
461.018	171.06
461.238	181.06
461.458	193.06
461.678	198.06
461.898	194.06
462.118	193.06
462.338	180.06
462.558	184.06
462.777	211.06
462.997	220.06
463.217	218.06
463.437	218.06
463.657	205.06
463.876	199.06
464.096	195.06
464.316	202.06
464.536	202.06
464.755	183.06
464.975	200.06
465.195	190.06
465.414	171.06
465.634	182.06
465.854	172.06
466.073	153.06
466.293	177.06
466.512	161.06
466.732	162.06
466.951	164.06
467.171	176.06
467.391	171.06
467.61	161.06
467.829	152.06
468.049	131.06
468.268	139.06
468.488	147.06
468.707	153.06
468.927	152.06
469.146	159.06
469.365	164.06
469.585	156.06
469.804	171.06
470.023	169.06
470.243	164.06
470.462	164.06
470.681	177.06
470.901	172.06
471.12	172.06
471.339	168.06
471.558	148.06
471.777	162.06
471.997	157.06
472.216	167.06
472.435	166.06
472.654	149.06
472.873	154.06
473.092	148.06
473.311	148.06
473.53	165.06
473.749	149.06
473.968	173.06
474.187	149.06
474.406	154.06
474.625	137.06
474.844	151.06
475.063	153.06
475.282	143.06
475.501	144.06
475.72	170.06
475.939	160.06
476.158	161.06
476.377	177.06
476.596	160.06
476.814	159.06
477.033	160.06
477.252	172.06
477.471	173.06
477.69	149.06
477.908	189.06
478.127	183.06
478.346	174.06
478.564	181.06
478.783	169.06
479.002	186.06
479.22	183.06
479.439	184.06
479.658	164.06
479.876	167.06
480.095	174.06
480.313	196.06
480.532	189.06
480.751	180.06
480.969	181.06
481.188	163.06
481.406	163.06
481.624	167.06
481.843	171.06
482.061	163.06
482.28	181.06
482.498	168.06
482.717	157.06
482.935	177.06
483.153	173.06
483.372	168.06
483.59	172.06
483.808	162.06
484.027	168.06
484.245	174.06
484.463	167.06
484.681	181.06
484.9	163.06
485.118	172.06
485.336	172.06
485.554	172.06
485.772	179.06
485.99	177.06
486.209	186.06
486.427	163.06
486.645	196.06
486.863	179.06
487.081	169.06
487.299	192.06
487.517	165.06
487.735	188.06
487.953	182.06
488.171	178.06
488.389	178.06
488.607	177.06
488.825	159.06
489.043	162.06
489.261	174.06
489.479	173.06
489.696	179.06
489.914	179.06
490.132	179.06
490.35	161.06
490.568	167.06
490.786	182.06
491.003	164.06
491.221	172.06
491.439	177.06
491.657	163.06
491.874	172.06
492.092	179.06
492.31	171.06
492.527	169.06
492.745	169.06
492.963	183.06
493.18	172.06
493.398	173.06
493.615	183.06
493.833	180.06
494.05	168.06
494.268	173.06
494.485	188.06
494.703	171.06
494.92	175.06
495.138	186.06
495.355	177.06
495.573	182.06
495.79	169.06
496.008	179.06
496.225	191.06
496.442	193.06
496.66	203.06
496.877	183.06
497.094	180.06
497.312	187.06
497.529	203.06
497.746	203.06
497.963	200.06
498.181	208.06
498.398	203.06
498.615	225.06
498.832	247.06
499.049	260.06
499.267	262.06
499.484	276.06
499.701	303.06
499.918	343.06
500.135	376.06
500.352	433.06
500.569	416.06
500.786	400.06
501.003	367.06
501.22	322.06
501.437	311.06
501.654	272.06
501.871	252.06
502.088	253.06
502.305	237.06
502.522	246.06
502.739	244.06
502.956	208.06
503.172	231.06
503.389	198.06
503.606	204.06
503.823	194.06
504.04	204.06
504.256	201.06
504.473	208.06
504.69	201.06
504.907	218.06
