Data from SampG_HRD10591_00097.txt Node
Date: Mon Jan 19 11:54:16 EST 2026
User: Yrep
Spectrometer: HR+D1059
Trigger mode: 0
Integration Time (sec): 3.443000E-1
Scans to average: 1
Electric dark correction enabled: true
Nonlinearity correction enabled: false
Boxcar width: 0
XAxis mode: Wavelengths
Number of Pixels in Spectrum: 2048
>>>>>Begin Spectral Data<<<<<
223.165	-13.25
223.4	-13.25
223.635	-13.25
223.869	-23.25
224.104	-24.25
224.338	-1.25
224.573	-18.25
224.808	-20.25
225.042	-2.25
225.277	1.75
225.511	0.75
225.746	-0.25
225.98	14.75
226.215	6.75
226.449	17.75
226.683	17.75
226.918	23.75
227.152	19.75
227.387	26.75
227.621	26.75
227.856	56.75
228.09	37.75
228.324	38.75
228.559	56.75
228.793	41.75
229.027	68.75
229.262	69.75
229.496	76.75
229.73	72.75
229.964	71.75
230.199	69.75
230.433	68.75
230.667	88.75
230.901	90.75
231.136	77.75
231.37	90.75
231.604	79.75
231.838	86.75
232.072	90.75
232.306	76.75
232.541	89.75
232.775	93.75
233.009	83.75
233.243	85.75
233.477	80.75
233.711	71.75
233.945	87.75
234.179	79.75
234.413	92.75
234.647	88.75
234.881	87.75
235.115	92.75
235.349	82.75
235.583	97.75
235.817	77.75
236.051	99.75
236.285	79.75
236.519	68.75
236.753	89.75
236.987	79.75
237.221	77.75
237.455	83.75
237.689	79.75
237.922	86.75
238.156	90.75
238.39	83.75
238.624	85.75
238.858	81.75
239.091	83.75
239.325	86.75
239.559	77.75
239.793	76.75
240.027	85.75
240.26	91.75
240.494	85.75
240.728	83.75
240.961	63.75
241.195	89.75
241.429	88.75
241.662	92.75
241.896	92.75
242.13	86.75
242.363	81.75
242.597	83.75
242.83	92.75
243.064	76.75
243.298	81.75
243.531	81.75
243.765	81.75
243.998	91.75
244.232	88.75
244.465	88.75
244.699	78.75
244.932	88.75
245.166	94.75
245.399	80.75
245.633	81.75
245.866	73.75
246.099	81.75
246.333	83.75
246.566	79.75
246.8	69.75
247.033	74.75
247.266	70.75
247.5	81.75
247.733	86.75
247.966	81.75
248.2	76.75
248.433	89.75
248.666	93.75
248.899	91.75
249.133	91.75
249.366	90.75
249.599	97.75
249.832	75.75
250.066	95.75
250.299	92.75
250.532	96.75
250.765	85.75
250.998	86.75
251.231	88.75
251.465	96.75
251.698	84.75
251.931	82.75
252.164	86.75
252.397	86.75
252.63	89.75
252.863	107.75
253.096	90.75
253.329	97.75
253.562	92.75
253.795	98.75
254.028	93.75
254.261	102.75
254.494	99.75
254.727	104.75
254.96	88.75
255.193	90.75
255.426	76.75
255.659	102.75
255.892	106.75
256.124	96.75
256.357	90.75
256.59	105.75
256.823	92.75
257.056	84.75
257.289	95.75
257.521	98.75
257.754	95.75
257.987	91.75
258.22	97.75
258.452	92.75
258.685	100.75
258.918	115.75
259.151	94.75
259.383	91.75
259.616	97.75
259.849	109.75
260.081	103.75
260.314	95.75
260.547	88.75
260.779	108.75
261.012	105.75
261.244	99.75
261.477	108.75
261.71	100.75
261.942	100.75
262.175	100.75
262.407	94.75
262.64	103.75
262.872	108.75
263.105	100.75
263.337	90.75
263.57	104.75
263.802	88.75
264.035	93.75
264.267	97.75
264.499	111.75
264.732	108.75
264.964	99.75
265.197	90.75
265.429	91.75
265.661	98.75
265.894	107.75
266.126	107.75
266.358	87.75
266.591	105.75
266.823	97.75
267.055	104.75
267.287	94.75
267.52	107.75
267.752	115.75
267.984	91.75
268.216	97.75
268.448	114.75
268.681	101.75
268.913	103.75
269.145	112.75
269.377	97.75
269.609	102.75
269.841	114.75
270.073	109.75
270.306	103.75
270.538	108.75
270.77	122.75
271.002	112.75
271.234	105.75
271.466	107.75
271.698	96.75
271.93	109.75
272.162	96.75
272.394	97.75
272.626	89.75
272.858	110.75
273.09	119.75
273.322	114.75
273.553	103.75
273.785	98.75
274.017	103.75
274.249	116.75
274.481	114.75
274.713	104.75
274.945	91.75
275.176	98.75
275.408	113.75
275.64	109.75
275.872	114.75
276.104	99.75
276.335	111.75
276.567	108.75
276.799	105.75
277.031	115.75
277.262	87.75
277.494	109.75
277.726	107.75
277.957	106.75
278.189	108.75
278.421	109.75
278.652	121.75
278.884	106.75
279.115	105.75
279.347	101.75
279.579	105.75
279.81	97.75
280.042	102.75
280.273	94.75
280.505	112.75
280.736	97.75
280.968	109.75
281.199	108.75
281.431	123.75
281.662	102.75
281.894	104.75
282.125	120.75
282.356	104.75
282.588	108.75
282.819	110.75
283.051	117.75
283.282	100.75
283.513	112.75
283.745	103.75
283.976	108.75
284.207	105.75
284.439	125.75
284.67	122.75
284.901	109.75
285.132	127.75
285.364	123.75
285.595	116.75
285.826	110.75
286.057	114.75
286.288	111.75
286.52	120.75
286.751	107.75
286.982	105.75
287.213	117.75
287.444	123.75
287.675	115.75
287.906	114.75
288.138	100.75
288.369	109.75
288.6	119.75
288.831	124.75
289.062	125.75
289.293	115.75
289.524	102.75
289.755	120.75
289.986	109.75
290.217	114.75
290.448	114.75
290.679	110.75
290.91	118.75
291.141	107.75
291.371	133.75
291.602	122.75
291.833	127.75
292.064	123.75
292.295	116.75
292.526	109.75
292.757	112.75
292.987	115.75
293.218	113.75
293.449	115.75
293.68	112.75
293.91	105.75
294.141	121.75
294.372	124.75
294.603	112.75
294.833	119.75
295.064	129.75
295.295	123.75
295.525	129.75
295.756	129.75
295.987	118.75
296.217	117.75
296.448	119.75
296.679	115.75
296.909	116.75
297.14	130.75
297.37	133.75
297.601	104.75
297.831	125.75
298.062	119.75
298.292	119.75
298.523	124.75
298.753	98.75
298.984	133.75
299.214	134.75
299.445	115.75
299.675	124.75
299.905	109.75
300.136	110.75
300.366	116.75
300.597	132.75
300.827	123.75
301.057	128.75
301.288	122.75
301.518	137.75
301.748	128.75
301.979	149.75
302.209	127.75
302.439	132.75
302.669	119.75
302.9	130.75
303.13	120.75
303.36	124.75
303.59	124.75
303.82	127.75
304.051	125.75
304.281	116.75
304.511	144.75
304.741	112.75
304.971	113.75
305.201	122.75
305.431	118.75
305.661	134.75
305.891	123.75
306.121	130.75
306.352	130.75
306.582	115.75
306.812	119.75
307.042	125.75
307.272	106.75
307.502	124.75
307.731	117.75
307.961	132.75
308.191	129.75
308.421	117.75
308.651	119.75
308.881	127.75
309.111	122.75
309.341	125.75
309.571	131.75
309.8	123.75
310.03	119.75
310.26	129.75
310.49	137.75
310.72	111.75
310.949	117.75
311.179	136.75
311.409	120.75
311.639	133.75
311.868	124.75
312.098	130.75
312.328	143.75
312.557	124.75
312.787	127.75
313.017	133.75
313.246	116.75
313.476	125.75
313.706	130.75
313.935	124.75
314.165	127.75
314.394	117.75
314.624	130.75
314.853	125.75
315.083	121.75
315.312	133.75
315.542	116.75
315.771	127.75
316.001	141.75
316.23	145.75
316.46	135.75
316.689	117.75
316.919	121.75
317.148	121.75
317.377	137.75
317.607	127.75
317.836	114.75
318.065	137.75
318.295	121.75
318.524	118.75
318.753	125.75
318.983	119.75
319.212	130.75
319.441	132.75
319.67	118.75
319.9	126.75
320.129	137.75
320.358	145.75
320.587	123.75
320.816	114.75
321.046	117.75
321.275	146.75
321.504	127.75
321.733	122.75
321.962	137.75
322.191	124.75
322.42	127.75
322.649	124.75
322.878	131.75
323.108	118.75
323.337	124.75
323.566	136.75
323.795	121.75
324.024	140.75
324.253	139.75
324.482	128.75
324.71	120.75
324.939	140.75
325.168	128.75
325.397	121.75
325.626	135.75
325.855	138.75
326.084	132.75
326.313	144.75
326.542	135.75
326.77	126.75
326.999	129.75
327.228	121.75
327.457	124.75
327.686	137.75
327.914	140.75
328.143	146.75
328.372	125.75
328.6	134.75
328.829	131.75
329.058	126.75
329.287	131.75
329.515	130.75
329.744	130.75
329.972	119.75
330.201	122.75
330.43	132.75
330.658	108.75
330.887	129.75
331.115	131.75
331.344	143.75
331.572	159.75
331.801	151.75
332.03	150.75
332.258	140.75
332.486	156.75
332.715	159.75
332.943	155.75
333.172	166.75
333.4	153.75
333.629	157.75
333.857	148.75
334.085	153.75
334.314	147.75
334.542	130.75
334.771	144.75
334.999	152.75
335.227	148.75
335.455	149.75
335.684	143.75
335.912	134.75
336.14	137.75
336.369	129.75
336.597	146.75
336.825	134.75
337.053	139.75
337.281	140.75
337.51	130.75
337.738	149.75
337.966	125.75
338.194	123.75
338.422	126.75
338.65	140.75
338.878	140.75
339.106	140.75
339.334	147.75
339.562	131.75
339.79	131.75
340.018	127.75
340.246	135.75
340.474	133.75
340.702	132.75
340.93	126.75
341.158	140.75
341.386	144.75
341.614	144.75
341.842	144.75
342.07	135.75
342.298	119.75
342.526	146.75
342.754	114.75
342.981	128.75
343.209	134.75
343.437	171.75
343.665	160.75
343.893	159.75
344.12	151.75
344.348	146.75
344.576	137.75
344.804	133.75
345.031	138.75
345.259	150.75
345.487	140.75
345.714	133.75
345.942	148.75
346.17	121.75
346.397	139.75
346.625	147.75
346.853	143.75
347.08	135.75
347.308	139.75
347.535	138.75
347.763	126.75
347.99	127.75
348.218	137.75
348.445	135.75
348.673	122.75
348.9	128.75
349.128	132.75
349.355	132.75
349.583	126.75
349.81	115.75
350.037	139.75
350.265	135.75
350.492	136.75
350.72	117.75
350.947	116.75
351.174	137.75
351.402	124.75
351.629	148.75
351.856	118.75
352.083	132.75
352.311	132.75
352.538	124.75
352.765	128.75
352.992	143.75
353.22	133.75
353.447	126.75
353.674	140.75
353.901	130.75
354.128	132.75
354.355	128.75
354.583	131.75
354.81	129.75
355.037	136.75
355.264	125.75
355.491	140.75
355.718	136.75
355.945	142.75
356.172	137.75
356.399	132.75
356.626	132.75
356.853	131.75
357.08	152.75
357.307	121.75
357.534	123.75
357.761	137.75
357.988	140.75
358.215	140.75
358.441	131.75
358.668	127.75
358.895	137.75
359.122	122.75
359.349	144.75
359.576	128.75
359.802	133.75
360.029	135.75
360.256	137.75
360.483	122.75
360.709	133.75
360.936	146.75
361.163	138.75
361.39	134.75
361.616	138.75
361.843	155.75
362.07	132.75
362.296	147.75
362.523	121.75
362.749	136.75
362.976	136.75
363.203	143.75
363.429	123.75
363.656	131.75
363.882	137.75
364.109	143.75
364.335	131.75
364.562	132.75
364.788	108.75
365.015	138.75
365.241	136.75
365.468	133.75
365.694	142.75
365.92	135.75
366.147	109.75
366.373	104.75
366.599	132.75
366.826	144.75
367.052	136.75
367.278	133.75
367.505	138.75
367.731	157.75
367.957	143.75
368.184	134.75
368.41	130.75
368.636	141.75
368.862	128.75
369.089	128.75
369.315	137.75
369.541	141.75
369.767	138.75
369.993	128.75
370.219	138.75
370.445	137.75
370.672	133.75
370.898	128.75
371.124	136.75
371.35	138.75
371.576	129.75
371.802	143.75
372.028	143.75
372.254	144.75
372.48	143.75
372.706	137.75
372.932	128.75
373.158	130.75
373.384	146.75
373.61	141.75
373.835	139.75
374.061	132.75
374.287	150.75
374.513	154.75
374.739	132.75
374.965	139.75
375.191	146.75
375.416	141.75
375.642	140.75
375.868	142.75
376.094	138.75
376.319	134.75
376.545	129.75
376.771	131.75
376.997	142.75
377.222	119.75
377.448	134.75
377.674	136.75
377.899	151.75
378.125	119.75
378.35	132.75
378.576	131.75
378.802	138.75
379.027	150.75
379.253	127.75
379.478	138.75
379.704	131.75
379.929	144.75
380.155	115.75
380.38	140.75
380.606	151.75
380.831	136.75
381.057	153.75
381.282	132.75
381.507	136.75
381.733	149.75
381.958	128.75
382.184	142.75
382.409	135.75
382.634	150.75
382.86	146.75
383.085	158.75
383.31	144.75
383.535	148.75
383.761	165.75
383.986	144.75
384.211	143.75
384.436	143.75
384.662	162.75
384.887	152.75
385.112	147.75
385.337	133.75
385.562	148.75
385.787	147.75
386.013	133.75
386.238	159.75
386.463	145.75
386.688	195.75
386.913	151.75
387.138	149.75
387.363	150.75
387.588	161.75
387.813	151.75
388.038	164.75
388.263	164.75
388.488	152.75
388.713	162.75
388.938	145.75
389.163	148.75
389.387	131.75
389.612	159.75
389.837	159.75
390.062	145.75
390.287	143.75
390.512	144.75
390.736	160.75
390.961	149.75
391.186	153.75
391.411	158.75
391.636	166.75
391.86	160.75
392.085	170.75
392.31	148.75
392.534	151.75
392.759	153.75
392.984	160.75
393.208	140.75
393.433	155.75
393.658	156.75
393.882	151.75
394.107	170.75
394.331	165.75
394.556	173.75
394.78	181.75
395.005	163.75
395.229	151.75
395.454	164.75
395.678	159.75
395.903	167.75
396.127	161.75
396.352	156.75
396.576	171.75
396.801	164.75
397.025	144.75
397.249	156.75
397.474	177.75
397.698	180.75
397.922	184.75
398.147	170.75
398.371	179.75
398.595	168.75
398.82	172.75
399.044	175.75
399.268	192.75
399.492	215.75
399.717	229.75
399.941	213.75
400.165	192.75
400.389	181.75
400.613	166.75
400.837	170.75
401.062	166.75
401.286	150.75
401.51	181.75
401.734	173.75
401.958	173.75
402.182	184.75
402.406	173.75
402.63	176.75
402.854	185.75
403.078	179.75
403.302	197.75
403.526	191.75
403.75	181.75
403.974	194.75
404.198	184.75
404.422	185.75
404.645	198.75
404.869	173.75
405.093	201.75
405.317	173.75
405.541	175.75
405.765	187.75
405.988	182.75
406.212	209.75
406.436	180.75
406.66	203.75
406.883	196.75
407.107	196.75
407.331	203.75
407.555	204.75
407.778	202.75
408.002	199.75
408.226	182.75
408.449	199.75
408.673	184.75
408.896	190.75
409.12	183.75
409.344	187.75
409.567	181.75
409.791	169.75
410.014	173.75
410.238	193.75
410.461	197.75
410.685	197.75
410.908	173.75
411.132	170.75
411.355	185.75
411.578	178.75
411.802	170.75
412.025	168.75
412.249	177.75
412.472	169.75
412.695	176.75
412.919	165.75
413.142	152.75
413.365	165.75
413.589	172.75
413.812	168.75
414.035	188.75
414.258	201.75
414.482	182.75
414.705	185.75
414.928	169.75
415.151	151.75
415.374	182.75
415.597	163.75
415.821	166.75
416.044	188.75
416.267	181.75
416.49	185.75
416.713	160.75
416.936	163.75
417.159	190.75
417.382	173.75
417.605	167.75
417.828	175.75
418.051	174.75
418.274	178.75
418.497	171.75
418.72	180.75
418.943	192.75
419.166	172.75
419.389	193.75
419.611	174.75
419.834	162.75
420.057	193.75
420.28	169.75
420.503	174.75
420.726	169.75
420.948	171.75
421.171	168.75
421.394	170.75
421.617	174.75
421.839	190.75
422.062	168.75
422.285	165.75
422.507	158.75
422.73	174.75
422.953	164.75
423.175	170.75
423.398	181.75
423.621	194.75
423.843	164.75
424.066	189.75
424.288	179.75
424.511	191.75
424.733	197.75
424.956	181.75
425.178	171.75
425.401	159.75
425.623	186.75
425.846	161.75
426.068	159.75
426.291	171.75
426.513	177.75
426.735	167.75
426.958	161.75
427.18	156.75
427.402	170.75
427.625	172.75
427.847	159.75
428.069	152.75
428.292	164.75
428.514	163.75
428.736	156.75
428.958	171.75
429.181	161.75
429.403	154.75
429.625	151.75
429.847	148.75
430.069	140.75
430.292	155.75
430.514	162.75
430.736	141.75
430.958	166.75
431.18	161.75
431.402	163.75
431.624	166.75
431.846	161.75
432.068	156.75
432.29	159.75
432.512	162.75
432.734	155.75
432.956	176.75
433.178	156.75
433.4	166.75
433.622	181.75
433.844	141.75
434.066	161.75
434.287	174.75
434.509	175.75
434.731	179.75
434.953	188.75
435.175	177.75
435.397	168.75
435.618	166.75
435.84	159.75
436.062	162.75
436.284	166.75
436.505	168.75
436.727	157.75
436.949	150.75
437.17	149.75
437.392	152.75
437.614	163.75
437.835	154.75
438.057	166.75
438.278	149.75
438.5	157.75
438.721	159.75
438.943	165.75
439.165	141.75
439.386	162.75
439.608	179.75
439.829	154.75
440.05	162.75
440.272	172.75
440.493	182.75
440.715	171.75
440.936	170.75
441.158	184.75
441.379	166.75
441.6	178.75
441.822	184.75
442.043	178.75
442.264	178.75
442.486	153.75
442.707	156.75
442.928	156.75
443.149	159.75
443.371	181.75
443.592	179.75
443.813	173.75
444.034	168.75
444.255	200.75
444.476	185.75
444.698	177.75
444.919	182.75
445.14	370.75
445.361	260.75
445.582	166.75
445.803	162.75
446.024	175.75
446.245	172.75
446.466	168.75
446.687	159.75
446.908	172.75
447.129	165.75
447.35	167.75
447.571	169.75
447.792	157.75
448.013	165.75
448.234	151.75
448.455	139.75
448.675	147.75
448.896	166.75
449.117	140.75
449.338	148.75
449.559	156.75
449.779	154.75
450	147.75
450.221	148.75
450.442	160.75
450.662	158.75
450.883	161.75
451.104	149.75
451.324	159.75
451.545	164.75
451.766	161.75
451.986	152.75
452.207	151.75
452.428	154.75
452.648	136.75
452.869	151.75
453.089	150.75
453.31	155.75
453.53	140.75
453.751	156.75
453.971	150.75
454.192	152.75
454.412	138.75
454.633	140.75
454.853	152.75
455.073	144.75
455.294	162.75
455.514	145.75
455.734	135.75
455.955	151.75
456.175	166.75
456.395	139.75
456.616	147.75
456.836	160.75
457.056	138.75
457.276	143.75
457.497	135.75
457.717	141.75
457.937	150.75
458.157	140.75
458.377	140.75
458.598	156.75
458.818	173.75
459.038	160.75
459.258	173.75
459.478	153.75
459.698	174.75
459.918	193.75
460.138	196.75
460.358	187.75
460.578	184.75
460.798	180.75
461.018	194.75
461.238	189.75
461.458	181.75
461.678	174.75
461.898	166.75
462.118	193.75
462.338	182.75
462.558	199.75
462.777	192.75
462.997	209.75
463.217	225.75
463.437	215.75
463.657	199.75
463.876	203.75
464.096	180.75
464.316	176.75
464.536	187.75
464.755	196.75
464.975	180.75
465.195	181.75
465.414	169.75
465.634	163.75
465.854	171.75
466.073	168.75
466.293	147.75
466.512	148.75
466.732	160.75
466.951	166.75
467.171	152.75
467.391	149.75
467.61	165.75
467.829	164.75
468.049	176.75
468.268	144.75
468.488	143.75
468.707	133.75
468.927	156.75
469.146	136.75
469.365	157.75
469.585	167.75
469.804	155.75
470.023	161.75
470.243	161.75
470.462	168.75
470.681	175.75
470.901	162.75
471.12	158.75
471.339	158.75
471.558	152.75
471.777	140.75
471.997	146.75
472.216	148.75
472.435	143.75
472.654	144.75
472.873	173.75
473.092	153.75
473.311	167.75
473.53	133.75
473.749	150.75
473.968	157.75
474.187	150.75
474.406	148.75
474.625	153.75
474.844	139.75
475.063	145.75
475.282	157.75
475.501	148.75
475.72	171.75
475.939	139.75
476.158	157.75
476.377	159.75
476.596	163.75
476.814	160.75
477.033	166.75
477.252	164.75
477.471	155.75
477.69	168.75
477.908	153.75
478.127	181.75
478.346	184.75
478.564	179.75
478.783	180.75
479.002	161.75
479.22	174.75
479.439	203.75
479.658	173.75
479.876	177.75
480.095	170.75
480.313	177.75
480.532	195.75
480.751	174.75
480.969	168.75
481.188	163.75
481.406	176.75
481.624	167.75
481.843	160.75
482.061	147.75
482.28	165.75
482.498	166.75
482.717	170.75
482.935	166.75
483.153	151.75
483.372	183.75
483.59	171.75
483.808	173.75
484.027	195.75
484.245	157.75
484.463	156.75
484.681	171.75
484.9	179.75
485.118	185.75
485.336	169.75
485.554	183.75
485.772	167.75
485.99	162.75
486.209	168.75
486.427	166.75
486.645	154.75
486.863	172.75
487.081	172.75
487.299	175.75
487.517	172.75
487.735	165.75
487.953	177.75
488.171	174.75
488.389	165.75
488.607	175.75
488.825	167.75
489.043	157.75
489.261	169.75
489.479	181.75
489.696	169.75
489.914	170.75
490.132	172.75
490.35	169.75
490.568	185.75
490.786	179.75
491.003	177.75
491.221	180.75
491.439	171.75
491.657	164.75
491.874	177.75
492.092	172.75
492.31	182.75
492.527	159.75
492.745	177.75
492.963	180.75
493.18	186.75
493.398	177.75
493.615	152.75
493.833	172.75
494.05	167.75
494.268	175.75
494.485	176.75
494.703	175.75
494.92	183.75
495.138	181.75
495.355	179.75
495.573	172.75
495.79	187.75
496.008	181.75
496.225	168.75
496.442	185.75
496.66	201.75
496.877	169.75
497.094	195.75
497.312	175.75
497.529	197.75
497.746	209.75
497.963	191.75
498.181	193.75
498.398	197.75
498.615	218.75
498.832	217.75
499.049	229.75
499.267	242.75
499.484	274.75
499.701	292.75
499.918	331.75
500.135	364.75
500.352	413.75
500.569	415.75
500.786	400.75
501.003	364.75
501.22	325.75
501.437	300.75
501.654	272.75
501.871	253.75
502.088	227.75
502.305	222.75
502.522	231.75
502.739	214.75
502.956	201.75
503.172	209.75
503.389	205.75
503.606	196.75
503.823	186.75
504.04	197.75
504.256	189.75
504.473	204.75
504.69	189.75
504.907	209.75
