Data from SampG_HRD10591_00018.txt Node
Date: Mon Jan 19 11:53:49 EST 2026
User: Yrep
Spectrometer: HR+D1059
Trigger mode: 0
Integration Time (sec): 3.443000E-1
Scans to average: 1
Electric dark correction enabled: true
Nonlinearity correction enabled: false
Boxcar width: 0
XAxis mode: Wavelengths
Number of Pixels in Spectrum: 2048
>>>>>Begin Spectral Data<<<<<
223.165	-17.25
223.4	-17.25
223.635	-17.25
223.869	-33.25
224.104	-19.25
224.338	-6.25
224.573	-4.25
224.808	-17.25
225.042	-10.25
225.277	-11.25
225.511	14.75
225.746	7.75
225.98	17.75
226.215	-4.25
226.449	4.75
226.683	18.75
226.918	30.75
227.152	28.75
227.387	32.75
227.621	50.75
227.856	49.75
228.09	59.75
228.324	61.75
228.559	63.75
228.793	49.75
229.027	60.75
229.262	60.75
229.496	55.75
229.73	70.75
229.964	71.75
230.199	70.75
230.433	88.75
230.667	76.75
230.901	87.75
231.136	75.75
231.37	80.75
231.604	80.75
231.838	76.75
232.072	75.75
232.306	80.75
232.541	86.75
232.775	86.75
233.009	77.75
233.243	66.75
233.477	84.75
233.711	92.75
233.945	71.75
234.179	63.75
234.413	80.75
234.647	80.75
234.881	76.75
235.115	88.75
235.349	67.75
235.583	88.75
235.817	80.75
236.051	82.75
236.285	85.75
236.519	75.75
236.753	83.75
236.987	79.75
237.221	92.75
237.455	73.75
237.689	73.75
237.922	102.75
238.156	91.75
238.39	84.75
238.624	70.75
238.858	74.75
239.091	74.75
239.325	73.75
239.559	84.75
239.793	86.75
240.027	64.75
240.26	69.75
240.494	90.75
240.728	87.75
240.961	63.75
241.195	88.75
241.429	79.75
241.662	85.75
241.896	87.75
242.13	71.75
242.363	78.75
242.597	83.75
242.83	96.75
243.064	89.75
243.298	79.75
243.531	81.75
243.765	76.75
243.998	84.75
244.232	90.75
244.465	80.75
244.699	83.75
244.932	83.75
245.166	76.75
245.399	91.75
245.633	97.75
245.866	79.75
246.099	78.75
246.333	86.75
246.566	94.75
246.8	66.75
247.033	90.75
247.266	86.75
247.5	72.75
247.733	90.75
247.966	89.75
248.2	80.75
248.433	71.75
248.666	84.75
248.899	87.75
249.133	86.75
249.366	103.75
249.599	93.75
249.832	85.75
250.066	101.75
250.299	87.75
250.532	96.75
250.765	92.75
250.998	89.75
251.231	71.75
251.465	96.75
251.698	91.75
251.931	93.75
252.164	99.75
252.397	94.75
252.63	82.75
252.863	95.75
253.096	81.75
253.329	91.75
253.562	76.75
253.795	100.75
254.028	96.75
254.261	92.75
254.494	103.75
254.727	97.75
254.96	101.75
255.193	90.75
255.426	91.75
255.659	95.75
255.892	98.75
256.124	82.75
256.357	90.75
256.59	94.75
256.823	87.75
257.056	84.75
257.289	101.75
257.521	107.75
257.754	90.75
257.987	80.75
258.22	84.75
258.452	88.75
258.685	95.75
258.918	95.75
259.151	94.75
259.383	97.75
259.616	108.75
259.849	98.75
260.081	95.75
260.314	99.75
260.547	84.75
260.779	83.75
261.012	91.75
261.244	96.75
261.477	99.75
261.71	96.75
261.942	96.75
262.175	93.75
262.407	91.75
262.64	94.75
262.872	90.75
263.105	88.75
263.337	114.75
263.57	83.75
263.802	96.75
264.035	92.75
264.267	109.75
264.499	99.75
264.732	109.75
264.964	89.75
265.197	89.75
265.429	97.75
265.661	95.75
265.894	94.75
266.126	100.75
266.358	88.75
266.591	95.75
266.823	115.75
267.055	108.75
267.287	99.75
267.52	101.75
267.752	105.75
267.984	116.75
268.216	92.75
268.448	116.75
268.681	101.75
268.913	107.75
269.145	118.75
269.377	100.75
269.609	98.75
269.841	107.75
270.073	100.75
270.306	103.75
270.538	107.75
270.77	93.75
271.002	108.75
271.234	100.75
271.466	103.75
271.698	104.75
271.93	98.75
272.162	105.75
272.394	118.75
272.626	99.75
272.858	97.75
273.09	113.75
273.322	104.75
273.553	111.75
273.785	111.75
274.017	97.75
274.249	109.75
274.481	102.75
274.713	111.75
274.945	110.75
275.176	107.75
275.408	100.75
275.64	112.75
275.872	102.75
276.104	101.75
276.335	117.75
276.567	110.75
276.799	102.75
277.031	111.75
277.262	107.75
277.494	111.75
277.726	108.75
277.957	95.75
278.189	100.75
278.421	107.75
278.652	106.75
278.884	99.75
279.115	106.75
279.347	105.75
279.579	117.75
279.81	103.75
280.042	93.75
280.273	110.75
280.505	108.75
280.736	120.75
280.968	116.75
281.199	117.75
281.431	104.75
281.662	112.75
281.894	113.75
282.125	107.75
282.356	127.75
282.588	112.75
282.819	109.75
283.051	96.75
283.282	114.75
283.513	109.75
283.745	116.75
283.976	127.75
284.207	90.75
284.439	102.75
284.67	119.75
284.901	103.75
285.132	112.75
285.364	113.75
285.595	129.75
285.826	129.75
286.057	121.75
286.288	103.75
286.52	112.75
286.751	114.75
286.982	120.75
287.213	100.75
287.444	113.75
287.675	105.75
287.906	111.75
288.138	117.75
288.369	118.75
288.6	117.75
288.831	110.75
289.062	123.75
289.293	110.75
289.524	108.75
289.755	112.75
289.986	105.75
290.217	124.75
290.448	112.75
290.679	106.75
290.91	116.75
291.141	118.75
291.371	118.75
291.602	112.75
291.833	111.75
292.064	129.75
292.295	114.75
292.526	117.75
292.757	116.75
292.987	126.75
293.218	108.75
293.449	107.75
293.68	108.75
293.91	119.75
294.141	119.75
294.372	114.75
294.603	121.75
294.833	127.75
295.064	123.75
295.295	111.75
295.525	115.75
295.756	119.75
295.987	105.75
296.217	94.75
296.448	123.75
296.679	116.75
296.909	125.75
297.14	128.75
297.37	126.75
297.601	112.75
297.831	117.75
298.062	123.75
298.292	128.75
298.523	118.75
298.753	127.75
298.984	122.75
299.214	105.75
299.445	124.75
299.675	118.75
299.905	116.75
300.136	117.75
300.366	122.75
300.597	110.75
300.827	108.75
301.057	116.75
301.288	124.75
301.518	139.75
301.748	108.75
301.979	154.75
302.209	138.75
302.439	119.75
302.669	123.75
302.9	129.75
303.13	131.75
303.36	101.75
303.59	108.75
303.82	128.75
304.051	113.75
304.281	135.75
304.511	119.75
304.741	111.75
304.971	104.75
305.201	119.75
305.431	120.75
305.661	117.75
305.891	125.75
306.121	119.75
306.352	137.75
306.582	120.75
306.812	107.75
307.042	115.75
307.272	128.75
307.502	117.75
307.731	112.75
307.961	128.75
308.191	116.75
308.421	111.75
308.651	114.75
308.881	114.75
309.111	113.75
309.341	98.75
309.571	112.75
309.8	129.75
310.03	120.75
310.26	128.75
310.49	112.75
310.72	122.75
310.949	118.75
311.179	125.75
311.409	121.75
311.639	129.75
311.868	117.75
312.098	132.75
312.328	128.75
312.557	120.75
312.787	123.75
313.017	111.75
313.246	115.75
313.476	133.75
313.706	124.75
313.935	120.75
314.165	113.75
314.394	133.75
314.624	116.75
314.853	136.75
315.083	117.75
315.312	127.75
315.542	120.75
315.771	130.75
316.001	116.75
316.23	133.75
316.46	138.75
316.689	134.75
316.919	131.75
317.148	128.75
317.377	130.75
317.607	126.75
317.836	112.75
318.065	128.75
318.295	123.75
318.524	123.75
318.753	117.75
318.983	112.75
319.212	121.75
319.441	131.75
319.67	128.75
319.9	133.75
320.129	123.75
320.358	114.75
320.587	127.75
320.816	109.75
321.046	143.75
321.275	124.75
321.504	115.75
321.733	130.75
321.962	144.75
322.191	126.75
322.42	114.75
322.649	116.75
322.878	129.75
323.108	129.75
323.337	111.75
323.566	135.75
323.795	127.75
324.024	133.75
324.253	122.75
324.482	138.75
324.71	126.75
324.939	142.75
325.168	129.75
325.397	128.75
325.626	127.75
325.855	134.75
326.084	135.75
326.313	120.75
326.542	127.75
326.77	135.75
326.999	149.75
327.228	127.75
327.457	139.75
327.686	127.75
327.914	141.75
328.143	146.75
328.372	117.75
328.6	120.75
328.829	111.75
329.058	126.75
329.287	130.75
329.515	137.75
329.744	120.75
329.972	129.75
330.201	134.75
330.43	147.75
330.658	134.75
330.887	119.75
331.115	144.75
331.344	138.75
331.572	146.75
331.801	144.75
332.03	142.75
332.258	138.75
332.486	147.75
332.715	147.75
332.943	153.75
333.172	161.75
333.4	143.75
333.629	165.75
333.857	146.75
334.085	160.75
334.314	157.75
334.542	162.75
334.771	154.75
334.999	142.75
335.227	147.75
335.455	144.75
335.684	146.75
335.912	137.75
336.14	145.75
336.369	138.75
336.597	156.75
336.825	135.75
337.053	142.75
337.281	150.75
337.51	153.75
337.738	129.75
337.966	132.75
338.194	142.75
338.422	132.75
338.65	137.75
338.878	141.75
339.106	131.75
339.334	142.75
339.562	140.75
339.79	138.75
340.018	123.75
340.246	140.75
340.474	122.75
340.702	127.75
340.93	128.75
341.158	133.75
341.386	131.75
341.614	133.75
341.842	131.75
342.07	135.75
342.298	130.75
342.526	131.75
342.754	124.75
342.981	125.75
343.209	135.75
343.437	170.75
343.665	135.75
343.893	156.75
344.12	150.75
344.348	139.75
344.576	137.75
344.804	123.75
345.031	126.75
345.259	135.75
345.487	134.75
345.714	128.75
345.942	120.75
346.17	114.75
346.397	143.75
346.625	138.75
346.853	139.75
347.08	131.75
347.308	135.75
347.535	135.75
347.763	135.75
347.99	134.75
348.218	142.75
348.445	137.75
348.673	121.75
348.9	133.75
349.128	135.75
349.355	128.75
349.583	147.75
349.81	132.75
350.037	137.75
350.265	127.75
350.492	128.75
350.72	124.75
350.947	131.75
351.174	126.75
351.402	154.75
351.629	137.75
351.856	128.75
352.083	122.75
352.311	123.75
352.538	136.75
352.765	119.75
352.992	144.75
353.22	121.75
353.447	110.75
353.674	129.75
353.901	134.75
354.128	141.75
354.355	127.75
354.583	115.75
354.81	133.75
355.037	133.75
355.264	125.75
355.491	129.75
355.718	134.75
355.945	122.75
356.172	130.75
356.399	139.75
356.626	132.75
356.853	116.75
357.08	131.75
357.307	124.75
357.534	119.75
357.761	117.75
357.988	134.75
358.215	135.75
358.441	116.75
358.668	131.75
358.895	135.75
359.122	126.75
359.349	123.75
359.576	122.75
359.802	111.75
360.029	116.75
360.256	127.75
360.483	127.75
360.709	124.75
360.936	147.75
361.163	132.75
361.39	134.75
361.616	126.75
361.843	117.75
362.07	129.75
362.296	140.75
362.523	131.75
362.749	126.75
362.976	136.75
363.203	135.75
363.429	131.75
363.656	132.75
363.882	126.75
364.109	143.75
364.335	142.75
364.562	132.75
364.788	131.75
365.015	138.75
365.241	123.75
365.468	132.75
365.694	110.75
365.92	119.75
366.147	124.75
366.373	125.75
366.599	131.75
366.826	135.75
367.052	118.75
367.278	144.75
367.505	133.75
367.731	142.75
367.957	129.75
368.184	126.75
368.41	137.75
368.636	140.75
368.862	144.75
369.089	127.75
369.315	117.75
369.541	135.75
369.767	140.75
369.993	149.75
370.219	128.75
370.445	122.75
370.672	122.75
370.898	133.75
371.124	136.75
371.35	115.75
371.576	130.75
371.802	130.75
372.028	145.75
372.254	118.75
372.48	141.75
372.706	132.75
372.932	129.75
373.158	142.75
373.384	126.75
373.61	134.75
373.835	148.75
374.061	132.75
374.287	137.75
374.513	157.75
374.739	143.75
374.965	143.75
375.191	135.75
375.416	136.75
375.642	129.75
375.868	153.75
376.094	144.75
376.319	132.75
376.545	155.75
376.771	152.75
376.997	146.75
377.222	147.75
377.448	145.75
377.674	121.75
377.899	130.75
378.125	130.75
378.35	142.75
378.576	140.75
378.802	123.75
379.027	135.75
379.253	139.75
379.478	119.75
379.704	145.75
379.929	138.75
380.155	129.75
380.38	135.75
380.606	122.75
380.831	126.75
381.057	157.75
381.282	147.75
381.507	138.75
381.733	137.75
381.958	116.75
382.184	137.75
382.409	138.75
382.634	149.75
382.86	140.75
383.085	147.75
383.31	155.75
383.535	155.75
383.761	151.75
383.986	162.75
384.211	158.75
384.436	145.75
384.662	161.75
384.887	156.75
385.112	130.75
385.337	146.75
385.562	147.75
385.787	142.75
386.013	134.75
386.238	148.75
386.463	128.75
386.688	180.75
386.913	136.75
387.138	138.75
387.363	126.75
387.588	146.75
387.813	146.75
388.038	159.75
388.263	154.75
388.488	146.75
388.713	135.75
388.938	143.75
389.163	136.75
389.387	148.75
389.612	139.75
389.837	162.75
390.062	137.75
390.287	155.75
390.512	160.75
390.736	148.75
390.961	155.75
391.186	146.75
391.411	151.75
391.636	147.75
391.86	163.75
392.085	159.75
392.31	158.75
392.534	148.75
392.759	170.75
392.984	155.75
393.208	154.75
393.433	162.75
393.658	133.75
393.882	160.75
394.107	164.75
394.331	150.75
394.556	155.75
394.78	165.75
395.005	169.75
395.229	133.75
395.454	170.75
395.678	157.75
395.903	160.75
396.127	163.75
396.352	142.75
396.576	148.75
396.801	165.75
397.025	155.75
397.249	162.75
397.474	163.75
397.698	163.75
397.922	160.75
398.147	169.75
398.371	161.75
398.595	176.75
398.82	163.75
399.044	170.75
399.268	189.75
399.492	217.75
399.717	215.75
399.941	200.75
400.165	193.75
400.389	167.75
400.613	177.75
400.837	171.75
401.062	169.75
401.286	186.75
401.51	185.75
401.734	162.75
401.958	177.75
402.182	175.75
402.406	162.75
402.63	182.75
402.854	171.75
403.078	183.75
403.302	176.75
403.526	184.75
403.75	174.75
403.974	186.75
404.198	199.75
404.422	191.75
404.645	188.75
404.869	174.75
405.093	180.75
405.317	163.75
405.541	183.75
405.765	169.75
405.988	178.75
406.212	170.75
406.436	184.75
406.66	192.75
406.883	195.75
407.107	196.75
407.331	194.75
407.555	202.75
407.778	207.75
408.002	189.75
408.226	187.75
408.449	172.75
408.673	183.75
408.896	183.75
409.12	194.75
409.344	188.75
409.567	186.75
409.791	178.75
410.014	201.75
410.238	179.75
410.461	173.75
410.685	178.75
410.908	176.75
411.132	180.75
411.355	194.75
411.578	186.75
411.802	175.75
412.025	181.75
412.249	175.75
412.472	179.75
412.695	169.75
412.919	166.75
413.142	154.75
413.365	155.75
413.589	167.75
413.812	164.75
414.035	194.75
414.258	167.75
414.482	177.75
414.705	171.75
414.928	158.75
415.151	178.75
415.374	169.75
415.597	164.75
415.821	167.75
416.044	180.75
416.267	172.75
416.49	163.75
416.713	158.75
416.936	155.75
417.159	160.75
417.382	184.75
417.605	159.75
417.828	163.75
418.051	159.75
418.274	174.75
418.497	184.75
418.72	182.75
418.943	181.75
419.166	178.75
419.389	193.75
419.611	178.75
419.834	201.75
420.057	200.75
420.28	167.75
420.503	162.75
420.726	158.75
420.948	169.75
421.171	177.75
421.394	170.75
421.617	183.75
421.839	163.75
422.062	160.75
422.285	169.75
422.507	179.75
422.73	171.75
422.953	174.75
423.175	161.75
423.398	166.75
423.621	175.75
423.843	173.75
424.066	184.75
424.288	183.75
424.511	172.75
424.733	174.75
424.956	167.75
425.178	165.75
425.401	173.75
425.623	185.75
425.846	169.75
426.068	172.75
426.291	148.75
426.513	164.75
426.735	144.75
426.958	151.75
427.18	151.75
427.402	152.75
427.625	149.75
427.847	146.75
428.069	157.75
428.292	168.75
428.514	176.75
428.736	165.75
428.958	160.75
429.181	162.75
429.403	158.75
429.625	138.75
429.847	153.75
430.069	157.75
430.292	161.75
430.514	156.75
430.736	164.75
430.958	171.75
431.18	155.75
431.402	156.75
431.624	144.75
431.846	170.75
432.068	160.75
432.29	176.75
432.512	170.75
432.734	149.75
432.956	146.75
433.178	180.75
433.4	166.75
433.622	153.75
433.844	173.75
434.066	152.75
434.287	153.75
434.509	163.75
434.731	162.75
434.953	170.75
435.175	199.75
435.397	186.75
435.618	148.75
435.84	159.75
436.062	165.75
436.284	180.75
436.505	161.75
436.727	166.75
436.949	155.75
437.17	154.75
437.392	150.75
437.614	172.75
437.835	135.75
438.057	155.75
438.278	139.75
438.5	147.75
438.721	162.75
438.943	159.75
439.165	158.75
439.386	145.75
439.608	158.75
439.829	155.75
440.05	163.75
440.272	149.75
440.493	166.75
440.715	161.75
440.936	159.75
441.158	154.75
441.379	163.75
441.6	166.75
441.822	166.75
442.043	166.75
442.264	172.75
442.486	162.75
442.707	169.75
442.928	168.75
443.149	160.75
443.371	172.75
443.592	170.75
443.813	182.75
444.034	199.75
444.255	183.75
444.476	176.75
444.698	187.75
444.919	179.75
445.14	446.75
445.361	282.75
445.582	176.75
445.803	167.75
446.024	175.75
446.245	173.75
446.466	163.75
446.687	151.75
446.908	151.75
447.129	167.75
447.35	136.75
447.571	161.75
447.792	167.75
448.013	147.75
448.234	148.75
448.455	141.75
448.675	161.75
448.896	146.75
449.117	163.75
449.338	147.75
449.559	156.75
449.779	160.75
450	151.75
450.221	140.75
450.442	150.75
450.662	147.75
450.883	165.75
451.104	136.75
451.324	156.75
451.545	149.75
451.766	155.75
451.986	162.75
452.207	162.75
452.428	156.75
452.648	155.75
452.869	143.75
453.089	168.75
453.31	144.75
453.53	122.75
453.751	143.75
453.971	147.75
454.192	146.75
454.412	125.75
454.633	135.75
454.853	130.75
455.073	158.75
455.294	147.75
455.514	148.75
455.734	135.75
455.955	154.75
456.175	140.75
456.395	152.75
456.616	163.75
456.836	145.75
457.056	144.75
457.276	135.75
457.497	136.75
457.717	138.75
457.937	146.75
458.157	159.75
458.377	144.75
458.598	153.75
458.818	146.75
459.038	149.75
459.258	140.75
459.478	161.75
459.698	166.75
459.918	186.75
460.138	181.75
460.358	164.75
460.578	184.75
460.798	179.75
461.018	186.75
461.238	181.75
461.458	186.75
461.678	171.75
461.898	184.75
462.118	182.75
462.338	194.75
462.558	191.75
462.777	193.75
462.997	207.75
463.217	213.75
463.437	223.75
463.657	192.75
463.876	199.75
464.096	192.75
464.316	188.75
464.536	191.75
464.755	193.75
464.975	156.75
465.195	175.75
465.414	162.75
465.634	182.75
465.854	169.75
466.073	166.75
466.293	156.75
466.512	162.75
466.732	163.75
466.951	139.75
467.171	171.75
467.391	149.75
467.61	146.75
467.829	154.75
468.049	167.75
468.268	154.75
468.488	146.75
468.707	142.75
468.927	146.75
469.146	135.75
469.365	158.75
469.585	160.75
469.804	172.75
470.023	147.75
470.243	161.75
470.462	158.75
470.681	154.75
470.901	152.75
471.12	153.75
471.339	161.75
471.558	147.75
471.777	156.75
471.997	151.75
472.216	151.75
472.435	161.75
472.654	146.75
472.873	149.75
473.092	158.75
473.311	167.75
473.53	159.75
473.749	151.75
473.968	162.75
474.187	142.75
474.406	132.75
474.625	139.75
474.844	138.75
475.063	147.75
475.282	147.75
475.501	144.75
475.72	160.75
475.939	131.75
476.158	143.75
476.377	157.75
476.596	144.75
476.814	148.75
477.033	164.75
477.252	163.75
477.471	180.75
477.69	165.75
477.908	162.75
478.127	174.75
478.346	168.75
478.564	173.75
478.783	180.75
479.002	175.75
479.22	182.75
479.439	183.75
479.658	172.75
479.876	170.75
480.095	162.75
480.313	194.75
480.532	202.75
480.751	180.75
480.969	163.75
481.188	172.75
481.406	171.75
481.624	163.75
481.843	175.75
482.061	172.75
482.28	156.75
482.498	149.75
482.717	160.75
482.935	159.75
483.153	168.75
483.372	147.75
483.59	162.75
483.808	155.75
484.027	166.75
484.245	171.75
484.463	160.75
484.681	171.75
484.9	162.75
485.118	172.75
485.336	166.75
485.554	159.75
485.772	166.75
485.99	170.75
486.209	166.75
486.427	162.75
486.645	186.75
486.863	163.75
487.081	165.75
487.299	159.75
487.517	180.75
487.735	164.75
487.953	165.75
488.171	182.75
488.389	166.75
488.607	150.75
488.825	136.75
489.043	172.75
489.261	153.75
489.479	165.75
489.696	158.75
489.914	152.75
490.132	154.75
490.35	168.75
490.568	143.75
490.786	159.75
491.003	152.75
491.221	167.75
491.439	175.75
491.657	168.75
491.874	172.75
492.092	164.75
492.31	175.75
492.527	175.75
492.745	172.75
492.963	176.75
493.18	160.75
493.398	179.75
493.615	175.75
493.833	173.75
494.05	175.75
494.268	185.75
494.485	194.75
494.703	166.75
494.92	172.75
495.138	169.75
495.355	175.75
495.573	184.75
495.79	173.75
496.008	176.75
496.225	181.75
496.442	176.75
496.66	194.75
496.877	189.75
497.094	194.75
497.312	183.75
497.529	174.75
497.746	197.75
497.963	191.75
498.181	194.75
498.398	193.75
498.615	209.75
498.832	214.75
499.049	228.75
499.267	238.75
499.484	263.75
499.701	278.75
499.918	312.75
500.135	345.75
500.352	383.75
500.569	372.75
500.786	381.75
501.003	352.75
501.22	329.75
501.437	294.75
501.654	272.75
501.871	236.75
502.088	224.75
502.305	232.75
502.522	227.75
502.739	218.75
502.956	208.75
503.172	186.75
503.389	182.75
503.606	179.75
503.823	196.75
504.04	183.75
504.256	193.75
504.473	176.75
504.69	192.75
504.907	201.75
