Data from SampG_HRD10591_00061.txt Node
Date: Mon Jan 19 11:54:04 EST 2026
User: Yrep
Spectrometer: HR+D1059
Trigger mode: 0
Integration Time (sec): 3.443000E-1
Scans to average: 1
Electric dark correction enabled: true
Nonlinearity correction enabled: false
Boxcar width: 0
XAxis mode: Wavelengths
Number of Pixels in Spectrum: 2048
>>>>>Begin Spectral Data<<<<<
223.165	-14.94
223.4	-14.94
223.635	-14.94
223.869	-30.94
224.104	-24.94
224.338	-30.94
224.573	-13.94
224.808	-16.94
225.042	-9.94
225.277	0.06
225.511	-18.94
225.746	18.06
225.98	21.06
226.215	18.06
226.449	26.06
226.683	22.06
226.918	26.06
227.152	30.06
227.387	30.06
227.621	36.06
227.856	47.06
228.09	53.06
228.324	52.06
228.559	54.06
228.793	70.06
229.027	69.06
229.262	66.06
229.496	62.06
229.73	70.06
229.964	78.06
230.199	65.06
230.433	78.06
230.667	65.06
230.901	77.06
231.136	85.06
231.37	83.06
231.604	84.06
231.838	69.06
232.072	78.06
232.306	85.06
232.541	81.06
232.775	78.06
233.009	74.06
233.243	88.06
233.477	82.06
233.711	87.06
233.945	78.06
234.179	90.06
234.413	84.06
234.647	98.06
234.881	92.06
235.115	78.06
235.349	94.06
235.583	78.06
235.817	79.06
236.051	87.06
236.285	91.06
236.519	89.06
236.753	82.06
236.987	80.06
237.221	81.06
237.455	85.06
237.689	84.06
237.922	73.06
238.156	79.06
238.39	90.06
238.624	85.06
238.858	89.06
239.091	81.06
239.325	82.06
239.559	85.06
239.793	81.06
240.027	93.06
240.26	88.06
240.494	85.06
240.728	89.06
240.961	73.06
241.195	67.06
241.429	88.06
241.662	81.06
241.896	88.06
242.13	88.06
242.363	97.06
242.597	90.06
242.83	95.06
243.064	86.06
243.298	90.06
243.531	77.06
243.765	73.06
243.998	89.06
244.232	88.06
244.465	77.06
244.699	90.06
244.932	86.06
245.166	85.06
245.399	84.06
245.633	72.06
245.866	81.06
246.099	87.06
246.333	87.06
246.566	98.06
246.8	102.06
247.033	82.06
247.266	97.06
247.5	100.06
247.733	86.06
247.966	88.06
248.2	91.06
248.433	72.06
248.666	91.06
248.899	92.06
249.133	94.06
249.366	100.06
249.599	87.06
249.832	75.06
250.066	86.06
250.299	90.06
250.532	76.06
250.765	79.06
250.998	97.06
251.231	85.06
251.465	100.06
251.698	89.06
251.931	97.06
252.164	93.06
252.397	110.06
252.63	93.06
252.863	89.06
253.096	94.06
253.329	101.06
253.562	74.06
253.795	85.06
254.028	88.06
254.261	94.06
254.494	99.06
254.727	105.06
254.96	100.06
255.193	90.06
255.426	82.06
255.659	90.06
255.892	105.06
256.124	84.06
256.357	104.06
256.59	94.06
256.823	100.06
257.056	95.06
257.289	85.06
257.521	97.06
257.754	100.06
257.987	94.06
258.22	116.06
258.452	98.06
258.685	92.06
258.918	93.06
259.151	92.06
259.383	93.06
259.616	92.06
259.849	82.06
260.081	96.06
260.314	86.06
260.547	89.06
260.779	107.06
261.012	91.06
261.244	92.06
261.477	107.06
261.71	94.06
261.942	83.06
262.175	109.06
262.407	108.06
262.64	98.06
262.872	104.06
263.105	101.06
263.337	94.06
263.57	108.06
263.802	85.06
264.035	97.06
264.267	80.06
264.499	108.06
264.732	106.06
264.964	83.06
265.197	104.06
265.429	115.06
265.661	107.06
265.894	98.06
266.126	90.06
266.358	89.06
266.591	88.06
266.823	94.06
267.055	92.06
267.287	101.06
267.52	121.06
267.752	115.06
267.984	101.06
268.216	105.06
268.448	113.06
268.681	97.06
268.913	110.06
269.145	109.06
269.377	109.06
269.609	99.06
269.841	109.06
270.073	108.06
270.306	110.06
270.538	100.06
270.77	101.06
271.002	106.06
271.234	106.06
271.466	104.06
271.698	98.06
271.93	118.06
272.162	108.06
272.394	107.06
272.626	99.06
272.858	110.06
273.09	100.06
273.322	109.06
273.553	131.06
273.785	102.06
274.017	119.06
274.249	108.06
274.481	97.06
274.713	119.06
274.945	121.06
275.176	107.06
275.408	109.06
275.64	121.06
275.872	103.06
276.104	110.06
276.335	125.06
276.567	104.06
276.799	111.06
277.031	109.06
277.262	95.06
277.494	115.06
277.726	116.06
277.957	99.06
278.189	104.06
278.421	110.06
278.652	124.06
278.884	110.06
279.115	110.06
279.347	110.06
279.579	113.06
279.81	112.06
280.042	97.06
280.273	114.06
280.505	101.06
280.736	124.06
280.968	107.06
281.199	109.06
281.431	117.06
281.662	120.06
281.894	90.06
282.125	117.06
282.356	109.06
282.588	95.06
282.819	116.06
283.051	116.06
283.282	108.06
283.513	116.06
283.745	110.06
283.976	111.06
284.207	121.06
284.439	114.06
284.67	116.06
284.901	106.06
285.132	112.06
285.364	116.06
285.595	126.06
285.826	115.06
286.057	123.06
286.288	122.06
286.52	123.06
286.751	120.06
286.982	110.06
287.213	89.06
287.444	107.06
287.675	114.06
287.906	125.06
288.138	112.06
288.369	118.06
288.6	123.06
288.831	112.06
289.062	135.06
289.293	114.06
289.524	120.06
289.755	131.06
289.986	117.06
290.217	112.06
290.448	110.06
290.679	121.06
290.91	125.06
291.141	106.06
291.371	125.06
291.602	121.06
291.833	121.06
292.064	113.06
292.295	106.06
292.526	115.06
292.757	117.06
292.987	116.06
293.218	112.06
293.449	125.06
293.68	108.06
293.91	120.06
294.141	119.06
294.372	131.06
294.603	123.06
294.833	110.06
295.064	108.06
295.295	97.06
295.525	117.06
295.756	99.06
295.987	117.06
296.217	115.06
296.448	128.06
296.679	116.06
296.909	117.06
297.14	122.06
297.37	134.06
297.601	118.06
297.831	118.06
298.062	122.06
298.292	131.06
298.523	131.06
298.753	129.06
298.984	130.06
299.214	133.06
299.445	130.06
299.675	135.06
299.905	116.06
300.136	118.06
300.366	120.06
300.597	127.06
300.827	113.06
301.057	122.06
301.288	129.06
301.518	118.06
301.748	128.06
301.979	173.06
302.209	134.06
302.439	124.06
302.669	114.06
302.9	107.06
303.13	123.06
303.36	133.06
303.59	126.06
303.82	125.06
304.051	126.06
304.281	128.06
304.511	147.06
304.741	123.06
304.971	121.06
305.201	127.06
305.431	120.06
305.661	145.06
305.891	122.06
306.121	111.06
306.352	123.06
306.582	126.06
306.812	124.06
307.042	132.06
307.272	126.06
307.502	111.06
307.731	120.06
307.961	121.06
308.191	134.06
308.421	128.06
308.651	126.06
308.881	129.06
309.111	117.06
309.341	121.06
309.571	132.06
309.8	129.06
310.03	124.06
310.26	113.06
310.49	139.06
310.72	141.06
310.949	133.06
311.179	118.06
311.409	121.06
311.639	139.06
311.868	126.06
312.098	123.06
312.328	133.06
312.557	142.06
312.787	114.06
313.017	140.06
313.246	114.06
313.476	127.06
313.706	121.06
313.935	119.06
314.165	132.06
314.394	117.06
314.624	122.06
314.853	117.06
315.083	126.06
315.312	130.06
315.542	131.06
315.771	117.06
316.001	116.06
316.23	118.06
316.46	127.06
316.689	131.06
316.919	126.06
317.148	129.06
317.377	122.06
317.607	111.06
317.836	115.06
318.065	119.06
318.295	124.06
318.524	132.06
318.753	115.06
318.983	118.06
319.212	134.06
319.441	123.06
319.67	119.06
319.9	138.06
320.129	139.06
320.358	132.06
320.587	130.06
320.816	130.06
321.046	115.06
321.275	140.06
321.504	140.06
321.733	111.06
321.962	107.06
322.191	131.06
322.42	141.06
322.649	135.06
322.878	140.06
323.108	141.06
323.337	148.06
323.566	123.06
323.795	142.06
324.024	114.06
324.253	130.06
324.482	130.06
324.71	158.06
324.939	136.06
325.168	127.06
325.397	135.06
325.626	119.06
325.855	118.06
326.084	111.06
326.313	135.06
326.542	138.06
326.77	140.06
326.999	123.06
327.228	130.06
327.457	133.06
327.686	142.06
327.914	125.06
328.143	134.06
328.372	129.06
328.6	128.06
328.829	134.06
329.058	128.06
329.287	131.06
329.515	143.06
329.744	116.06
329.972	131.06
330.201	139.06
330.43	133.06
330.658	127.06
330.887	136.06
331.115	133.06
331.344	122.06
331.572	145.06
331.801	124.06
332.03	145.06
332.258	158.06
332.486	146.06
332.715	145.06
332.943	148.06
333.172	153.06
333.4	146.06
333.629	149.06
333.857	146.06
334.085	146.06
334.314	150.06
334.542	155.06
334.771	165.06
334.999	149.06
335.227	146.06
335.455	161.06
335.684	161.06
335.912	162.06
336.14	140.06
336.369	147.06
336.597	133.06
336.825	138.06
337.053	149.06
337.281	153.06
337.51	139.06
337.738	137.06
337.966	137.06
338.194	135.06
338.422	139.06
338.65	141.06
338.878	166.06
339.106	142.06
339.334	143.06
339.562	146.06
339.79	135.06
340.018	133.06
340.246	135.06
340.474	125.06
340.702	139.06
340.93	135.06
341.158	139.06
341.386	142.06
341.614	127.06
341.842	135.06
342.07	118.06
342.298	125.06
342.526	122.06
342.754	124.06
342.981	136.06
343.209	150.06
343.437	188.06
343.665	134.06
343.893	143.06
344.12	162.06
344.348	140.06
344.576	155.06
344.804	136.06
345.031	133.06
345.259	139.06
345.487	132.06
345.714	130.06
345.942	130.06
346.17	125.06
346.397	136.06
346.625	151.06
346.853	137.06
347.08	128.06
347.308	146.06
347.535	141.06
347.763	121.06
347.99	126.06
348.218	124.06
348.445	128.06
348.673	125.06
348.9	127.06
349.128	137.06
349.355	128.06
349.583	146.06
349.81	141.06
350.037	137.06
350.265	129.06
350.492	133.06
350.72	133.06
350.947	129.06
351.174	116.06
351.402	124.06
351.629	138.06
351.856	144.06
352.083	138.06
352.311	133.06
352.538	126.06
352.765	134.06
352.992	159.06
353.22	139.06
353.447	124.06
353.674	142.06
353.901	145.06
354.128	135.06
354.355	127.06
354.583	131.06
354.81	117.06
355.037	134.06
355.264	142.06
355.491	129.06
355.718	145.06
355.945	146.06
356.172	142.06
356.399	129.06
356.626	120.06
356.853	139.06
357.08	137.06
357.307	126.06
357.534	145.06
357.761	149.06
357.988	138.06
358.215	129.06
358.441	130.06
358.668	137.06
358.895	134.06
359.122	131.06
359.349	118.06
359.576	132.06
359.802	121.06
360.029	125.06
360.256	124.06
360.483	129.06
360.709	133.06
360.936	150.06
361.163	136.06
361.39	143.06
361.616	127.06
361.843	140.06
362.07	134.06
362.296	134.06
362.523	136.06
362.749	132.06
362.976	126.06
363.203	140.06
363.429	118.06
363.656	138.06
363.882	140.06
364.109	130.06
364.335	126.06
364.562	123.06
364.788	138.06
365.015	135.06
365.241	138.06
365.468	125.06
365.694	137.06
365.92	118.06
366.147	135.06
366.373	138.06
366.599	143.06
366.826	135.06
367.052	128.06
367.278	138.06
367.505	136.06
367.731	149.06
367.957	146.06
368.184	141.06
368.41	125.06
368.636	136.06
368.862	130.06
369.089	124.06
369.315	138.06
369.541	131.06
369.767	160.06
369.993	122.06
370.219	143.06
370.445	143.06
370.672	133.06
370.898	143.06
371.124	137.06
371.35	145.06
371.576	138.06
371.802	134.06
372.028	134.06
372.254	141.06
372.48	138.06
372.706	145.06
372.932	134.06
373.158	149.06
373.384	134.06
373.61	128.06
373.835	137.06
374.061	140.06
374.287	116.06
374.513	134.06
374.739	150.06
374.965	145.06
375.191	146.06
375.416	156.06
375.642	158.06
375.868	158.06
376.094	144.06
376.319	137.06
376.545	117.06
376.771	137.06
376.997	140.06
377.222	137.06
377.448	144.06
377.674	123.06
377.899	137.06
378.125	137.06
378.35	136.06
378.576	137.06
378.802	149.06
379.027	145.06
379.253	128.06
379.478	132.06
379.704	145.06
379.929	140.06
380.155	118.06
380.38	147.06
380.606	114.06
380.831	140.06
381.057	144.06
381.282	115.06
381.507	130.06
381.733	139.06
381.958	144.06
382.184	151.06
382.409	134.06
382.634	154.06
382.86	155.06
383.085	138.06
383.31	131.06
383.535	121.06
383.761	149.06
383.986	154.06
384.211	141.06
384.436	147.06
384.662	149.06
384.887	165.06
385.112	140.06
385.337	161.06
385.562	145.06
385.787	148.06
386.013	161.06
386.238	166.06
386.463	159.06
386.688	184.06
386.913	149.06
387.138	150.06
387.363	153.06
387.588	159.06
387.813	162.06
388.038	134.06
388.263	149.06
388.488	165.06
388.713	155.06
388.938	149.06
389.163	149.06
389.387	161.06
389.612	157.06
389.837	153.06
390.062	152.06
390.287	151.06
390.512	148.06
390.736	158.06
390.961	165.06
391.186	142.06
391.411	150.06
391.636	152.06
391.86	164.06
392.085	164.06
392.31	173.06
392.534	153.06
392.759	149.06
392.984	156.06
393.208	162.06
393.433	149.06
393.658	165.06
393.882	161.06
394.107	151.06
394.331	153.06
394.556	145.06
394.78	165.06
395.005	158.06
395.229	161.06
395.454	173.06
395.678	176.06
395.903	163.06
396.127	142.06
396.352	147.06
396.576	152.06
396.801	148.06
397.025	159.06
397.249	182.06
397.474	181.06
397.698	160.06
397.922	169.06
398.147	169.06
398.371	149.06
398.595	171.06
398.82	172.06
399.044	173.06
399.268	190.06
399.492	201.06
399.717	223.06
399.941	206.06
400.165	210.06
400.389	186.06
400.613	171.06
400.837	181.06
401.062	182.06
401.286	189.06
401.51	172.06
401.734	167.06
401.958	175.06
402.182	175.06
402.406	173.06
402.63	190.06
402.854	195.06
403.078	191.06
403.302	182.06
403.526	196.06
403.75	192.06
403.974	201.06
404.198	193.06
404.422	187.06
404.645	189.06
404.869	177.06
405.093	186.06
405.317	178.06
405.541	187.06
405.765	195.06
405.988	188.06
406.212	183.06
406.436	171.06
406.66	174.06
406.883	193.06
407.107	193.06
407.331	208.06
407.555	193.06
407.778	205.06
408.002	203.06
408.226	183.06
408.449	183.06
408.673	184.06
408.896	182.06
409.12	163.06
409.344	192.06
409.567	181.06
409.791	181.06
410.014	179.06
410.238	182.06
410.461	186.06
410.685	191.06
410.908	192.06
411.132	187.06
411.355	175.06
411.578	173.06
411.802	174.06
412.025	179.06
412.249	171.06
412.472	162.06
412.695	174.06
412.919	181.06
413.142	171.06
413.365	174.06
413.589	170.06
413.812	158.06
414.035	184.06
414.258	173.06
414.482	149.06
414.705	174.06
414.928	183.06
415.151	169.06
415.374	172.06
415.597	175.06
415.821	179.06
416.044	158.06
416.267	162.06
416.49	151.06
416.713	145.06
416.936	186.06
417.159	168.06
417.382	170.06
417.605	170.06
417.828	175.06
418.051	167.06
418.274	171.06
418.497	166.06
418.72	158.06
418.943	173.06
419.166	191.06
419.389	185.06
419.611	193.06
419.834	174.06
420.057	187.06
420.28	179.06
420.503	176.06
420.726	149.06
420.948	171.06
421.171	168.06
421.394	172.06
421.617	156.06
421.839	177.06
422.062	185.06
422.285	157.06
422.507	178.06
422.73	166.06
422.953	175.06
423.175	166.06
423.398	186.06
423.621	172.06
423.843	174.06
424.066	185.06
424.288	174.06
424.511	189.06
424.733	166.06
424.956	183.06
425.178	184.06
425.401	190.06
425.623	181.06
425.846	175.06
426.068	152.06
426.291	182.06
426.513	169.06
426.735	173.06
426.958	176.06
427.18	174.06
427.402	162.06
427.625	156.06
427.847	150.06
428.069	163.06
428.292	164.06
428.514	173.06
428.736	167.06
428.958	154.06
429.181	162.06
429.403	159.06
429.625	171.06
429.847	164.06
430.069	142.06
430.292	163.06
430.514	161.06
430.736	155.06
430.958	151.06
431.18	153.06
431.402	163.06
431.624	168.06
431.846	150.06
432.068	153.06
432.29	174.06
432.512	169.06
432.734	169.06
432.956	162.06
433.178	156.06
433.4	148.06
433.622	171.06
433.844	169.06
434.066	162.06
434.287	159.06
434.509	151.06
434.731	170.06
434.953	163.06
435.175	174.06
435.397	173.06
435.618	173.06
435.84	149.06
436.062	163.06
436.284	158.06
436.505	158.06
436.727	152.06
436.949	170.06
437.17	154.06
437.392	138.06
437.614	151.06
437.835	159.06
438.057	170.06
438.278	134.06
438.5	135.06
438.721	158.06
438.943	153.06
439.165	160.06
439.386	157.06
439.608	176.06
439.829	157.06
440.05	145.06
440.272	161.06
440.493	151.06
440.715	159.06
440.936	150.06
441.158	181.06
441.379	167.06
441.6	183.06
441.822	162.06
442.043	154.06
442.264	170.06
442.486	170.06
442.707	162.06
442.928	172.06
443.149	163.06
443.371	182.06
443.592	183.06
443.813	186.06
444.034	181.06
444.255	179.06
444.476	189.06
444.698	193.06
444.919	191.06
445.14	388.06
445.361	286.06
445.582	173.06
445.803	159.06
446.024	142.06
446.245	168.06
446.466	162.06
446.687	146.06
446.908	165.06
447.129	166.06
447.35	171.06
447.571	154.06
447.792	149.06
448.013	147.06
448.234	168.06
448.455	145.06
448.675	161.06
448.896	158.06
449.117	156.06
449.338	162.06
449.559	152.06
449.779	155.06
450	158.06
450.221	150.06
450.442	164.06
450.662	162.06
450.883	148.06
451.104	168.06
451.324	146.06
451.545	161.06
451.766	155.06
451.986	162.06
452.207	157.06
452.428	154.06
452.648	166.06
452.869	159.06
453.089	151.06
453.31	142.06
453.53	142.06
453.751	146.06
453.971	153.06
454.192	137.06
454.412	139.06
454.633	135.06
454.853	132.06
455.073	145.06
455.294	140.06
455.514	157.06
455.734	145.06
455.955	136.06
456.175	135.06
456.395	140.06
456.616	137.06
456.836	151.06
457.056	149.06
457.276	145.06
457.497	146.06
457.717	149.06
457.937	159.06
458.157	154.06
458.377	138.06
458.598	166.06
458.818	150.06
459.038	147.06
459.258	169.06
459.478	151.06
459.698	151.06
459.918	178.06
460.138	173.06
460.358	177.06
460.578	186.06
460.798	179.06
461.018	181.06
461.238	170.06
461.458	184.06
461.678	177.06
461.898	167.06
462.118	191.06
462.338	195.06
462.558	184.06
462.777	197.06
462.997	225.06
463.217	223.06
463.437	216.06
463.657	198.06
463.876	199.06
464.096	179.06
464.316	179.06
464.536	196.06
464.755	196.06
464.975	183.06
465.195	171.06
465.414	187.06
465.634	177.06
465.854	159.06
466.073	174.06
466.293	169.06
466.512	159.06
466.732	148.06
466.951	170.06
467.171	157.06
467.391	148.06
467.61	155.06
467.829	159.06
468.049	164.06
468.268	148.06
468.488	152.06
468.707	141.06
468.927	157.06
469.146	148.06
469.365	169.06
469.585	153.06
469.804	161.06
470.023	149.06
470.243	173.06
470.462	153.06
470.681	176.06
470.901	160.06
471.12	163.06
471.339	163.06
471.558	154.06
471.777	175.06
471.997	142.06
472.216	157.06
472.435	165.06
472.654	142.06
472.873	158.06
473.092	145.06
473.311	149.06
473.53	141.06
473.749	148.06
473.968	154.06
474.187	151.06
474.406	162.06
474.625	145.06
474.844	163.06
475.063	130.06
475.282	148.06
475.501	164.06
475.72	159.06
475.939	134.06
476.158	146.06
476.377	141.06
476.596	167.06
476.814	156.06
477.033	163.06
477.252	178.06
477.471	171.06
477.69	155.06
477.908	170.06
478.127	179.06
478.346	181.06
478.564	167.06
478.783	151.06
479.002	181.06
479.22	163.06
479.439	189.06
479.658	174.06
479.876	165.06
480.095	172.06
480.313	180.06
480.532	202.06
480.751	183.06
480.969	172.06
481.188	166.06
481.406	173.06
481.624	157.06
481.843	155.06
482.061	165.06
482.28	166.06
482.498	153.06
482.717	162.06
482.935	159.06
483.153	169.06
483.372	168.06
483.59	165.06
483.808	164.06
484.027	169.06
484.245	179.06
484.463	170.06
484.681	184.06
484.9	186.06
485.118	187.06
485.336	171.06
485.554	175.06
485.772	165.06
485.99	180.06
486.209	180.06
486.427	163.06
486.645	172.06
486.863	185.06
487.081	170.06
487.299	180.06
487.517	175.06
487.735	173.06
487.953	174.06
488.171	173.06
488.389	176.06
488.607	165.06
488.825	163.06
489.043	161.06
489.261	167.06
489.479	168.06
489.696	155.06
489.914	157.06
490.132	174.06
490.35	179.06
490.568	172.06
490.786	170.06
491.003	189.06
491.221	184.06
491.439	182.06
491.657	161.06
491.874	174.06
492.092	166.06
492.31	168.06
492.527	172.06
492.745	174.06
492.963	171.06
493.18	181.06
493.398	174.06
493.615	172.06
493.833	181.06
494.05	171.06
494.268	179.06
494.485	179.06
494.703	189.06
494.92	173.06
495.138	172.06
495.355	181.06
495.573	192.06
495.79	173.06
496.008	187.06
496.225	178.06
496.442	178.06
496.66	186.06
496.877	173.06
497.094	210.06
497.312	206.06
497.529	190.06
497.746	195.06
497.963	196.06
498.181	204.06
498.398	218.06
498.615	225.06
498.832	223.06
499.049	250.06
499.267	263.06
499.484	278.06
499.701	299.06
499.918	327.06
500.135	345.06
500.352	403.06
500.569	390.06
500.786	380.06
501.003	362.06
501.22	327.06
501.437	299.06
501.654	274.06
501.871	255.06
502.088	237.06
502.305	236.06
502.522	222.06
502.739	214.06
502.956	211.06
503.172	184.06
503.389	197.06
503.606	188.06
503.823	199.06
504.04	199.06
504.256	203.06
504.473	199.06
504.69	206.06
