Data from SampG_HRD10591_00042.txt Node
Date: Mon Jan 19 11:53:57 EST 2026
User: Yrep
Spectrometer: HR+D1059
Trigger mode: 0
Integration Time (sec): 3.443000E-1
Scans to average: 1
Electric dark correction enabled: true
Nonlinearity correction enabled: false
Boxcar width: 0
XAxis mode: Wavelengths
Number of Pixels in Spectrum: 2048
>>>>>Begin Spectral Data<<<<<
223.165	-11.19
223.4	-11.19
223.635	-11.19
223.869	-41.19
224.104	-25.19
224.338	-2.19
224.573	-12.19
224.808	-8.19
225.042	3.81
225.277	-11.19
225.511	-16.19
225.746	5.81
225.98	-1.19
226.215	16.81
226.449	19.81
226.683	22.81
226.918	27.81
227.152	31.81
227.387	35.81
227.621	36.81
227.856	37.81
228.09	32.81
228.324	62.81
228.559	59.81
228.793	54.81
229.027	52.81
229.262	65.81
229.496	53.81
229.73	72.81
229.964	68.81
230.199	67.81
230.433	68.81
230.667	70.81
230.901	67.81
231.136	71.81
231.37	75.81
231.604	73.81
231.838	79.81
232.072	76.81
232.306	66.81
232.541	73.81
232.775	79.81
233.009	81.81
233.243	76.81
233.477	79.81
233.711	84.81
233.945	82.81
234.179	95.81
234.413	74.81
234.647	77.81
234.881	77.81
235.115	77.81
235.349	71.81
235.583	89.81
235.817	81.81
236.051	73.81
236.285	70.81
236.519	65.81
236.753	86.81
236.987	75.81
237.221	76.81
237.455	68.81
237.689	77.81
237.922	73.81
238.156	72.81
238.39	90.81
238.624	80.81
238.858	77.81
239.091	72.81
239.325	68.81
239.559	89.81
239.793	83.81
240.027	86.81
240.26	76.81
240.494	79.81
240.728	79.81
240.961	71.81
241.195	80.81
241.429	72.81
241.662	63.81
241.896	70.81
242.13	75.81
242.363	67.81
242.597	76.81
242.83	72.81
243.064	69.81
243.298	64.81
243.531	69.81
243.765	72.81
243.998	76.81
244.232	82.81
244.465	75.81
244.699	82.81
244.932	78.81
245.166	86.81
245.399	96.81
245.633	85.81
245.866	75.81
246.099	68.81
246.333	73.81
246.566	62.81
246.8	75.81
247.033	79.81
247.266	70.81
247.5	78.81
247.733	81.81
247.966	81.81
248.2	78.81
248.433	78.81
248.666	87.81
248.899	93.81
249.133	76.81
249.366	86.81
249.599	70.81
249.832	85.81
250.066	81.81
250.299	72.81
250.532	73.81
250.765	80.81
250.998	69.81
251.231	72.81
251.465	78.81
251.698	65.81
251.931	82.81
252.164	62.81
252.397	70.81
252.63	89.81
252.863	90.81
253.096	85.81
253.329	73.81
253.562	90.81
253.795	81.81
254.028	77.81
254.261	69.81
254.494	70.81
254.727	88.81
254.96	81.81
255.193	84.81
255.426	82.81
255.659	64.81
255.892	73.81
256.124	83.81
256.357	83.81
256.59	73.81
256.823	83.81
257.056	81.81
257.289	89.81
257.521	78.81
257.754	81.81
257.987	85.81
258.22	87.81
258.452	92.81
258.685	86.81
258.918	90.81
259.151	87.81
259.383	95.81
259.616	83.81
259.849	72.81
260.081	101.81
260.314	81.81
260.547	75.81
260.779	87.81
261.012	95.81
261.244	82.81
261.477	85.81
261.71	78.81
261.942	87.81
262.175	84.81
262.407	86.81
262.64	85.81
262.872	84.81
263.105	92.81
263.337	85.81
263.57	83.81
263.802	82.81
264.035	95.81
264.267	77.81
264.499	101.81
264.732	87.81
264.964	94.81
265.197	89.81
265.429	84.81
265.661	78.81
265.894	79.81
266.126	96.81
266.358	83.81
266.591	82.81
266.823	95.81
267.055	87.81
267.287	89.81
267.52	86.81
267.752	87.81
267.984	89.81
268.216	82.81
268.448	89.81
268.681	93.81
268.913	85.81
269.145	83.81
269.377	96.81
269.609	95.81
269.841	93.81
270.073	77.81
270.306	81.81
270.538	86.81
270.77	87.81
271.002	79.81
271.234	91.81
271.466	87.81
271.698	83.81
271.93	84.81
272.162	100.81
272.394	92.81
272.626	79.81
272.858	89.81
273.09	87.81
273.322	81.81
273.553	87.81
273.785	86.81
274.017	98.81
274.249	109.81
274.481	79.81
274.713	79.81
274.945	84.81
275.176	73.81
275.408	74.81
275.64	100.81
275.872	81.81
276.104	105.81
276.335	90.81
276.567	81.81
276.799	79.81
277.031	87.81
277.262	76.81
277.494	90.81
277.726	96.81
277.957	94.81
278.189	86.81
278.421	79.81
278.652	89.81
278.884	96.81
279.115	83.81
279.347	83.81
279.579	104.81
279.81	90.81
280.042	97.81
280.273	91.81
280.505	85.81
280.736	96.81
280.968	91.81
281.199	85.81
281.431	92.81
281.662	96.81
281.894	102.81
282.125	87.81
282.356	82.81
282.588	89.81
282.819	92.81
283.051	86.81
283.282	102.81
283.513	94.81
283.745	94.81
283.976	88.81
284.207	91.81
284.439	103.81
284.67	90.81
284.901	92.81
285.132	93.81
285.364	110.81
285.595	97.81
285.826	95.81
286.057	106.81
286.288	86.81
286.52	86.81
286.751	105.81
286.982	103.81
287.213	92.81
287.444	103.81
287.675	103.81
287.906	110.81
288.138	91.81
288.369	99.81
288.6	85.81
288.831	87.81
289.062	95.81
289.293	98.81
289.524	89.81
289.755	99.81
289.986	89.81
290.217	94.81
290.448	103.81
290.679	97.81
290.91	96.81
291.141	105.81
291.371	99.81
291.602	79.81
291.833	93.81
292.064	94.81
292.295	95.81
292.526	88.81
292.757	96.81
292.987	97.81
293.218	86.81
293.449	84.81
293.68	107.81
293.91	93.81
294.141	85.81
294.372	95.81
294.603	108.81
294.833	81.81
295.064	89.81
295.295	88.81
295.525	101.81
295.756	97.81
295.987	91.81
296.217	100.81
296.448	92.81
296.679	100.81
296.909	105.81
297.14	103.81
297.37	97.81
297.601	94.81
297.831	94.81
298.062	105.81
298.292	86.81
298.523	104.81
298.753	93.81
298.984	92.81
299.214	89.81
299.445	102.81
299.675	93.81
299.905	88.81
300.136	96.81
300.366	89.81
300.597	101.81
300.827	97.81
301.057	81.81
301.288	88.81
301.518	103.81
301.748	103.81
301.979	136.81
302.209	115.81
302.439	87.81
302.669	96.81
302.9	96.81
303.13	100.81
303.36	81.81
303.59	95.81
303.82	92.81
304.051	100.81
304.281	103.81
304.511	100.81
304.741	90.81
304.971	98.81
305.201	102.81
305.431	102.81
305.661	89.81
305.891	77.81
306.121	78.81
306.352	103.81
306.582	93.81
306.812	100.81
307.042	99.81
307.272	99.81
307.502	80.81
307.731	99.81
307.961	103.81
308.191	94.81
308.421	97.81
308.651	96.81
308.881	95.81
309.111	82.81
309.341	100.81
309.571	110.81
309.8	103.81
310.03	93.81
310.26	96.81
310.49	87.81
310.72	91.81
310.949	99.81
311.179	87.81
311.409	96.81
311.639	84.81
311.868	99.81
312.098	99.81
312.328	96.81
312.557	119.81
312.787	103.81
313.017	103.81
313.246	107.81
313.476	100.81
313.706	89.81
313.935	89.81
314.165	107.81
314.394	93.81
314.624	84.81
314.853	92.81
315.083	84.81
315.312	103.81
315.542	98.81
315.771	99.81
316.001	95.81
316.23	104.81
316.46	97.81
316.689	94.81
316.919	87.81
317.148	101.81
317.377	111.81
317.607	99.81
317.836	91.81
318.065	98.81
318.295	101.81
318.524	95.81
318.753	96.81
318.983	105.81
319.212	101.81
319.441	89.81
319.67	94.81
319.9	108.81
320.129	110.81
320.358	100.81
320.587	92.81
320.816	104.81
321.046	98.81
321.275	110.81
321.504	88.81
321.733	105.81
321.962	105.81
322.191	97.81
322.42	96.81
322.649	115.81
322.878	112.81
323.108	110.81
323.337	106.81
323.566	98.81
323.795	105.81
324.024	84.81
324.253	106.81
324.482	100.81
324.71	95.81
324.939	98.81
325.168	110.81
325.397	109.81
325.626	92.81
325.855	97.81
326.084	93.81
326.313	89.81
326.542	91.81
326.77	118.81
326.999	109.81
327.228	107.81
327.457	112.81
327.686	104.81
327.914	110.81
328.143	108.81
328.372	95.81
328.6	91.81
328.829	99.81
329.058	100.81
329.287	110.81
329.515	99.81
329.744	108.81
329.972	107.81
330.201	89.81
330.43	99.81
330.658	98.81
330.887	111.81
331.115	103.81
331.344	101.81
331.572	85.81
331.801	102.81
332.03	112.81
332.258	113.81
332.486	103.81
332.715	98.81
332.943	113.81
333.172	115.81
333.4	102.81
333.629	105.81
333.857	108.81
334.085	115.81
334.314	115.81
334.542	115.81
334.771	115.81
334.999	108.81
335.227	104.81
335.455	121.81
335.684	114.81
335.912	126.81
336.14	107.81
336.369	103.81
336.597	102.81
336.825	109.81
337.053	100.81
337.281	112.81
337.51	105.81
337.738	103.81
337.966	99.81
338.194	110.81
338.422	105.81
338.65	111.81
338.878	113.81
339.106	109.81
339.334	111.81
339.562	116.81
339.79	104.81
340.018	97.81
340.246	99.81
340.474	95.81
340.702	103.81
340.93	99.81
341.158	112.81
341.386	95.81
341.614	92.81
341.842	96.81
342.07	107.81
342.298	109.81
342.526	98.81
342.754	115.81
342.981	111.81
343.209	96.81
343.437	132.81
343.665	91.81
343.893	117.81
344.12	124.81
344.348	104.81
344.576	103.81
344.804	118.81
345.031	96.81
345.259	112.81
345.487	109.81
345.714	116.81
345.942	91.81
346.17	84.81
346.397	82.81
346.625	89.81
346.853	98.81
347.08	108.81
347.308	100.81
347.535	111.81
347.763	107.81
347.99	107.81
348.218	112.81
348.445	103.81
348.673	100.81
348.9	120.81
349.128	99.81
349.355	101.81
349.583	112.81
349.81	105.81
350.037	96.81
350.265	99.81
350.492	86.81
350.72	87.81
350.947	102.81
351.174	106.81
351.402	99.81
351.629	110.81
351.856	95.81
352.083	102.81
352.311	79.81
352.538	98.81
352.765	107.81
352.992	105.81
353.22	98.81
353.447	102.81
353.674	97.81
353.901	112.81
354.128	111.81
354.355	109.81
354.583	101.81
354.81	98.81
355.037	124.81
355.264	114.81
355.491	119.81
355.718	80.81
355.945	94.81
356.172	100.81
356.399	121.81
356.626	100.81
356.853	94.81
357.08	118.81
357.307	103.81
357.534	100.81
357.761	105.81
357.988	104.81
358.215	113.81
358.441	105.81
358.668	87.81
358.895	109.81
359.122	102.81
359.349	102.81
359.576	111.81
359.802	96.81
360.029	104.81
360.256	105.81
360.483	95.81
360.709	100.81
360.936	115.81
361.163	112.81
361.39	107.81
361.616	84.81
361.843	113.81
362.07	103.81
362.296	109.81
362.523	100.81
362.749	101.81
362.976	101.81
363.203	120.81
363.429	107.81
363.656	114.81
363.882	99.81
364.109	112.81
364.335	101.81
364.562	107.81
364.788	99.81
365.015	120.81
365.241	117.81
365.468	99.81
365.694	103.81
365.92	98.81
366.147	89.81
366.373	90.81
366.599	106.81
366.826	113.81
367.052	121.81
367.278	106.81
367.505	113.81
367.731	119.81
367.957	96.81
368.184	102.81
368.41	111.81
368.636	99.81
368.862	94.81
369.089	116.81
369.315	93.81
369.541	99.81
369.767	114.81
369.993	93.81
370.219	105.81
370.445	92.81
370.672	108.81
370.898	93.81
371.124	100.81
371.35	106.81
371.576	109.81
371.802	101.81
372.028	95.81
372.254	99.81
372.48	113.81
372.706	103.81
372.932	107.81
373.158	99.81
373.384	114.81
373.61	101.81
373.835	105.81
374.061	106.81
374.287	95.81
374.513	105.81
374.739	120.81
374.965	105.81
375.191	108.81
375.416	110.81
375.642	109.81
375.868	112.81
376.094	98.81
376.319	101.81
376.545	104.81
376.771	107.81
376.997	104.81
377.222	100.81
377.448	106.81
377.674	99.81
377.899	90.81
378.125	102.81
378.35	104.81
378.576	103.81
378.802	101.81
379.027	110.81
379.253	110.81
379.478	105.81
379.704	100.81
379.929	106.81
380.155	96.81
380.38	88.81
380.606	100.81
380.831	87.81
381.057	98.81
381.282	99.81
381.507	100.81
381.733	104.81
381.958	113.81
382.184	108.81
382.409	121.81
382.634	111.81
382.86	100.81
383.085	96.81
383.31	115.81
383.535	127.81
383.761	109.81
383.986	111.81
384.211	95.81
384.436	106.81
384.662	111.81
384.887	106.81
385.112	123.81
385.337	111.81
385.562	103.81
385.787	102.81
386.013	107.81
386.238	113.81
386.463	100.81
386.688	147.81
386.913	113.81
387.138	111.81
387.363	103.81
387.588	119.81
387.813	117.81
388.038	125.81
388.263	123.81
388.488	99.81
388.713	101.81
388.938	104.81
389.163	103.81
389.387	102.81
389.612	98.81
389.837	102.81
390.062	118.81
390.287	112.81
390.512	103.81
390.736	111.81
390.961	103.81
391.186	127.81
391.411	116.81
391.636	111.81
391.86	112.81
392.085	112.81
392.31	118.81
392.534	123.81
392.759	109.81
392.984	117.81
393.208	115.81
393.433	127.81
393.658	117.81
393.882	113.81
394.107	121.81
394.331	105.81
394.556	98.81
394.78	124.81
395.005	127.81
395.229	113.81
395.454	120.81
395.678	117.81
395.903	118.81
396.127	110.81
396.352	111.81
396.576	99.81
396.801	113.81
397.025	111.81
397.249	105.81
397.474	123.81
397.698	130.81
397.922	107.81
398.147	113.81
398.371	103.81
398.595	115.81
398.82	111.81
399.044	129.81
399.268	142.81
399.492	151.81
399.717	156.81
399.941	137.81
400.165	126.81
400.389	132.81
400.613	116.81
400.837	113.81
401.062	119.81
401.286	111.81
401.51	121.81
401.734	109.81
401.958	107.81
402.182	120.81
402.406	127.81
402.63	111.81
402.854	114.81
403.078	119.81
403.302	140.81
403.526	132.81
403.75	125.81
403.974	135.81
404.198	127.81
404.422	126.81
404.645	121.81
404.869	115.81
405.093	132.81
405.317	124.81
405.541	123.81
405.765	118.81
405.988	127.81
406.212	115.81
406.436	127.81
406.66	131.81
406.883	137.81
407.107	143.81
407.331	129.81
407.555	136.81
407.778	130.81
408.002	113.81
408.226	121.81
408.449	123.81
408.673	128.81
408.896	113.81
409.12	121.81
409.344	135.81
409.567	136.81
409.791	129.81
410.014	128.81
410.238	124.81
410.461	117.81
410.685	113.81
410.908	114.81
411.132	137.81
411.355	125.81
411.578	135.81
411.802	127.81
412.025	109.81
412.249	111.81
412.472	111.81
412.695	104.81
412.919	126.81
413.142	124.81
413.365	104.81
413.589	118.81
413.812	123.81
414.035	127.81
414.258	109.81
414.482	118.81
414.705	118.81
414.928	110.81
415.151	125.81
415.374	134.81
415.597	120.81
415.821	121.81
416.044	123.81
416.267	105.81
416.49	122.81
416.713	113.81
416.936	121.81
417.159	121.81
417.382	129.81
417.605	128.81
417.828	128.81
418.051	108.81
418.274	119.81
418.497	119.81
418.72	129.81
418.943	132.81
419.166	112.81
419.389	139.81
419.611	128.81
419.834	115.81
420.057	133.81
420.28	124.81
420.503	118.81
420.726	120.81
420.948	109.81
421.171	122.81
421.394	109.81
421.617	112.81
421.839	131.81
422.062	109.81
422.285	117.81
422.507	114.81
422.73	106.81
422.953	118.81
423.175	116.81
423.398	112.81
423.621	117.81
423.843	117.81
424.066	122.81
424.288	120.81
424.511	132.81
424.733	118.81
424.956	111.81
425.178	135.81
425.401	118.81
425.623	120.81
425.846	119.81
426.068	100.81
426.291	117.81
426.513	105.81
426.735	112.81
426.958	119.81
427.18	113.81
427.402	114.81
427.625	105.81
427.847	129.81
428.069	115.81
428.292	99.81
428.514	127.81
428.736	123.81
428.958	105.81
429.181	101.81
429.403	112.81
429.625	99.81
429.847	117.81
430.069	118.81
430.292	118.81
430.514	120.81
430.736	106.81
430.958	117.81
431.18	106.81
431.402	130.81
431.624	112.81
431.846	108.81
432.068	118.81
432.29	111.81
432.512	116.81
432.734	123.81
432.956	122.81
433.178	127.81
433.4	123.81
433.622	132.81
433.844	102.81
434.066	110.81
434.287	126.81
434.509	109.81
434.731	115.81
434.953	112.81
435.175	105.81
435.397	132.81
435.618	111.81
435.84	112.81
436.062	126.81
436.284	112.81
436.505	112.81
436.727	100.81
436.949	111.81
437.17	109.81
437.392	109.81
437.614	111.81
437.835	109.81
438.057	105.81
438.278	112.81
438.5	117.81
438.721	101.81
438.943	115.81
439.165	108.81
439.386	112.81
439.608	121.81
439.829	124.81
440.05	110.81
440.272	103.81
440.493	107.81
440.715	116.81
440.936	121.81
441.158	122.81
441.379	113.81
441.6	105.81
441.822	129.81
442.043	117.81
442.264	117.81
442.486	112.81
442.707	122.81
442.928	114.81
443.149	119.81
443.371	136.81
443.592	113.81
443.813	121.81
444.034	121.81
444.255	120.81
444.476	114.81
444.698	117.81
444.919	116.81
445.14	401.81
445.361	251.81
445.582	139.81
445.803	123.81
446.024	122.81
446.245	125.81
446.466	113.81
446.687	123.81
446.908	111.81
447.129	106.81
447.35	117.81
447.571	121.81
447.792	117.81
448.013	119.81
448.234	111.81
448.455	130.81
448.675	127.81
448.896	105.81
449.117	104.81
449.338	106.81
449.559	110.81
449.779	106.81
450	118.81
450.221	120.81
450.442	109.81
450.662	111.81
450.883	114.81
451.104	124.81
451.324	113.81
451.545	105.81
451.766	126.81
451.986	93.81
452.207	117.81
452.428	99.81
452.648	113.81
452.869	119.81
453.089	99.81
453.31	115.81
453.53	111.81
453.751	112.81
453.971	110.81
454.192	104.81
454.412	103.81
454.633	118.81
454.853	119.81
455.073	101.81
455.294	102.81
455.514	106.81
455.734	113.81
455.955	110.81
456.175	100.81
456.395	115.81
456.616	111.81
456.836	103.81
457.056	93.81
457.276	95.81
457.497	99.81
457.717	103.81
457.937	119.81
458.157	115.81
458.377	111.81
458.598	95.81
458.818	112.81
459.038	111.81
459.258	121.81
459.478	106.81
459.698	107.81
459.918	111.81
460.138	120.81
460.358	131.81
460.578	116.81
460.798	124.81
461.018	123.81
461.238	134.81
461.458	116.81
461.678	134.81
461.898	121.81
462.118	129.81
462.338	117.81
462.558	109.81
462.777	124.81
462.997	139.81
463.217	143.81
463.437	129.81
463.657	130.81
463.876	133.81
464.096	128.81
464.316	120.81
464.536	135.81
464.755	135.81
464.975	125.81
465.195	124.81
465.414	126.81
465.634	110.81
465.854	118.81
466.073	116.81
466.293	120.81
466.512	102.81
466.732	124.81
466.951	108.81
467.171	110.81
467.391	119.81
467.61	116.81
467.829	110.81
468.049	111.81
468.268	110.81
468.488	118.81
468.707	117.81
468.927	115.81
469.146	73.81
469.365	121.81
469.585	117.81
469.804	108.81
470.023	102.81
470.243	115.81
470.462	121.81
470.681	104.81
470.901	116.81
471.12	115.81
471.339	115.81
471.558	113.81
471.777	129.81
471.997	126.81
472.216	109.81
472.435	108.81
472.654	115.81
472.873	110.81
473.092	104.81
473.311	115.81
473.53	114.81
473.749	114.81
473.968	119.81
474.187	107.81
474.406	112.81
474.625	112.81
474.844	107.81
475.063	100.81
475.282	112.81
475.501	104.81
475.72	132.81
475.939	103.81
476.158	115.81
476.377	115.81
476.596	101.81
476.814	108.81
477.033	122.81
477.252	98.81
477.471	124.81
477.69	119.81
477.908	125.81
478.127	117.81
478.346	108.81
478.564	135.81
478.783	119.81
479.002	124.81
479.22	117.81
479.439	126.81
479.658	116.81
479.876	119.81
480.095	111.81
480.313	129.81
480.532	144.81
480.751	130.81
480.969	131.81
481.188	116.81
481.406	117.81
481.624	123.81
481.843	122.81
482.061	110.81
482.28	121.81
482.498	115.81
482.717	109.81
482.935	117.81
483.153	112.81
483.372	130.81
483.59	117.81
483.808	110.81
484.027	116.81
484.245	112.81
484.463	126.81
484.681	110.81
484.9	107.81
485.118	124.81
485.336	119.81
485.554	120.81
485.772	116.81
485.99	121.81
486.209	117.81
486.427	117.81
486.645	126.81
486.863	108.81
487.081	124.81
487.299	120.81
487.517	125.81
487.735	113.81
487.953	126.81
488.171	132.81
488.389	122.81
488.607	117.81
488.825	119.81
489.043	134.81
489.261	145.81
489.479	106.81
489.696	107.81
489.914	116.81
490.132	122.81
490.35	109.81
490.568	119.81
490.786	127.81
491.003	107.81
491.221	109.81
491.439	110.81
491.657	123.81
491.874	130.81
492.092	131.81
492.31	132.81
492.527	108.81
492.745	121.81
492.963	108.81
493.18	122.81
493.398	116.81
493.615	119.81
493.833	118.81
494.05	116.81
494.268	126.81
494.485	125.81
494.703	117.81
494.92	108.81
495.138	114.81
495.355	125.81
495.573	132.81
495.79	133.81
496.008	127.81
496.225	110.81
496.442	122.81
496.66	116.81
496.877	98.81
497.094	132.81
497.312	124.81
497.529	130.81
497.746	139.81
497.963	124.81
498.181	153.81
498.398	136.81
498.615	125.81
498.832	153.81
499.049	158.81
499.267	146.81
499.484	167.81
499.701	192.81
499.918	194.81
500.135	205.81
500.352	235.81
500.569	227.81
500.786	221.81
501.003	211.81
501.22	196.81
501.437	173.81
501.654	175.81
501.871	163.81
502.088	160.81
502.305	147.81
502.522	139.81
502.739	143.81
502.956	144.81
503.172	142.81
503.389	141.81
503.606	123.81
503.823	136.81
504.04	141.81
504.256	146.81
504.473	128.81
504.69	130.81
504.907	155.81
505.123	120.81
505.34	131.81
505.557	131.81
505.773	113.81
505.99	118.81
506.207	118.81
506.423	119.81
506.64	128.81
506.856	123.81
507.073	114.81
507.289	132.81
507.506	116.81
507.722	115.81
507.939	119.81
508.155	129.81
508.372	109.81
508.588	120.81
