Data from SampG_HRD10591_00001.txt Node
Date: Mon Jan 19 11:53:43 EST 2026
User: Yrep
Spectrometer: HR+D1059
Trigger mode: 0
Integration Time (sec): 3.443000E-1
Scans to average: 1
Electric dark correction enabled: true
Nonlinearity correction enabled: false
Boxcar width: 0
XAxis mode: Wavelengths
Number of Pixels in Spectrum: 2048
>>>>>Begin Spectral Data<<<<<
223.165	-24.31
223.4	-24.31
223.635	-24.31
223.869	-31.31
224.104	-15.31
224.338	-23.31
224.573	-13.31
224.808	-15.31
225.042	5.69
225.277	-1.31
225.511	-10.31
225.746	-0.31
225.98	14.69
226.215	7.69
226.449	22.69
226.683	34.69
226.918	19.69
227.152	29.69
227.387	29.69
227.621	47.69
227.856	41.69
228.09	60.69
228.324	48.69
228.559	57.69
228.793	56.69
229.027	74.69
229.262	84.69
229.496	69.69
229.73	80.69
229.964	86.69
230.199	84.69
230.433	83.69
230.667	71.69
230.901	107.69
231.136	80.69
231.37	93.69
231.604	82.69
231.838	78.69
232.072	90.69
232.306	88.69
232.541	104.69
232.775	81.69
233.009	92.69
233.243	92.69
233.477	88.69
233.711	84.69
233.945	93.69
234.179	89.69
234.413	83.69
234.647	90.69
234.881	94.69
235.115	86.69
235.349	84.69
235.583	98.69
235.817	86.69
236.051	66.69
236.285	94.69
236.519	86.69
236.753	92.69
236.987	87.69
237.221	91.69
237.455	91.69
237.689	86.69
237.922	85.69
238.156	91.69
238.39	93.69
238.624	80.69
238.858	87.69
239.091	80.69
239.325	74.69
239.559	78.69
239.793	86.69
240.027	92.69
240.26	84.69
240.494	85.69
240.728	84.69
240.961	96.69
241.195	93.69
241.429	101.69
241.662	81.69
241.896	84.69
242.13	85.69
242.363	102.69
242.597	95.69
242.83	98.69
243.064	87.69
243.298	84.69
243.531	91.69
243.765	98.69
243.998	100.69
244.232	96.69
244.465	95.69
244.699	71.69
244.932	72.69
245.166	90.69
245.399	89.69
245.633	88.69
245.866	85.69
246.099	89.69
246.333	91.69
246.566	93.69
246.8	108.69
247.033	82.69
247.266	83.69
247.5	83.69
247.733	108.69
247.966	86.69
248.2	88.69
248.433	84.69
248.666	92.69
248.899	108.69
249.133	100.69
249.366	110.69
249.599	93.69
249.832	88.69
250.066	107.69
250.299	100.69
250.532	96.69
250.765	104.69
250.998	86.69
251.231	86.69
251.465	100.69
251.698	95.69
251.931	90.69
252.164	103.69
252.397	107.69
252.63	99.69
252.863	91.69
253.096	96.69
253.329	100.69
253.562	99.69
253.795	113.69
254.028	103.69
254.261	103.69
254.494	101.69
254.727	107.69
254.96	83.69
255.193	93.69
255.426	90.69
255.659	101.69
255.892	103.69
256.124	102.69
256.357	102.69
256.59	85.69
256.823	86.69
257.056	121.69
257.289	107.69
257.521	108.69
257.754	103.69
257.987	97.69
258.22	124.69
258.452	97.69
258.685	110.69
258.918	108.69
259.151	99.69
259.383	100.69
259.616	91.69
259.849	107.69
260.081	118.69
260.314	102.69
260.547	96.69
260.779	109.69
261.012	111.69
261.244	110.69
261.477	112.69
261.71	107.69
261.942	102.69
262.175	105.69
262.407	99.69
262.64	100.69
262.872	109.69
263.105	110.69
263.337	112.69
263.57	103.69
263.802	107.69
264.035	110.69
264.267	116.69
264.499	107.69
264.732	111.69
264.964	95.69
265.197	105.69
265.429	106.69
265.661	108.69
265.894	103.69
266.126	101.69
266.358	102.69
266.591	108.69
266.823	113.69
267.055	114.69
267.287	124.69
267.52	108.69
267.752	107.69
267.984	111.69
268.216	102.69
268.448	119.69
268.681	127.69
268.913	111.69
269.145	110.69
269.377	117.69
269.609	115.69
269.841	111.69
270.073	108.69
270.306	120.69
270.538	121.69
270.77	131.69
271.002	116.69
271.234	120.69
271.466	125.69
271.698	119.69
271.93	105.69
272.162	108.69
272.394	114.69
272.626	117.69
272.858	109.69
273.09	133.69
273.322	112.69
273.553	110.69
273.785	110.69
274.017	123.69
274.249	110.69
274.481	112.69
274.713	110.69
274.945	111.69
275.176	102.69
275.408	106.69
275.64	106.69
275.872	116.69
276.104	127.69
276.335	116.69
276.567	102.69
276.799	124.69
277.031	105.69
277.262	115.69
277.494	132.69
277.726	122.69
277.957	110.69
278.189	121.69
278.421	107.69
278.652	122.69
278.884	108.69
279.115	124.69
279.347	113.69
279.579	111.69
279.81	114.69
280.042	119.69
280.273	125.69
280.505	117.69
280.736	113.69
280.968	122.69
281.199	130.69
281.431	130.69
281.662	127.69
281.894	123.69
282.125	120.69
282.356	110.69
282.588	118.69
282.819	124.69
283.051	134.69
283.282	128.69
283.513	130.69
283.745	131.69
283.976	141.69
284.207	117.69
284.439	126.69
284.67	127.69
284.901	119.69
285.132	128.69
285.364	120.69
285.595	144.69
285.826	138.69
286.057	135.69
286.288	126.69
286.52	137.69
286.751	136.69
286.982	118.69
287.213	126.69
287.444	129.69
287.675	120.69
287.906	138.69
288.138	129.69
288.369	125.69
288.6	137.69
288.831	136.69
289.062	137.69
289.293	127.69
289.524	116.69
289.755	134.69
289.986	128.69
290.217	125.69
290.448	111.69
290.679	134.69
290.91	143.69
291.141	138.69
291.371	124.69
291.602	119.69
291.833	133.69
292.064	128.69
292.295	134.69
292.526	136.69
292.757	141.69
292.987	134.69
293.218	123.69
293.449	140.69
293.68	140.69
293.91	127.69
294.141	133.69
294.372	136.69
294.603	130.69
294.833	129.69
295.064	131.69
295.295	127.69
295.525	121.69
295.756	136.69
295.987	135.69
296.217	124.69
296.448	130.69
296.679	126.69
296.909	131.69
297.14	135.69
297.37	139.69
297.601	152.69
297.831	148.69
298.062	139.69
298.292	135.69
298.523	129.69
298.753	127.69
298.984	146.69
299.214	135.69
299.445	160.69
299.675	141.69
299.905	154.69
300.136	111.69
300.366	143.69
300.597	156.69
300.827	142.69
301.057	141.69
301.288	131.69
301.518	137.69
301.748	142.69
301.979	185.69
302.209	155.69
302.439	129.69
302.669	150.69
302.9	125.69
303.13	148.69
303.36	127.69
303.59	155.69
303.82	137.69
304.051	143.69
304.281	148.69
304.511	149.69
304.741	131.69
304.971	144.69
305.201	137.69
305.431	137.69
305.661	139.69
305.891	162.69
306.121	158.69
306.352	135.69
306.582	139.69
306.812	147.69
307.042	134.69
307.272	144.69
307.502	141.69
307.731	133.69
307.961	150.69
308.191	143.69
308.421	142.69
308.651	138.69
308.881	131.69
309.111	131.69
309.341	147.69
309.571	131.69
309.8	144.69
310.03	135.69
310.26	132.69
310.49	146.69
310.72	141.69
310.949	138.69
311.179	130.69
311.409	149.69
311.639	155.69
311.868	131.69
312.098	138.69
312.328	149.69
312.557	138.69
312.787	124.69
313.017	134.69
313.246	138.69
313.476	148.69
313.706	144.69
313.935	150.69
314.165	140.69
314.394	137.69
314.624	135.69
314.853	153.69
315.083	148.69
315.312	150.69
315.542	139.69
315.771	149.69
316.001	158.69
316.23	143.69
316.46	140.69
316.689	126.69
316.919	152.69
317.148	150.69
317.377	155.69
317.607	133.69
317.836	148.69
318.065	141.69
318.295	123.69
318.524	132.69
318.753	164.69
318.983	149.69
319.212	148.69
319.441	139.69
319.67	139.69
319.9	148.69
320.129	155.69
320.358	158.69
320.587	142.69
320.816	136.69
321.046	142.69
321.275	163.69
321.504	119.69
321.733	139.69
321.962	162.69
322.191	151.69
322.42	152.69
322.649	155.69
322.878	153.69
323.108	134.69
323.337	142.69
323.566	146.69
323.795	139.69
324.024	146.69
324.253	150.69
324.482	146.69
324.71	147.69
324.939	146.69
325.168	150.69
325.397	142.69
325.626	134.69
325.855	152.69
326.084	150.69
326.313	167.69
326.542	152.69
326.77	156.69
326.999	147.69
327.228	142.69
327.457	157.69
327.686	159.69
327.914	159.69
328.143	171.69
328.372	147.69
328.6	149.69
328.829	166.69
329.058	153.69
329.287	128.69
329.515	151.69
329.744	169.69
329.972	162.69
330.201	162.69
330.43	141.69
330.658	141.69
330.887	148.69
331.115	153.69
331.344	149.69
331.572	161.69
331.801	169.69
332.03	147.69
332.258	172.69
332.486	164.69
332.715	166.69
332.943	172.69
333.172	182.69
333.4	178.69
333.629	186.69
333.857	184.69
334.085	170.69
334.314	188.69
334.542	161.69
334.771	165.69
334.999	168.69
335.227	173.69
335.455	159.69
335.684	167.69
335.912	168.69
336.14	175.69
336.369	178.69
336.597	170.69
336.825	165.69
337.053	155.69
337.281	175.69
337.51	160.69
337.738	155.69
337.966	163.69
338.194	166.69
338.422	165.69
338.65	156.69
338.878	163.69
339.106	164.69
339.334	156.69
339.562	155.69
339.79	169.69
340.018	153.69
340.246	149.69
340.474	146.69
340.702	168.69
340.93	165.69
341.158	147.69
341.386	143.69
341.614	136.69
341.842	155.69
342.07	156.69
342.298	154.69
342.526	169.69
342.754	162.69
342.981	170.69
343.209	175.69
343.437	168.69
343.665	164.69
343.893	152.69
344.12	173.69
344.348	163.69
344.576	156.69
344.804	152.69
345.031	142.69
345.259	144.69
345.487	151.69
345.714	153.69
345.942	150.69
346.17	158.69
346.397	149.69
346.625	152.69
346.853	142.69
347.08	139.69
347.308	137.69
347.535	143.69
347.763	149.69
347.99	156.69
348.218	148.69
348.445	140.69
348.673	166.69
348.9	141.69
349.128	160.69
349.355	132.69
349.583	148.69
349.81	156.69
350.037	155.69
350.265	153.69
350.492	150.69
350.72	159.69
350.947	146.69
351.174	153.69
351.402	139.69
351.629	148.69
351.856	142.69
352.083	137.69
352.311	147.69
352.538	133.69
352.765	139.69
352.992	160.69
353.22	155.69
353.447	166.69
353.674	150.69
353.901	153.69
354.128	155.69
354.355	153.69
354.583	159.69
354.81	152.69
355.037	149.69
355.264	166.69
355.491	153.69
355.718	156.69
355.945	165.69
356.172	148.69
356.399	151.69
356.626	146.69
356.853	149.69
357.08	154.69
357.307	165.69
357.534	148.69
357.761	165.69
357.988	167.69
358.215	162.69
358.441	150.69
358.668	142.69
358.895	170.69
359.122	154.69
359.349	150.69
359.576	149.69
359.802	153.69
360.029	164.69
360.256	150.69
360.483	150.69
360.709	150.69
360.936	164.69
361.163	165.69
361.39	154.69
361.616	159.69
361.843	148.69
362.07	149.69
362.296	147.69
362.523	147.69
362.749	131.69
362.976	153.69
363.203	169.69
363.429	150.69
363.656	146.69
363.882	146.69
364.109	162.69
364.335	159.69
364.562	140.69
364.788	153.69
365.015	143.69
365.241	144.69
365.468	141.69
365.694	142.69
365.92	149.69
366.147	154.69
366.373	147.69
366.599	141.69
366.826	136.69
367.052	153.69
367.278	148.69
367.505	150.69
367.731	155.69
367.957	141.69
368.184	151.69
368.41	130.69
368.636	146.69
368.862	166.69
369.089	153.69
369.315	147.69
369.541	147.69
369.767	157.69
369.993	172.69
370.219	160.69
370.445	152.69
370.672	163.69
370.898	148.69
371.124	151.69
371.35	153.69
371.576	152.69
371.802	142.69
372.028	155.69
372.254	162.69
372.48	151.69
372.706	159.69
372.932	151.69
373.158	160.69
373.384	163.69
373.61	169.69
373.835	149.69
374.061	149.69
374.287	141.69
374.513	174.69
374.739	170.69
374.965	181.69
375.191	171.69
375.416	177.69
375.642	161.69
375.868	150.69
376.094	156.69
376.319	150.69
376.545	171.69
376.771	147.69
376.997	160.69
377.222	149.69
377.448	159.69
377.674	158.69
377.899	165.69
378.125	142.69
378.35	150.69
378.576	143.69
378.802	147.69
379.027	162.69
379.253	160.69
379.478	155.69
379.704	142.69
379.929	147.69
380.155	168.69
380.38	149.69
380.606	138.69
380.831	154.69
381.057	174.69
381.282	162.69
381.507	156.69
381.733	164.69
381.958	146.69
382.184	183.69
382.409	170.69
382.634	170.69
382.86	163.69
383.085	168.69
383.31	169.69
383.535	175.69
383.761	178.69
383.986	186.69
384.211	169.69
384.436	180.69
384.662	169.69
384.887	192.69
385.112	184.69
385.337	165.69
385.562	173.69
385.787	174.69
386.013	176.69
386.238	178.69
386.463	179.69
386.688	206.69
386.913	170.69
387.138	171.69
387.363	182.69
387.588	165.69
387.813	175.69
388.038	178.69
388.263	161.69
388.488	167.69
388.713	172.69
388.938	166.69
389.163	190.69
389.387	182.69
389.612	170.69
389.837	166.69
390.062	165.69
390.287	175.69
390.512	180.69
390.736	148.69
390.961	175.69
391.186	166.69
391.411	185.69
391.636	178.69
391.86	194.69
392.085	205.69
392.31	183.69
392.534	176.69
392.759	190.69
392.984	208.69
393.208	198.69
393.433	207.69
393.658	204.69
393.882	184.69
394.107	194.69
394.331	186.69
394.556	170.69
394.78	189.69
395.005	188.69
395.229	179.69
395.454	199.69
395.678	195.69
395.903	194.69
396.127	186.69
396.352	179.69
396.576	171.69
396.801	198.69
397.025	199.69
397.249	176.69
397.474	182.69
397.698	195.69
397.922	178.69
398.147	186.69
398.371	170.69
398.595	200.69
398.82	207.69
399.044	222.69
399.268	226.69
399.492	258.69
399.717	296.69
399.941	256.69
400.165	239.69
400.389	206.69
400.613	222.69
400.837	210.69
401.062	196.69
401.286	222.69
401.51	188.69
401.734	176.69
401.958	208.69
402.182	208.69
402.406	214.69
402.63	204.69
402.854	197.69
403.078	239.69
403.302	186.69
403.526	227.69
403.75	211.69
403.974	219.69
404.198	233.69
404.422	223.69
404.645	226.69
404.869	211.69
405.093	235.69
405.317	226.69
405.541	234.69
405.765	204.69
405.988	199.69
406.212	221.69
406.436	203.69
406.66	222.69
406.883	218.69
407.107	226.69
407.331	241.69
407.555	250.69
407.778	229.69
408.002	244.69
408.226	242.69
408.449	229.69
408.673	235.69
408.896	231.69
409.12	221.69
409.344	220.69
409.567	220.69
409.791	227.69
410.014	212.69
410.238	215.69
410.461	222.69
410.685	222.69
410.908	216.69
411.132	204.69
411.355	204.69
411.578	218.69
411.802	210.69
412.025	215.69
412.249	224.69
412.472	200.69
412.695	202.69
412.919	211.69
413.142	213.69
413.365	201.69
413.589	192.69
413.812	196.69
414.035	205.69
414.258	215.69
414.482	211.69
414.705	219.69
414.928	214.69
415.151	204.69
415.374	201.69
415.597	186.69
415.821	203.69
416.044	210.69
416.267	211.69
416.49	193.69
416.713	180.69
416.936	196.69
417.159	195.69
417.382	190.69
417.605	189.69
417.828	183.69
418.051	203.69
418.274	193.69
418.497	210.69
418.72	218.69
418.943	207.69
419.166	205.69
419.389	218.69
419.611	205.69
419.834	211.69
420.057	230.69
420.28	215.69
420.503	212.69
420.726	206.69
420.948	200.69
421.171	223.69
421.394	207.69
421.617	199.69
421.839	192.69
422.062	192.69
422.285	204.69
422.507	218.69
422.73	205.69
422.953	216.69
423.175	203.69
423.398	215.69
423.621	214.69
423.843	216.69
424.066	215.69
424.288	213.69
424.511	208.69
424.733	210.69
424.956	213.69
425.178	198.69
425.401	195.69
425.623	199.69
425.846	190.69
426.068	190.69
426.291	184.69
426.513	212.69
426.735	204.69
426.958	191.69
427.18	176.69
427.402	193.69
427.625	185.69
427.847	180.69
428.069	194.69
428.292	177.69
428.514	170.69
428.736	176.69
428.958	175.69
429.181	168.69
429.403	179.69
429.625	182.69
429.847	182.69
430.069	175.69
430.292	184.69
430.514	196.69
430.736	182.69
430.958	189.69
431.18	166.69
431.402	172.69
431.624	182.69
431.846	186.69
432.068	196.69
432.29	187.69
432.512	184.69
432.734	186.69
432.956	195.69
433.178	195.69
433.4	189.69
433.622	191.69
433.844	191.69
434.066	187.69
434.287	196.69
434.509	197.69
434.731	216.69
434.953	210.69
435.175	188.69
435.397	200.69
435.618	182.69
435.84	197.69
436.062	191.69
436.284	188.69
436.505	188.69
436.727	191.69
436.949	174.69
437.17	188.69
437.392	166.69
437.614	183.69
437.835	176.69
438.057	171.69
438.278	193.69
438.5	173.69
438.721	180.69
438.943	192.69
439.165	182.69
439.386	156.69
439.608	186.69
439.829	193.69
440.05	179.69
440.272	177.69
440.493	191.69
440.715	182.69
440.936	194.69
441.158	209.69
441.379	189.69
441.6	201.69
441.822	204.69
442.043	196.69
442.264	194.69
442.486	193.69
442.707	185.69
442.928	184.69
443.149	192.69
443.371	189.69
443.592	207.69
443.813	200.69
444.034	218.69
444.255	222.69
444.476	219.69
444.698	227.69
444.919	227.69
445.14	477.69
445.361	324.69
445.582	212.69
445.803	199.69
446.024	185.69
446.245	194.69
446.466	198.69
446.687	204.69
446.908	184.69
447.129	191.69
447.35	164.69
447.571	181.69
447.792	192.69
448.013	167.69
448.234	185.69
448.455	181.69
448.675	176.69
448.896	183.69
449.117	180.69
449.338	180.69
449.559	173.69
449.779	172.69
450	180.69
450.221	190.69
450.442	187.69
450.662	194.69
450.883	203.69
451.104	166.69
451.324	166.69
451.545	182.69
451.766	172.69
451.986	176.69
452.207	174.69
452.428	198.69
452.648	166.69
452.869	179.69
453.089	181.69
453.31	184.69
453.53	187.69
453.751	182.69
453.971	176.69
454.192	176.69
454.412	156.69
454.633	169.69
454.853	173.69
455.073	179.69
455.294	160.69
455.514	181.69
455.734	169.69
455.955	160.69
456.175	170.69
456.395	149.69
456.616	165.69
456.836	168.69
457.056	175.69
457.276	152.69
457.497	166.69
457.717	169.69
457.937	162.69
458.157	169.69
458.377	162.69
458.598	177.69
458.818	175.69
459.038	192.69
459.258	167.69
459.478	182.69
459.698	183.69
459.918	192.69
460.138	199.69
460.358	199.69
460.578	219.69
460.798	224.69
461.018	210.69
461.238	207.69
461.458	206.69
461.678	202.69
461.898	224.69
462.118	223.69
462.338	249.69
462.558	236.69
462.777	208.69
462.997	236.69
463.217	254.69
463.437	240.69
463.657	222.69
463.876	221.69
464.096	230.69
464.316	231.69
464.536	250.69
464.755	223.69
464.975	214.69
465.195	203.69
465.414	199.69
465.634	180.69
465.854	190.69
466.073	185.69
466.293	180.69
466.512	160.69
466.732	169.69
466.951	169.69
467.171	174.69
467.391	185.69
467.61	178.69
467.829	183.69
468.049	182.69
468.268	183.69
468.488	191.69
468.707	171.69
468.927	187.69
469.146	186.69
469.365	187.69
469.585	183.69
469.804	175.69
470.023	179.69
470.243	191.69
470.462	179.69
470.681	205.69
470.901	172.69
471.12	179.69
471.339	169.69
471.558	174.69
471.777	173.69
471.997	184.69
472.216	182.69
472.435	150.69
472.654	166.69
472.873	172.69
473.092	182.69
473.311	182.69
473.53	173.69
473.749	192.69
473.968	188.69
474.187	170.69
474.406	169.69
474.625	163.69
474.844	196.69
475.063	189.69
475.282	184.69
475.501	196.69
475.72	200.69
475.939	175.69
476.158	161.69
476.377	182.69
476.596	177.69
476.814	184.69
477.033	189.69
477.252	190.69
477.471	196.69
477.69	186.69
477.908	173.69
478.127	207.69
478.346	216.69
478.564	197.69
478.783	187.69
479.002	186.69
479.22	196.69
479.439	210.69
479.658	203.69
479.876	200.69
480.095	201.69
480.313	227.69
480.532	231.69
480.751	227.69
480.969	200.69
481.188	199.69
481.406	213.69
481.624	187.69
481.843	184.69
482.061	190.69
482.28	192.69
482.498	181.69
482.717	179.69
482.935	208.69
483.153	201.69
483.372	180.69
483.59	198.69
483.808	181.69
484.027	199.69
484.245	180.69
484.463	190.69
484.681	190.69
484.9	186.69
485.118	194.69
485.336	199.69
485.554	197.69
485.772	199.69
485.99	195.69
486.209	205.69
486.427	207.69
486.645	194.69
486.863	194.69
487.081	211.69
487.299	204.69
487.517	183.69
487.735	190.69
487.953	200.69
488.171	202.69
488.389	194.69
488.607	179.69
488.825	184.69
489.043	199.69
489.261	202.69
489.479	190.69
489.696	180.69
489.914	204.69
490.132	199.69
490.35	199.69
490.568	198.69
490.786	196.69
491.003	213.69
491.221	192.69
491.439	195.69
491.657	205.69
491.874	200.69
492.092	192.69
492.31	208.69
492.527	206.69
492.745	198.69
492.963	199.69
493.18	218.69
493.398	213.69
493.615	204.69
493.833	194.69
494.05	231.69
494.268	192.69
494.485	204.69
494.703	212.69
494.92	202.69
495.138	215.69
495.355	218.69
495.573	218.69
495.79	213.69
496.008	231.69
496.225	194.69
496.442	204.69
496.66	217.69
496.877	204.69
497.094	224.69
497.312	228.69
497.529	216.69
497.746	227.69
497.963	218.69
498.181	236.69
498.398	244.69
498.615	258.69
498.832	283.69
499.049	280.69
499.267	326.69
499.484	333.69
499.701	364.69
499.918	403.69
500.135	422.69
500.352	483.69
500.569	486.69
500.786	474.69
501.003	446.69
501.22	398.69
501.437	350.69
501.654	330.69
501.871	294.69
502.088	275.69
502.305	275.69
502.522	265.69
502.739	264.69
502.956	240.69
503.172	243.69
503.389	243.69
503.606	233.69
503.823	232.69
504.04	254.69
