Data from SampG_HRD10591_00087.txt Node
Date: Mon Jan 19 11:54:13 EST 2026
User: Yrep
Spectrometer: HR+D1059
Trigger mode: 0
Integration Time (sec): 3.443000E-1
Scans to average: 1
Electric dark correction enabled: true
Nonlinearity correction enabled: false
Boxcar width: 0
XAxis mode: Wavelengths
Number of Pixels in Spectrum: 2048
>>>>>Begin Spectral Data<<<<<
223.165	-13.88
223.4	-13.88
223.635	-13.88
223.869	-16.88
224.104	-27.88
224.338	-4.88
224.573	-12.88
224.808	-4.88
225.042	-1.88
225.277	-0.88
225.511	-4.88
225.746	-3.88
225.98	4.12
226.215	-3.88
226.449	8.12
226.683	27.12
226.918	24.12
227.152	33.12
227.387	40.12
227.621	39.12
227.856	46.12
228.09	34.12
228.324	59.12
228.559	58.12
228.793	62.12
229.027	72.12
229.262	87.12
229.496	68.12
229.73	72.12
229.964	87.12
230.199	68.12
230.433	74.12
230.667	79.12
230.901	90.12
231.136	98.12
231.37	85.12
231.604	93.12
231.838	75.12
232.072	70.12
232.306	83.12
232.541	74.12
232.775	75.12
233.009	101.12
233.243	87.12
233.477	86.12
233.711	103.12
233.945	92.12
234.179	79.12
234.413	88.12
234.647	91.12
234.881	93.12
235.115	88.12
235.349	84.12
235.583	76.12
235.817	88.12
236.051	97.12
236.285	75.12
236.519	82.12
236.753	90.12
236.987	99.12
237.221	76.12
237.455	88.12
237.689	89.12
237.922	86.12
238.156	95.12
238.39	87.12
238.624	75.12
238.858	79.12
239.091	92.12
239.325	85.12
239.559	87.12
239.793	87.12
240.027	79.12
240.26	70.12
240.494	87.12
240.728	68.12
240.961	86.12
241.195	92.12
241.429	87.12
241.662	86.12
241.896	84.12
242.13	93.12
242.363	103.12
242.597	73.12
242.83	79.12
243.064	92.12
243.298	79.12
243.531	93.12
243.765	92.12
243.998	87.12
244.232	86.12
244.465	89.12
244.699	88.12
244.932	88.12
245.166	72.12
245.399	104.12
245.633	88.12
245.866	84.12
246.099	91.12
246.333	83.12
246.566	87.12
246.8	107.12
247.033	99.12
247.266	92.12
247.5	80.12
247.733	89.12
247.966	90.12
248.2	87.12
248.433	88.12
248.666	94.12
248.899	89.12
249.133	89.12
249.366	84.12
249.599	103.12
249.832	84.12
250.066	93.12
250.299	93.12
250.532	92.12
250.765	97.12
250.998	83.12
251.231	94.12
251.465	96.12
251.698	102.12
251.931	100.12
252.164	109.12
252.397	100.12
252.63	94.12
252.863	84.12
253.096	77.12
253.329	97.12
253.562	86.12
253.795	106.12
254.028	97.12
254.261	94.12
254.494	83.12
254.727	101.12
254.96	93.12
255.193	90.12
255.426	67.12
255.659	88.12
255.892	101.12
256.124	97.12
256.357	102.12
256.59	112.12
256.823	87.12
257.056	100.12
257.289	95.12
257.521	92.12
257.754	109.12
257.987	105.12
258.22	106.12
258.452	93.12
258.685	80.12
258.918	93.12
259.151	86.12
259.383	98.12
259.616	91.12
259.849	101.12
260.081	108.12
260.314	110.12
260.547	106.12
260.779	102.12
261.012	110.12
261.244	91.12
261.477	123.12
261.71	92.12
261.942	111.12
262.175	113.12
262.407	102.12
262.64	98.12
262.872	76.12
263.105	106.12
263.337	111.12
263.57	103.12
263.802	85.12
264.035	92.12
264.267	91.12
264.499	109.12
264.732	96.12
264.964	103.12
265.197	111.12
265.429	113.12
265.661	111.12
265.894	98.12
266.126	107.12
266.358	112.12
266.591	83.12
266.823	103.12
267.055	110.12
267.287	95.12
267.52	105.12
267.752	106.12
267.984	114.12
268.216	106.12
268.448	117.12
268.681	106.12
268.913	106.12
269.145	111.12
269.377	102.12
269.609	104.12
269.841	107.12
270.073	105.12
270.306	98.12
270.538	104.12
270.77	101.12
271.002	104.12
271.234	107.12
271.466	98.12
271.698	108.12
271.93	117.12
272.162	112.12
272.394	120.12
272.626	114.12
272.858	103.12
273.09	109.12
273.322	114.12
273.553	95.12
273.785	109.12
274.017	103.12
274.249	119.12
274.481	111.12
274.713	108.12
274.945	119.12
275.176	100.12
275.408	106.12
275.64	104.12
275.872	110.12
276.104	109.12
276.335	115.12
276.567	104.12
276.799	111.12
277.031	115.12
277.262	107.12
277.494	114.12
277.726	126.12
277.957	97.12
278.189	127.12
278.421	105.12
278.652	116.12
278.884	100.12
279.115	122.12
279.347	104.12
279.579	114.12
279.81	110.12
280.042	102.12
280.273	117.12
280.505	119.12
280.736	115.12
280.968	111.12
281.199	130.12
281.431	115.12
281.662	104.12
281.894	114.12
282.125	103.12
282.356	111.12
282.588	110.12
282.819	130.12
283.051	112.12
283.282	106.12
283.513	131.12
283.745	112.12
283.976	120.12
284.207	111.12
284.439	121.12
284.67	118.12
284.901	116.12
285.132	113.12
285.364	103.12
285.595	120.12
285.826	120.12
286.057	139.12
286.288	122.12
286.52	118.12
286.751	110.12
286.982	113.12
287.213	122.12
287.444	134.12
287.675	106.12
287.906	132.12
288.138	118.12
288.369	102.12
288.6	109.12
288.831	110.12
289.062	134.12
289.293	123.12
289.524	119.12
289.755	121.12
289.986	115.12
290.217	112.12
290.448	103.12
290.679	117.12
290.91	114.12
291.141	122.12
291.371	125.12
291.602	111.12
291.833	120.12
292.064	127.12
292.295	113.12
292.526	127.12
292.757	121.12
292.987	127.12
293.218	129.12
293.449	121.12
293.68	118.12
293.91	119.12
294.141	140.12
294.372	125.12
294.603	117.12
294.833	115.12
295.064	115.12
295.295	119.12
295.525	118.12
295.756	125.12
295.987	121.12
296.217	120.12
296.448	131.12
296.679	145.12
296.909	145.12
297.14	129.12
297.37	124.12
297.601	132.12
297.831	107.12
298.062	130.12
298.292	129.12
298.523	130.12
298.753	122.12
298.984	127.12
299.214	123.12
299.445	112.12
299.675	128.12
299.905	127.12
300.136	121.12
300.366	130.12
300.597	132.12
300.827	129.12
301.057	134.12
301.288	122.12
301.518	130.12
301.748	132.12
301.979	172.12
302.209	135.12
302.439	125.12
302.669	121.12
302.9	127.12
303.13	115.12
303.36	116.12
303.59	116.12
303.82	124.12
304.051	146.12
304.281	118.12
304.511	122.12
304.741	126.12
304.971	128.12
305.201	116.12
305.431	124.12
305.661	131.12
305.891	106.12
306.121	125.12
306.352	120.12
306.582	105.12
306.812	133.12
307.042	115.12
307.272	122.12
307.502	124.12
307.731	128.12
307.961	131.12
308.191	142.12
308.421	127.12
308.651	135.12
308.881	101.12
309.111	107.12
309.341	120.12
309.571	121.12
309.8	112.12
310.03	129.12
310.26	138.12
310.49	136.12
310.72	132.12
310.949	135.12
311.179	123.12
311.409	126.12
311.639	125.12
311.868	127.12
312.098	127.12
312.328	129.12
312.557	128.12
312.787	127.12
313.017	139.12
313.246	133.12
313.476	132.12
313.706	128.12
313.935	137.12
314.165	121.12
314.394	127.12
314.624	133.12
314.853	141.12
315.083	131.12
315.312	147.12
315.542	124.12
315.771	141.12
316.001	128.12
316.23	124.12
316.46	122.12
316.689	122.12
316.919	132.12
317.148	149.12
317.377	135.12
317.607	138.12
317.836	142.12
318.065	128.12
318.295	127.12
318.524	125.12
318.753	135.12
318.983	117.12
319.212	138.12
319.441	120.12
319.67	139.12
319.9	135.12
320.129	146.12
320.358	142.12
320.587	133.12
320.816	131.12
321.046	113.12
321.275	140.12
321.504	137.12
321.733	146.12
321.962	128.12
322.191	135.12
322.42	131.12
322.649	115.12
322.878	124.12
323.108	131.12
323.337	122.12
323.566	135.12
323.795	131.12
324.024	126.12
324.253	124.12
324.482	127.12
324.71	136.12
324.939	134.12
325.168	123.12
325.397	116.12
325.626	131.12
325.855	142.12
326.084	130.12
326.313	136.12
326.542	131.12
326.77	125.12
326.999	153.12
327.228	144.12
327.457	132.12
327.686	131.12
327.914	130.12
328.143	139.12
328.372	135.12
328.6	140.12
328.829	127.12
329.058	136.12
329.287	121.12
329.515	125.12
329.744	125.12
329.972	138.12
330.201	139.12
330.43	142.12
330.658	145.12
330.887	146.12
331.115	131.12
331.344	134.12
331.572	139.12
331.801	134.12
332.03	137.12
332.258	160.12
332.486	139.12
332.715	164.12
332.943	156.12
333.172	150.12
333.4	168.12
333.629	149.12
333.857	157.12
334.085	149.12
334.314	154.12
334.542	148.12
334.771	167.12
334.999	152.12
335.227	140.12
335.455	132.12
335.684	153.12
335.912	175.12
336.14	147.12
336.369	140.12
336.597	156.12
336.825	155.12
337.053	144.12
337.281	146.12
337.51	125.12
337.738	154.12
337.966	150.12
338.194	148.12
338.422	145.12
338.65	134.12
338.878	153.12
339.106	132.12
339.334	145.12
339.562	135.12
339.79	138.12
340.018	140.12
340.246	138.12
340.474	123.12
340.702	139.12
340.93	131.12
341.158	146.12
341.386	123.12
341.614	142.12
341.842	133.12
342.07	133.12
342.298	130.12
342.526	131.12
342.754	138.12
342.981	141.12
343.209	127.12
343.437	167.12
343.665	149.12
343.893	157.12
344.12	169.12
344.348	159.12
344.576	136.12
344.804	148.12
345.031	139.12
345.259	143.12
345.487	145.12
345.714	143.12
345.942	138.12
346.17	122.12
346.397	139.12
346.625	130.12
346.853	145.12
347.08	131.12
347.308	136.12
347.535	141.12
347.763	122.12
347.99	133.12
348.218	141.12
348.445	137.12
348.673	127.12
348.9	115.12
349.128	144.12
349.355	154.12
349.583	143.12
349.81	149.12
350.037	148.12
350.265	153.12
350.492	124.12
350.72	140.12
350.947	141.12
351.174	138.12
351.402	125.12
351.629	134.12
351.856	140.12
352.083	130.12
352.311	134.12
352.538	128.12
352.765	128.12
352.992	140.12
353.22	146.12
353.447	128.12
353.674	138.12
353.901	135.12
354.128	136.12
354.355	137.12
354.583	125.12
354.81	138.12
355.037	137.12
355.264	144.12
355.491	144.12
355.718	135.12
355.945	115.12
356.172	132.12
356.399	118.12
356.626	127.12
356.853	132.12
357.08	122.12
357.307	128.12
357.534	131.12
357.761	134.12
357.988	158.12
358.215	134.12
358.441	134.12
358.668	140.12
358.895	138.12
359.122	132.12
359.349	137.12
359.576	130.12
359.802	131.12
360.029	135.12
360.256	129.12
360.483	142.12
360.709	138.12
360.936	136.12
361.163	141.12
361.39	122.12
361.616	141.12
361.843	140.12
362.07	120.12
362.296	142.12
362.523	146.12
362.749	159.12
362.976	132.12
363.203	141.12
363.429	125.12
363.656	135.12
363.882	143.12
364.109	139.12
364.335	142.12
364.562	135.12
364.788	133.12
365.015	133.12
365.241	135.12
365.468	138.12
365.694	141.12
365.92	148.12
366.147	155.12
366.373	131.12
366.599	139.12
366.826	130.12
367.052	137.12
367.278	133.12
367.505	151.12
367.731	147.12
367.957	134.12
368.184	141.12
368.41	137.12
368.636	129.12
368.862	139.12
369.089	146.12
369.315	155.12
369.541	134.12
369.767	145.12
369.993	130.12
370.219	148.12
370.445	138.12
370.672	142.12
370.898	156.12
371.124	143.12
371.35	142.12
371.576	132.12
371.802	146.12
372.028	133.12
372.254	133.12
372.48	151.12
372.706	149.12
372.932	158.12
373.158	144.12
373.384	128.12
373.61	151.12
373.835	157.12
374.061	155.12
374.287	155.12
374.513	143.12
374.739	144.12
374.965	163.12
375.191	166.12
375.416	133.12
375.642	146.12
375.868	151.12
376.094	154.12
376.319	148.12
376.545	150.12
376.771	152.12
376.997	148.12
377.222	143.12
377.448	127.12
377.674	155.12
377.899	138.12
378.125	126.12
378.35	134.12
378.576	164.12
378.802	137.12
379.027	147.12
379.253	148.12
379.478	140.12
379.704	132.12
379.929	129.12
380.155	130.12
380.38	149.12
380.606	127.12
380.831	135.12
381.057	145.12
381.282	143.12
381.507	133.12
381.733	135.12
381.958	141.12
382.184	140.12
382.409	137.12
382.634	159.12
382.86	151.12
383.085	143.12
383.31	139.12
383.535	143.12
383.761	153.12
383.986	159.12
384.211	166.12
384.436	162.12
384.662	150.12
384.887	162.12
385.112	158.12
385.337	175.12
385.562	168.12
385.787	164.12
386.013	153.12
386.238	156.12
386.463	163.12
386.688	178.12
386.913	135.12
387.138	146.12
387.363	149.12
387.588	143.12
387.813	156.12
388.038	166.12
388.263	152.12
388.488	165.12
388.713	152.12
388.938	160.12
389.163	162.12
389.387	147.12
389.612	151.12
389.837	157.12
390.062	159.12
390.287	140.12
390.512	166.12
390.736	142.12
390.961	161.12
391.186	172.12
391.411	154.12
391.636	167.12
391.86	164.12
392.085	169.12
392.31	162.12
392.534	170.12
392.759	181.12
392.984	164.12
393.208	152.12
393.433	171.12
393.658	150.12
393.882	167.12
394.107	170.12
394.331	167.12
394.556	169.12
394.78	176.12
395.005	165.12
395.229	173.12
395.454	170.12
395.678	167.12
395.903	164.12
396.127	176.12
396.352	176.12
396.576	160.12
396.801	174.12
397.025	162.12
397.249	175.12
397.474	176.12
397.698	162.12
397.922	179.12
398.147	183.12
398.371	166.12
398.595	166.12
398.82	180.12
399.044	188.12
399.268	228.12
399.492	229.12
399.717	232.12
399.941	213.12
400.165	214.12
400.389	204.12
400.613	190.12
400.837	176.12
401.062	200.12
401.286	180.12
401.51	186.12
401.734	182.12
401.958	180.12
402.182	178.12
402.406	179.12
402.63	174.12
402.854	193.12
403.078	193.12
403.302	205.12
403.526	200.12
403.75	192.12
403.974	182.12
404.198	188.12
404.422	176.12
404.645	198.12
404.869	191.12
405.093	214.12
405.317	184.12
405.541	185.12
405.765	183.12
405.988	189.12
406.212	191.12
406.436	182.12
406.66	207.12
406.883	184.12
407.107	186.12
407.331	226.12
407.555	205.12
407.778	207.12
408.002	199.12
408.226	193.12
408.449	201.12
408.673	204.12
408.896	203.12
409.12	200.12
409.344	213.12
409.567	188.12
409.791	205.12
410.014	203.12
410.238	186.12
410.461	180.12
410.685	187.12
410.908	171.12
411.132	173.12
411.355	173.12
411.578	188.12
411.802	173.12
412.025	171.12
412.249	189.12
412.472	160.12
412.695	169.12
412.919	180.12
413.142	175.12
413.365	183.12
413.589	187.12
413.812	186.12
414.035	180.12
414.258	165.12
414.482	182.12
414.705	195.12
414.928	189.12
415.151	198.12
415.374	183.12
415.597	189.12
415.821	183.12
416.044	182.12
416.267	178.12
416.49	188.12
416.713	163.12
416.936	179.12
417.159	183.12
417.382	175.12
417.605	168.12
417.828	163.12
418.051	175.12
418.274	174.12
418.497	191.12
418.72	173.12
418.943	192.12
419.166	188.12
419.389	196.12
419.611	192.12
419.834	182.12
420.057	189.12
420.28	182.12
420.503	182.12
420.726	174.12
420.948	182.12
421.171	158.12
421.394	184.12
421.617	176.12
421.839	177.12
422.062	170.12
422.285	196.12
422.507	177.12
422.73	167.12
422.953	184.12
423.175	192.12
423.398	195.12
423.621	187.12
423.843	171.12
424.066	192.12
424.288	196.12
424.511	194.12
424.733	191.12
424.956	195.12
425.178	191.12
425.401	178.12
425.623	173.12
425.846	182.12
426.068	171.12
426.291	188.12
426.513	171.12
426.735	183.12
426.958	168.12
427.18	165.12
427.402	173.12
427.625	179.12
427.847	152.12
428.069	174.12
428.292	167.12
428.514	169.12
428.736	160.12
428.958	184.12
429.181	164.12
429.403	162.12
429.625	160.12
429.847	153.12
430.069	150.12
430.292	177.12
430.514	165.12
430.736	158.12
430.958	175.12
431.18	161.12
431.402	159.12
431.624	166.12
431.846	156.12
432.068	176.12
432.29	169.12
432.512	169.12
432.734	171.12
432.956	163.12
433.178	191.12
433.4	155.12
433.622	174.12
433.844	165.12
434.066	180.12
434.287	170.12
434.509	158.12
434.731	176.12
434.953	173.12
435.175	182.12
435.397	150.12
435.618	184.12
435.84	173.12
436.062	160.12
436.284	166.12
436.505	160.12
436.727	162.12
436.949	156.12
437.17	170.12
437.392	154.12
437.614	163.12
437.835	166.12
438.057	148.12
438.278	161.12
438.5	159.12
438.721	151.12
438.943	160.12
439.165	171.12
439.386	154.12
439.608	162.12
439.829	173.12
440.05	173.12
440.272	168.12
440.493	179.12
440.715	165.12
440.936	164.12
441.158	199.12
441.379	175.12
441.6	176.12
441.822	180.12
442.043	184.12
442.264	160.12
442.486	174.12
442.707	162.12
442.928	174.12
443.149	183.12
443.371	188.12
443.592	166.12
443.813	174.12
444.034	175.12
444.255	198.12
444.476	195.12
444.698	199.12
444.919	179.12
445.14	377.12
445.361	260.12
445.582	180.12
445.803	178.12
446.024	168.12
446.245	183.12
446.466	164.12
446.687	158.12
446.908	174.12
447.129	175.12
447.35	170.12
447.571	165.12
447.792	175.12
448.013	150.12
448.234	149.12
448.455	143.12
448.675	143.12
448.896	152.12
449.117	162.12
449.338	154.12
449.559	171.12
449.779	162.12
450	164.12
450.221	165.12
450.442	148.12
450.662	158.12
450.883	155.12
451.104	178.12
451.324	165.12
451.545	158.12
451.766	154.12
451.986	161.12
452.207	165.12
452.428	147.12
452.648	156.12
452.869	150.12
453.089	156.12
453.31	152.12
453.53	164.12
453.751	170.12
453.971	138.12
454.192	146.12
454.412	154.12
454.633	149.12
454.853	164.12
455.073	147.12
455.294	162.12
455.514	147.12
455.734	146.12
455.955	146.12
456.175	151.12
456.395	152.12
456.616	144.12
456.836	153.12
457.056	160.12
457.276	146.12
457.497	165.12
457.717	155.12
457.937	153.12
458.157	148.12
458.377	148.12
458.598	167.12
458.818	160.12
459.038	172.12
459.258	162.12
459.478	181.12
459.698	168.12
459.918	170.12
460.138	173.12
460.358	171.12
460.578	191.12
460.798	166.12
461.018	182.12
461.238	173.12
461.458	162.12
461.678	191.12
461.898	187.12
462.118	188.12
462.338	198.12
462.558	191.12
462.777	204.12
462.997	227.12
463.217	229.12
463.437	218.12
463.657	203.12
463.876	196.12
464.096	190.12
464.316	195.12
464.536	184.12
464.755	179.12
464.975	184.12
465.195	187.12
465.414	182.12
465.634	174.12
465.854	178.12
466.073	158.12
466.293	174.12
466.512	153.12
466.732	160.12
466.951	162.12
467.171	164.12
467.391	158.12
467.61	162.12
467.829	156.12
468.049	179.12
468.268	158.12
468.488	134.12
468.707	149.12
468.927	166.12
469.146	130.12
469.365	162.12
469.585	160.12
469.804	183.12
470.023	154.12
470.243	150.12
470.462	165.12
470.681	170.12
470.901	153.12
471.12	162.12
471.339	174.12
471.558	169.12
471.777	154.12
471.997	152.12
472.216	171.12
472.435	154.12
472.654	166.12
472.873	169.12
473.092	142.12
473.311	154.12
473.53	133.12
473.749	173.12
473.968	157.12
474.187	165.12
474.406	147.12
474.625	166.12
474.844	174.12
475.063	152.12
475.282	155.12
475.501	154.12
475.72	157.12
475.939	154.12
476.158	164.12
476.377	160.12
476.596	151.12
476.814	158.12
477.033	168.12
477.252	176.12
477.471	182.12
477.69	169.12
477.908	185.12
478.127	193.12
478.346	172.12
478.564	184.12
478.783	175.12
479.002	171.12
479.22	166.12
479.439	185.12
479.658	171.12
479.876	176.12
480.095	190.12
480.313	184.12
480.532	195.12
480.751	196.12
480.969	181.12
481.188	165.12
481.406	173.12
481.624	181.12
481.843	163.12
482.061	170.12
482.28	163.12
482.498	166.12
482.717	166.12
482.935	172.12
483.153	168.12
483.372	173.12
483.59	168.12
483.808	188.12
484.027	175.12
484.245	184.12
484.463	181.12
484.681	203.12
484.9	170.12
485.118	182.12
485.336	189.12
485.554	173.12
485.772	182.12
485.99	150.12
486.209	204.12
486.427	185.12
486.645	181.12
486.863	166.12
487.081	180.12
487.299	163.12
487.517	176.12
487.735	180.12
487.953	170.12
488.171	178.12
488.389	175.12
488.607	166.12
488.825	162.12
489.043	186.12
489.261	166.12
489.479	187.12
489.696	183.12
489.914	163.12
490.132	176.12
490.35	172.12
490.568	169.12
490.786	180.12
491.003	178.12
491.221	171.12
491.439	176.12
491.657	174.12
491.874	199.12
492.092	173.12
492.31	194.12
492.527	158.12
492.745	181.12
492.963	202.12
493.18	186.12
493.398	181.12
493.615	180.12
493.833	174.12
494.05	172.12
494.268	188.12
494.485	176.12
494.703	189.12
494.92	181.12
495.138	157.12
495.355	186.12
495.573	202.12
495.79	174.12
496.008	190.12
496.225	197.12
496.442	185.12
496.66	206.12
496.877	175.12
497.094	201.12
497.312	186.12
497.529	186.12
497.746	194.12
497.963	204.12
498.181	212.12
498.398	208.12
498.615	229.12
498.832	229.12
499.049	234.12
499.267	272.12
499.484	253.12
499.701	298.12
499.918	339.12
500.135	370.12
500.352	398.12
500.569	387.12
500.786	395.12
501.003	364.12
501.22	339.12
501.437	291.12
501.654	268.12
501.871	252.12
502.088	251.12
502.305	247.12
502.522	241.12
502.739	235.12
502.956	222.12
503.172	193.12
503.389	202.12
503.606	205.12
503.823	182.12
504.04	200.12
504.256	212.12
504.473	201.12
