Data from SampG_HRD10591_00009.txt Node
Date: Mon Jan 19 11:53:46 EST 2026
User: Yrep
Spectrometer: HR+D1059
Trigger mode: 0
Integration Time (sec): 3.443000E-1
Scans to average: 1
Electric dark correction enabled: true
Nonlinearity correction enabled: false
Boxcar width: 0
XAxis mode: Wavelengths
Number of Pixels in Spectrum: 2048
>>>>>Begin Spectral Data<<<<<
223.165	-19.12
223.4	-19.12
223.635	-19.12
223.869	-31.12
224.104	-21.12
224.338	-9.12
224.573	-12.12
224.808	-16.12
225.042	-0.12
225.277	-8.12
225.511	6.88
225.746	-3.12
225.98	6.88
226.215	13.88
226.449	13.88
226.683	20.88
226.918	21.88
227.152	35.88
227.387	30.88
227.621	43.88
227.856	54.88
228.09	51.88
228.324	34.88
228.559	56.88
228.793	70.88
229.027	68.88
229.262	64.88
229.496	75.88
229.73	80.88
229.964	82.88
230.199	85.88
230.433	79.88
230.667	80.88
230.901	82.88
231.136	87.88
231.37	79.88
231.604	99.88
231.838	91.88
232.072	92.88
232.306	94.88
232.541	96.88
232.775	73.88
233.009	82.88
233.243	95.88
233.477	91.88
233.711	84.88
233.945	98.88
234.179	85.88
234.413	76.88
234.647	98.88
234.881	91.88
235.115	85.88
235.349	74.88
235.583	107.88
235.817	80.88
236.051	81.88
236.285	67.88
236.519	81.88
236.753	89.88
236.987	87.88
237.221	91.88
237.455	77.88
237.689	88.88
237.922	88.88
238.156	82.88
238.39	79.88
238.624	81.88
238.858	83.88
239.091	95.88
239.325	89.88
239.559	71.88
239.793	73.88
240.027	96.88
240.26	81.88
240.494	101.88
240.728	68.88
240.961	60.88
241.195	91.88
241.429	96.88
241.662	80.88
241.896	97.88
242.13	76.88
242.363	85.88
242.597	92.88
242.83	81.88
243.064	80.88
243.298	76.88
243.531	86.88
243.765	82.88
243.998	90.88
244.232	96.88
244.465	76.88
244.699	82.88
244.932	79.88
245.166	83.88
245.399	92.88
245.633	86.88
245.866	96.88
246.099	68.88
246.333	89.88
246.566	83.88
246.8	94.88
247.033	88.88
247.266	69.88
247.5	93.88
247.733	85.88
247.966	92.88
248.2	81.88
248.433	96.88
248.666	79.88
248.899	74.88
249.133	81.88
249.366	90.88
249.599	88.88
249.832	85.88
250.066	95.88
250.299	94.88
250.532	98.88
250.765	91.88
250.998	89.88
251.231	93.88
251.465	104.88
251.698	86.88
251.931	87.88
252.164	86.88
252.397	92.88
252.63	91.88
252.863	90.88
253.096	80.88
253.329	87.88
253.562	85.88
253.795	99.88
254.028	99.88
254.261	90.88
254.494	87.88
254.727	99.88
254.96	91.88
255.193	90.88
255.426	99.88
255.659	91.88
255.892	104.88
256.124	79.88
256.357	87.88
256.59	93.88
256.823	85.88
257.056	97.88
257.289	90.88
257.521	88.88
257.754	98.88
257.987	95.88
258.22	100.88
258.452	111.88
258.685	84.88
258.918	99.88
259.151	99.88
259.383	90.88
259.616	88.88
259.849	106.88
260.081	96.88
260.314	107.88
260.547	90.88
260.779	105.88
261.012	93.88
261.244	89.88
261.477	117.88
261.71	94.88
261.942	78.88
262.175	101.88
262.407	83.88
262.64	98.88
262.872	97.88
263.105	95.88
263.337	115.88
263.57	109.88
263.802	107.88
264.035	82.88
264.267	103.88
264.499	98.88
264.732	109.88
264.964	98.88
265.197	97.88
265.429	107.88
265.661	96.88
265.894	112.88
266.126	114.88
266.358	109.88
266.591	96.88
266.823	103.88
267.055	103.88
267.287	97.88
267.52	100.88
267.752	105.88
267.984	119.88
268.216	106.88
268.448	105.88
268.681	97.88
268.913	112.88
269.145	105.88
269.377	109.88
269.609	95.88
269.841	109.88
270.073	111.88
270.306	96.88
270.538	111.88
270.77	105.88
271.002	111.88
271.234	106.88
271.466	114.88
271.698	103.88
271.93	93.88
272.162	119.88
272.394	120.88
272.626	101.88
272.858	95.88
273.09	104.88
273.322	102.88
273.553	97.88
273.785	116.88
274.017	111.88
274.249	97.88
274.481	110.88
274.713	102.88
274.945	112.88
275.176	96.88
275.408	101.88
275.64	103.88
275.872	96.88
276.104	88.88
276.335	109.88
276.567	118.88
276.799	99.88
277.031	91.88
277.262	108.88
277.494	121.88
277.726	106.88
277.957	99.88
278.189	113.88
278.421	116.88
278.652	122.88
278.884	107.88
279.115	111.88
279.347	110.88
279.579	115.88
279.81	100.88
280.042	108.88
280.273	105.88
280.505	107.88
280.736	120.88
280.968	115.88
281.199	106.88
281.431	110.88
281.662	113.88
281.894	100.88
282.125	111.88
282.356	97.88
282.588	116.88
282.819	115.88
283.051	106.88
283.282	106.88
283.513	124.88
283.745	124.88
283.976	106.88
284.207	127.88
284.439	107.88
284.67	109.88
284.901	107.88
285.132	102.88
285.364	109.88
285.595	120.88
285.826	133.88
286.057	111.88
286.288	121.88
286.52	121.88
286.751	92.88
286.982	117.88
287.213	123.88
287.444	124.88
287.675	106.88
287.906	108.88
288.138	106.88
288.369	113.88
288.6	106.88
288.831	109.88
289.062	127.88
289.293	121.88
289.524	111.88
289.755	105.88
289.986	112.88
290.217	122.88
290.448	100.88
290.679	108.88
290.91	108.88
291.141	131.88
291.371	128.88
291.602	126.88
291.833	107.88
292.064	117.88
292.295	117.88
292.526	121.88
292.757	117.88
292.987	113.88
293.218	100.88
293.449	131.88
293.68	120.88
293.91	128.88
294.141	123.88
294.372	122.88
294.603	107.88
294.833	126.88
295.064	119.88
295.295	125.88
295.525	118.88
295.756	128.88
295.987	131.88
296.217	115.88
296.448	125.88
296.679	118.88
296.909	137.88
297.14	138.88
297.37	116.88
297.601	112.88
297.831	128.88
298.062	123.88
298.292	126.88
298.523	131.88
298.753	119.88
298.984	116.88
299.214	129.88
299.445	132.88
299.675	115.88
299.905	135.88
300.136	119.88
300.366	131.88
300.597	123.88
300.827	128.88
301.057	127.88
301.288	118.88
301.518	131.88
301.748	130.88
301.979	166.88
302.209	122.88
302.439	123.88
302.669	114.88
302.9	127.88
303.13	133.88
303.36	133.88
303.59	135.88
303.82	137.88
304.051	130.88
304.281	131.88
304.511	132.88
304.741	132.88
304.971	122.88
305.201	125.88
305.431	115.88
305.661	130.88
305.891	113.88
306.121	135.88
306.352	127.88
306.582	112.88
306.812	131.88
307.042	132.88
307.272	122.88
307.502	117.88
307.731	128.88
307.961	124.88
308.191	123.88
308.421	127.88
308.651	127.88
308.881	128.88
309.111	112.88
309.341	134.88
309.571	135.88
309.8	128.88
310.03	124.88
310.26	118.88
310.49	128.88
310.72	130.88
310.949	127.88
311.179	132.88
311.409	135.88
311.639	129.88
311.868	133.88
312.098	130.88
312.328	138.88
312.557	131.88
312.787	127.88
313.017	134.88
313.246	130.88
313.476	131.88
313.706	126.88
313.935	135.88
314.165	121.88
314.394	119.88
314.624	116.88
314.853	112.88
315.083	138.88
315.312	129.88
315.542	132.88
315.771	140.88
316.001	114.88
316.23	132.88
316.46	127.88
316.689	135.88
316.919	125.88
317.148	137.88
317.377	130.88
317.607	132.88
317.836	122.88
318.065	134.88
318.295	124.88
318.524	135.88
318.753	120.88
318.983	138.88
319.212	134.88
319.441	136.88
319.67	139.88
319.9	132.88
320.129	131.88
320.358	135.88
320.587	130.88
320.816	141.88
321.046	137.88
321.275	135.88
321.504	112.88
321.733	143.88
321.962	119.88
322.191	121.88
322.42	131.88
322.649	123.88
322.878	123.88
323.108	135.88
323.337	134.88
323.566	125.88
323.795	139.88
324.024	130.88
324.253	132.88
324.482	141.88
324.71	116.88
324.939	147.88
325.168	137.88
325.397	131.88
325.626	129.88
325.855	134.88
326.084	140.88
326.313	136.88
326.542	139.88
326.77	151.88
326.999	131.88
327.228	131.88
327.457	132.88
327.686	146.88
327.914	137.88
328.143	145.88
328.372	124.88
328.6	123.88
328.829	136.88
329.058	143.88
329.287	143.88
329.515	134.88
329.744	145.88
329.972	130.88
330.201	140.88
330.43	150.88
330.658	132.88
330.887	142.88
331.115	136.88
331.344	136.88
331.572	154.88
331.801	136.88
332.03	146.88
332.258	163.88
332.486	134.88
332.715	149.88
332.943	147.88
333.172	157.88
333.4	148.88
333.629	160.88
333.857	157.88
334.085	164.88
334.314	155.88
334.542	140.88
334.771	162.88
334.999	162.88
335.227	164.88
335.455	147.88
335.684	142.88
335.912	141.88
336.14	138.88
336.369	153.88
336.597	144.88
336.825	154.88
337.053	128.88
337.281	153.88
337.51	141.88
337.738	140.88
337.966	133.88
338.194	153.88
338.422	130.88
338.65	138.88
338.878	147.88
339.106	124.88
339.334	163.88
339.562	148.88
339.79	147.88
340.018	132.88
340.246	143.88
340.474	143.88
340.702	129.88
340.93	144.88
341.158	148.88
341.386	139.88
341.614	138.88
341.842	126.88
342.07	141.88
342.298	140.88
342.526	143.88
342.754	131.88
342.981	141.88
343.209	136.88
343.437	176.88
343.665	151.88
343.893	151.88
344.12	168.88
344.348	163.88
344.576	141.88
344.804	129.88
345.031	129.88
345.259	135.88
345.487	137.88
345.714	130.88
345.942	121.88
346.17	134.88
346.397	136.88
346.625	144.88
346.853	149.88
347.08	140.88
347.308	143.88
347.535	131.88
347.763	137.88
347.99	139.88
348.218	143.88
348.445	124.88
348.673	129.88
348.9	133.88
349.128	135.88
349.355	137.88
349.583	129.88
349.81	143.88
350.037	148.88
350.265	148.88
350.492	126.88
350.72	131.88
350.947	145.88
351.174	142.88
351.402	120.88
351.629	137.88
351.856	136.88
352.083	137.88
352.311	125.88
352.538	125.88
352.765	132.88
352.992	144.88
353.22	151.88
353.447	127.88
353.674	146.88
353.901	135.88
354.128	133.88
354.355	136.88
354.583	140.88
354.81	139.88
355.037	143.88
355.264	132.88
355.491	139.88
355.718	125.88
355.945	134.88
356.172	131.88
356.399	153.88
356.626	130.88
356.853	131.88
357.08	122.88
357.307	138.88
357.534	139.88
357.761	135.88
357.988	139.88
358.215	123.88
358.441	135.88
358.668	125.88
358.895	126.88
359.122	139.88
359.349	130.88
359.576	147.88
359.802	139.88
360.029	129.88
360.256	136.88
360.483	129.88
360.709	134.88
360.936	150.88
361.163	141.88
361.39	117.88
361.616	125.88
361.843	130.88
362.07	145.88
362.296	148.88
362.523	136.88
362.749	134.88
362.976	118.88
363.203	147.88
363.429	149.88
363.656	131.88
363.882	138.88
364.109	140.88
364.335	138.88
364.562	125.88
364.788	149.88
365.015	155.88
365.241	123.88
365.468	129.88
365.694	124.88
365.92	129.88
366.147	132.88
366.373	121.88
366.599	129.88
366.826	123.88
367.052	126.88
367.278	131.88
367.505	138.88
367.731	145.88
367.957	127.88
368.184	129.88
368.41	124.88
368.636	134.88
368.862	137.88
369.089	143.88
369.315	129.88
369.541	143.88
369.767	139.88
369.993	138.88
370.219	138.88
370.445	150.88
370.672	143.88
370.898	136.88
371.124	151.88
371.35	143.88
371.576	143.88
371.802	143.88
372.028	138.88
372.254	136.88
372.48	160.88
372.706	140.88
372.932	153.88
373.158	147.88
373.384	135.88
373.61	147.88
373.835	148.88
374.061	144.88
374.287	151.88
374.513	143.88
374.739	144.88
374.965	147.88
375.191	141.88
375.416	161.88
375.642	135.88
375.868	139.88
376.094	147.88
376.319	125.88
376.545	144.88
376.771	134.88
376.997	148.88
377.222	149.88
377.448	136.88
377.674	145.88
377.899	138.88
378.125	134.88
378.35	146.88
378.576	148.88
378.802	142.88
379.027	136.88
379.253	143.88
379.478	141.88
379.704	139.88
379.929	145.88
380.155	146.88
380.38	135.88
380.606	145.88
380.831	146.88
381.057	151.88
381.282	128.88
381.507	136.88
381.733	172.88
381.958	142.88
382.184	145.88
382.409	157.88
382.634	141.88
382.86	145.88
383.085	165.88
383.31	143.88
383.535	153.88
383.761	143.88
383.986	154.88
384.211	146.88
384.436	152.88
384.662	168.88
384.887	167.88
385.112	161.88
385.337	162.88
385.562	152.88
385.787	170.88
386.013	171.88
386.238	153.88
386.463	150.88
386.688	189.88
386.913	152.88
387.138	149.88
387.363	148.88
387.588	160.88
387.813	150.88
388.038	163.88
388.263	162.88
388.488	163.88
388.713	146.88
388.938	145.88
389.163	164.88
389.387	151.88
389.612	140.88
389.837	167.88
390.062	169.88
390.287	161.88
390.512	153.88
390.736	160.88
390.961	173.88
391.186	162.88
391.411	170.88
391.636	163.88
391.86	148.88
392.085	159.88
392.31	162.88
392.534	166.88
392.759	168.88
392.984	161.88
393.208	148.88
393.433	155.88
393.658	150.88
393.882	164.88
394.107	168.88
394.331	160.88
394.556	163.88
394.78	195.88
395.005	178.88
395.229	167.88
395.454	152.88
395.678	176.88
395.903	170.88
396.127	159.88
396.352	173.88
396.576	148.88
396.801	176.88
397.025	163.88
397.249	188.88
397.474	175.88
397.698	177.88
397.922	175.88
398.147	164.88
398.371	168.88
398.595	181.88
398.82	191.88
399.044	209.88
399.268	207.88
399.492	229.88
399.717	249.88
399.941	251.88
400.165	193.88
400.389	194.88
400.613	198.88
400.837	172.88
401.062	188.88
401.286	179.88
401.51	164.88
401.734	182.88
401.958	179.88
402.182	184.88
402.406	173.88
402.63	179.88
402.854	188.88
403.078	211.88
403.302	189.88
403.526	200.88
403.75	200.88
403.974	201.88
404.198	219.88
404.422	200.88
404.645	188.88
404.869	189.88
405.093	183.88
405.317	185.88
405.541	188.88
405.765	177.88
405.988	186.88
406.212	188.88
406.436	176.88
406.66	215.88
406.883	204.88
407.107	207.88
407.331	190.88
407.555	192.88
407.778	208.88
408.002	212.88
408.226	207.88
408.449	204.88
408.673	195.88
408.896	192.88
409.12	183.88
409.344	195.88
409.567	192.88
409.791	189.88
410.014	191.88
410.238	183.88
410.461	201.88
410.685	178.88
410.908	187.88
411.132	179.88
411.355	172.88
411.578	186.88
411.802	184.88
412.025	184.88
412.249	176.88
412.472	200.88
412.695	178.88
412.919	191.88
413.142	188.88
413.365	171.88
413.589	171.88
413.812	180.88
414.035	195.88
414.258	186.88
414.482	180.88
414.705	180.88
414.928	186.88
415.151	179.88
415.374	173.88
415.597	173.88
415.821	170.88
416.044	166.88
416.267	180.88
416.49	175.88
416.713	179.88
416.936	177.88
417.159	164.88
417.382	183.88
417.605	179.88
417.828	185.88
418.051	167.88
418.274	190.88
418.497	199.88
418.72	173.88
418.943	183.88
419.166	190.88
419.389	201.88
419.611	191.88
419.834	193.88
420.057	172.88
420.28	180.88
420.503	183.88
420.726	193.88
420.948	166.88
421.171	185.88
421.394	178.88
421.617	187.88
421.839	173.88
422.062	174.88
422.285	191.88
422.507	188.88
422.73	199.88
422.953	189.88
423.175	173.88
423.398	183.88
423.621	192.88
423.843	191.88
424.066	193.88
424.288	195.88
424.511	189.88
424.733	184.88
424.956	185.88
425.178	165.88
425.401	162.88
425.623	174.88
425.846	170.88
426.068	177.88
426.291	159.88
426.513	178.88
426.735	165.88
426.958	168.88
427.18	183.88
427.402	166.88
427.625	165.88
427.847	163.88
428.069	170.88
428.292	160.88
428.514	158.88
428.736	168.88
428.958	160.88
429.181	139.88
429.403	155.88
429.625	165.88
429.847	175.88
430.069	160.88
430.292	160.88
430.514	152.88
430.736	163.88
430.958	153.88
431.18	149.88
431.402	178.88
431.624	155.88
431.846	153.88
432.068	172.88
432.29	168.88
432.512	183.88
432.734	175.88
432.956	173.88
433.178	167.88
433.4	158.88
433.622	178.88
433.844	175.88
434.066	173.88
434.287	188.88
434.509	160.88
434.731	171.88
434.953	179.88
435.175	181.88
435.397	162.88
435.618	173.88
435.84	167.88
436.062	167.88
436.284	183.88
436.505	168.88
436.727	177.88
436.949	162.88
437.17	159.88
437.392	161.88
437.614	178.88
437.835	166.88
438.057	171.88
438.278	177.88
438.5	149.88
438.721	156.88
438.943	185.88
439.165	170.88
439.386	166.88
439.608	192.88
439.829	165.88
440.05	167.88
440.272	163.88
440.493	178.88
440.715	152.88
440.936	162.88
441.158	179.88
441.379	153.88
441.6	180.88
441.822	182.88
442.043	197.88
442.264	182.88
442.486	184.88
442.707	176.88
442.928	181.88
443.149	181.88
443.371	180.88
443.592	189.88
443.813	180.88
444.034	169.88
444.255	189.88
444.476	184.88
444.698	190.88
444.919	209.88
445.14	467.88
445.361	301.88
445.582	191.88
445.803	169.88
446.024	165.88
446.245	185.88
446.466	164.88
446.687	163.88
446.908	175.88
447.129	159.88
447.35	164.88
447.571	168.88
447.792	173.88
448.013	166.88
448.234	166.88
448.455	176.88
448.675	168.88
448.896	147.88
449.117	157.88
449.338	178.88
449.559	172.88
449.779	150.88
450	156.88
450.221	173.88
450.442	159.88
450.662	150.88
450.883	159.88
451.104	153.88
451.324	169.88
451.545	169.88
451.766	170.88
451.986	163.88
452.207	162.88
452.428	153.88
452.648	151.88
452.869	156.88
453.089	159.88
453.31	167.88
453.53	167.88
453.751	144.88
453.971	170.88
454.192	163.88
454.412	144.88
454.633	171.88
454.853	161.88
455.073	159.88
455.294	152.88
455.514	148.88
455.734	151.88
455.955	150.88
456.175	151.88
456.395	159.88
456.616	147.88
456.836	156.88
457.056	145.88
457.276	144.88
457.497	139.88
457.717	149.88
457.937	152.88
458.157	150.88
458.377	160.88
458.598	167.88
458.818	139.88
459.038	139.88
459.258	168.88
459.478	179.88
459.698	181.88
459.918	187.88
460.138	179.88
460.358	192.88
460.578	184.88
460.798	195.88
461.018	182.88
461.238	193.88
461.458	197.88
461.678	205.88
461.898	186.88
462.118	199.88
462.338	191.88
462.558	188.88
462.777	203.88
462.997	216.88
463.217	229.88
463.437	213.88
463.657	204.88
463.876	211.88
464.096	182.88
464.316	217.88
464.536	226.88
464.755	209.88
464.975	181.88
465.195	193.88
465.414	183.88
465.634	167.88
465.854	177.88
466.073	177.88
466.293	172.88
466.512	159.88
466.732	175.88
466.951	171.88
467.171	153.88
467.391	160.88
467.61	149.88
467.829	144.88
468.049	175.88
468.268	148.88
468.488	169.88
468.707	150.88
468.927	173.88
469.146	150.88
469.365	156.88
469.585	153.88
469.804	171.88
470.023	158.88
470.243	173.88
470.462	167.88
470.681	167.88
470.901	162.88
471.12	171.88
471.339	173.88
471.558	154.88
471.777	169.88
471.997	173.88
472.216	168.88
472.435	139.88
472.654	143.88
472.873	170.88
473.092	159.88
473.311	165.88
473.53	163.88
473.749	160.88
473.968	164.88
474.187	160.88
474.406	148.88
474.625	170.88
474.844	159.88
475.063	147.88
475.282	160.88
475.501	153.88
475.72	178.88
475.939	149.88
476.158	150.88
476.377	149.88
476.596	155.88
476.814	165.88
477.033	164.88
477.252	179.88
477.471	159.88
477.69	162.88
477.908	181.88
478.127	195.88
478.346	185.88
478.564	179.88
478.783	173.88
479.002	181.88
479.22	178.88
479.439	180.88
479.658	179.88
479.876	193.88
480.095	186.88
480.313	207.88
480.532	199.88
480.751	188.88
480.969	183.88
481.188	167.88
481.406	180.88
481.624	179.88
481.843	173.88
482.061	175.88
482.28	177.88
482.498	163.88
482.717	160.88
482.935	156.88
483.153	173.88
483.372	186.88
483.59	178.88
483.808	170.88
484.027	173.88
484.245	184.88
484.463	165.88
484.681	181.88
484.9	188.88
485.118	185.88
485.336	182.88
485.554	180.88
485.772	196.88
485.99	196.88
486.209	179.88
486.427	186.88
486.645	189.88
486.863	172.88
487.081	192.88
487.299	188.88
487.517	179.88
487.735	179.88
487.953	188.88
488.171	187.88
488.389	181.88
488.607	187.88
488.825	157.88
489.043	177.88
489.261	174.88
489.479	173.88
489.696	187.88
489.914	182.88
490.132	180.88
490.35	163.88
490.568	173.88
490.786	189.88
491.003	191.88
491.221	183.88
491.439	177.88
491.657	173.88
491.874	179.88
492.092	182.88
492.31	193.88
492.527	185.88
492.745	193.88
492.963	176.88
493.18	181.88
493.398	194.88
493.615	168.88
493.833	181.88
494.05	184.88
494.268	200.88
494.485	195.88
494.703	192.88
494.92	180.88
495.138	185.88
495.355	192.88
495.573	191.88
495.79	166.88
496.008	183.88
496.225	189.88
496.442	192.88
496.66	194.88
496.877	193.88
497.094	204.88
497.312	211.88
497.529	188.88
497.746	209.88
497.963	210.88
498.181	204.88
498.398	228.88
498.615	236.88
498.832	229.88
499.049	260.88
499.267	275.88
499.484	272.88
499.701	292.88
499.918	335.88
500.135	380.88
500.352	414.88
500.569	424.88
500.786	436.88
501.003	379.88
501.22	347.88
501.437	306.88
501.654	293.88
501.871	258.88
502.088	240.88
502.305	244.88
502.522	237.88
502.739	237.88
502.956	232.88
503.172	205.88
503.389	180.88
503.606	210.88
503.823	220.88
504.04	217.88
504.256	224.88
504.473	212.88
504.69	204.88
504.907	213.88
