Data from SampG_HRD10591_00072.txt Node
Date: Mon Jan 19 11:54:08 EST 2026
User: Yrep
Spectrometer: HR+D1059
Trigger mode: 0
Integration Time (sec): 3.443000E-1
Scans to average: 1
Electric dark correction enabled: true
Nonlinearity correction enabled: false
Boxcar width: 0
XAxis mode: Wavelengths
Number of Pixels in Spectrum: 2048
>>>>>Begin Spectral Data<<<<<
223.165	-25.81
223.4	-25.81
223.635	-25.81
223.869	-38.81
224.104	-25.81
224.338	-17.81
224.573	-25.81
224.808	-11.81
225.042	-19.81
225.277	14.19
225.511	0.19
225.746	18.19
225.98	6.19
226.215	20.19
226.449	13.19
226.683	28.19
226.918	30.19
227.152	35.19
227.387	25.19
227.621	37.19
227.856	47.19
228.09	31.19
228.324	50.19
228.559	53.19
228.793	49.19
229.027	63.19
229.262	89.19
229.496	79.19
229.73	74.19
229.964	70.19
230.199	79.19
230.433	76.19
230.667	84.19
230.901	66.19
231.136	73.19
231.37	80.19
231.604	95.19
231.838	68.19
232.072	85.19
232.306	76.19
232.541	74.19
232.775	83.19
233.009	80.19
233.243	76.19
233.477	88.19
233.711	88.19
233.945	85.19
234.179	78.19
234.413	102.19
234.647	92.19
234.881	85.19
235.115	83.19
235.349	84.19
235.583	84.19
235.817	83.19
236.051	82.19
236.285	77.19
236.519	71.19
236.753	82.19
236.987	71.19
237.221	80.19
237.455	86.19
237.689	89.19
237.922	86.19
238.156	74.19
238.39	70.19
238.624	61.19
238.858	81.19
239.091	74.19
239.325	66.19
239.559	75.19
239.793	81.19
240.027	80.19
240.26	69.19
240.494	84.19
240.728	80.19
240.961	76.19
241.195	92.19
241.429	81.19
241.662	57.19
241.896	76.19
242.13	81.19
242.363	74.19
242.597	69.19
242.83	82.19
243.064	80.19
243.298	90.19
243.531	81.19
243.765	87.19
243.998	87.19
244.232	88.19
244.465	82.19
244.699	76.19
244.932	69.19
245.166	73.19
245.399	81.19
245.633	93.19
245.866	82.19
246.099	89.19
246.333	77.19
246.566	86.19
246.8	78.19
247.033	85.19
247.266	82.19
247.5	84.19
247.733	82.19
247.966	88.19
248.2	70.19
248.433	78.19
248.666	85.19
248.899	73.19
249.133	71.19
249.366	93.19
249.599	87.19
249.832	100.19
250.066	102.19
250.299	72.19
250.532	82.19
250.765	86.19
250.998	78.19
251.231	90.19
251.465	94.19
251.698	102.19
251.931	100.19
252.164	88.19
252.397	95.19
252.63	93.19
252.863	88.19
253.096	100.19
253.329	89.19
253.562	92.19
253.795	86.19
254.028	98.19
254.261	101.19
254.494	90.19
254.727	101.19
254.96	88.19
255.193	88.19
255.426	85.19
255.659	78.19
255.892	90.19
256.124	81.19
256.357	92.19
256.59	98.19
256.823	93.19
257.056	69.19
257.289	81.19
257.521	102.19
257.754	96.19
257.987	88.19
258.22	98.19
258.452	86.19
258.685	93.19
258.918	67.19
259.151	82.19
259.383	90.19
259.616	82.19
259.849	96.19
260.081	90.19
260.314	94.19
260.547	102.19
260.779	106.19
261.012	109.19
261.244	99.19
261.477	111.19
261.71	99.19
261.942	98.19
262.175	94.19
262.407	96.19
262.64	88.19
262.872	88.19
263.105	97.19
263.337	104.19
263.57	111.19
263.802	91.19
264.035	96.19
264.267	107.19
264.499	103.19
264.732	89.19
264.964	100.19
265.197	102.19
265.429	98.19
265.661	107.19
265.894	89.19
266.126	99.19
266.358	94.19
266.591	105.19
266.823	106.19
267.055	93.19
267.287	120.19
267.52	86.19
267.752	99.19
267.984	106.19
268.216	112.19
268.448	116.19
268.681	107.19
268.913	107.19
269.145	98.19
269.377	108.19
269.609	87.19
269.841	106.19
270.073	98.19
270.306	100.19
270.538	96.19
270.77	103.19
271.002	102.19
271.234	91.19
271.466	99.19
271.698	104.19
271.93	85.19
272.162	106.19
272.394	108.19
272.626	88.19
272.858	103.19
273.09	121.19
273.322	103.19
273.553	102.19
273.785	117.19
274.017	108.19
274.249	113.19
274.481	114.19
274.713	116.19
274.945	112.19
275.176	103.19
275.408	95.19
275.64	92.19
275.872	96.19
276.104	100.19
276.335	96.19
276.567	101.19
276.799	102.19
277.031	102.19
277.262	114.19
277.494	120.19
277.726	92.19
277.957	103.19
278.189	94.19
278.421	108.19
278.652	98.19
278.884	100.19
279.115	115.19
279.347	109.19
279.579	101.19
279.81	103.19
280.042	91.19
280.273	113.19
280.505	110.19
280.736	118.19
280.968	101.19
281.199	115.19
281.431	109.19
281.662	101.19
281.894	119.19
282.125	126.19
282.356	109.19
282.588	119.19
282.819	108.19
283.051	103.19
283.282	98.19
283.513	112.19
283.745	112.19
283.976	109.19
284.207	112.19
284.439	120.19
284.67	134.19
284.901	116.19
285.132	114.19
285.364	118.19
285.595	114.19
285.826	117.19
286.057	109.19
286.288	113.19
286.52	114.19
286.751	112.19
286.982	105.19
287.213	120.19
287.444	108.19
287.675	113.19
287.906	112.19
288.138	120.19
288.369	130.19
288.6	113.19
288.831	116.19
289.062	120.19
289.293	126.19
289.524	116.19
289.755	114.19
289.986	93.19
290.217	111.19
290.448	113.19
290.679	116.19
290.91	114.19
291.141	122.19
291.371	112.19
291.602	126.19
291.833	123.19
292.064	110.19
292.295	116.19
292.526	116.19
292.757	114.19
292.987	112.19
293.218	118.19
293.449	115.19
293.68	120.19
293.91	110.19
294.141	134.19
294.372	127.19
294.603	119.19
294.833	109.19
295.064	114.19
295.295	107.19
295.525	118.19
295.756	103.19
295.987	106.19
296.217	114.19
296.448	126.19
296.679	121.19
296.909	118.19
297.14	111.19
297.37	121.19
297.601	110.19
297.831	124.19
298.062	118.19
298.292	114.19
298.523	130.19
298.753	117.19
298.984	92.19
299.214	119.19
299.445	113.19
299.675	125.19
299.905	120.19
300.136	134.19
300.366	121.19
300.597	110.19
300.827	111.19
301.057	124.19
301.288	121.19
301.518	131.19
301.748	105.19
301.979	160.19
302.209	134.19
302.439	98.19
302.669	126.19
302.9	116.19
303.13	115.19
303.36	122.19
303.59	115.19
303.82	116.19
304.051	107.19
304.281	115.19
304.511	120.19
304.741	117.19
304.971	115.19
305.201	128.19
305.431	127.19
305.661	126.19
305.891	124.19
306.121	116.19
306.352	133.19
306.582	120.19
306.812	119.19
307.042	120.19
307.272	113.19
307.502	116.19
307.731	123.19
307.961	124.19
308.191	112.19
308.421	111.19
308.651	114.19
308.881	135.19
309.111	110.19
309.341	115.19
309.571	127.19
309.8	113.19
310.03	121.19
310.26	110.19
310.49	112.19
310.72	112.19
310.949	119.19
311.179	121.19
311.409	116.19
311.639	115.19
311.868	129.19
312.098	115.19
312.328	130.19
312.557	132.19
312.787	109.19
313.017	119.19
313.246	129.19
313.476	125.19
313.706	126.19
313.935	117.19
314.165	112.19
314.394	131.19
314.624	123.19
314.853	127.19
315.083	114.19
315.312	127.19
315.542	113.19
315.771	112.19
316.001	129.19
316.23	124.19
316.46	119.19
316.689	117.19
316.919	112.19
317.148	125.19
317.377	140.19
317.607	109.19
317.836	109.19
318.065	121.19
318.295	126.19
318.524	110.19
318.753	128.19
318.983	125.19
319.212	136.19
319.441	121.19
319.67	119.19
319.9	129.19
320.129	116.19
320.358	128.19
320.587	121.19
320.816	120.19
321.046	124.19
321.275	127.19
321.504	126.19
321.733	124.19
321.962	133.19
322.191	140.19
322.42	125.19
322.649	117.19
322.878	125.19
323.108	133.19
323.337	129.19
323.566	127.19
323.795	126.19
324.024	125.19
324.253	126.19
324.482	127.19
324.71	126.19
324.939	133.19
325.168	127.19
325.397	128.19
325.626	118.19
325.855	141.19
326.084	127.19
326.313	136.19
326.542	128.19
326.77	130.19
326.999	125.19
327.228	132.19
327.457	126.19
327.686	134.19
327.914	146.19
328.143	140.19
328.372	129.19
328.6	117.19
328.829	126.19
329.058	128.19
329.287	136.19
329.515	133.19
329.744	135.19
329.972	126.19
330.201	143.19
330.43	118.19
330.658	120.19
330.887	113.19
331.115	133.19
331.344	128.19
331.572	144.19
331.801	127.19
332.03	136.19
332.258	149.19
332.486	152.19
332.715	146.19
332.943	151.19
333.172	141.19
333.4	147.19
333.629	165.19
333.857	148.19
334.085	160.19
334.314	139.19
334.542	140.19
334.771	136.19
334.999	137.19
335.227	134.19
335.455	146.19
335.684	143.19
335.912	137.19
336.14	137.19
336.369	158.19
336.597	143.19
336.825	140.19
337.053	136.19
337.281	150.19
337.51	113.19
337.738	153.19
337.966	128.19
338.194	138.19
338.422	133.19
338.65	122.19
338.878	134.19
339.106	132.19
339.334	156.19
339.562	131.19
339.79	129.19
340.018	124.19
340.246	131.19
340.474	127.19
340.702	132.19
340.93	113.19
341.158	116.19
341.386	136.19
341.614	125.19
341.842	142.19
342.07	124.19
342.298	129.19
342.526	112.19
342.754	133.19
342.981	136.19
343.209	137.19
343.437	165.19
343.665	138.19
343.893	145.19
344.12	155.19
344.348	136.19
344.576	127.19
344.804	113.19
345.031	133.19
345.259	136.19
345.487	136.19
345.714	127.19
345.942	124.19
346.17	120.19
346.397	129.19
346.625	133.19
346.853	132.19
347.08	125.19
347.308	135.19
347.535	134.19
347.763	119.19
347.99	120.19
348.218	145.19
348.445	126.19
348.673	114.19
348.9	129.19
349.128	150.19
349.355	126.19
349.583	142.19
349.81	134.19
350.037	140.19
350.265	137.19
350.492	120.19
350.72	121.19
350.947	126.19
351.174	126.19
351.402	125.19
351.629	127.19
351.856	119.19
352.083	133.19
352.311	129.19
352.538	131.19
352.765	112.19
352.992	140.19
353.22	133.19
353.447	122.19
353.674	136.19
353.901	143.19
354.128	140.19
354.355	123.19
354.583	131.19
354.81	140.19
355.037	137.19
355.264	132.19
355.491	121.19
355.718	127.19
355.945	130.19
356.172	136.19
356.399	123.19
356.626	127.19
356.853	118.19
357.08	140.19
357.307	126.19
357.534	125.19
357.761	126.19
357.988	140.19
358.215	132.19
358.441	128.19
358.668	122.19
358.895	119.19
359.122	125.19
359.349	118.19
359.576	120.19
359.802	131.19
360.029	136.19
360.256	140.19
360.483	140.19
360.709	126.19
360.936	149.19
361.163	142.19
361.39	124.19
361.616	126.19
361.843	135.19
362.07	119.19
362.296	125.19
362.523	121.19
362.749	120.19
362.976	116.19
363.203	139.19
363.429	109.19
363.656	135.19
363.882	128.19
364.109	137.19
364.335	124.19
364.562	127.19
364.788	129.19
365.015	147.19
365.241	115.19
365.468	145.19
365.694	124.19
365.92	128.19
366.147	125.19
366.373	119.19
366.599	133.19
366.826	120.19
367.052	131.19
367.278	130.19
367.505	144.19
367.731	142.19
367.957	120.19
368.184	122.19
368.41	130.19
368.636	125.19
368.862	144.19
369.089	127.19
369.315	122.19
369.541	136.19
369.767	146.19
369.993	136.19
370.219	123.19
370.445	133.19
370.672	129.19
370.898	145.19
371.124	125.19
371.35	137.19
371.576	130.19
371.802	131.19
372.028	123.19
372.254	123.19
372.48	143.19
372.706	129.19
372.932	135.19
373.158	137.19
373.384	137.19
373.61	157.19
373.835	133.19
374.061	136.19
374.287	134.19
374.513	148.19
374.739	140.19
374.965	151.19
375.191	136.19
375.416	148.19
375.642	150.19
375.868	152.19
376.094	134.19
376.319	150.19
376.545	142.19
376.771	133.19
376.997	141.19
377.222	124.19
377.448	145.19
377.674	126.19
377.899	134.19
378.125	147.19
378.35	135.19
378.576	126.19
378.802	128.19
379.027	130.19
379.253	121.19
379.478	119.19
379.704	129.19
379.929	137.19
380.155	130.19
380.38	144.19
380.606	133.19
380.831	129.19
381.057	141.19
381.282	131.19
381.507	130.19
381.733	125.19
381.958	136.19
382.184	122.19
382.409	142.19
382.634	130.19
382.86	125.19
383.085	144.19
383.31	132.19
383.535	144.19
383.761	151.19
383.986	138.19
384.211	135.19
384.436	132.19
384.662	148.19
384.887	139.19
385.112	160.19
385.337	152.19
385.562	147.19
385.787	149.19
386.013	142.19
386.238	143.19
386.463	142.19
386.688	178.19
386.913	144.19
387.138	152.19
387.363	130.19
387.588	151.19
387.813	157.19
388.038	153.19
388.263	144.19
388.488	135.19
388.713	134.19
388.938	148.19
389.163	137.19
389.387	149.19
389.612	122.19
389.837	151.19
390.062	145.19
390.287	149.19
390.512	156.19
390.736	153.19
390.961	149.19
391.186	157.19
391.411	154.19
391.636	155.19
391.86	153.19
392.085	160.19
392.31	143.19
392.534	155.19
392.759	162.19
392.984	145.19
393.208	141.19
393.433	139.19
393.658	149.19
393.882	142.19
394.107	153.19
394.331	137.19
394.556	164.19
394.78	163.19
395.005	158.19
395.229	145.19
395.454	158.19
395.678	167.19
395.903	164.19
396.127	152.19
396.352	154.19
396.576	134.19
396.801	170.19
397.025	143.19
397.249	154.19
397.474	173.19
397.698	153.19
397.922	168.19
398.147	145.19
398.371	160.19
398.595	158.19
398.82	185.19
399.044	185.19
399.268	181.19
399.492	220.19
399.717	229.19
399.941	210.19
400.165	197.19
400.389	200.19
400.613	170.19
400.837	169.19
401.062	168.19
401.286	170.19
401.51	176.19
401.734	167.19
401.958	174.19
402.182	178.19
402.406	172.19
402.63	183.19
402.854	178.19
403.078	172.19
403.302	170.19
403.526	190.19
403.75	203.19
403.974	178.19
404.198	191.19
404.422	173.19
404.645	180.19
404.869	185.19
405.093	196.19
405.317	147.19
405.541	169.19
405.765	178.19
405.988	174.19
406.212	181.19
406.436	185.19
406.66	194.19
406.883	179.19
407.107	186.19
407.331	191.19
407.555	181.19
407.778	201.19
408.002	192.19
408.226	189.19
408.449	190.19
408.673	177.19
408.896	184.19
409.12	182.19
409.344	205.19
409.567	155.19
409.791	180.19
410.014	190.19
410.238	171.19
410.461	191.19
410.685	168.19
410.908	173.19
411.132	186.19
411.355	169.19
411.578	182.19
411.802	168.19
412.025	170.19
412.249	194.19
412.472	181.19
412.695	171.19
412.919	166.19
413.142	170.19
413.365	165.19
413.589	161.19
413.812	180.19
414.035	168.19
414.258	165.19
414.482	189.19
414.705	170.19
414.928	173.19
415.151	172.19
415.374	175.19
415.597	174.19
415.821	191.19
416.044	170.19
416.267	164.19
416.49	183.19
416.713	162.19
416.936	167.19
417.159	167.19
417.382	162.19
417.605	147.19
417.828	172.19
418.051	174.19
418.274	174.19
418.497	175.19
418.72	182.19
418.943	187.19
419.166	176.19
419.389	192.19
419.611	170.19
419.834	173.19
420.057	182.19
420.28	167.19
420.503	169.19
420.726	175.19
420.948	156.19
421.171	169.19
421.394	160.19
421.617	162.19
421.839	186.19
422.062	178.19
422.285	177.19
422.507	165.19
422.73	164.19
422.953	166.19
423.175	157.19
423.398	167.19
423.621	180.19
423.843	159.19
424.066	180.19
424.288	186.19
424.511	174.19
424.733	175.19
424.956	186.19
425.178	176.19
425.401	181.19
425.623	176.19
425.846	155.19
426.068	153.19
426.291	158.19
426.513	161.19
426.735	155.19
426.958	148.19
427.18	157.19
427.402	164.19
427.625	154.19
427.847	158.19
428.069	159.19
428.292	165.19
428.514	160.19
428.736	149.19
428.958	147.19
429.181	163.19
429.403	159.19
429.625	145.19
429.847	166.19
430.069	157.19
430.292	148.19
430.514	145.19
430.736	146.19
430.958	156.19
431.18	157.19
431.402	148.19
431.624	130.19
431.846	152.19
432.068	159.19
432.29	162.19
432.512	141.19
432.734	146.19
432.956	146.19
433.178	162.19
433.4	166.19
433.622	171.19
433.844	149.19
434.066	156.19
434.287	145.19
434.509	148.19
434.731	178.19
434.953	160.19
435.175	180.19
435.397	180.19
435.618	162.19
435.84	162.19
436.062	164.19
436.284	168.19
436.505	146.19
436.727	146.19
436.949	162.19
437.17	155.19
437.392	144.19
437.614	148.19
437.835	164.19
438.057	149.19
438.278	144.19
438.5	149.19
438.721	163.19
438.943	168.19
439.165	158.19
439.386	156.19
439.608	167.19
439.829	152.19
440.05	165.19
440.272	155.19
440.493	162.19
440.715	156.19
440.936	168.19
441.158	155.19
441.379	176.19
441.6	177.19
441.822	167.19
442.043	172.19
442.264	168.19
442.486	170.19
442.707	182.19
442.928	166.19
443.149	174.19
443.371	159.19
443.592	145.19
443.813	161.19
444.034	177.19
444.255	180.19
444.476	178.19
444.698	188.19
444.919	197.19
445.14	387.19
445.361	285.19
445.582	182.19
445.803	174.19
446.024	165.19
446.245	156.19
446.466	150.19
446.687	160.19
446.908	157.19
447.129	158.19
447.35	157.19
447.571	167.19
447.792	153.19
448.013	152.19
448.234	153.19
448.455	140.19
448.675	153.19
448.896	159.19
449.117	162.19
449.338	158.19
449.559	169.19
449.779	128.19
450	138.19
450.221	133.19
450.442	161.19
450.662	132.19
450.883	154.19
451.104	162.19
451.324	150.19
451.545	165.19
451.766	153.19
451.986	158.19
452.207	176.19
452.428	150.19
452.648	154.19
452.869	157.19
453.089	139.19
453.31	146.19
453.53	164.19
453.751	156.19
453.971	143.19
454.192	141.19
454.412	143.19
454.633	145.19
454.853	145.19
455.073	163.19
455.294	145.19
455.514	154.19
455.734	143.19
455.955	142.19
456.175	151.19
456.395	134.19
456.616	154.19
456.836	150.19
457.056	130.19
457.276	152.19
457.497	152.19
457.717	140.19
457.937	150.19
458.157	137.19
458.377	129.19
458.598	132.19
458.818	145.19
459.038	157.19
459.258	150.19
459.478	146.19
459.698	160.19
459.918	158.19
460.138	162.19
460.358	172.19
460.578	171.19
460.798	178.19
461.018	168.19
461.238	177.19
461.458	175.19
461.678	161.19
461.898	181.19
462.118	184.19
462.338	188.19
462.558	188.19
462.777	192.19
462.997	223.19
463.217	228.19
463.437	209.19
463.657	205.19
463.876	189.19
464.096	198.19
464.316	150.19
464.536	184.19
464.755	191.19
464.975	183.19
465.195	182.19
465.414	169.19
465.634	180.19
465.854	172.19
466.073	152.19
466.293	161.19
466.512	148.19
466.732	156.19
466.951	134.19
467.171	145.19
467.391	157.19
467.61	159.19
467.829	155.19
468.049	155.19
468.268	149.19
468.488	143.19
468.707	137.19
468.927	145.19
469.146	148.19
469.365	147.19
469.585	157.19
469.804	163.19
470.023	146.19
470.243	158.19
470.462	157.19
470.681	168.19
470.901	142.19
471.12	143.19
471.339	150.19
471.558	153.19
471.777	168.19
471.997	166.19
472.216	155.19
472.435	164.19
472.654	157.19
472.873	164.19
473.092	164.19
473.311	156.19
473.53	162.19
473.749	153.19
473.968	155.19
474.187	142.19
474.406	149.19
474.625	159.19
474.844	153.19
475.063	145.19
475.282	147.19
475.501	127.19
475.72	152.19
475.939	154.19
476.158	147.19
476.377	137.19
476.596	138.19
476.814	149.19
477.033	156.19
477.252	165.19
477.471	146.19
477.69	144.19
477.908	169.19
478.127	170.19
478.346	174.19
478.564	168.19
478.783	161.19
479.002	184.19
479.22	178.19
479.439	177.19
479.658	159.19
479.876	162.19
480.095	150.19
480.313	176.19
480.532	172.19
480.751	165.19
480.969	156.19
481.188	162.19
481.406	182.19
481.624	167.19
481.843	141.19
482.061	158.19
482.28	167.19
482.498	147.19
482.717	153.19
482.935	163.19
483.153	152.19
483.372	158.19
483.59	164.19
483.808	151.19
484.027	172.19
484.245	169.19
484.463	156.19
484.681	154.19
484.9	172.19
485.118	168.19
485.336	154.19
485.554	157.19
485.772	157.19
485.99	160.19
486.209	164.19
486.427	168.19
486.645	176.19
486.863	163.19
487.081	160.19
487.299	161.19
487.517	163.19
487.735	153.19
487.953	156.19
488.171	167.19
488.389	151.19
488.607	146.19
488.825	158.19
489.043	167.19
489.261	176.19
489.479	166.19
489.696	169.19
489.914	174.19
490.132	168.19
490.35	176.19
490.568	162.19
490.786	141.19
491.003	168.19
491.221	174.19
491.439	154.19
491.657	170.19
491.874	189.19
492.092	176.19
492.31	162.19
492.527	168.19
492.745	180.19
492.963	167.19
493.18	179.19
493.398	178.19
493.615	166.19
493.833	166.19
494.05	157.19
494.268	177.19
494.485	179.19
494.703	168.19
494.92	183.19
495.138	176.19
495.355	168.19
495.573	176.19
495.79	171.19
496.008	173.19
496.225	182.19
496.442	156.19
496.66	185.19
496.877	180.19
497.094	182.19
497.312	170.19
497.529	171.19
497.746	184.19
497.963	193.19
498.181	199.19
498.398	224.19
498.615	210.19
498.832	212.19
499.049	233.19
499.267	244.19
499.484	264.19
499.701	291.19
499.918	296.19
500.135	339.19
500.352	362.19
500.569	378.19
500.786	380.19
501.003	350.19
501.22	311.19
501.437	295.19
501.654	278.19
501.871	247.19
502.088	226.19
502.305	235.19
502.522	228.19
502.739	212.19
502.956	205.19
503.172	177.19
503.389	193.19
503.606	184.19
503.823	192.19
504.04	186.19
504.256	216.19
504.473	184.19
504.69	190.19
504.907	226.19
