Data from SampG_HRD10591_00054.txt Node
Date: Mon Jan 19 11:54:01 EST 2026
User: Yrep
Spectrometer: HR+D1059
Trigger mode: 0
Integration Time (sec): 3.443000E-1
Scans to average: 1
Electric dark correction enabled: true
Nonlinearity correction enabled: false
Boxcar width: 0
XAxis mode: Wavelengths
Number of Pixels in Spectrum: 2048
>>>>>Begin Spectral Data<<<<<
223.165	-20.19
223.4	-20.19
223.635	-20.19
223.869	-13.19
224.104	-31.19
224.338	-26.19
224.573	-19.19
224.808	-15.19
225.042	-1.19
225.277	-7.19
225.511	-11.19
225.746	13.81
225.98	4.81
226.215	9.81
226.449	3.81
226.683	25.81
226.918	40.81
227.152	45.81
227.387	37.81
227.621	34.81
227.856	51.81
228.09	42.81
228.324	46.81
228.559	54.81
228.793	62.81
229.027	74.81
229.262	72.81
229.496	58.81
229.73	81.81
229.964	90.81
230.199	77.81
230.433	84.81
230.667	88.81
230.901	78.81
231.136	80.81
231.37	68.81
231.604	68.81
231.838	70.81
232.072	85.81
232.306	93.81
232.541	89.81
232.775	94.81
233.009	101.81
233.243	89.81
233.477	86.81
233.711	79.81
233.945	82.81
234.179	87.81
234.413	94.81
234.647	91.81
234.881	82.81
235.115	88.81
235.349	85.81
235.583	84.81
235.817	88.81
236.051	81.81
236.285	91.81
236.519	75.81
236.753	77.81
236.987	78.81
237.221	82.81
237.455	82.81
237.689	84.81
237.922	83.81
238.156	84.81
238.39	86.81
238.624	73.81
238.858	80.81
239.091	85.81
239.325	87.81
239.559	86.81
239.793	84.81
240.027	78.81
240.26	87.81
240.494	87.81
240.728	86.81
240.961	82.81
241.195	93.81
241.429	91.81
241.662	70.81
241.896	86.81
242.13	72.81
242.363	86.81
242.597	88.81
242.83	78.81
243.064	90.81
243.298	94.81
243.531	80.81
243.765	87.81
243.998	86.81
244.232	88.81
244.465	85.81
244.699	84.81
244.932	77.81
245.166	77.81
245.399	68.81
245.633	88.81
245.866	74.81
246.099	87.81
246.333	104.81
246.566	73.81
246.8	99.81
247.033	88.81
247.266	92.81
247.5	80.81
247.733	97.81
247.966	104.81
248.2	100.81
248.433	76.81
248.666	83.81
248.899	92.81
249.133	88.81
249.366	110.81
249.599	69.81
249.832	80.81
250.066	110.81
250.299	94.81
250.532	94.81
250.765	92.81
250.998	82.81
251.231	101.81
251.465	91.81
251.698	82.81
251.931	80.81
252.164	97.81
252.397	86.81
252.63	90.81
252.863	75.81
253.096	87.81
253.329	82.81
253.562	93.81
253.795	104.81
254.028	98.81
254.261	107.81
254.494	100.81
254.727	106.81
254.96	97.81
255.193	98.81
255.426	86.81
255.659	94.81
255.892	101.81
256.124	89.81
256.357	87.81
256.59	112.81
256.823	99.81
257.056	88.81
257.289	84.81
257.521	97.81
257.754	105.81
257.987	97.81
258.22	97.81
258.452	90.81
258.685	93.81
258.918	104.81
259.151	84.81
259.383	93.81
259.616	92.81
259.849	115.81
260.081	92.81
260.314	93.81
260.547	90.81
260.779	100.81
261.012	93.81
261.244	89.81
261.477	106.81
261.71	102.81
261.942	101.81
262.175	101.81
262.407	92.81
262.64	106.81
262.872	95.81
263.105	90.81
263.337	106.81
263.57	105.81
263.802	98.81
264.035	99.81
264.267	89.81
264.499	95.81
264.732	105.81
264.964	110.81
265.197	110.81
265.429	88.81
265.661	96.81
265.894	98.81
266.126	106.81
266.358	83.81
266.591	114.81
266.823	102.81
267.055	91.81
267.287	109.81
267.52	111.81
267.752	106.81
267.984	103.81
268.216	95.81
268.448	94.81
268.681	107.81
268.913	109.81
269.145	105.81
269.377	97.81
269.609	90.81
269.841	91.81
270.073	99.81
270.306	97.81
270.538	109.81
270.77	97.81
271.002	108.81
271.234	96.81
271.466	102.81
271.698	96.81
271.93	102.81
272.162	114.81
272.394	96.81
272.626	100.81
272.858	105.81
273.09	117.81
273.322	117.81
273.553	100.81
273.785	108.81
274.017	106.81
274.249	117.81
274.481	112.81
274.713	91.81
274.945	108.81
275.176	113.81
275.408	117.81
275.64	119.81
275.872	108.81
276.104	121.81
276.335	92.81
276.567	96.81
276.799	91.81
277.031	126.81
277.262	108.81
277.494	116.81
277.726	108.81
277.957	107.81
278.189	96.81
278.421	106.81
278.652	105.81
278.884	112.81
279.115	118.81
279.347	122.81
279.579	117.81
279.81	126.81
280.042	98.81
280.273	109.81
280.505	96.81
280.736	114.81
280.968	112.81
281.199	108.81
281.431	114.81
281.662	102.81
281.894	108.81
282.125	108.81
282.356	108.81
282.588	125.81
282.819	117.81
283.051	120.81
283.282	105.81
283.513	122.81
283.745	115.81
283.976	121.81
284.207	104.81
284.439	116.81
284.67	116.81
284.901	116.81
285.132	106.81
285.364	106.81
285.595	120.81
285.826	119.81
286.057	121.81
286.288	110.81
286.52	124.81
286.751	117.81
286.982	111.81
287.213	113.81
287.444	121.81
287.675	105.81
287.906	122.81
288.138	110.81
288.369	121.81
288.6	116.81
288.831	109.81
289.062	120.81
289.293	125.81
289.524	118.81
289.755	116.81
289.986	119.81
290.217	135.81
290.448	98.81
290.679	118.81
290.91	124.81
291.141	123.81
291.371	121.81
291.602	133.81
291.833	115.81
292.064	130.81
292.295	129.81
292.526	113.81
292.757	110.81
292.987	120.81
293.218	114.81
293.449	109.81
293.68	113.81
293.91	120.81
294.141	131.81
294.372	120.81
294.603	122.81
294.833	109.81
295.064	102.81
295.295	105.81
295.525	111.81
295.756	113.81
295.987	99.81
296.217	101.81
296.448	112.81
296.679	115.81
296.909	124.81
297.14	125.81
297.37	133.81
297.601	119.81
297.831	125.81
298.062	124.81
298.292	124.81
298.523	120.81
298.753	119.81
298.984	114.81
299.214	127.81
299.445	130.81
299.675	118.81
299.905	121.81
300.136	110.81
300.366	113.81
300.597	128.81
300.827	125.81
301.057	112.81
301.288	131.81
301.518	141.81
301.748	110.81
301.979	174.81
302.209	130.81
302.439	122.81
302.669	135.81
302.9	115.81
303.13	116.81
303.36	129.81
303.59	121.81
303.82	134.81
304.051	138.81
304.281	138.81
304.511	131.81
304.741	128.81
304.971	107.81
305.201	132.81
305.431	129.81
305.661	130.81
305.891	128.81
306.121	126.81
306.352	111.81
306.582	137.81
306.812	123.81
307.042	121.81
307.272	104.81
307.502	120.81
307.731	129.81
307.961	124.81
308.191	120.81
308.421	118.81
308.651	114.81
308.881	130.81
309.111	118.81
309.341	136.81
309.571	132.81
309.8	136.81
310.03	117.81
310.26	127.81
310.49	126.81
310.72	112.81
310.949	116.81
311.179	133.81
311.409	139.81
311.639	122.81
311.868	136.81
312.098	134.81
312.328	140.81
312.557	131.81
312.787	131.81
313.017	127.81
313.246	130.81
313.476	132.81
313.706	118.81
313.935	129.81
314.165	126.81
314.394	139.81
314.624	134.81
314.853	108.81
315.083	120.81
315.312	124.81
315.542	134.81
315.771	139.81
316.001	124.81
316.23	129.81
316.46	122.81
316.689	133.81
316.919	125.81
317.148	135.81
317.377	136.81
317.607	125.81
317.836	122.81
318.065	131.81
318.295	130.81
318.524	132.81
318.753	132.81
318.983	118.81
319.212	125.81
319.441	120.81
319.67	111.81
319.9	129.81
320.129	130.81
320.358	100.81
320.587	121.81
320.816	124.81
321.046	117.81
321.275	134.81
321.504	118.81
321.733	133.81
321.962	122.81
322.191	130.81
322.42	124.81
322.649	118.81
322.878	140.81
323.108	120.81
323.337	125.81
323.566	123.81
323.795	120.81
324.024	124.81
324.253	128.81
324.482	126.81
324.71	106.81
324.939	137.81
325.168	121.81
325.397	125.81
325.626	132.81
325.855	117.81
326.084	128.81
326.313	129.81
326.542	125.81
326.77	145.81
326.999	121.81
327.228	134.81
327.457	126.81
327.686	139.81
327.914	140.81
328.143	144.81
328.372	137.81
328.6	132.81
328.829	145.81
329.058	126.81
329.287	131.81
329.515	133.81
329.744	150.81
329.972	126.81
330.201	130.81
330.43	137.81
330.658	125.81
330.887	135.81
331.115	129.81
331.344	142.81
331.572	146.81
331.801	146.81
332.03	146.81
332.258	146.81
332.486	128.81
332.715	152.81
332.943	166.81
333.172	149.81
333.4	153.81
333.629	155.81
333.857	159.81
334.085	157.81
334.314	162.81
334.542	149.81
334.771	142.81
334.999	145.81
335.227	146.81
335.455	132.81
335.684	166.81
335.912	158.81
336.14	156.81
336.369	169.81
336.597	131.81
336.825	136.81
337.053	153.81
337.281	133.81
337.51	131.81
337.738	140.81
337.966	137.81
338.194	143.81
338.422	141.81
338.65	140.81
338.878	139.81
339.106	117.81
339.334	148.81
339.562	137.81
339.79	126.81
340.018	129.81
340.246	133.81
340.474	139.81
340.702	144.81
340.93	133.81
341.158	125.81
341.386	140.81
341.614	110.81
341.842	144.81
342.07	143.81
342.298	148.81
342.526	123.81
342.754	131.81
342.981	147.81
343.209	135.81
343.437	170.81
343.665	136.81
343.893	156.81
344.12	160.81
344.348	145.81
344.576	133.81
344.804	144.81
345.031	132.81
345.259	132.81
345.487	148.81
345.714	129.81
345.942	126.81
346.17	131.81
346.397	126.81
346.625	132.81
346.853	129.81
347.08	138.81
347.308	149.81
347.535	126.81
347.763	126.81
347.99	134.81
348.218	161.81
348.445	148.81
348.673	135.81
348.9	128.81
349.128	132.81
349.355	122.81
349.583	121.81
349.81	122.81
350.037	139.81
350.265	139.81
350.492	124.81
350.72	127.81
350.947	134.81
351.174	141.81
351.402	134.81
351.629	140.81
351.856	140.81
352.083	129.81
352.311	141.81
352.538	124.81
352.765	139.81
352.992	156.81
353.22	141.81
353.447	129.81
353.674	151.81
353.901	136.81
354.128	141.81
354.355	136.81
354.583	138.81
354.81	138.81
355.037	133.81
355.264	151.81
355.491	152.81
355.718	130.81
355.945	144.81
356.172	143.81
356.399	142.81
356.626	124.81
356.853	129.81
357.08	139.81
357.307	138.81
357.534	132.81
357.761	131.81
357.988	134.81
358.215	125.81
358.441	129.81
358.668	138.81
358.895	136.81
359.122	115.81
359.349	138.81
359.576	131.81
359.802	148.81
360.029	149.81
360.256	134.81
360.483	135.81
360.709	139.81
360.936	137.81
361.163	140.81
361.39	113.81
361.616	114.81
361.843	139.81
362.07	140.81
362.296	136.81
362.523	150.81
362.749	114.81
362.976	116.81
363.203	128.81
363.429	121.81
363.656	130.81
363.882	133.81
364.109	134.81
364.335	126.81
364.562	121.81
364.788	126.81
365.015	128.81
365.241	121.81
365.468	136.81
365.694	134.81
365.92	137.81
366.147	130.81
366.373	135.81
366.599	140.81
366.826	124.81
367.052	127.81
367.278	130.81
367.505	109.81
367.731	141.81
367.957	135.81
368.184	130.81
368.41	138.81
368.636	145.81
368.862	133.81
369.089	132.81
369.315	137.81
369.541	134.81
369.767	134.81
369.993	137.81
370.219	128.81
370.445	137.81
370.672	131.81
370.898	131.81
371.124	132.81
371.35	133.81
371.576	152.81
371.802	129.81
372.028	124.81
372.254	120.81
372.48	147.81
372.706	140.81
372.932	137.81
373.158	144.81
373.384	150.81
373.61	157.81
373.835	138.81
374.061	134.81
374.287	147.81
374.513	155.81
374.739	148.81
374.965	132.81
375.191	162.81
375.416	150.81
375.642	161.81
375.868	150.81
376.094	137.81
376.319	128.81
376.545	126.81
376.771	125.81
376.997	139.81
377.222	134.81
377.448	137.81
377.674	144.81
377.899	137.81
378.125	139.81
378.35	144.81
378.576	137.81
378.802	141.81
379.027	152.81
379.253	144.81
379.478	125.81
379.704	139.81
379.929	133.81
380.155	149.81
380.38	136.81
380.606	129.81
380.831	132.81
381.057	145.81
381.282	140.81
381.507	139.81
381.733	166.81
381.958	155.81
382.184	144.81
382.409	144.81
382.634	155.81
382.86	151.81
383.085	148.81
383.31	153.81
383.535	156.81
383.761	137.81
383.986	146.81
384.211	148.81
384.436	154.81
384.662	158.81
384.887	138.81
385.112	151.81
385.337	166.81
385.562	151.81
385.787	152.81
386.013	150.81
386.238	176.81
386.463	164.81
386.688	176.81
386.913	165.81
387.138	147.81
387.363	156.81
387.588	153.81
387.813	169.81
388.038	149.81
388.263	145.81
388.488	154.81
388.713	154.81
388.938	155.81
389.163	145.81
389.387	154.81
389.612	138.81
389.837	161.81
390.062	161.81
390.287	165.81
390.512	144.81
390.736	152.81
390.961	158.81
391.186	149.81
391.411	154.81
391.636	167.81
391.86	153.81
392.085	172.81
392.31	162.81
392.534	156.81
392.759	164.81
392.984	165.81
393.208	178.81
393.433	167.81
393.658	160.81
393.882	140.81
394.107	171.81
394.331	160.81
394.556	166.81
394.78	156.81
395.005	153.81
395.229	151.81
395.454	165.81
395.678	168.81
395.903	173.81
396.127	148.81
396.352	156.81
396.576	153.81
396.801	150.81
397.025	157.81
397.249	155.81
397.474	166.81
397.698	154.81
397.922	149.81
398.147	158.81
398.371	174.81
398.595	167.81
398.82	181.81
399.044	185.81
399.268	199.81
399.492	232.81
399.717	232.81
399.941	210.81
400.165	201.81
400.389	194.81
400.613	183.81
400.837	174.81
401.062	186.81
401.286	169.81
401.51	186.81
401.734	175.81
401.958	181.81
402.182	174.81
402.406	172.81
402.63	172.81
402.854	168.81
403.078	174.81
403.302	198.81
403.526	198.81
403.75	196.81
403.974	180.81
404.198	204.81
404.422	192.81
404.645	182.81
404.869	197.81
405.093	195.81
405.317	172.81
405.541	176.81
405.765	169.81
405.988	176.81
406.212	182.81
406.436	192.81
406.66	191.81
406.883	195.81
407.107	194.81
407.331	193.81
407.555	209.81
407.778	185.81
408.002	208.81
408.226	198.81
408.449	205.81
408.673	188.81
408.896	196.81
409.12	194.81
409.344	185.81
409.567	188.81
409.791	190.81
410.014	202.81
410.238	185.81
410.461	180.81
410.685	188.81
410.908	182.81
411.132	184.81
411.355	174.81
411.578	163.81
411.802	177.81
412.025	181.81
412.249	184.81
412.472	178.81
412.695	163.81
412.919	187.81
413.142	172.81
413.365	157.81
413.589	182.81
413.812	152.81
414.035	188.81
414.258	178.81
414.482	164.81
414.705	175.81
414.928	163.81
415.151	188.81
415.374	172.81
415.597	162.81
415.821	162.81
416.044	175.81
416.267	174.81
416.49	159.81
416.713	174.81
416.936	165.81
417.159	169.81
417.382	178.81
417.605	177.81
417.828	163.81
418.051	176.81
418.274	186.81
418.497	177.81
418.72	169.81
418.943	185.81
419.166	175.81
419.389	177.81
419.611	190.81
419.834	172.81
420.057	169.81
420.28	173.81
420.503	163.81
420.726	168.81
420.948	182.81
421.171	188.81
421.394	162.81
421.617	188.81
421.839	168.81
422.062	187.81
422.285	188.81
422.507	181.81
422.73	172.81
422.953	172.81
423.175	176.81
423.398	180.81
423.621	187.81
423.843	173.81
424.066	174.81
424.288	190.81
424.511	185.81
424.733	180.81
424.956	169.81
425.178	171.81
425.401	186.81
425.623	176.81
425.846	168.81
426.068	162.81
426.291	164.81
426.513	184.81
426.735	173.81
426.958	161.81
427.18	185.81
427.402	164.81
427.625	175.81
427.847	150.81
428.069	152.81
428.292	157.81
428.514	161.81
428.736	154.81
428.958	163.81
429.181	151.81
429.403	150.81
429.625	146.81
429.847	151.81
430.069	150.81
430.292	169.81
430.514	157.81
430.736	159.81
430.958	161.81
431.18	166.81
431.402	160.81
431.624	171.81
431.846	161.81
432.068	169.81
432.29	177.81
432.512	164.81
432.734	168.81
432.956	159.81
433.178	149.81
433.4	155.81
433.622	172.81
433.844	166.81
434.066	168.81
434.287	170.81
434.509	177.81
434.731	164.81
434.953	174.81
435.175	164.81
435.397	172.81
435.618	168.81
435.84	165.81
436.062	161.81
436.284	164.81
436.505	163.81
436.727	165.81
436.949	180.81
437.17	153.81
437.392	150.81
437.614	165.81
437.835	165.81
438.057	148.81
438.278	142.81
438.5	153.81
438.721	161.81
438.943	165.81
439.165	165.81
439.386	158.81
439.608	170.81
439.829	168.81
440.05	169.81
440.272	138.81
440.493	132.81
440.715	148.81
440.936	180.81
441.158	173.81
441.379	156.81
441.6	163.81
441.822	178.81
442.043	177.81
442.264	166.81
442.486	168.81
442.707	174.81
442.928	165.81
443.149	172.81
443.371	176.81
443.592	163.81
443.813	179.81
444.034	170.81
444.255	167.81
444.476	178.81
444.698	196.81
444.919	203.81
445.14	461.81
445.361	297.81
445.582	183.81
445.803	177.81
446.024	171.81
446.245	178.81
446.466	192.81
446.687	152.81
446.908	163.81
447.129	161.81
447.35	156.81
447.571	157.81
447.792	160.81
448.013	154.81
448.234	160.81
448.455	160.81
448.675	161.81
448.896	157.81
449.117	153.81
449.338	145.81
449.559	146.81
449.779	151.81
450	144.81
450.221	149.81
450.442	158.81
450.662	158.81
450.883	158.81
451.104	136.81
451.324	147.81
451.545	144.81
451.766	154.81
451.986	162.81
452.207	162.81
452.428	163.81
452.648	161.81
452.869	174.81
453.089	149.81
453.31	150.81
453.53	135.81
453.751	146.81
453.971	163.81
454.192	155.81
454.412	139.81
454.633	160.81
454.853	140.81
455.073	140.81
455.294	135.81
455.514	156.81
455.734	146.81
455.955	166.81
456.175	128.81
456.395	146.81
456.616	151.81
456.836	150.81
457.056	152.81
457.276	153.81
457.497	136.81
457.717	158.81
457.937	155.81
458.157	160.81
458.377	168.81
458.598	163.81
458.818	141.81
459.038	144.81
459.258	154.81
459.478	164.81
459.698	170.81
459.918	178.81
460.138	171.81
460.358	170.81
460.578	190.81
460.798	189.81
461.018	180.81
461.238	172.81
461.458	205.81
461.678	185.81
461.898	187.81
462.118	186.81
462.338	189.81
462.558	193.81
462.777	202.81
462.997	229.81
463.217	216.81
463.437	228.81
463.657	220.81
463.876	197.81
464.096	196.81
464.316	204.81
464.536	204.81
464.755	209.81
464.975	172.81
465.195	183.81
465.414	170.81
465.634	174.81
465.854	181.81
466.073	178.81
466.293	176.81
466.512	139.81
466.732	151.81
466.951	160.81
467.171	146.81
467.391	164.81
467.61	145.81
467.829	152.81
468.049	153.81
468.268	138.81
468.488	158.81
468.707	144.81
468.927	153.81
469.146	147.81
469.365	137.81
469.585	160.81
469.804	162.81
470.023	144.81
470.243	148.81
470.462	144.81
470.681	177.81
470.901	169.81
471.12	168.81
471.339	178.81
471.558	170.81
471.777	153.81
471.997	163.81
472.216	166.81
472.435	172.81
472.654	150.81
472.873	152.81
473.092	161.81
473.311	158.81
473.53	147.81
473.749	156.81
473.968	170.81
474.187	153.81
474.406	158.81
474.625	144.81
474.844	152.81
475.063	160.81
475.282	144.81
475.501	158.81
475.72	177.81
475.939	142.81
476.158	154.81
476.377	153.81
476.596	159.81
476.814	152.81
477.033	162.81
477.252	171.81
477.471	172.81
477.69	169.81
477.908	170.81
478.127	156.81
478.346	186.81
478.564	163.81
478.783	160.81
479.002	179.81
479.22	180.81
479.439	178.81
479.658	165.81
479.876	180.81
480.095	166.81
480.313	198.81
480.532	192.81
480.751	192.81
480.969	174.81
481.188	164.81
481.406	183.81
481.624	186.81
481.843	167.81
482.061	152.81
482.28	151.81
482.498	146.81
482.717	164.81
482.935	169.81
483.153	156.81
483.372	170.81
483.59	177.81
483.808	159.81
484.027	173.81
484.245	180.81
484.463	173.81
484.681	194.81
484.9	190.81
485.118	185.81
485.336	159.81
485.554	176.81
485.772	170.81
485.99	173.81
486.209	185.81
486.427	164.81
486.645	180.81
486.863	161.81
487.081	187.81
487.299	167.81
487.517	189.81
487.735	176.81
487.953	185.81
488.171	185.81
488.389	175.81
488.607	175.81
488.825	160.81
489.043	171.81
489.261	181.81
489.479	169.81
489.696	188.81
489.914	175.81
490.132	186.81
490.35	177.81
490.568	166.81
490.786	190.81
491.003	168.81
491.221	172.81
491.439	169.81
491.657	187.81
491.874	185.81
492.092	177.81
492.31	180.81
492.527	182.81
492.745	160.81
492.963	186.81
493.18	178.81
493.398	181.81
493.615	159.81
493.833	185.81
494.05	172.81
494.268	174.81
494.485	172.81
494.703	177.81
494.92	190.81
495.138	175.81
495.355	176.81
495.573	179.81
495.79	171.81
496.008	191.81
496.225	166.81
496.442	180.81
496.66	194.81
496.877	176.81
497.094	194.81
497.312	190.81
497.529	190.81
497.746	212.81
497.963	209.81
498.181	190.81
498.398	211.81
498.615	229.81
498.832	229.81
499.049	258.81
499.267	250.81
499.484	268.81
499.701	302.81
499.918	320.81
500.135	331.81
500.352	409.81
500.569	411.81
500.786	410.81
501.003	370.81
501.22	343.81
501.437	288.81
501.654	265.81
501.871	263.81
502.088	243.81
502.305	224.81
502.522	230.81
502.739	217.81
502.956	224.81
503.172	208.81
503.389	201.81
503.606	198.81
503.823	182.81
504.04	221.81
504.256	199.81
504.473	203.81
504.69	223.81
504.907	213.81
