Data from SampG_HRD10591_00031.txt Node
Date: Mon Jan 19 11:53:54 EST 2026
User: Yrep
Spectrometer: HR+D1059
Trigger mode: 0
Integration Time (sec): 3.443000E-1
Scans to average: 1
Electric dark correction enabled: true
Nonlinearity correction enabled: false
Boxcar width: 0
XAxis mode: Wavelengths
Number of Pixels in Spectrum: 2048
>>>>>Begin Spectral Data<<<<<
223.165	-19.75
223.4	-19.75
223.635	-19.75
223.869	-12.75
224.104	-17.75
224.338	-15.75
224.573	-21.75
224.808	-13.75
225.042	2.25
225.277	-7.75
225.511	2.25
225.746	4.25
225.98	6.25
226.215	11.25
226.449	18.25
226.683	4.25
226.918	16.25
227.152	44.25
227.387	40.25
227.621	37.25
227.856	46.25
228.09	53.25
228.324	46.25
228.559	69.25
228.793	55.25
229.027	44.25
229.262	62.25
229.496	59.25
229.73	72.25
229.964	85.25
230.199	64.25
230.433	70.25
230.667	70.25
230.901	81.25
231.136	85.25
231.37	101.25
231.604	73.25
231.838	90.25
232.072	75.25
232.306	94.25
232.541	74.25
232.775	93.25
233.009	77.25
233.243	80.25
233.477	84.25
233.711	92.25
233.945	77.25
234.179	79.25
234.413	82.25
234.647	106.25
234.881	88.25
235.115	84.25
235.349	87.25
235.583	69.25
235.817	88.25
236.051	68.25
236.285	71.25
236.519	90.25
236.753	86.25
236.987	78.25
237.221	69.25
237.455	101.25
237.689	98.25
237.922	94.25
238.156	76.25
238.39	76.25
238.624	84.25
238.858	84.25
239.091	81.25
239.325	88.25
239.559	76.25
239.793	74.25
240.027	91.25
240.26	77.25
240.494	91.25
240.728	77.25
240.961	90.25
241.195	92.25
241.429	88.25
241.662	67.25
241.896	81.25
242.13	83.25
242.363	69.25
242.597	86.25
242.83	87.25
243.064	86.25
243.298	95.25
243.531	73.25
243.765	82.25
243.998	73.25
244.232	91.25
244.465	88.25
244.699	86.25
244.932	85.25
245.166	96.25
245.399	92.25
245.633	80.25
245.866	81.25
246.099	91.25
246.333	90.25
246.566	89.25
246.8	97.25
247.033	84.25
247.266	93.25
247.5	85.25
247.733	87.25
247.966	96.25
248.2	93.25
248.433	94.25
248.666	84.25
248.899	86.25
249.133	103.25
249.366	96.25
249.599	89.25
249.832	87.25
250.066	84.25
250.299	99.25
250.532	84.25
250.765	91.25
250.998	91.25
251.231	81.25
251.465	102.25
251.698	105.25
251.931	91.25
252.164	98.25
252.397	100.25
252.63	95.25
252.863	92.25
253.096	99.25
253.329	97.25
253.562	96.25
253.795	101.25
254.028	115.25
254.261	98.25
254.494	88.25
254.727	98.25
254.96	97.25
255.193	97.25
255.426	87.25
255.659	83.25
255.892	98.25
256.124	83.25
256.357	99.25
256.59	89.25
256.823	97.25
257.056	90.25
257.289	90.25
257.521	99.25
257.754	90.25
257.987	82.25
258.22	106.25
258.452	112.25
258.685	101.25
258.918	101.25
259.151	101.25
259.383	92.25
259.616	107.25
259.849	88.25
260.081	101.25
260.314	117.25
260.547	88.25
260.779	90.25
261.012	97.25
261.244	92.25
261.477	98.25
261.71	101.25
261.942	93.25
262.175	84.25
262.407	106.25
262.64	93.25
262.872	114.25
263.105	108.25
263.337	108.25
263.57	94.25
263.802	102.25
264.035	105.25
264.267	92.25
264.499	108.25
264.732	107.25
264.964	107.25
265.197	85.25
265.429	106.25
265.661	107.25
265.894	104.25
266.126	116.25
266.358	96.25
266.591	93.25
266.823	108.25
267.055	122.25
267.287	113.25
267.52	99.25
267.752	100.25
267.984	100.25
268.216	101.25
268.448	100.25
268.681	110.25
268.913	94.25
269.145	99.25
269.377	110.25
269.609	95.25
269.841	104.25
270.073	98.25
270.306	107.25
270.538	99.25
270.77	102.25
271.002	122.25
271.234	112.25
271.466	111.25
271.698	99.25
271.93	81.25
272.162	106.25
272.394	108.25
272.626	110.25
272.858	84.25
273.09	107.25
273.322	113.25
273.553	121.25
273.785	105.25
274.017	92.25
274.249	103.25
274.481	94.25
274.713	113.25
274.945	114.25
275.176	109.25
275.408	117.25
275.64	97.25
275.872	108.25
276.104	79.25
276.335	118.25
276.567	100.25
276.799	88.25
277.031	102.25
277.262	107.25
277.494	118.25
277.726	113.25
277.957	108.25
278.189	109.25
278.421	118.25
278.652	96.25
278.884	126.25
279.115	120.25
279.347	117.25
279.579	104.25
279.81	98.25
280.042	100.25
280.273	114.25
280.505	101.25
280.736	110.25
280.968	112.25
281.199	115.25
281.431	109.25
281.662	109.25
281.894	105.25
282.125	120.25
282.356	116.25
282.588	128.25
282.819	112.25
283.051	109.25
283.282	107.25
283.513	128.25
283.745	120.25
283.976	124.25
284.207	113.25
284.439	122.25
284.67	121.25
284.901	116.25
285.132	125.25
285.364	119.25
285.595	126.25
285.826	117.25
286.057	137.25
286.288	108.25
286.52	104.25
286.751	118.25
286.982	101.25
287.213	119.25
287.444	125.25
287.675	122.25
287.906	124.25
288.138	114.25
288.369	121.25
288.6	123.25
288.831	114.25
289.062	121.25
289.293	125.25
289.524	121.25
289.755	110.25
289.986	110.25
290.217	118.25
290.448	111.25
290.679	114.25
290.91	131.25
291.141	112.25
291.371	117.25
291.602	121.25
291.833	106.25
292.064	115.25
292.295	112.25
292.526	114.25
292.757	106.25
292.987	121.25
293.218	127.25
293.449	127.25
293.68	123.25
293.91	108.25
294.141	128.25
294.372	120.25
294.603	122.25
294.833	115.25
295.064	129.25
295.295	129.25
295.525	117.25
295.756	122.25
295.987	115.25
296.217	106.25
296.448	113.25
296.679	115.25
296.909	114.25
297.14	130.25
297.37	112.25
297.601	127.25
297.831	121.25
298.062	122.25
298.292	122.25
298.523	121.25
298.753	125.25
298.984	109.25
299.214	114.25
299.445	129.25
299.675	139.25
299.905	109.25
300.136	127.25
300.366	130.25
300.597	138.25
300.827	134.25
301.057	121.25
301.288	133.25
301.518	145.25
301.748	149.25
301.979	172.25
302.209	139.25
302.439	119.25
302.669	107.25
302.9	131.25
303.13	127.25
303.36	125.25
303.59	132.25
303.82	132.25
304.051	122.25
304.281	145.25
304.511	141.25
304.741	134.25
304.971	124.25
305.201	131.25
305.431	139.25
305.661	130.25
305.891	129.25
306.121	121.25
306.352	116.25
306.582	115.25
306.812	124.25
307.042	119.25
307.272	118.25
307.502	118.25
307.731	135.25
307.961	133.25
308.191	129.25
308.421	136.25
308.651	135.25
308.881	113.25
309.111	127.25
309.341	118.25
309.571	126.25
309.8	144.25
310.03	147.25
310.26	125.25
310.49	131.25
310.72	125.25
310.949	116.25
311.179	130.25
311.409	134.25
311.639	127.25
311.868	137.25
312.098	135.25
312.328	116.25
312.557	124.25
312.787	117.25
313.017	116.25
313.246	116.25
313.476	137.25
313.706	126.25
313.935	130.25
314.165	134.25
314.394	133.25
314.624	132.25
314.853	143.25
315.083	124.25
315.312	140.25
315.542	134.25
315.771	124.25
316.001	132.25
316.23	135.25
316.46	133.25
316.689	124.25
316.919	147.25
317.148	124.25
317.377	134.25
317.607	128.25
317.836	131.25
318.065	140.25
318.295	140.25
318.524	127.25
318.753	140.25
318.983	123.25
319.212	128.25
319.441	117.25
319.67	125.25
319.9	132.25
320.129	118.25
320.358	131.25
320.587	140.25
320.816	151.25
321.046	110.25
321.275	150.25
321.504	136.25
321.733	142.25
321.962	123.25
322.191	133.25
322.42	138.25
322.649	130.25
322.878	127.25
323.108	139.25
323.337	127.25
323.566	124.25
323.795	136.25
324.024	125.25
324.253	145.25
324.482	127.25
324.71	137.25
324.939	137.25
325.168	128.25
325.397	121.25
325.626	142.25
325.855	114.25
326.084	139.25
326.313	140.25
326.542	139.25
326.77	138.25
326.999	130.25
327.228	129.25
327.457	134.25
327.686	133.25
327.914	128.25
328.143	145.25
328.372	145.25
328.6	134.25
328.829	138.25
329.058	138.25
329.287	135.25
329.515	140.25
329.744	141.25
329.972	141.25
330.201	139.25
330.43	152.25
330.658	142.25
330.887	143.25
331.115	156.25
331.344	152.25
331.572	141.25
331.801	131.25
332.03	148.25
332.258	144.25
332.486	156.25
332.715	136.25
332.943	139.25
333.172	151.25
333.4	158.25
333.629	160.25
333.857	152.25
334.085	156.25
334.314	138.25
334.542	137.25
334.771	165.25
334.999	146.25
335.227	145.25
335.455	145.25
335.684	157.25
335.912	170.25
336.14	137.25
336.369	148.25
336.597	135.25
336.825	149.25
337.053	158.25
337.281	142.25
337.51	156.25
337.738	148.25
337.966	129.25
338.194	136.25
338.422	135.25
338.65	150.25
338.878	136.25
339.106	131.25
339.334	142.25
339.562	137.25
339.79	137.25
340.018	136.25
340.246	141.25
340.474	134.25
340.702	140.25
340.93	151.25
341.158	137.25
341.386	130.25
341.614	142.25
341.842	119.25
342.07	145.25
342.298	125.25
342.526	133.25
342.754	130.25
342.981	134.25
343.209	161.25
343.437	176.25
343.665	142.25
343.893	147.25
344.12	158.25
344.348	148.25
344.576	160.25
344.804	148.25
345.031	140.25
345.259	136.25
345.487	128.25
345.714	131.25
345.942	153.25
346.17	137.25
346.397	134.25
346.625	137.25
346.853	118.25
347.08	118.25
347.308	140.25
347.535	150.25
347.763	161.25
347.99	150.25
348.218	148.25
348.445	130.25
348.673	132.25
348.9	138.25
349.128	132.25
349.355	131.25
349.583	130.25
349.81	135.25
350.037	117.25
350.265	133.25
350.492	136.25
350.72	145.25
350.947	139.25
351.174	136.25
351.402	139.25
351.629	148.25
351.856	129.25
352.083	128.25
352.311	138.25
352.538	129.25
352.765	145.25
352.992	146.25
353.22	120.25
353.447	144.25
353.674	110.25
353.901	140.25
354.128	128.25
354.355	121.25
354.583	122.25
354.81	133.25
355.037	121.25
355.264	137.25
355.491	133.25
355.718	137.25
355.945	134.25
356.172	141.25
356.399	114.25
356.626	128.25
356.853	150.25
357.08	152.25
357.307	129.25
357.534	126.25
357.761	140.25
357.988	146.25
358.215	127.25
358.441	133.25
358.668	137.25
358.895	141.25
359.122	120.25
359.349	135.25
359.576	130.25
359.802	125.25
360.029	133.25
360.256	139.25
360.483	136.25
360.709	133.25
360.936	156.25
361.163	148.25
361.39	159.25
361.616	135.25
361.843	141.25
362.07	145.25
362.296	122.25
362.523	130.25
362.749	136.25
362.976	139.25
363.203	147.25
363.429	121.25
363.656	127.25
363.882	119.25
364.109	147.25
364.335	148.25
364.562	140.25
364.788	128.25
365.015	132.25
365.241	138.25
365.468	147.25
365.694	126.25
365.92	129.25
366.147	129.25
366.373	133.25
366.599	127.25
366.826	144.25
367.052	133.25
367.278	120.25
367.505	138.25
367.731	147.25
367.957	129.25
368.184	140.25
368.41	139.25
368.636	154.25
368.862	133.25
369.089	128.25
369.315	127.25
369.541	145.25
369.767	132.25
369.993	133.25
370.219	122.25
370.445	137.25
370.672	150.25
370.898	128.25
371.124	130.25
371.35	131.25
371.576	148.25
371.802	139.25
372.028	144.25
372.254	137.25
372.48	140.25
372.706	141.25
372.932	140.25
373.158	138.25
373.384	149.25
373.61	155.25
373.835	137.25
374.061	136.25
374.287	134.25
374.513	142.25
374.739	151.25
374.965	162.25
375.191	155.25
375.416	149.25
375.642	137.25
375.868	144.25
376.094	133.25
376.319	134.25
376.545	131.25
376.771	148.25
376.997	150.25
377.222	140.25
377.448	141.25
377.674	129.25
377.899	142.25
378.125	146.25
378.35	130.25
378.576	138.25
378.802	146.25
379.027	141.25
379.253	141.25
379.478	136.25
379.704	132.25
379.929	147.25
380.155	144.25
380.38	150.25
380.606	140.25
380.831	142.25
381.057	150.25
381.282	133.25
381.507	146.25
381.733	134.25
381.958	140.25
382.184	140.25
382.409	135.25
382.634	136.25
382.86	147.25
383.085	147.25
383.31	157.25
383.535	150.25
383.761	142.25
383.986	162.25
384.211	149.25
384.436	144.25
384.662	161.25
384.887	159.25
385.112	163.25
385.337	156.25
385.562	158.25
385.787	166.25
386.013	158.25
386.238	136.25
386.463	150.25
386.688	195.25
386.913	174.25
387.138	150.25
387.363	164.25
387.588	164.25
387.813	161.25
388.038	158.25
388.263	169.25
388.488	164.25
388.713	162.25
388.938	156.25
389.163	160.25
389.387	149.25
389.612	147.25
389.837	158.25
390.062	141.25
390.287	155.25
390.512	149.25
390.736	144.25
390.961	155.25
391.186	156.25
391.411	151.25
391.636	174.25
391.86	161.25
392.085	172.25
392.31	157.25
392.534	172.25
392.759	158.25
392.984	171.25
393.208	172.25
393.433	158.25
393.658	168.25
393.882	160.25
394.107	158.25
394.331	162.25
394.556	175.25
394.78	176.25
395.005	171.25
395.229	158.25
395.454	157.25
395.678	160.25
395.903	164.25
396.127	176.25
396.352	163.25
396.576	162.25
396.801	155.25
397.025	175.25
397.249	173.25
397.474	184.25
397.698	170.25
397.922	173.25
398.147	150.25
398.371	168.25
398.595	183.25
398.82	171.25
399.044	178.25
399.268	193.25
399.492	222.25
399.717	253.25
399.941	225.25
400.165	211.25
400.389	190.25
400.613	200.25
400.837	195.25
401.062	173.25
401.286	152.25
401.51	166.25
401.734	192.25
401.958	176.25
402.182	181.25
402.406	179.25
402.63	189.25
402.854	177.25
403.078	182.25
403.302	187.25
403.526	184.25
403.75	201.25
403.974	185.25
404.198	189.25
404.422	195.25
404.645	181.25
404.869	192.25
405.093	197.25
405.317	196.25
405.541	163.25
405.765	171.25
405.988	174.25
406.212	193.25
406.436	179.25
406.66	204.25
406.883	193.25
407.107	212.25
407.331	202.25
407.555	203.25
407.778	199.25
408.002	209.25
408.226	176.25
408.449	193.25
408.673	210.25
408.896	197.25
409.12	186.25
409.344	200.25
409.567	176.25
409.791	200.25
410.014	185.25
410.238	194.25
410.461	180.25
410.685	175.25
410.908	199.25
411.132	194.25
411.355	190.25
411.578	185.25
411.802	184.25
412.025	175.25
412.249	176.25
412.472	178.25
412.695	178.25
412.919	170.25
413.142	186.25
413.365	191.25
413.589	155.25
413.812	184.25
414.035	184.25
414.258	182.25
414.482	198.25
414.705	180.25
414.928	176.25
415.151	166.25
415.374	196.25
415.597	185.25
415.821	169.25
416.044	180.25
416.267	187.25
416.49	174.25
416.713	181.25
416.936	187.25
417.159	177.25
417.382	188.25
417.605	174.25
417.828	166.25
418.051	168.25
418.274	179.25
418.497	184.25
418.72	193.25
418.943	183.25
419.166	185.25
419.389	190.25
419.611	182.25
419.834	189.25
420.057	189.25
420.28	182.25
420.503	173.25
420.726	162.25
420.948	176.25
421.171	185.25
421.394	173.25
421.617	175.25
421.839	172.25
422.062	184.25
422.285	189.25
422.507	180.25
422.73	173.25
422.953	185.25
423.175	172.25
423.398	188.25
423.621	197.25
423.843	189.25
424.066	185.25
424.288	195.25
424.511	178.25
424.733	187.25
424.956	184.25
425.178	174.25
425.401	158.25
425.623	187.25
425.846	157.25
426.068	180.25
426.291	169.25
426.513	162.25
426.735	186.25
426.958	168.25
427.18	154.25
427.402	181.25
427.625	158.25
427.847	164.25
428.069	169.25
428.292	175.25
428.514	152.25
428.736	165.25
428.958	158.25
429.181	168.25
429.403	160.25
429.625	161.25
429.847	146.25
430.069	161.25
430.292	161.25
430.514	161.25
430.736	157.25
430.958	169.25
431.18	173.25
431.402	163.25
431.624	163.25
431.846	162.25
432.068	154.25
432.29	182.25
432.512	163.25
432.734	173.25
432.956	166.25
433.178	178.25
433.4	165.25
433.622	171.25
433.844	169.25
434.066	178.25
434.287	153.25
434.509	170.25
434.731	186.25
434.953	181.25
435.175	183.25
435.397	189.25
435.618	170.25
435.84	178.25
436.062	174.25
436.284	168.25
436.505	168.25
436.727	176.25
436.949	170.25
437.17	178.25
437.392	166.25
437.614	168.25
437.835	153.25
438.057	166.25
438.278	171.25
438.5	168.25
438.721	172.25
438.943	149.25
439.165	147.25
439.386	145.25
439.608	173.25
439.829	163.25
440.05	172.25
440.272	149.25
440.493	171.25
440.715	172.25
440.936	174.25
441.158	172.25
441.379	175.25
441.6	180.25
441.822	185.25
442.043	171.25
442.264	170.25
442.486	188.25
442.707	181.25
442.928	172.25
443.149	167.25
443.371	186.25
443.592	183.25
443.813	186.25
444.034	195.25
444.255	186.25
444.476	200.25
444.698	196.25
444.919	208.25
445.14	447.25
445.361	297.25
445.582	191.25
445.803	162.25
446.024	166.25
446.245	175.25
446.466	172.25
446.687	178.25
446.908	167.25
447.129	166.25
447.35	162.25
447.571	161.25
447.792	150.25
448.013	166.25
448.234	165.25
448.455	160.25
448.675	177.25
448.896	157.25
449.117	160.25
449.338	134.25
449.559	171.25
449.779	158.25
450	153.25
450.221	150.25
450.442	155.25
450.662	153.25
450.883	160.25
451.104	170.25
451.324	175.25
451.545	154.25
451.766	163.25
451.986	174.25
452.207	159.25
452.428	145.25
452.648	162.25
452.869	154.25
453.089	148.25
453.31	156.25
453.53	164.25
453.751	163.25
453.971	165.25
454.192	158.25
454.412	155.25
454.633	168.25
454.853	166.25
455.073	139.25
455.294	157.25
455.514	161.25
455.734	144.25
455.955	147.25
456.175	149.25
456.395	144.25
456.616	161.25
456.836	154.25
457.056	145.25
457.276	162.25
457.497	163.25
457.717	160.25
457.937	141.25
458.157	140.25
458.377	160.25
458.598	155.25
458.818	156.25
459.038	155.25
459.258	177.25
459.478	162.25
459.698	170.25
459.918	183.25
460.138	164.25
460.358	183.25
460.578	195.25
460.798	189.25
461.018	174.25
461.238	169.25
461.458	182.25
461.678	184.25
461.898	169.25
462.118	192.25
462.338	196.25
462.558	186.25
462.777	209.25
462.997	216.25
463.217	220.25
463.437	220.25
463.657	214.25
463.876	216.25
464.096	206.25
464.316	188.25
464.536	205.25
464.755	193.25
464.975	180.25
465.195	167.25
465.414	164.25
465.634	173.25
465.854	161.25
466.073	168.25
466.293	168.25
466.512	172.25
466.732	171.25
466.951	153.25
467.171	161.25
467.391	170.25
467.61	174.25
467.829	154.25
468.049	155.25
468.268	169.25
468.488	160.25
468.707	150.25
468.927	162.25
469.146	169.25
469.365	161.25
469.585	161.25
469.804	157.25
470.023	162.25
470.243	174.25
470.462	161.25
470.681	172.25
470.901	153.25
471.12	143.25
471.339	177.25
471.558	163.25
471.777	149.25
471.997	151.25
472.216	162.25
472.435	148.25
472.654	164.25
472.873	160.25
473.092	152.25
473.311	151.25
473.53	158.25
473.749	164.25
473.968	158.25
474.187	160.25
474.406	146.25
474.625	161.25
474.844	171.25
475.063	151.25
475.282	167.25
475.501	155.25
475.72	156.25
475.939	160.25
476.158	161.25
476.377	157.25
476.596	157.25
476.814	153.25
477.033	157.25
477.252	154.25
477.471	169.25
477.69	170.25
477.908	178.25
478.127	191.25
478.346	174.25
478.564	177.25
478.783	180.25
479.002	178.25
479.22	192.25
479.439	188.25
479.658	172.25
479.876	170.25
480.095	172.25
480.313	185.25
480.532	198.25
480.751	198.25
480.969	185.25
481.188	174.25
481.406	192.25
481.624	169.25
481.843	175.25
482.061	173.25
482.28	158.25
482.498	176.25
482.717	166.25
482.935	165.25
483.153	181.25
483.372	173.25
483.59	171.25
483.808	179.25
484.027	171.25
484.245	190.25
484.463	171.25
484.681	193.25
484.9	173.25
485.118	188.25
485.336	164.25
485.554	189.25
485.772	178.25
485.99	165.25
486.209	192.25
486.427	186.25
486.645	169.25
486.863	180.25
487.081	176.25
487.299	190.25
487.517	190.25
487.735	173.25
487.953	187.25
488.171	173.25
488.389	171.25
488.607	160.25
488.825	174.25
489.043	168.25
489.261	186.25
489.479	168.25
489.696	184.25
489.914	167.25
490.132	177.25
490.35	189.25
490.568	178.25
490.786	169.25
491.003	172.25
491.221	167.25
491.439	186.25
491.657	180.25
491.874	185.25
492.092	172.25
492.31	181.25
492.527	170.25
492.745	177.25
492.963	197.25
493.18	188.25
493.398	185.25
493.615	173.25
493.833	180.25
494.05	174.25
494.268	172.25
494.485	184.25
494.703	196.25
494.92	194.25
495.138	190.25
495.355	184.25
495.573	177.25
495.79	180.25
496.008	170.25
496.225	198.25
496.442	183.25
496.66	186.25
496.877	186.25
497.094	206.25
497.312	179.25
497.529	189.25
497.746	198.25
497.963	211.25
498.181	193.25
498.398	214.25
498.615	225.25
498.832	230.25
499.049	247.25
499.267	280.25
499.484	273.25
499.701	301.25
499.918	344.25
500.135	359.25
500.352	389.25
500.569	424.25
500.786	422.25
501.003	374.25
501.22	323.25
501.437	314.25
501.654	276.25
501.871	264.25
502.088	248.25
502.305	232.25
502.522	235.25
502.739	225.25
502.956	217.25
503.172	200.25
503.389	212.25
503.606	196.25
503.823	212.25
504.04	194.25
504.256	222.25
504.473	214.25
504.69	202.25
