Data from SampG_HRD10591_00034.txt Node
Date: Mon Jan 19 11:53:55 EST 2026
User: Yrep
Spectrometer: HR+D1059
Trigger mode: 0
Integration Time (sec): 3.443000E-1
Scans to average: 1
Electric dark correction enabled: true
Nonlinearity correction enabled: false
Boxcar width: 0
XAxis mode: Wavelengths
Number of Pixels in Spectrum: 2048
>>>>>Begin Spectral Data<<<<<
223.165	-28.19
223.4	-28.19
223.635	-28.19
223.869	-1.19
224.104	-25.19
224.338	-29.19
224.573	-5.19
224.808	-10.19
225.042	-0.19
225.277	-1.19
225.511	3.81
225.746	1.81
225.98	6.81
226.215	7.81
226.449	8.81
226.683	20.81
226.918	23.81
227.152	26.81
227.387	36.81
227.621	44.81
227.856	44.81
228.09	58.81
228.324	46.81
228.559	60.81
228.793	66.81
229.027	67.81
229.262	69.81
229.496	78.81
229.73	71.81
229.964	74.81
230.199	81.81
230.433	87.81
230.667	86.81
230.901	77.81
231.136	64.81
231.37	70.81
231.604	86.81
231.838	88.81
232.072	91.81
232.306	74.81
232.541	74.81
232.775	87.81
233.009	98.81
233.243	71.81
233.477	75.81
233.711	83.81
233.945	83.81
234.179	71.81
234.413	84.81
234.647	73.81
234.881	86.81
235.115	93.81
235.349	80.81
235.583	94.81
235.817	78.81
236.051	82.81
236.285	99.81
236.519	58.81
236.753	92.81
236.987	87.81
237.221	86.81
237.455	76.81
237.689	92.81
237.922	79.81
238.156	76.81
238.39	84.81
238.624	76.81
238.858	92.81
239.091	75.81
239.325	75.81
239.559	76.81
239.793	71.81
240.027	85.81
240.26	90.81
240.494	98.81
240.728	76.81
240.961	97.81
241.195	70.81
241.429	85.81
241.662	78.81
241.896	74.81
242.13	76.81
242.363	81.81
242.597	77.81
242.83	77.81
243.064	77.81
243.298	103.81
243.531	81.81
243.765	85.81
243.998	84.81
244.232	83.81
244.465	89.81
244.699	71.81
244.932	96.81
245.166	93.81
245.399	93.81
245.633	92.81
245.866	78.81
246.099	91.81
246.333	87.81
246.566	97.81
246.8	96.81
247.033	89.81
247.266	85.81
247.5	75.81
247.733	91.81
247.966	84.81
248.2	94.81
248.433	92.81
248.666	64.81
248.899	97.81
249.133	101.81
249.366	102.81
249.599	89.81
249.832	89.81
250.066	106.81
250.299	95.81
250.532	83.81
250.765	90.81
250.998	93.81
251.231	95.81
251.465	84.81
251.698	86.81
251.931	101.81
252.164	93.81
252.397	99.81
252.63	75.81
252.863	82.81
253.096	81.81
253.329	98.81
253.562	94.81
253.795	94.81
254.028	88.81
254.261	105.81
254.494	98.81
254.727	94.81
254.96	93.81
255.193	97.81
255.426	84.81
255.659	81.81
255.892	104.81
256.124	110.81
256.357	94.81
256.59	101.81
256.823	91.81
257.056	98.81
257.289	94.81
257.521	100.81
257.754	94.81
257.987	93.81
258.22	106.81
258.452	97.81
258.685	97.81
258.918	86.81
259.151	101.81
259.383	88.81
259.616	89.81
259.849	86.81
260.081	98.81
260.314	96.81
260.547	90.81
260.779	78.81
261.012	91.81
261.244	95.81
261.477	121.81
261.71	85.81
261.942	93.81
262.175	94.81
262.407	82.81
262.64	99.81
262.872	96.81
263.105	95.81
263.337	97.81
263.57	102.81
263.802	99.81
264.035	90.81
264.267	101.81
264.499	105.81
264.732	102.81
264.964	108.81
265.197	94.81
265.429	100.81
265.661	101.81
265.894	105.81
266.126	95.81
266.358	97.81
266.591	99.81
266.823	106.81
267.055	101.81
267.287	111.81
267.52	93.81
267.752	109.81
267.984	105.81
268.216	110.81
268.448	110.81
268.681	102.81
268.913	93.81
269.145	102.81
269.377	104.81
269.609	113.81
269.841	103.81
270.073	111.81
270.306	103.81
270.538	109.81
270.77	87.81
271.002	99.81
271.234	87.81
271.466	120.81
271.698	99.81
271.93	92.81
272.162	102.81
272.394	114.81
272.626	95.81
272.858	105.81
273.09	94.81
273.322	103.81
273.553	103.81
273.785	86.81
274.017	101.81
274.249	106.81
274.481	105.81
274.713	98.81
274.945	113.81
275.176	109.81
275.408	111.81
275.64	107.81
275.872	86.81
276.104	101.81
276.335	113.81
276.567	111.81
276.799	86.81
277.031	111.81
277.262	119.81
277.494	141.81
277.726	117.81
277.957	109.81
278.189	102.81
278.421	123.81
278.652	110.81
278.884	104.81
279.115	106.81
279.347	119.81
279.579	112.81
279.81	104.81
280.042	112.81
280.273	110.81
280.505	107.81
280.736	114.81
280.968	119.81
281.199	122.81
281.431	111.81
281.662	111.81
281.894	102.81
282.125	116.81
282.356	112.81
282.588	115.81
282.819	114.81
283.051	107.81
283.282	114.81
283.513	106.81
283.745	111.81
283.976	113.81
284.207	105.81
284.439	130.81
284.67	115.81
284.901	122.81
285.132	102.81
285.364	113.81
285.595	126.81
285.826	118.81
286.057	113.81
286.288	119.81
286.52	110.81
286.751	98.81
286.982	116.81
287.213	113.81
287.444	115.81
287.675	134.81
287.906	115.81
288.138	117.81
288.369	109.81
288.6	110.81
288.831	122.81
289.062	116.81
289.293	122.81
289.524	113.81
289.755	109.81
289.986	114.81
290.217	122.81
290.448	117.81
290.679	126.81
290.91	118.81
291.141	117.81
291.371	124.81
291.602	122.81
291.833	126.81
292.064	131.81
292.295	123.81
292.526	118.81
292.757	121.81
292.987	109.81
293.218	146.81
293.449	123.81
293.68	139.81
293.91	117.81
294.141	125.81
294.372	114.81
294.603	115.81
294.833	122.81
295.064	117.81
295.295	119.81
295.525	104.81
295.756	138.81
295.987	129.81
296.217	116.81
296.448	134.81
296.679	137.81
296.909	127.81
297.14	121.81
297.37	130.81
297.601	110.81
297.831	121.81
298.062	124.81
298.292	129.81
298.523	120.81
298.753	117.81
298.984	139.81
299.214	132.81
299.445	124.81
299.675	125.81
299.905	127.81
300.136	130.81
300.366	126.81
300.597	120.81
300.827	134.81
301.057	118.81
301.288	131.81
301.518	118.81
301.748	116.81
301.979	156.81
302.209	134.81
302.439	115.81
302.669	120.81
302.9	127.81
303.13	129.81
303.36	121.81
303.59	127.81
303.82	131.81
304.051	118.81
304.281	133.81
304.511	119.81
304.741	129.81
304.971	129.81
305.201	141.81
305.431	126.81
305.661	130.81
305.891	119.81
306.121	115.81
306.352	121.81
306.582	116.81
306.812	120.81
307.042	132.81
307.272	124.81
307.502	135.81
307.731	111.81
307.961	120.81
308.191	130.81
308.421	127.81
308.651	122.81
308.881	126.81
309.111	123.81
309.341	130.81
309.571	125.81
309.8	131.81
310.03	124.81
310.26	115.81
310.49	129.81
310.72	126.81
310.949	134.81
311.179	118.81
311.409	124.81
311.639	123.81
311.868	134.81
312.098	131.81
312.328	134.81
312.557	118.81
312.787	130.81
313.017	149.81
313.246	134.81
313.476	126.81
313.706	120.81
313.935	129.81
314.165	137.81
314.394	132.81
314.624	127.81
314.853	139.81
315.083	133.81
315.312	130.81
315.542	116.81
315.771	133.81
316.001	143.81
316.23	125.81
316.46	127.81
316.689	126.81
316.919	129.81
317.148	134.81
317.377	143.81
317.607	119.81
317.836	118.81
318.065	127.81
318.295	135.81
318.524	121.81
318.753	125.81
318.983	133.81
319.212	122.81
319.441	118.81
319.67	129.81
319.9	111.81
320.129	124.81
320.358	124.81
320.587	110.81
320.816	123.81
321.046	116.81
321.275	139.81
321.504	142.81
321.733	125.81
321.962	123.81
322.191	131.81
322.42	135.81
322.649	141.81
322.878	133.81
323.108	121.81
323.337	134.81
323.566	132.81
323.795	131.81
324.024	133.81
324.253	135.81
324.482	134.81
324.71	127.81
324.939	135.81
325.168	123.81
325.397	132.81
325.626	133.81
325.855	135.81
326.084	136.81
326.313	140.81
326.542	140.81
326.77	124.81
326.999	139.81
327.228	116.81
327.457	132.81
327.686	139.81
327.914	133.81
328.143	141.81
328.372	127.81
328.6	143.81
328.829	134.81
329.058	137.81
329.287	135.81
329.515	127.81
329.744	154.81
329.972	137.81
330.201	145.81
330.43	138.81
330.658	141.81
330.887	135.81
331.115	140.81
331.344	143.81
331.572	157.81
331.801	145.81
332.03	139.81
332.258	142.81
332.486	137.81
332.715	152.81
332.943	155.81
333.172	162.81
333.4	177.81
333.629	160.81
333.857	167.81
334.085	155.81
334.314	149.81
334.542	150.81
334.771	155.81
334.999	163.81
335.227	154.81
335.455	167.81
335.684	173.81
335.912	146.81
336.14	131.81
336.369	138.81
336.597	142.81
336.825	140.81
337.053	121.81
337.281	138.81
337.51	142.81
337.738	145.81
337.966	135.81
338.194	134.81
338.422	144.81
338.65	142.81
338.878	138.81
339.106	131.81
339.334	156.81
339.562	138.81
339.79	149.81
340.018	132.81
340.246	131.81
340.474	142.81
340.702	153.81
340.93	157.81
341.158	127.81
341.386	142.81
341.614	118.81
341.842	141.81
342.07	144.81
342.298	131.81
342.526	137.81
342.754	133.81
342.981	140.81
343.209	145.81
343.437	173.81
343.665	161.81
343.893	159.81
344.12	163.81
344.348	149.81
344.576	142.81
344.804	136.81
345.031	130.81
345.259	148.81
345.487	140.81
345.714	145.81
345.942	133.81
346.17	140.81
346.397	144.81
346.625	129.81
346.853	133.81
347.08	134.81
347.308	138.81
347.535	138.81
347.763	139.81
347.99	143.81
348.218	138.81
348.445	134.81
348.673	133.81
348.9	161.81
349.128	142.81
349.355	132.81
349.583	129.81
349.81	136.81
350.037	125.81
350.265	128.81
350.492	134.81
350.72	127.81
350.947	146.81
351.174	135.81
351.402	129.81
351.629	115.81
351.856	141.81
352.083	133.81
352.311	114.81
352.538	129.81
352.765	137.81
352.992	147.81
353.22	121.81
353.447	158.81
353.674	139.81
353.901	134.81
354.128	130.81
354.355	140.81
354.583	130.81
354.81	134.81
355.037	131.81
355.264	145.81
355.491	141.81
355.718	134.81
355.945	143.81
356.172	135.81
356.399	133.81
356.626	138.81
356.853	128.81
357.08	149.81
357.307	137.81
357.534	135.81
357.761	137.81
357.988	135.81
358.215	133.81
358.441	118.81
358.668	129.81
358.895	135.81
359.122	131.81
359.349	147.81
359.576	130.81
359.802	137.81
360.029	130.81
360.256	120.81
360.483	123.81
360.709	141.81
360.936	158.81
361.163	133.81
361.39	133.81
361.616	132.81
361.843	125.81
362.07	145.81
362.296	147.81
362.523	132.81
362.749	135.81
362.976	133.81
363.203	139.81
363.429	116.81
363.656	125.81
363.882	148.81
364.109	137.81
364.335	124.81
364.562	134.81
364.788	133.81
365.015	138.81
365.241	120.81
365.468	133.81
365.694	137.81
365.92	129.81
366.147	139.81
366.373	129.81
366.599	139.81
366.826	127.81
367.052	122.81
367.278	138.81
367.505	110.81
367.731	156.81
367.957	141.81
368.184	129.81
368.41	151.81
368.636	121.81
368.862	147.81
369.089	131.81
369.315	140.81
369.541	141.81
369.767	133.81
369.993	155.81
370.219	136.81
370.445	132.81
370.672	139.81
370.898	131.81
371.124	133.81
371.35	136.81
371.576	139.81
371.802	147.81
372.028	138.81
372.254	143.81
372.48	151.81
372.706	129.81
372.932	129.81
373.158	127.81
373.384	154.81
373.61	141.81
373.835	150.81
374.061	132.81
374.287	150.81
374.513	145.81
374.739	155.81
374.965	165.81
375.191	148.81
375.416	140.81
375.642	145.81
375.868	150.81
376.094	142.81
376.319	148.81
376.545	158.81
376.771	147.81
376.997	139.81
377.222	150.81
377.448	130.81
377.674	139.81
377.899	143.81
378.125	133.81
378.35	133.81
378.576	147.81
378.802	134.81
379.027	138.81
379.253	141.81
379.478	136.81
379.704	134.81
379.929	138.81
380.155	142.81
380.38	150.81
380.606	153.81
380.831	145.81
381.057	155.81
381.282	162.81
381.507	137.81
381.733	142.81
381.958	153.81
382.184	152.81
382.409	135.81
382.634	139.81
382.86	150.81
383.085	169.81
383.31	164.81
383.535	153.81
383.761	158.81
383.986	165.81
384.211	155.81
384.436	146.81
384.662	160.81
384.887	151.81
385.112	148.81
385.337	168.81
385.562	157.81
385.787	159.81
386.013	162.81
386.238	152.81
386.463	149.81
386.688	175.81
386.913	143.81
387.138	148.81
387.363	167.81
387.588	145.81
387.813	168.81
388.038	150.81
388.263	160.81
388.488	163.81
388.713	152.81
388.938	150.81
389.163	154.81
389.387	155.81
389.612	162.81
389.837	165.81
390.062	172.81
390.287	165.81
390.512	151.81
390.736	155.81
390.961	169.81
391.186	153.81
391.411	145.81
391.636	162.81
391.86	160.81
392.085	152.81
392.31	163.81
392.534	168.81
392.759	172.81
392.984	169.81
393.208	148.81
393.433	166.81
393.658	166.81
393.882	157.81
394.107	171.81
394.331	150.81
394.556	153.81
394.78	183.81
395.005	162.81
395.229	171.81
395.454	158.81
395.678	159.81
395.903	156.81
396.127	152.81
396.352	172.81
396.576	172.81
396.801	169.81
397.025	155.81
397.249	166.81
397.474	182.81
397.698	169.81
397.922	170.81
398.147	160.81
398.371	163.81
398.595	156.81
398.82	178.81
399.044	179.81
399.268	205.81
399.492	234.81
399.717	216.81
399.941	204.81
400.165	198.81
400.389	191.81
400.613	173.81
400.837	187.81
401.062	187.81
401.286	179.81
401.51	175.81
401.734	167.81
401.958	194.81
402.182	166.81
402.406	165.81
402.63	193.81
402.854	180.81
403.078	186.81
403.302	187.81
403.526	197.81
403.75	195.81
403.974	213.81
404.198	215.81
404.422	191.81
404.645	217.81
404.869	187.81
405.093	179.81
405.317	183.81
405.541	197.81
405.765	193.81
405.988	195.81
406.212	185.81
406.436	191.81
406.66	196.81
406.883	209.81
407.107	211.81
407.331	196.81
407.555	214.81
407.778	209.81
408.002	199.81
408.226	195.81
408.449	198.81
408.673	209.81
408.896	197.81
409.12	182.81
409.344	183.81
409.567	183.81
409.791	195.81
410.014	202.81
410.238	189.81
410.461	191.81
410.685	192.81
410.908	186.81
411.132	206.81
411.355	166.81
411.578	184.81
411.802	193.81
412.025	179.81
412.249	198.81
412.472	187.81
412.695	177.81
412.919	179.81
413.142	164.81
413.365	177.81
413.589	183.81
413.812	189.81
414.035	194.81
414.258	177.81
414.482	188.81
414.705	169.81
414.928	201.81
415.151	165.81
415.374	175.81
415.597	185.81
415.821	172.81
416.044	164.81
416.267	175.81
416.49	177.81
416.713	183.81
416.936	166.81
417.159	164.81
417.382	182.81
417.605	173.81
417.828	165.81
418.051	184.81
418.274	185.81
418.497	174.81
418.72	169.81
418.943	195.81
419.166	177.81
419.389	172.81
419.611	188.81
419.834	186.81
420.057	186.81
420.28	177.81
420.503	173.81
420.726	172.81
420.948	166.81
421.171	182.81
421.394	180.81
421.617	172.81
421.839	177.81
422.062	165.81
422.285	185.81
422.507	197.81
422.73	165.81
422.953	178.81
423.175	176.81
423.398	174.81
423.621	200.81
423.843	189.81
424.066	178.81
424.288	173.81
424.511	168.81
424.733	189.81
424.956	161.81
425.178	183.81
425.401	174.81
425.623	175.81
425.846	166.81
426.068	164.81
426.291	164.81
426.513	182.81
426.735	173.81
426.958	169.81
427.18	176.81
427.402	181.81
427.625	165.81
427.847	153.81
428.069	186.81
428.292	160.81
428.514	164.81
428.736	165.81
428.958	159.81
429.181	174.81
429.403	168.81
429.625	149.81
429.847	166.81
430.069	172.81
430.292	169.81
430.514	165.81
430.736	150.81
430.958	177.81
431.18	162.81
431.402	166.81
431.624	170.81
431.846	157.81
432.068	167.81
432.29	168.81
432.512	175.81
432.734	157.81
432.956	154.81
433.178	181.81
433.4	187.81
433.622	173.81
433.844	171.81
434.066	164.81
434.287	167.81
434.509	175.81
434.731	163.81
434.953	186.81
435.175	174.81
435.397	176.81
435.618	182.81
435.84	173.81
436.062	167.81
436.284	164.81
436.505	176.81
436.727	176.81
436.949	160.81
437.17	157.81
437.392	173.81
437.614	160.81
437.835	165.81
438.057	165.81
438.278	171.81
438.5	168.81
438.721	163.81
438.943	169.81
439.165	162.81
439.386	154.81
439.608	167.81
439.829	166.81
440.05	166.81
440.272	166.81
440.493	174.81
440.715	166.81
440.936	164.81
441.158	186.81
441.379	162.81
441.6	180.81
441.822	178.81
442.043	183.81
442.264	176.81
442.486	155.81
442.707	179.81
442.928	184.81
443.149	179.81
443.371	171.81
443.592	175.81
443.813	173.81
444.034	173.81
444.255	184.81
444.476	195.81
444.698	197.81
444.919	203.81
445.14	438.81
445.361	309.81
445.582	174.81
445.803	183.81
446.024	162.81
446.245	171.81
446.466	156.81
446.687	169.81
446.908	165.81
447.129	179.81
447.35	170.81
447.571	168.81
447.792	156.81
448.013	150.81
448.234	153.81
448.455	163.81
448.675	157.81
448.896	150.81
449.117	149.81
449.338	152.81
449.559	163.81
449.779	157.81
450	149.81
450.221	141.81
450.442	157.81
450.662	148.81
450.883	155.81
451.104	170.81
451.324	155.81
451.545	146.81
451.766	163.81
451.986	168.81
452.207	162.81
452.428	157.81
452.648	166.81
452.869	146.81
453.089	146.81
453.31	163.81
453.53	155.81
453.751	148.81
453.971	151.81
454.192	145.81
454.412	149.81
454.633	142.81
454.853	153.81
455.073	149.81
455.294	141.81
455.514	147.81
455.734	141.81
455.955	151.81
456.175	140.81
456.395	142.81
456.616	140.81
456.836	131.81
457.056	127.81
457.276	151.81
457.497	153.81
457.717	155.81
457.937	142.81
458.157	169.81
458.377	144.81
458.598	146.81
458.818	159.81
459.038	166.81
459.258	166.81
459.478	164.81
459.698	178.81
459.918	183.81
460.138	179.81
460.358	176.81
460.578	177.81
460.798	184.81
461.018	192.81
461.238	183.81
461.458	185.81
461.678	185.81
461.898	190.81
462.118	195.81
462.338	189.81
462.558	196.81
462.777	191.81
462.997	217.81
463.217	224.81
463.437	227.81
463.657	209.81
463.876	197.81
464.096	199.81
464.316	197.81
464.536	184.81
464.755	183.81
464.975	194.81
465.195	180.81
465.414	167.81
465.634	169.81
465.854	174.81
466.073	154.81
466.293	178.81
466.512	167.81
466.732	161.81
466.951	169.81
467.171	176.81
467.391	149.81
467.61	164.81
467.829	153.81
468.049	160.81
468.268	144.81
468.488	156.81
468.707	150.81
468.927	146.81
469.146	142.81
469.365	163.81
469.585	153.81
469.804	154.81
470.023	170.81
470.243	159.81
470.462	152.81
470.681	161.81
470.901	165.81
471.12	161.81
471.339	175.81
471.558	152.81
471.777	163.81
471.997	159.81
472.216	170.81
472.435	173.81
472.654	154.81
472.873	161.81
473.092	158.81
473.311	162.81
473.53	162.81
473.749	155.81
473.968	165.81
474.187	150.81
474.406	151.81
474.625	137.81
474.844	161.81
475.063	173.81
475.282	169.81
475.501	152.81
475.72	171.81
475.939	151.81
476.158	162.81
476.377	153.81
476.596	159.81
476.814	173.81
477.033	175.81
477.252	154.81
477.471	153.81
477.69	163.81
477.908	172.81
478.127	182.81
478.346	161.81
478.564	181.81
478.783	172.81
479.002	185.81
479.22	188.81
479.439	175.81
479.658	159.81
479.876	166.81
480.095	161.81
480.313	178.81
480.532	174.81
480.751	183.81
480.969	167.81
481.188	188.81
481.406	186.81
481.624	161.81
481.843	172.81
482.061	167.81
482.28	175.81
482.498	170.81
482.717	155.81
482.935	182.81
483.153	175.81
483.372	164.81
483.59	151.81
483.808	165.81
484.027	175.81
484.245	193.81
484.463	163.81
484.681	175.81
484.9	180.81
485.118	183.81
485.336	165.81
485.554	171.81
485.772	165.81
485.99	171.81
486.209	167.81
486.427	169.81
486.645	175.81
486.863	168.81
487.081	179.81
487.299	165.81
487.517	164.81
487.735	176.81
487.953	165.81
488.171	194.81
488.389	189.81
488.607	183.81
488.825	179.81
489.043	176.81
489.261	185.81
489.479	188.81
489.696	155.81
489.914	177.81
490.132	201.81
490.35	174.81
490.568	171.81
490.786	165.81
491.003	165.81
491.221	147.81
491.439	168.81
491.657	146.81
491.874	170.81
492.092	184.81
492.31	191.81
492.527	172.81
492.745	189.81
492.963	194.81
493.18	175.81
493.398	185.81
493.615	181.81
493.833	182.81
494.05	175.81
494.268	180.81
494.485	175.81
494.703	169.81
494.92	185.81
495.138	163.81
495.355	171.81
495.573	171.81
495.79	172.81
496.008	187.81
496.225	168.81
496.442	177.81
496.66	190.81
496.877	190.81
497.094	188.81
497.312	198.81
497.529	183.81
497.746	198.81
497.963	190.81
498.181	195.81
498.398	226.81
498.615	216.81
498.832	228.81
499.049	251.81
499.267	253.81
499.484	290.81
499.701	305.81
499.918	325.81
500.135	368.81
500.352	390.81
500.569	419.81
500.786	387.81
501.003	356.81
501.22	335.81
501.437	280.81
501.654	263.81
501.871	247.81
502.088	229.81
502.305	236.81
502.522	222.81
502.739	230.81
502.956	208.81
503.172	199.81
503.389	213.81
503.606	193.81
503.823	195.81
504.04	196.81
504.256	204.81
504.473	202.81
504.69	217.81
504.907	198.81
