Data from SampG_HRD10591_00028.txt Node
Date: Mon Jan 19 11:53:53 EST 2026
User: Yrep
Spectrometer: HR+D1059
Trigger mode: 0
Integration Time (sec): 3.443000E-1
Scans to average: 1
Electric dark correction enabled: true
Nonlinearity correction enabled: false
Boxcar width: 0
XAxis mode: Wavelengths
Number of Pixels in Spectrum: 2048
>>>>>Begin Spectral Data<<<<<
223.165	-18.06
223.4	-18.06
223.635	-18.06
223.869	-33.06
224.104	-7.06
224.338	-20.06
224.573	-25.06
224.808	-2.06
225.042	-17.06
225.277	-10.06
225.511	6.94
225.746	8.94
225.98	6.94
226.215	25.94
226.449	11.94
226.683	19.94
226.918	30.94
227.152	20.94
227.387	34.94
227.621	32.94
227.856	39.94
228.09	48.94
228.324	48.94
228.559	68.94
228.793	64.94
229.027	63.94
229.262	74.94
229.496	67.94
229.73	70.94
229.964	73.94
230.199	78.94
230.433	72.94
230.667	83.94
230.901	85.94
231.136	92.94
231.37	77.94
231.604	91.94
231.838	73.94
232.072	77.94
232.306	78.94
232.541	84.94
232.775	78.94
233.009	74.94
233.243	96.94
233.477	89.94
233.711	80.94
233.945	80.94
234.179	69.94
234.413	74.94
234.647	82.94
234.881	86.94
235.115	84.94
235.349	87.94
235.583	82.94
235.817	80.94
236.051	74.94
236.285	85.94
236.519	66.94
236.753	73.94
236.987	92.94
237.221	80.94
237.455	87.94
237.689	69.94
237.922	72.94
238.156	83.94
238.39	78.94
238.624	73.94
238.858	97.94
239.091	78.94
239.325	87.94
239.559	72.94
239.793	73.94
240.027	92.94
240.26	82.94
240.494	79.94
240.728	94.94
240.961	83.94
241.195	90.94
241.429	90.94
241.662	73.94
241.896	69.94
242.13	71.94
242.363	66.94
242.597	76.94
242.83	64.94
243.064	97.94
243.298	74.94
243.531	82.94
243.765	87.94
243.998	86.94
244.232	87.94
244.465	73.94
244.699	82.94
244.932	76.94
245.166	80.94
245.399	77.94
245.633	87.94
245.866	72.94
246.099	74.94
246.333	70.94
246.566	88.94
246.8	83.94
247.033	78.94
247.266	86.94
247.5	88.94
247.733	109.94
247.966	92.94
248.2	93.94
248.433	89.94
248.666	90.94
248.899	82.94
249.133	85.94
249.366	92.94
249.599	82.94
249.832	85.94
250.066	94.94
250.299	89.94
250.532	96.94
250.765	77.94
250.998	77.94
251.231	73.94
251.465	87.94
251.698	81.94
251.931	87.94
252.164	92.94
252.397	67.94
252.63	85.94
252.863	91.94
253.096	79.94
253.329	94.94
253.562	84.94
253.795	96.94
254.028	91.94
254.261	82.94
254.494	77.94
254.727	97.94
254.96	74.94
255.193	80.94
255.426	78.94
255.659	84.94
255.892	95.94
256.124	68.94
256.357	98.94
256.59	92.94
256.823	76.94
257.056	99.94
257.289	89.94
257.521	91.94
257.754	94.94
257.987	89.94
258.22	87.94
258.452	79.94
258.685	89.94
258.918	74.94
259.151	92.94
259.383	105.94
259.616	88.94
259.849	74.94
260.081	88.94
260.314	86.94
260.547	94.94
260.779	83.94
261.012	83.94
261.244	106.94
261.477	112.94
261.71	88.94
261.942	83.94
262.175	87.94
262.407	77.94
262.64	80.94
262.872	90.94
263.105	75.94
263.337	98.94
263.57	86.94
263.802	80.94
264.035	85.94
264.267	83.94
264.499	95.94
264.732	89.94
264.964	101.94
265.197	94.94
265.429	96.94
265.661	100.94
265.894	106.94
266.126	100.94
266.358	101.94
266.591	80.94
266.823	100.94
267.055	103.94
267.287	80.94
267.52	94.94
267.752	96.94
267.984	89.94
268.216	89.94
268.448	94.94
268.681	101.94
268.913	90.94
269.145	102.94
269.377	106.94
269.609	86.94
269.841	105.94
270.073	85.94
270.306	102.94
270.538	90.94
270.77	86.94
271.002	87.94
271.234	87.94
271.466	105.94
271.698	81.94
271.93	87.94
272.162	77.94
272.394	102.94
272.626	100.94
272.858	86.94
273.09	96.94
273.322	75.94
273.553	88.94
273.785	90.94
274.017	91.94
274.249	98.94
274.481	93.94
274.713	91.94
274.945	96.94
275.176	104.94
275.408	92.94
275.64	90.94
275.872	92.94
276.104	100.94
276.335	92.94
276.567	102.94
276.799	92.94
277.031	87.94
277.262	108.94
277.494	93.94
277.726	101.94
277.957	98.94
278.189	88.94
278.421	108.94
278.652	89.94
278.884	96.94
279.115	101.94
279.347	93.94
279.579	84.94
279.81	93.94
280.042	96.94
280.273	102.94
280.505	95.94
280.736	94.94
280.968	100.94
281.199	93.94
281.431	102.94
281.662	107.94
281.894	97.94
282.125	103.94
282.356	108.94
282.588	108.94
282.819	106.94
283.051	102.94
283.282	91.94
283.513	110.94
283.745	102.94
283.976	99.94
284.207	92.94
284.439	116.94
284.67	105.94
284.901	98.94
285.132	89.94
285.364	94.94
285.595	104.94
285.826	92.94
286.057	113.94
286.288	92.94
286.52	109.94
286.751	87.94
286.982	98.94
287.213	91.94
287.444	120.94
287.675	103.94
287.906	104.94
288.138	84.94
288.369	103.94
288.6	95.94
288.831	100.94
289.062	107.94
289.293	113.94
289.524	97.94
289.755	108.94
289.986	102.94
290.217	108.94
290.448	98.94
290.679	97.94
290.91	95.94
291.141	114.94
291.371	107.94
291.602	105.94
291.833	86.94
292.064	105.94
292.295	109.94
292.526	102.94
292.757	114.94
292.987	110.94
293.218	99.94
293.449	109.94
293.68	105.94
293.91	86.94
294.141	99.94
294.372	100.94
294.603	98.94
294.833	116.94
295.064	106.94
295.295	120.94
295.525	105.94
295.756	115.94
295.987	94.94
296.217	111.94
296.448	94.94
296.679	97.94
296.909	121.94
297.14	113.94
297.37	103.94
297.601	100.94
297.831	90.94
298.062	105.94
298.292	107.94
298.523	105.94
298.753	94.94
298.984	105.94
299.214	106.94
299.445	111.94
299.675	110.94
299.905	93.94
300.136	92.94
300.366	108.94
300.597	98.94
300.827	101.94
301.057	102.94
301.288	102.94
301.518	107.94
301.748	108.94
301.979	157.94
302.209	104.94
302.439	88.94
302.669	109.94
302.9	113.94
303.13	112.94
303.36	107.94
303.59	113.94
303.82	113.94
304.051	109.94
304.281	97.94
304.511	118.94
304.741	100.94
304.971	119.94
305.201	104.94
305.431	101.94
305.661	96.94
305.891	99.94
306.121	100.94
306.352	117.94
306.582	109.94
306.812	89.94
307.042	94.94
307.272	98.94
307.502	105.94
307.731	103.94
307.961	105.94
308.191	101.94
308.421	102.94
308.651	106.94
308.881	98.94
309.111	100.94
309.341	107.94
309.571	102.94
309.8	103.94
310.03	115.94
310.26	117.94
310.49	108.94
310.72	115.94
310.949	109.94
311.179	96.94
311.409	102.94
311.639	110.94
311.868	104.94
312.098	104.94
312.328	102.94
312.557	106.94
312.787	104.94
313.017	105.94
313.246	126.94
313.476	121.94
313.706	110.94
313.935	88.94
314.165	113.94
314.394	118.94
314.624	108.94
314.853	100.94
315.083	120.94
315.312	99.94
315.542	115.94
315.771	117.94
316.001	104.94
316.23	118.94
316.46	101.94
316.689	108.94
316.919	96.94
317.148	115.94
317.377	116.94
317.607	106.94
317.836	96.94
318.065	100.94
318.295	112.94
318.524	97.94
318.753	112.94
318.983	99.94
319.212	118.94
319.441	86.94
319.67	101.94
319.9	93.94
320.129	105.94
320.358	106.94
320.587	108.94
320.816	108.94
321.046	92.94
321.275	115.94
321.504	130.94
321.733	116.94
321.962	115.94
322.191	109.94
322.42	121.94
322.649	112.94
322.878	104.94
323.108	101.94
323.337	107.94
323.566	108.94
323.795	111.94
324.024	104.94
324.253	109.94
324.482	106.94
324.71	116.94
324.939	116.94
325.168	118.94
325.397	99.94
325.626	105.94
325.855	121.94
326.084	110.94
326.313	102.94
326.542	99.94
326.77	109.94
326.999	109.94
327.228	105.94
327.457	113.94
327.686	123.94
327.914	129.94
328.143	119.94
328.372	102.94
328.6	105.94
328.829	118.94
329.058	117.94
329.287	104.94
329.515	114.94
329.744	117.94
329.972	105.94
330.201	97.94
330.43	120.94
330.658	111.94
330.887	124.94
331.115	114.94
331.344	98.94
331.572	130.94
331.801	119.94
332.03	128.94
332.258	124.94
332.486	108.94
332.715	128.94
332.943	116.94
333.172	119.94
333.4	124.94
333.629	131.94
333.857	120.94
334.085	115.94
334.314	123.94
334.542	121.94
334.771	119.94
334.999	105.94
335.227	124.94
335.455	113.94
335.684	127.94
335.912	136.94
336.14	118.94
336.369	130.94
336.597	111.94
336.825	111.94
337.053	105.94
337.281	110.94
337.51	100.94
337.738	115.94
337.966	106.94
338.194	111.94
338.422	94.94
338.65	106.94
338.878	114.94
339.106	115.94
339.334	117.94
339.562	102.94
339.79	96.94
340.018	106.94
340.246	100.94
340.474	116.94
340.702	120.94
340.93	128.94
341.158	107.94
341.386	116.94
341.614	105.94
341.842	107.94
342.07	104.94
342.298	113.94
342.526	102.94
342.754	108.94
342.981	124.94
343.209	105.94
343.437	152.94
343.665	130.94
343.893	124.94
344.12	111.94
344.348	108.94
344.576	117.94
344.804	108.94
345.031	94.94
345.259	109.94
345.487	107.94
345.714	106.94
345.942	106.94
346.17	97.94
346.397	104.94
346.625	108.94
346.853	114.94
347.08	100.94
347.308	112.94
347.535	100.94
347.763	106.94
347.99	103.94
348.218	114.94
348.445	109.94
348.673	121.94
348.9	109.94
349.128	118.94
349.355	107.94
349.583	108.94
349.81	118.94
350.037	118.94
350.265	105.94
350.492	108.94
350.72	122.94
350.947	109.94
351.174	111.94
351.402	107.94
351.629	103.94
351.856	106.94
352.083	107.94
352.311	120.94
352.538	99.94
352.765	104.94
352.992	130.94
353.22	106.94
353.447	102.94
353.674	108.94
353.901	120.94
354.128	113.94
354.355	105.94
354.583	114.94
354.81	119.94
355.037	103.94
355.264	110.94
355.491	106.94
355.718	107.94
355.945	116.94
356.172	99.94
356.399	112.94
356.626	104.94
356.853	104.94
357.08	113.94
357.307	101.94
357.534	97.94
357.761	114.94
357.988	119.94
358.215	108.94
358.441	103.94
358.668	100.94
358.895	116.94
359.122	111.94
359.349	100.94
359.576	127.94
359.802	115.94
360.029	117.94
360.256	106.94
360.483	113.94
360.709	109.94
360.936	138.94
361.163	120.94
361.39	119.94
361.616	119.94
361.843	116.94
362.07	101.94
362.296	113.94
362.523	105.94
362.749	107.94
362.976	115.94
363.203	105.94
363.429	104.94
363.656	105.94
363.882	112.94
364.109	123.94
364.335	113.94
364.562	120.94
364.788	102.94
365.015	100.94
365.241	121.94
365.468	122.94
365.694	108.94
365.92	108.94
366.147	101.94
366.373	119.94
366.599	112.94
366.826	94.94
367.052	95.94
367.278	109.94
367.505	110.94
367.731	140.94
367.957	113.94
368.184	97.94
368.41	114.94
368.636	111.94
368.862	121.94
369.089	97.94
369.315	101.94
369.541	129.94
369.767	110.94
369.993	114.94
370.219	107.94
370.445	99.94
370.672	99.94
370.898	114.94
371.124	116.94
371.35	117.94
371.576	114.94
371.802	90.94
372.028	92.94
372.254	104.94
372.48	105.94
372.706	116.94
372.932	112.94
373.158	115.94
373.384	115.94
373.61	128.94
373.835	114.94
374.061	110.94
374.287	116.94
374.513	106.94
374.739	114.94
374.965	109.94
375.191	113.94
375.416	103.94
375.642	128.94
375.868	105.94
376.094	132.94
376.319	93.94
376.545	103.94
376.771	112.94
376.997	100.94
377.222	115.94
377.448	124.94
377.674	113.94
377.899	112.94
378.125	119.94
378.35	125.94
378.576	101.94
378.802	118.94
379.027	112.94
379.253	109.94
379.478	114.94
379.704	120.94
379.929	97.94
380.155	113.94
380.38	121.94
380.606	102.94
380.831	128.94
381.057	128.94
381.282	116.94
381.507	109.94
381.733	114.94
381.958	120.94
382.184	107.94
382.409	116.94
382.634	126.94
382.86	110.94
383.085	132.94
383.31	99.94
383.535	121.94
383.761	102.94
383.986	120.94
384.211	108.94
384.436	124.94
384.662	114.94
384.887	101.94
385.112	122.94
385.337	129.94
385.562	126.94
385.787	129.94
386.013	109.94
386.238	112.94
386.463	100.94
386.688	148.94
386.913	107.94
387.138	114.94
387.363	120.94
387.588	115.94
387.813	130.94
388.038	115.94
388.263	124.94
388.488	110.94
388.713	120.94
388.938	114.94
389.163	118.94
389.387	110.94
389.612	113.94
389.837	114.94
390.062	128.94
390.287	121.94
390.512	104.94
390.736	100.94
390.961	117.94
391.186	125.94
391.411	123.94
391.636	124.94
391.86	117.94
392.085	136.94
392.31	127.94
392.534	114.94
392.759	124.94
392.984	129.94
393.208	145.94
393.433	131.94
393.658	121.94
393.882	114.94
394.107	109.94
394.331	118.94
394.556	130.94
394.78	122.94
395.005	113.94
395.229	126.94
395.454	138.94
395.678	128.94
395.903	128.94
396.127	126.94
396.352	123.94
396.576	135.94
396.801	111.94
397.025	105.94
397.249	112.94
397.474	121.94
397.698	117.94
397.922	129.94
398.147	115.94
398.371	122.94
398.595	130.94
398.82	116.94
399.044	120.94
399.268	154.94
399.492	149.94
399.717	171.94
399.941	162.94
400.165	132.94
400.389	128.94
400.613	133.94
400.837	135.94
401.062	125.94
401.286	135.94
401.51	130.94
401.734	134.94
401.958	122.94
402.182	134.94
402.406	127.94
402.63	123.94
402.854	128.94
403.078	148.94
403.302	126.94
403.526	138.94
403.75	120.94
403.974	132.94
404.198	136.94
404.422	147.94
404.645	123.94
404.869	132.94
405.093	138.94
405.317	131.94
405.541	132.94
405.765	123.94
405.988	131.94
406.212	124.94
406.436	121.94
406.66	134.94
406.883	131.94
407.107	129.94
407.331	126.94
407.555	152.94
407.778	156.94
408.002	146.94
408.226	154.94
408.449	148.94
408.673	125.94
408.896	129.94
409.12	136.94
409.344	129.94
409.567	130.94
409.791	148.94
410.014	152.94
410.238	126.94
410.461	130.94
410.685	134.94
410.908	126.94
411.132	136.94
411.355	140.94
411.578	122.94
411.802	122.94
412.025	130.94
412.249	116.94
412.472	129.94
412.695	121.94
412.919	130.94
413.142	132.94
413.365	131.94
413.589	122.94
413.812	120.94
414.035	139.94
414.258	124.94
414.482	129.94
414.705	136.94
414.928	133.94
415.151	127.94
415.374	121.94
415.597	132.94
415.821	122.94
416.044	116.94
416.267	139.94
416.49	119.94
416.713	131.94
416.936	117.94
417.159	120.94
417.382	124.94
417.605	132.94
417.828	126.94
418.051	122.94
418.274	114.94
418.497	122.94
418.72	129.94
418.943	159.94
419.166	134.94
419.389	125.94
419.611	140.94
419.834	130.94
420.057	145.94
420.28	123.94
420.503	138.94
420.726	131.94
420.948	123.94
421.171	124.94
421.394	118.94
421.617	118.94
421.839	124.94
422.062	116.94
422.285	124.94
422.507	115.94
422.73	133.94
422.953	119.94
423.175	121.94
423.398	122.94
423.621	144.94
423.843	126.94
424.066	143.94
424.288	126.94
424.511	131.94
424.733	123.94
424.956	130.94
425.178	143.94
425.401	114.94
425.623	131.94
425.846	122.94
426.068	121.94
426.291	117.94
426.513	132.94
426.735	126.94
426.958	120.94
427.18	130.94
427.402	120.94
427.625	129.94
427.847	114.94
428.069	125.94
428.292	119.94
428.514	140.94
428.736	124.94
428.958	124.94
429.181	129.94
429.403	128.94
429.625	120.94
429.847	117.94
430.069	112.94
430.292	137.94
430.514	111.94
430.736	118.94
430.958	147.94
431.18	116.94
431.402	110.94
431.624	116.94
431.846	114.94
432.068	117.94
432.29	118.94
432.512	121.94
432.734	122.94
432.956	121.94
433.178	131.94
433.4	140.94
433.622	153.94
433.844	128.94
434.066	109.94
434.287	118.94
434.509	131.94
434.731	132.94
434.953	126.94
435.175	139.94
435.397	141.94
435.618	126.94
435.84	119.94
436.062	116.94
436.284	119.94
436.505	132.94
436.727	120.94
436.949	122.94
437.17	128.94
437.392	121.94
437.614	126.94
437.835	138.94
438.057	97.94
438.278	110.94
438.5	127.94
438.721	116.94
438.943	129.94
439.165	122.94
439.386	129.94
439.608	126.94
439.829	140.94
440.05	123.94
440.272	126.94
440.493	135.94
440.715	124.94
440.936	116.94
441.158	127.94
441.379	110.94
441.6	119.94
441.822	132.94
442.043	126.94
442.264	118.94
442.486	130.94
442.707	135.94
442.928	149.94
443.149	148.94
443.371	132.94
443.592	135.94
443.813	134.94
444.034	124.94
444.255	128.94
444.476	139.94
444.698	149.94
444.919	129.94
445.14	397.94
445.361	248.94
445.582	114.94
445.803	124.94
446.024	123.94
446.245	137.94
446.466	123.94
446.687	124.94
446.908	113.94
447.129	122.94
447.35	112.94
447.571	113.94
447.792	122.94
448.013	121.94
448.234	115.94
448.455	118.94
448.675	118.94
448.896	115.94
449.117	110.94
449.338	104.94
449.559	110.94
449.779	124.94
450	130.94
450.221	112.94
450.442	122.94
450.662	116.94
450.883	121.94
451.104	125.94
451.324	116.94
451.545	117.94
451.766	118.94
451.986	114.94
452.207	118.94
452.428	140.94
452.648	119.94
452.869	119.94
453.089	116.94
453.31	123.94
453.53	116.94
453.751	108.94
453.971	114.94
454.192	117.94
454.412	107.94
454.633	108.94
454.853	110.94
455.073	117.94
455.294	108.94
455.514	115.94
455.734	104.94
455.955	125.94
456.175	112.94
456.395	116.94
456.616	107.94
456.836	122.94
457.056	112.94
457.276	97.94
457.497	126.94
457.717	116.94
457.937	114.94
458.157	104.94
458.377	118.94
458.598	118.94
458.818	117.94
459.038	114.94
459.258	113.94
459.478	130.94
459.698	110.94
459.918	135.94
460.138	132.94
460.358	137.94
460.578	138.94
460.798	149.94
461.018	125.94
461.238	136.94
461.458	128.94
461.678	134.94
461.898	134.94
462.118	144.94
462.338	132.94
462.558	142.94
462.777	137.94
462.997	167.94
463.217	163.94
463.437	139.94
463.657	142.94
463.876	132.94
464.096	133.94
464.316	137.94
464.536	145.94
464.755	137.94
464.975	138.94
465.195	149.94
465.414	128.94
465.634	117.94
465.854	119.94
466.073	126.94
466.293	130.94
466.512	115.94
466.732	124.94
466.951	115.94
467.171	113.94
467.391	117.94
467.61	114.94
467.829	122.94
468.049	124.94
468.268	130.94
468.488	118.94
468.707	116.94
468.927	107.94
469.146	115.94
469.365	126.94
469.585	130.94
469.804	114.94
470.023	124.94
470.243	126.94
470.462	115.94
470.681	124.94
470.901	112.94
471.12	114.94
471.339	123.94
471.558	130.94
471.777	116.94
471.997	120.94
472.216	115.94
472.435	116.94
472.654	115.94
472.873	121.94
473.092	122.94
473.311	110.94
473.53	117.94
473.749	124.94
473.968	129.94
474.187	116.94
474.406	125.94
474.625	110.94
474.844	98.94
475.063	119.94
475.282	120.94
475.501	129.94
475.72	122.94
475.939	124.94
476.158	122.94
476.377	115.94
476.596	122.94
476.814	115.94
477.033	119.94
477.252	121.94
477.471	131.94
477.69	121.94
477.908	121.94
478.127	109.94
478.346	116.94
478.564	124.94
478.783	135.94
479.002	128.94
479.22	125.94
479.439	134.94
479.658	135.94
479.876	135.94
480.095	129.94
480.313	138.94
480.532	152.94
480.751	144.94
480.969	135.94
481.188	116.94
481.406	135.94
481.624	128.94
481.843	119.94
482.061	131.94
482.28	118.94
482.498	114.94
482.717	125.94
482.935	111.94
483.153	113.94
483.372	105.94
483.59	125.94
483.808	112.94
484.027	131.94
484.245	139.94
484.463	122.94
484.681	135.94
484.9	123.94
485.118	130.94
485.336	125.94
485.554	121.94
485.772	133.94
485.99	123.94
486.209	136.94
486.427	132.94
486.645	130.94
486.863	126.94
487.081	139.94
487.299	131.94
487.517	133.94
487.735	127.94
487.953	134.94
488.171	125.94
488.389	114.94
488.607	135.94
488.825	139.94
489.043	124.94
489.261	133.94
489.479	126.94
489.696	128.94
489.914	120.94
490.132	127.94
490.35	144.94
490.568	122.94
490.786	136.94
491.003	137.94
491.221	136.94
491.439	123.94
491.657	126.94
491.874	129.94
492.092	124.94
492.31	134.94
492.527	137.94
492.745	122.94
492.963	137.94
493.18	125.94
493.398	119.94
493.615	110.94
493.833	124.94
494.05	139.94
494.268	134.94
494.485	137.94
494.703	152.94
494.92	123.94
495.138	122.94
495.355	135.94
495.573	135.94
495.79	107.94
496.008	136.94
496.225	136.94
496.442	129.94
496.66	140.94
496.877	144.94
497.094	140.94
497.312	145.94
497.529	155.94
497.746	121.94
497.963	158.94
498.181	154.94
498.398	147.94
498.615	158.94
498.832	149.94
499.049	170.94
499.267	183.94
499.484	174.94
499.701	212.94
499.918	202.94
500.135	233.94
500.352	231.94
500.569	257.94
500.786	259.94
501.003	227.94
501.22	213.94
501.437	195.94
501.654	174.94
501.871	161.94
502.088	164.94
502.305	169.94
502.522	147.94
502.739	162.94
502.956	151.94
503.172	154.94
503.389	140.94
503.606	128.94
503.823	146.94
504.04	131.94
504.256	133.94
504.473	127.94
504.69	141.94
504.907	150.94
505.123	135.94
505.34	150.94
505.557	132.94
505.773	137.94
505.99	122.94
506.207	128.94
506.423	154.94
