Data from SampG_HRD10591_00058.txt Node
Date: Mon Jan 19 11:54:03 EST 2026
User: Yrep
Spectrometer: HR+D1059
Trigger mode: 0
Integration Time (sec): 3.443000E-1
Scans to average: 1
Electric dark correction enabled: true
Nonlinearity correction enabled: false
Boxcar width: 0
XAxis mode: Wavelengths
Number of Pixels in Spectrum: 2048
>>>>>Begin Spectral Data<<<<<
223.165	-18.25
223.4	-18.25
223.635	-18.25
223.869	-24.25
224.104	-20.25
224.338	-14.25
224.573	-18.25
224.808	-19.25
225.042	-7.25
225.277	-1.25
225.511	-12.25
225.746	1.75
225.98	12.75
226.215	21.75
226.449	22.75
226.683	27.75
226.918	14.75
227.152	33.75
227.387	55.75
227.621	47.75
227.856	42.75
228.09	46.75
228.324	58.75
228.559	64.75
228.793	71.75
229.027	71.75
229.262	73.75
229.496	65.75
229.73	84.75
229.964	82.75
230.199	78.75
230.433	102.75
230.667	81.75
230.901	80.75
231.136	90.75
231.37	74.75
231.604	81.75
231.838	87.75
232.072	84.75
232.306	102.75
232.541	88.75
232.775	91.75
233.009	106.75
233.243	97.75
233.477	101.75
233.711	106.75
233.945	71.75
234.179	86.75
234.413	88.75
234.647	85.75
234.881	89.75
235.115	88.75
235.349	93.75
235.583	94.75
235.817	105.75
236.051	102.75
236.285	81.75
236.519	70.75
236.753	95.75
236.987	84.75
237.221	89.75
237.455	93.75
237.689	72.75
237.922	91.75
238.156	70.75
238.39	85.75
238.624	75.75
238.858	103.75
239.091	86.75
239.325	95.75
239.559	86.75
239.793	85.75
240.027	100.75
240.26	97.75
240.494	88.75
240.728	75.75
240.961	86.75
241.195	98.75
241.429	95.75
241.662	76.75
241.896	75.75
242.13	95.75
242.363	81.75
242.597	99.75
242.83	81.75
243.064	90.75
243.298	97.75
243.531	90.75
243.765	87.75
243.998	88.75
244.232	90.75
244.465	100.75
244.699	90.75
244.932	100.75
245.166	96.75
245.399	100.75
245.633	90.75
245.866	103.75
246.099	83.75
246.333	90.75
246.566	106.75
246.8	96.75
247.033	94.75
247.266	93.75
247.5	92.75
247.733	81.75
247.966	89.75
248.2	88.75
248.433	82.75
248.666	93.75
248.899	92.75
249.133	91.75
249.366	91.75
249.599	76.75
249.832	103.75
250.066	106.75
250.299	97.75
250.532	94.75
250.765	94.75
250.998	91.75
251.231	99.75
251.465	94.75
251.698	106.75
251.931	82.75
252.164	93.75
252.397	100.75
252.63	109.75
252.863	90.75
253.096	99.75
253.329	106.75
253.562	93.75
253.795	100.75
254.028	105.75
254.261	86.75
254.494	96.75
254.727	84.75
254.96	86.75
255.193	112.75
255.426	102.75
255.659	89.75
255.892	107.75
256.124	104.75
256.357	96.75
256.59	103.75
256.823	96.75
257.056	95.75
257.289	101.75
257.521	109.75
257.754	97.75
257.987	100.75
258.22	96.75
258.452	110.75
258.685	100.75
258.918	92.75
259.151	86.75
259.383	94.75
259.616	97.75
259.849	100.75
260.081	106.75
260.314	112.75
260.547	109.75
260.779	92.75
261.012	83.75
261.244	99.75
261.477	117.75
261.71	114.75
261.942	104.75
262.175	99.75
262.407	103.75
262.64	106.75
262.872	104.75
263.105	101.75
263.337	104.75
263.57	87.75
263.802	95.75
264.035	107.75
264.267	98.75
264.499	106.75
264.732	108.75
264.964	108.75
265.197	121.75
265.429	109.75
265.661	107.75
265.894	112.75
266.126	126.75
266.358	102.75
266.591	100.75
266.823	108.75
267.055	97.75
267.287	104.75
267.52	117.75
267.752	103.75
267.984	104.75
268.216	90.75
268.448	121.75
268.681	119.75
268.913	114.75
269.145	104.75
269.377	105.75
269.609	104.75
269.841	124.75
270.073	114.75
270.306	93.75
270.538	94.75
270.77	101.75
271.002	90.75
271.234	101.75
271.466	95.75
271.698	126.75
271.93	107.75
272.162	118.75
272.394	118.75
272.626	115.75
272.858	113.75
273.09	102.75
273.322	117.75
273.553	101.75
273.785	96.75
274.017	112.75
274.249	110.75
274.481	89.75
274.713	104.75
274.945	103.75
275.176	114.75
275.408	114.75
275.64	110.75
275.872	107.75
276.104	102.75
276.335	110.75
276.567	101.75
276.799	111.75
277.031	92.75
277.262	101.75
277.494	116.75
277.726	102.75
277.957	98.75
278.189	109.75
278.421	121.75
278.652	113.75
278.884	118.75
279.115	101.75
279.347	113.75
279.579	118.75
279.81	97.75
280.042	105.75
280.273	120.75
280.505	117.75
280.736	118.75
280.968	120.75
281.199	112.75
281.431	103.75
281.662	106.75
281.894	113.75
282.125	106.75
282.356	121.75
282.588	125.75
282.819	111.75
283.051	116.75
283.282	102.75
283.513	124.75
283.745	119.75
283.976	109.75
284.207	127.75
284.439	114.75
284.67	118.75
284.901	117.75
285.132	117.75
285.364	99.75
285.595	97.75
285.826	109.75
286.057	127.75
286.288	117.75
286.52	113.75
286.751	112.75
286.982	117.75
287.213	100.75
287.444	122.75
287.675	111.75
287.906	120.75
288.138	114.75
288.369	118.75
288.6	112.75
288.831	121.75
289.062	111.75
289.293	118.75
289.524	115.75
289.755	127.75
289.986	120.75
290.217	125.75
290.448	116.75
290.679	126.75
290.91	120.75
291.141	126.75
291.371	122.75
291.602	129.75
291.833	127.75
292.064	111.75
292.295	124.75
292.526	112.75
292.757	109.75
292.987	111.75
293.218	112.75
293.449	113.75
293.68	114.75
293.91	111.75
294.141	124.75
294.372	111.75
294.603	126.75
294.833	120.75
295.064	126.75
295.295	130.75
295.525	115.75
295.756	122.75
295.987	122.75
296.217	134.75
296.448	114.75
296.679	118.75
296.909	145.75
297.14	127.75
297.37	130.75
297.601	122.75
297.831	125.75
298.062	142.75
298.292	121.75
298.523	111.75
298.753	122.75
298.984	114.75
299.214	117.75
299.445	127.75
299.675	114.75
299.905	125.75
300.136	122.75
300.366	124.75
300.597	130.75
300.827	126.75
301.057	124.75
301.288	122.75
301.518	118.75
301.748	125.75
301.979	155.75
302.209	138.75
302.439	129.75
302.669	120.75
302.9	124.75
303.13	117.75
303.36	120.75
303.59	113.75
303.82	132.75
304.051	132.75
304.281	126.75
304.511	133.75
304.741	122.75
304.971	118.75
305.201	128.75
305.431	117.75
305.661	118.75
305.891	120.75
306.121	124.75
306.352	137.75
306.582	108.75
306.812	122.75
307.042	108.75
307.272	117.75
307.502	133.75
307.731	115.75
307.961	121.75
308.191	113.75
308.421	105.75
308.651	122.75
308.881	129.75
309.111	117.75
309.341	122.75
309.571	121.75
309.8	121.75
310.03	135.75
310.26	122.75
310.49	129.75
310.72	135.75
310.949	127.75
311.179	131.75
311.409	133.75
311.639	130.75
311.868	121.75
312.098	125.75
312.328	123.75
312.557	131.75
312.787	120.75
313.017	125.75
313.246	131.75
313.476	124.75
313.706	130.75
313.935	132.75
314.165	133.75
314.394	121.75
314.624	135.75
314.853	124.75
315.083	126.75
315.312	120.75
315.542	121.75
315.771	126.75
316.001	118.75
316.23	122.75
316.46	111.75
316.689	115.75
316.919	129.75
317.148	136.75
317.377	143.75
317.607	138.75
317.836	132.75
318.065	125.75
318.295	113.75
318.524	110.75
318.753	128.75
318.983	128.75
319.212	120.75
319.441	127.75
319.67	131.75
319.9	125.75
320.129	127.75
320.358	128.75
320.587	127.75
320.816	121.75
321.046	126.75
321.275	135.75
321.504	135.75
321.733	127.75
321.962	117.75
322.191	134.75
322.42	120.75
322.649	136.75
322.878	125.75
323.108	128.75
323.337	126.75
323.566	133.75
323.795	142.75
324.024	127.75
324.253	139.75
324.482	123.75
324.71	141.75
324.939	134.75
325.168	129.75
325.397	123.75
325.626	128.75
325.855	136.75
326.084	126.75
326.313	134.75
326.542	127.75
326.77	129.75
326.999	129.75
327.228	131.75
327.457	128.75
327.686	129.75
327.914	134.75
328.143	129.75
328.372	129.75
328.6	135.75
328.829	120.75
329.058	126.75
329.287	131.75
329.515	138.75
329.744	140.75
329.972	139.75
330.201	120.75
330.43	134.75
330.658	136.75
330.887	137.75
331.115	138.75
331.344	151.75
331.572	154.75
331.801	132.75
332.03	124.75
332.258	119.75
332.486	138.75
332.715	144.75
332.943	153.75
333.172	132.75
333.4	148.75
333.629	134.75
333.857	142.75
334.085	160.75
334.314	153.75
334.542	155.75
334.771	144.75
334.999	139.75
335.227	133.75
335.455	150.75
335.684	174.75
335.912	150.75
336.14	139.75
336.369	138.75
336.597	147.75
336.825	137.75
337.053	145.75
337.281	133.75
337.51	137.75
337.738	149.75
337.966	124.75
338.194	137.75
338.422	143.75
338.65	135.75
338.878	127.75
339.106	136.75
339.334	141.75
339.562	142.75
339.79	140.75
340.018	136.75
340.246	132.75
340.474	132.75
340.702	130.75
340.93	144.75
341.158	126.75
341.386	138.75
341.614	138.75
341.842	135.75
342.07	137.75
342.298	149.75
342.526	134.75
342.754	123.75
342.981	146.75
343.209	133.75
343.437	177.75
343.665	150.75
343.893	145.75
344.12	164.75
344.348	135.75
344.576	138.75
344.804	116.75
345.031	120.75
345.259	145.75
345.487	124.75
345.714	145.75
345.942	132.75
346.17	146.75
346.397	131.75
346.625	159.75
346.853	121.75
347.08	127.75
347.308	122.75
347.535	143.75
347.763	127.75
347.99	141.75
348.218	143.75
348.445	139.75
348.673	141.75
348.9	118.75
349.128	147.75
349.355	126.75
349.583	127.75
349.81	135.75
350.037	130.75
350.265	139.75
350.492	137.75
350.72	135.75
350.947	128.75
351.174	136.75
351.402	124.75
351.629	133.75
351.856	136.75
352.083	139.75
352.311	142.75
352.538	125.75
352.765	130.75
352.992	140.75
353.22	130.75
353.447	142.75
353.674	131.75
353.901	143.75
354.128	124.75
354.355	127.75
354.583	128.75
354.81	117.75
355.037	129.75
355.264	129.75
355.491	128.75
355.718	136.75
355.945	118.75
356.172	115.75
356.399	118.75
356.626	129.75
356.853	136.75
357.08	155.75
357.307	142.75
357.534	133.75
357.761	137.75
357.988	136.75
358.215	142.75
358.441	128.75
358.668	134.75
358.895	135.75
359.122	121.75
359.349	134.75
359.576	115.75
359.802	119.75
360.029	140.75
360.256	134.75
360.483	126.75
360.709	126.75
360.936	154.75
361.163	142.75
361.39	138.75
361.616	124.75
361.843	135.75
362.07	139.75
362.296	142.75
362.523	133.75
362.749	127.75
362.976	138.75
363.203	136.75
363.429	129.75
363.656	118.75
363.882	145.75
364.109	148.75
364.335	136.75
364.562	128.75
364.788	126.75
365.015	144.75
365.241	141.75
365.468	139.75
365.694	114.75
365.92	114.75
366.147	113.75
366.373	128.75
366.599	154.75
366.826	130.75
367.052	136.75
367.278	144.75
367.505	137.75
367.731	128.75
367.957	124.75
368.184	132.75
368.41	142.75
368.636	135.75
368.862	145.75
369.089	137.75
369.315	141.75
369.541	141.75
369.767	143.75
369.993	122.75
370.219	132.75
370.445	139.75
370.672	129.75
370.898	134.75
371.124	139.75
371.35	133.75
371.576	148.75
371.802	149.75
372.028	132.75
372.254	143.75
372.48	143.75
372.706	139.75
372.932	141.75
373.158	144.75
373.384	144.75
373.61	146.75
373.835	156.75
374.061	127.75
374.287	151.75
374.513	137.75
374.739	160.75
374.965	145.75
375.191	148.75
375.416	143.75
375.642	130.75
375.868	135.75
376.094	133.75
376.319	142.75
376.545	142.75
376.771	151.75
376.997	135.75
377.222	136.75
377.448	132.75
377.674	138.75
377.899	149.75
378.125	135.75
378.35	134.75
378.576	145.75
378.802	137.75
379.027	135.75
379.253	147.75
379.478	146.75
379.704	127.75
379.929	143.75
380.155	133.75
380.38	129.75
380.606	142.75
380.831	136.75
381.057	149.75
381.282	138.75
381.507	130.75
381.733	149.75
381.958	151.75
382.184	150.75
382.409	144.75
382.634	164.75
382.86	154.75
383.085	135.75
383.31	154.75
383.535	142.75
383.761	168.75
383.986	156.75
384.211	143.75
384.436	154.75
384.662	147.75
384.887	160.75
385.112	142.75
385.337	146.75
385.562	148.75
385.787	160.75
386.013	185.75
386.238	143.75
386.463	145.75
386.688	170.75
386.913	154.75
387.138	141.75
387.363	157.75
387.588	152.75
387.813	155.75
388.038	170.75
388.263	168.75
388.488	145.75
388.713	160.75
388.938	144.75
389.163	141.75
389.387	168.75
389.612	144.75
389.837	152.75
390.062	166.75
390.287	156.75
390.512	156.75
390.736	144.75
390.961	158.75
391.186	146.75
391.411	168.75
391.636	164.75
391.86	154.75
392.085	174.75
392.31	143.75
392.534	153.75
392.759	140.75
392.984	162.75
393.208	141.75
393.433	161.75
393.658	166.75
393.882	173.75
394.107	161.75
394.331	165.75
394.556	149.75
394.78	160.75
395.005	156.75
395.229	160.75
395.454	162.75
395.678	171.75
395.903	165.75
396.127	157.75
396.352	141.75
396.576	156.75
396.801	141.75
397.025	161.75
397.249	155.75
397.474	174.75
397.698	166.75
397.922	154.75
398.147	164.75
398.371	172.75
398.595	185.75
398.82	177.75
399.044	191.75
399.268	205.75
399.492	209.75
399.717	224.75
399.941	192.75
400.165	202.75
400.389	177.75
400.613	175.75
400.837	184.75
401.062	177.75
401.286	180.75
401.51	176.75
401.734	171.75
401.958	176.75
402.182	162.75
402.406	178.75
402.63	182.75
402.854	188.75
403.078	177.75
403.302	173.75
403.526	192.75
403.75	198.75
403.974	188.75
404.198	181.75
404.422	192.75
404.645	188.75
404.869	175.75
405.093	188.75
405.317	185.75
405.541	183.75
405.765	178.75
405.988	182.75
406.212	178.75
406.436	172.75
406.66	186.75
406.883	194.75
407.107	192.75
407.331	195.75
407.555	192.75
407.778	215.75
408.002	195.75
408.226	204.75
408.449	186.75
408.673	196.75
408.896	202.75
409.12	172.75
409.344	182.75
409.567	175.75
409.791	197.75
410.014	209.75
410.238	182.75
410.461	192.75
410.685	181.75
410.908	181.75
411.132	183.75
411.355	160.75
411.578	186.75
411.802	174.75
412.025	186.75
412.249	183.75
412.472	178.75
412.695	176.75
412.919	162.75
413.142	173.75
413.365	174.75
413.589	181.75
413.812	168.75
414.035	203.75
414.258	176.75
414.482	175.75
414.705	168.75
414.928	178.75
415.151	164.75
415.374	170.75
415.597	167.75
415.821	172.75
416.044	169.75
416.267	187.75
416.49	166.75
416.713	166.75
416.936	178.75
417.159	184.75
417.382	158.75
417.605	164.75
417.828	172.75
418.051	169.75
418.274	168.75
418.497	182.75
418.72	169.75
418.943	181.75
419.166	184.75
419.389	180.75
419.611	192.75
419.834	166.75
420.057	175.75
420.28	170.75
420.503	168.75
420.726	164.75
420.948	152.75
421.171	182.75
421.394	170.75
421.617	182.75
421.839	169.75
422.062	165.75
422.285	177.75
422.507	186.75
422.73	196.75
422.953	168.75
423.175	189.75
423.398	176.75
423.621	182.75
423.843	188.75
424.066	187.75
424.288	177.75
424.511	193.75
424.733	186.75
424.956	192.75
425.178	193.75
425.401	177.75
425.623	175.75
425.846	173.75
426.068	183.75
426.291	169.75
426.513	164.75
426.735	152.75
426.958	159.75
427.18	183.75
427.402	171.75
427.625	151.75
427.847	162.75
428.069	179.75
428.292	148.75
428.514	164.75
428.736	149.75
428.958	164.75
429.181	174.75
429.403	157.75
429.625	161.75
429.847	158.75
430.069	174.75
430.292	171.75
430.514	165.75
430.736	154.75
430.958	153.75
431.18	148.75
431.402	157.75
431.624	166.75
431.846	151.75
432.068	164.75
432.29	172.75
432.512	171.75
432.734	170.75
432.956	153.75
433.178	170.75
433.4	168.75
433.622	174.75
433.844	178.75
434.066	155.75
434.287	148.75
434.509	157.75
434.731	172.75
434.953	160.75
435.175	183.75
435.397	175.75
435.618	155.75
435.84	166.75
436.062	178.75
436.284	167.75
436.505	158.75
436.727	169.75
436.949	177.75
437.17	145.75
437.392	165.75
437.614	158.75
437.835	167.75
438.057	140.75
438.278	151.75
438.5	169.75
438.721	164.75
438.943	162.75
439.165	153.75
439.386	151.75
439.608	178.75
439.829	149.75
440.05	148.75
440.272	151.75
440.493	167.75
440.715	149.75
440.936	164.75
441.158	176.75
441.379	175.75
441.6	159.75
441.822	168.75
442.043	177.75
442.264	174.75
442.486	168.75
442.707	182.75
442.928	155.75
443.149	160.75
443.371	188.75
443.592	178.75
443.813	169.75
444.034	178.75
444.255	180.75
444.476	186.75
444.698	189.75
444.919	198.75
445.14	390.75
445.361	275.75
445.582	178.75
445.803	166.75
446.024	177.75
446.245	176.75
446.466	167.75
446.687	178.75
446.908	162.75
447.129	148.75
447.35	152.75
447.571	164.75
447.792	172.75
448.013	155.75
448.234	152.75
448.455	154.75
448.675	154.75
448.896	151.75
449.117	149.75
449.338	162.75
449.559	172.75
449.779	156.75
450	156.75
450.221	155.75
450.442	158.75
450.662	155.75
450.883	155.75
451.104	162.75
451.324	170.75
451.545	162.75
451.766	168.75
451.986	167.75
452.207	154.75
452.428	155.75
452.648	162.75
452.869	175.75
453.089	153.75
453.31	161.75
453.53	149.75
453.751	162.75
453.971	155.75
454.192	148.75
454.412	142.75
454.633	144.75
454.853	165.75
455.073	156.75
455.294	139.75
455.514	153.75
455.734	134.75
455.955	152.75
456.175	144.75
456.395	140.75
456.616	137.75
456.836	128.75
457.056	158.75
457.276	158.75
457.497	130.75
457.717	145.75
457.937	139.75
458.157	148.75
458.377	148.75
458.598	151.75
458.818	175.75
459.038	160.75
459.258	164.75
459.478	168.75
459.698	165.75
459.918	171.75
460.138	174.75
460.358	178.75
460.578	187.75
460.798	181.75
461.018	174.75
461.238	198.75
461.458	173.75
461.678	179.75
461.898	200.75
462.118	178.75
462.338	196.75
462.558	188.75
462.777	186.75
462.997	229.75
463.217	244.75
463.437	221.75
463.657	204.75
463.876	194.75
464.096	190.75
464.316	185.75
464.536	184.75
464.755	189.75
464.975	198.75
465.195	191.75
465.414	181.75
465.634	184.75
465.854	175.75
466.073	164.75
466.293	154.75
466.512	152.75
466.732	155.75
466.951	169.75
467.171	168.75
467.391	157.75
467.61	158.75
467.829	146.75
468.049	147.75
468.268	135.75
468.488	154.75
468.707	160.75
468.927	159.75
469.146	162.75
469.365	150.75
469.585	162.75
469.804	168.75
470.023	148.75
470.243	160.75
470.462	153.75
470.681	136.75
470.901	152.75
471.12	147.75
471.339	158.75
471.558	164.75
471.777	150.75
471.997	159.75
472.216	156.75
472.435	151.75
472.654	156.75
472.873	167.75
473.092	151.75
473.311	141.75
473.53	146.75
473.749	157.75
473.968	174.75
474.187	142.75
474.406	166.75
474.625	149.75
474.844	155.75
475.063	143.75
475.282	151.75
475.501	153.75
475.72	167.75
475.939	161.75
476.158	157.75
476.377	155.75
476.596	152.75
476.814	168.75
477.033	177.75
477.252	156.75
477.471	154.75
477.69	149.75
477.908	177.75
478.127	170.75
478.346	166.75
478.564	181.75
478.783	166.75
479.002	170.75
479.22	187.75
479.439	194.75
479.658	166.75
479.876	160.75
480.095	174.75
480.313	176.75
480.532	184.75
480.751	188.75
480.969	183.75
481.188	182.75
481.406	187.75
481.624	176.75
481.843	169.75
482.061	175.75
482.28	170.75
482.498	183.75
482.717	164.75
482.935	156.75
483.153	182.75
483.372	172.75
483.59	172.75
483.808	179.75
484.027	165.75
484.245	154.75
484.463	174.75
484.681	177.75
484.9	177.75
485.118	175.75
485.336	172.75
485.554	174.75
485.772	164.75
485.99	180.75
486.209	188.75
486.427	176.75
486.645	173.75
486.863	166.75
487.081	166.75
487.299	168.75
487.517	181.75
487.735	172.75
487.953	166.75
488.171	190.75
488.389	188.75
488.607	154.75
488.825	159.75
489.043	175.75
489.261	169.75
489.479	168.75
489.696	175.75
489.914	156.75
490.132	172.75
490.35	169.75
490.568	162.75
490.786	161.75
491.003	163.75
491.221	161.75
491.439	168.75
491.657	165.75
491.874	163.75
492.092	171.75
492.31	178.75
492.527	173.75
492.745	186.75
492.963	198.75
493.18	176.75
493.398	194.75
493.615	169.75
493.833	166.75
494.05	175.75
494.268	189.75
494.485	180.75
494.703	169.75
494.92	188.75
495.138	177.75
495.355	190.75
495.573	169.75
495.79	172.75
496.008	180.75
496.225	187.75
496.442	178.75
496.66	188.75
496.877	198.75
497.094	188.75
497.312	191.75
497.529	189.75
497.746	197.75
497.963	186.75
498.181	196.75
498.398	201.75
498.615	223.75
498.832	232.75
499.049	237.75
499.267	253.75
499.484	279.75
499.701	286.75
499.918	319.75
500.135	349.75
500.352	388.75
500.569	389.75
500.786	381.75
501.003	347.75
501.22	317.75
501.437	299.75
501.654	283.75
501.871	251.75
502.088	241.75
502.305	235.75
502.522	218.75
502.739	216.75
502.956	206.75
503.172	211.75
503.389	199.75
503.606	200.75
503.823	200.75
504.04	201.75
504.256	185.75
