Data from SampG_HRD10591_00078.txt Node
Date: Mon Jan 19 11:54:10 EST 2026
User: Yrep
Spectrometer: HR+D1059
Trigger mode: 0
Integration Time (sec): 3.443000E-1
Scans to average: 1
Electric dark correction enabled: true
Nonlinearity correction enabled: false
Boxcar width: 0
XAxis mode: Wavelengths
Number of Pixels in Spectrum: 2048
>>>>>Begin Spectral Data<<<<<
223.165	-29.19
223.4	-29.19
223.635	-29.19
223.869	-29.19
224.104	-13.19
224.338	-17.19
224.573	-12.19
224.808	-18.19
225.042	-12.19
225.277	-4.19
225.511	-8.19
225.746	13.81
225.98	2.81
226.215	12.81
226.449	22.81
226.683	30.81
226.918	31.81
227.152	28.81
227.387	29.81
227.621	34.81
227.856	41.81
228.09	52.81
228.324	51.81
228.559	56.81
228.793	66.81
229.027	67.81
229.262	74.81
229.496	75.81
229.73	72.81
229.964	63.81
230.199	76.81
230.433	74.81
230.667	88.81
230.901	80.81
231.136	83.81
231.37	71.81
231.604	84.81
231.838	67.81
232.072	89.81
232.306	84.81
232.541	74.81
232.775	77.81
233.009	75.81
233.243	84.81
233.477	91.81
233.711	93.81
233.945	85.81
234.179	97.81
234.413	80.81
234.647	94.81
234.881	80.81
235.115	89.81
235.349	86.81
235.583	71.81
235.817	86.81
236.051	88.81
236.285	75.81
236.519	80.81
236.753	77.81
236.987	74.81
237.221	76.81
237.455	88.81
237.689	72.81
237.922	64.81
238.156	77.81
238.39	72.81
238.624	82.81
238.858	76.81
239.091	80.81
239.325	72.81
239.559	69.81
239.793	80.81
240.027	70.81
240.26	70.81
240.494	72.81
240.728	72.81
240.961	87.81
241.195	97.81
241.429	78.81
241.662	78.81
241.896	94.81
242.13	88.81
242.363	89.81
242.597	78.81
242.83	77.81
243.064	84.81
243.298	82.81
243.531	86.81
243.765	84.81
243.998	85.81
244.232	95.81
244.465	89.81
244.699	82.81
244.932	64.81
245.166	86.81
245.399	77.81
245.633	60.81
245.866	90.81
246.099	78.81
246.333	76.81
246.566	75.81
246.8	85.81
247.033	99.81
247.266	83.81
247.5	92.81
247.733	92.81
247.966	84.81
248.2	96.81
248.433	64.81
248.666	67.81
248.899	98.81
249.133	97.81
249.366	103.81
249.599	80.81
249.832	86.81
250.066	99.81
250.299	78.81
250.532	96.81
250.765	90.81
250.998	81.81
251.231	88.81
251.465	96.81
251.698	85.81
251.931	84.81
252.164	96.81
252.397	84.81
252.63	68.81
252.863	87.81
253.096	89.81
253.329	76.81
253.562	89.81
253.795	97.81
254.028	96.81
254.261	94.81
254.494	83.81
254.727	85.81
254.96	96.81
255.193	71.81
255.426	89.81
255.659	80.81
255.892	77.81
256.124	85.81
256.357	87.81
256.59	90.81
256.823	73.81
257.056	84.81
257.289	75.81
257.521	88.81
257.754	87.81
257.987	77.81
258.22	98.81
258.452	97.81
258.685	91.81
258.918	84.81
259.151	86.81
259.383	98.81
259.616	94.81
259.849	106.81
260.081	93.81
260.314	96.81
260.547	92.81
260.779	80.81
261.012	81.81
261.244	93.81
261.477	99.81
261.71	85.81
261.942	88.81
262.175	99.81
262.407	92.81
262.64	84.81
262.872	96.81
263.105	90.81
263.337	101.81
263.57	104.81
263.802	99.81
264.035	95.81
264.267	103.81
264.499	102.81
264.732	93.81
264.964	100.81
265.197	78.81
265.429	96.81
265.661	93.81
265.894	90.81
266.126	103.81
266.358	101.81
266.591	87.81
266.823	84.81
267.055	90.81
267.287	85.81
267.52	86.81
267.752	109.81
267.984	93.81
268.216	82.81
268.448	90.81
268.681	107.81
268.913	107.81
269.145	98.81
269.377	110.81
269.609	84.81
269.841	96.81
270.073	88.81
270.306	89.81
270.538	92.81
270.77	92.81
271.002	75.81
271.234	95.81
271.466	105.81
271.698	86.81
271.93	77.81
272.162	97.81
272.394	96.81
272.626	91.81
272.858	92.81
273.09	105.81
273.322	93.81
273.553	94.81
273.785	109.81
274.017	87.81
274.249	93.81
274.481	97.81
274.713	93.81
274.945	88.81
275.176	82.81
275.408	99.81
275.64	96.81
275.872	88.81
276.104	111.81
276.335	96.81
276.567	97.81
276.799	86.81
277.031	98.81
277.262	96.81
277.494	102.81
277.726	97.81
277.957	108.81
278.189	92.81
278.421	90.81
278.652	97.81
278.884	88.81
279.115	100.81
279.347	88.81
279.579	104.81
279.81	89.81
280.042	99.81
280.273	92.81
280.505	86.81
280.736	97.81
280.968	92.81
281.199	84.81
281.431	96.81
281.662	86.81
281.894	88.81
282.125	100.81
282.356	110.81
282.588	112.81
282.819	92.81
283.051	89.81
283.282	84.81
283.513	94.81
283.745	97.81
283.976	110.81
284.207	89.81
284.439	103.81
284.67	105.81
284.901	91.81
285.132	104.81
285.364	103.81
285.595	111.81
285.826	106.81
286.057	108.81
286.288	106.81
286.52	108.81
286.751	106.81
286.982	98.81
287.213	103.81
287.444	102.81
287.675	93.81
287.906	107.81
288.138	103.81
288.369	99.81
288.6	104.81
288.831	92.81
289.062	106.81
289.293	87.81
289.524	97.81
289.755	79.81
289.986	103.81
290.217	105.81
290.448	93.81
290.679	95.81
290.91	99.81
291.141	94.81
291.371	107.81
291.602	98.81
291.833	84.81
292.064	107.81
292.295	93.81
292.526	98.81
292.757	107.81
292.987	100.81
293.218	82.81
293.449	107.81
293.68	95.81
293.91	93.81
294.141	103.81
294.372	101.81
294.603	89.81
294.833	93.81
295.064	91.81
295.295	104.81
295.525	87.81
295.756	90.81
295.987	97.81
296.217	94.81
296.448	111.81
296.679	111.81
296.909	104.81
297.14	123.81
297.37	95.81
297.601	93.81
297.831	104.81
298.062	105.81
298.292	100.81
298.523	106.81
298.753	105.81
298.984	111.81
299.214	103.81
299.445	110.81
299.675	110.81
299.905	94.81
300.136	100.81
300.366	117.81
300.597	107.81
300.827	91.81
301.057	99.81
301.288	89.81
301.518	98.81
301.748	105.81
301.979	145.81
302.209	90.81
302.439	99.81
302.669	93.81
302.9	99.81
303.13	99.81
303.36	95.81
303.59	87.81
303.82	106.81
304.051	111.81
304.281	124.81
304.511	126.81
304.741	94.81
304.971	104.81
305.201	103.81
305.431	93.81
305.661	97.81
305.891	107.81
306.121	114.81
306.352	98.81
306.582	95.81
306.812	110.81
307.042	103.81
307.272	92.81
307.502	85.81
307.731	109.81
307.961	110.81
308.191	110.81
308.421	100.81
308.651	103.81
308.881	104.81
309.111	107.81
309.341	109.81
309.571	101.81
309.8	108.81
310.03	98.81
310.26	110.81
310.49	114.81
310.72	94.81
310.949	102.81
311.179	101.81
311.409	98.81
311.639	118.81
311.868	103.81
312.098	106.81
312.328	114.81
312.557	118.81
312.787	99.81
313.017	102.81
313.246	96.81
313.476	108.81
313.706	94.81
313.935	105.81
314.165	103.81
314.394	109.81
314.624	117.81
314.853	118.81
315.083	113.81
315.312	115.81
315.542	101.81
315.771	107.81
316.001	117.81
316.23	113.81
316.46	110.81
316.689	88.81
316.919	90.81
317.148	107.81
317.377	130.81
317.607	112.81
317.836	108.81
318.065	94.81
318.295	102.81
318.524	108.81
318.753	110.81
318.983	86.81
319.212	107.81
319.441	107.81
319.67	92.81
319.9	107.81
320.129	105.81
320.358	116.81
320.587	103.81
320.816	100.81
321.046	108.81
321.275	116.81
321.504	103.81
321.733	96.81
321.962	114.81
322.191	109.81
322.42	101.81
322.649	105.81
322.878	100.81
323.108	103.81
323.337	116.81
323.566	112.81
323.795	107.81
324.024	106.81
324.253	102.81
324.482	106.81
324.71	116.81
324.939	106.81
325.168	113.81
325.397	102.81
325.626	117.81
325.855	102.81
326.084	120.81
326.313	95.81
326.542	94.81
326.77	93.81
326.999	94.81
327.228	117.81
327.457	112.81
327.686	101.81
327.914	107.81
328.143	111.81
328.372	123.81
328.6	101.81
328.829	99.81
329.058	89.81
329.287	109.81
329.515	105.81
329.744	114.81
329.972	92.81
330.201	106.81
330.43	102.81
330.658	100.81
330.887	107.81
331.115	114.81
331.344	105.81
331.572	121.81
331.801	110.81
332.03	103.81
332.258	105.81
332.486	113.81
332.715	130.81
332.943	104.81
333.172	122.81
333.4	118.81
333.629	122.81
333.857	122.81
334.085	132.81
334.314	119.81
334.542	114.81
334.771	112.81
334.999	113.81
335.227	119.81
335.455	109.81
335.684	138.81
335.912	120.81
336.14	121.81
336.369	106.81
336.597	103.81
336.825	108.81
337.053	128.81
337.281	111.81
337.51	112.81
337.738	118.81
337.966	119.81
338.194	105.81
338.422	105.81
338.65	114.81
338.878	101.81
339.106	102.81
339.334	122.81
339.562	113.81
339.79	96.81
340.018	110.81
340.246	105.81
340.474	105.81
340.702	109.81
340.93	89.81
341.158	107.81
341.386	119.81
341.614	94.81
341.842	97.81
342.07	122.81
342.298	104.81
342.526	109.81
342.754	107.81
342.981	108.81
343.209	102.81
343.437	146.81
343.665	113.81
343.893	117.81
344.12	121.81
344.348	122.81
344.576	107.81
344.804	114.81
345.031	112.81
345.259	102.81
345.487	119.81
345.714	110.81
345.942	110.81
346.17	96.81
346.397	93.81
346.625	111.81
346.853	97.81
347.08	94.81
347.308	101.81
347.535	115.81
347.763	100.81
347.99	114.81
348.218	106.81
348.445	110.81
348.673	103.81
348.9	128.81
349.128	117.81
349.355	121.81
349.583	110.81
349.81	99.81
350.037	116.81
350.265	126.81
350.492	103.81
350.72	104.81
350.947	99.81
351.174	106.81
351.402	94.81
351.629	108.81
351.856	115.81
352.083	107.81
352.311	116.81
352.538	91.81
352.765	106.81
352.992	138.81
353.22	102.81
353.447	98.81
353.674	113.81
353.901	107.81
354.128	113.81
354.355	106.81
354.583	108.81
354.81	110.81
355.037	118.81
355.264	109.81
355.491	101.81
355.718	104.81
355.945	117.81
356.172	108.81
356.399	97.81
356.626	96.81
356.853	106.81
357.08	107.81
357.307	104.81
357.534	112.81
357.761	112.81
357.988	119.81
358.215	120.81
358.441	94.81
358.668	101.81
358.895	112.81
359.122	102.81
359.349	92.81
359.576	100.81
359.802	117.81
360.029	114.81
360.256	119.81
360.483	93.81
360.709	93.81
360.936	109.81
361.163	110.81
361.39	108.81
361.616	111.81
361.843	112.81
362.07	112.81
362.296	111.81
362.523	114.81
362.749	111.81
362.976	100.81
363.203	110.81
363.429	92.81
363.656	99.81
363.882	104.81
364.109	122.81
364.335	115.81
364.562	104.81
364.788	98.81
365.015	117.81
365.241	104.81
365.468	121.81
365.694	107.81
365.92	97.81
366.147	104.81
366.373	115.81
366.599	100.81
366.826	112.81
367.052	106.81
367.278	110.81
367.505	92.81
367.731	116.81
367.957	105.81
368.184	105.81
368.41	109.81
368.636	102.81
368.862	105.81
369.089	96.81
369.315	98.81
369.541	100.81
369.767	117.81
369.993	109.81
370.219	90.81
370.445	109.81
370.672	107.81
370.898	94.81
371.124	99.81
371.35	91.81
371.576	109.81
371.802	102.81
372.028	99.81
372.254	109.81
372.48	105.81
372.706	99.81
372.932	126.81
373.158	100.81
373.384	125.81
373.61	114.81
373.835	119.81
374.061	101.81
374.287	120.81
374.513	93.81
374.739	121.81
374.965	108.81
375.191	104.81
375.416	106.81
375.642	117.81
375.868	118.81
376.094	109.81
376.319	101.81
376.545	118.81
376.771	107.81
376.997	104.81
377.222	116.81
377.448	116.81
377.674	115.81
377.899	109.81
378.125	104.81
378.35	117.81
378.576	117.81
378.802	98.81
379.027	98.81
379.253	129.81
379.478	119.81
379.704	116.81
379.929	108.81
380.155	106.81
380.38	119.81
380.606	112.81
380.831	100.81
381.057	123.81
381.282	115.81
381.507	116.81
381.733	119.81
381.958	107.81
382.184	115.81
382.409	99.81
382.634	115.81
382.86	91.81
383.085	118.81
383.31	121.81
383.535	121.81
383.761	125.81
383.986	102.81
384.211	116.81
384.436	97.81
384.662	105.81
384.887	114.81
385.112	120.81
385.337	116.81
385.562	123.81
385.787	110.81
386.013	112.81
386.238	105.81
386.463	121.81
386.688	134.81
386.913	99.81
387.138	102.81
387.363	97.81
387.588	99.81
387.813	120.81
388.038	114.81
388.263	126.81
388.488	126.81
388.713	124.81
388.938	118.81
389.163	120.81
389.387	114.81
389.612	106.81
389.837	108.81
390.062	111.81
390.287	116.81
390.512	124.81
390.736	116.81
390.961	118.81
391.186	128.81
391.411	99.81
391.636	125.81
391.86	128.81
392.085	114.81
392.31	107.81
392.534	131.81
392.759	119.81
392.984	116.81
393.208	118.81
393.433	124.81
393.658	125.81
393.882	119.81
394.107	118.81
394.331	137.81
394.556	98.81
394.78	111.81
395.005	120.81
395.229	121.81
395.454	109.81
395.678	124.81
395.903	126.81
396.127	125.81
396.352	119.81
396.576	109.81
396.801	112.81
397.025	122.81
397.249	122.81
397.474	130.81
397.698	125.81
397.922	139.81
398.147	136.81
398.371	123.81
398.595	122.81
398.82	121.81
399.044	141.81
399.268	146.81
399.492	144.81
399.717	177.81
399.941	145.81
400.165	147.81
400.389	154.81
400.613	127.81
400.837	136.81
401.062	123.81
401.286	115.81
401.51	133.81
401.734	120.81
401.958	131.81
402.182	135.81
402.406	127.81
402.63	128.81
402.854	120.81
403.078	120.81
403.302	133.81
403.526	131.81
403.75	147.81
403.974	144.81
404.198	156.81
404.422	146.81
404.645	138.81
404.869	130.81
405.093	128.81
405.317	111.81
405.541	132.81
405.765	121.81
405.988	128.81
406.212	127.81
406.436	129.81
406.66	131.81
406.883	135.81
407.107	126.81
407.331	137.81
407.555	135.81
407.778	139.81
408.002	124.81
408.226	125.81
408.449	118.81
408.673	126.81
408.896	144.81
409.12	118.81
409.344	112.81
409.567	110.81
409.791	137.81
410.014	132.81
410.238	128.81
410.461	137.81
410.685	113.81
410.908	123.81
411.132	143.81
411.355	126.81
411.578	144.81
411.802	130.81
412.025	135.81
412.249	127.81
412.472	118.81
412.695	122.81
412.919	121.81
413.142	119.81
413.365	133.81
413.589	125.81
413.812	110.81
414.035	120.81
414.258	123.81
414.482	125.81
414.705	135.81
414.928	129.81
415.151	120.81
415.374	116.81
415.597	125.81
415.821	116.81
416.044	139.81
416.267	132.81
416.49	120.81
416.713	141.81
416.936	129.81
417.159	110.81
417.382	116.81
417.605	113.81
417.828	126.81
418.051	116.81
418.274	125.81
418.497	123.81
418.72	113.81
418.943	139.81
419.166	141.81
419.389	134.81
419.611	138.81
419.834	121.81
420.057	129.81
420.28	126.81
420.503	128.81
420.726	119.81
420.948	113.81
421.171	119.81
421.394	117.81
421.617	130.81
421.839	129.81
422.062	104.81
422.285	142.81
422.507	115.81
422.73	125.81
422.953	115.81
423.175	119.81
423.398	121.81
423.621	115.81
423.843	134.81
424.066	129.81
424.288	120.81
424.511	124.81
424.733	134.81
424.956	147.81
425.178	130.81
425.401	119.81
425.623	117.81
425.846	124.81
426.068	116.81
426.291	140.81
426.513	109.81
426.735	144.81
426.958	124.81
427.18	120.81
427.402	118.81
427.625	120.81
427.847	113.81
428.069	121.81
428.292	129.81
428.514	120.81
428.736	115.81
428.958	103.81
429.181	114.81
429.403	107.81
429.625	118.81
429.847	133.81
430.069	119.81
430.292	122.81
430.514	123.81
430.736	109.81
430.958	114.81
431.18	115.81
431.402	113.81
431.624	125.81
431.846	114.81
432.068	125.81
432.29	121.81
432.512	118.81
432.734	122.81
432.956	117.81
433.178	142.81
433.4	128.81
433.622	129.81
433.844	120.81
434.066	134.81
434.287	129.81
434.509	126.81
434.731	120.81
434.953	110.81
435.175	121.81
435.397	128.81
435.618	117.81
435.84	133.81
436.062	110.81
436.284	122.81
436.505	129.81
436.727	105.81
436.949	108.81
437.17	109.81
437.392	116.81
437.614	116.81
437.835	125.81
438.057	121.81
438.278	125.81
438.5	124.81
438.721	98.81
438.943	121.81
439.165	120.81
439.386	117.81
439.608	121.81
439.829	121.81
440.05	129.81
440.272	116.81
440.493	123.81
440.715	121.81
440.936	112.81
441.158	127.81
441.379	109.81
441.6	125.81
441.822	126.81
442.043	118.81
442.264	131.81
442.486	134.81
442.707	137.81
442.928	116.81
443.149	133.81
443.371	124.81
443.592	133.81
443.813	125.81
444.034	121.81
444.255	137.81
444.476	140.81
444.698	140.81
444.919	141.81
445.14	333.81
445.361	227.81
445.582	142.81
445.803	138.81
446.024	121.81
446.245	133.81
446.466	113.81
446.687	125.81
446.908	130.81
447.129	114.81
447.35	130.81
447.571	101.81
447.792	123.81
448.013	122.81
448.234	110.81
448.455	114.81
448.675	106.81
448.896	98.81
449.117	114.81
449.338	116.81
449.559	105.81
449.779	121.81
450	113.81
450.221	100.81
450.442	94.81
450.662	100.81
450.883	121.81
451.104	131.81
451.324	118.81
451.545	117.81
451.766	121.81
451.986	132.81
452.207	120.81
452.428	115.81
452.648	108.81
452.869	120.81
453.089	120.81
453.31	111.81
453.53	119.81
453.751	122.81
453.971	113.81
454.192	111.81
454.412	119.81
454.633	111.81
454.853	109.81
455.073	99.81
455.294	114.81
455.514	114.81
455.734	102.81
455.955	114.81
456.175	103.81
456.395	109.81
456.616	125.81
456.836	129.81
457.056	117.81
457.276	108.81
457.497	117.81
457.717	117.81
457.937	125.81
458.157	106.81
458.377	112.81
458.598	109.81
458.818	118.81
459.038	99.81
459.258	124.81
459.478	131.81
459.698	121.81
459.918	132.81
460.138	115.81
460.358	127.81
460.578	147.81
460.798	129.81
461.018	132.81
461.238	130.81
461.458	129.81
461.678	135.81
461.898	129.81
462.118	133.81
462.338	144.81
462.558	146.81
462.777	140.81
462.997	142.81
463.217	149.81
463.437	157.81
463.657	138.81
463.876	133.81
464.096	128.81
464.316	135.81
464.536	149.81
464.755	152.81
464.975	136.81
465.195	128.81
465.414	133.81
465.634	133.81
465.854	133.81
466.073	117.81
466.293	116.81
466.512	112.81
466.732	115.81
466.951	123.81
467.171	131.81
467.391	126.81
467.61	115.81
467.829	106.81
468.049	120.81
468.268	111.81
468.488	111.81
468.707	113.81
468.927	110.81
469.146	108.81
469.365	134.81
469.585	114.81
469.804	126.81
470.023	94.81
470.243	111.81
470.462	116.81
470.681	122.81
470.901	112.81
471.12	120.81
471.339	108.81
471.558	107.81
471.777	128.81
471.997	119.81
472.216	120.81
472.435	132.81
472.654	127.81
472.873	122.81
473.092	128.81
473.311	131.81
473.53	115.81
473.749	120.81
473.968	133.81
474.187	115.81
474.406	120.81
474.625	126.81
474.844	123.81
475.063	119.81
475.282	124.81
475.501	108.81
475.72	122.81
475.939	107.81
476.158	121.81
476.377	119.81
476.596	107.81
476.814	108.81
477.033	110.81
477.252	107.81
477.471	114.81
477.69	117.81
477.908	127.81
478.127	133.81
478.346	125.81
478.564	132.81
478.783	107.81
479.002	132.81
479.22	117.81
479.439	131.81
479.658	118.81
479.876	114.81
480.095	102.81
480.313	128.81
480.532	131.81
480.751	144.81
480.969	110.81
481.188	120.81
481.406	137.81
481.624	115.81
481.843	120.81
482.061	130.81
482.28	114.81
482.498	133.81
482.717	123.81
482.935	118.81
483.153	131.81
483.372	100.81
483.59	122.81
483.808	124.81
484.027	117.81
484.245	145.81
484.463	141.81
484.681	147.81
484.9	117.81
485.118	131.81
485.336	123.81
485.554	131.81
485.772	132.81
485.99	125.81
486.209	125.81
486.427	123.81
486.645	135.81
486.863	130.81
487.081	131.81
487.299	118.81
487.517	140.81
487.735	134.81
487.953	144.81
488.171	138.81
488.389	106.81
488.607	117.81
488.825	120.81
489.043	127.81
489.261	130.81
489.479	125.81
489.696	126.81
489.914	128.81
490.132	123.81
490.35	113.81
490.568	119.81
490.786	129.81
491.003	119.81
491.221	133.81
491.439	144.81
491.657	102.81
491.874	143.81
492.092	133.81
492.31	137.81
492.527	128.81
492.745	138.81
492.963	144.81
493.18	126.81
493.398	144.81
493.615	125.81
493.833	124.81
494.05	119.81
494.268	114.81
494.485	139.81
494.703	148.81
494.92	128.81
495.138	127.81
495.355	128.81
495.573	125.81
495.79	118.81
496.008	120.81
496.225	126.81
496.442	122.81
496.66	134.81
496.877	138.81
497.094	146.81
497.312	150.81
497.529	134.81
497.746	141.81
497.963	144.81
498.181	140.81
498.398	144.81
498.615	144.81
498.832	152.81
499.049	141.81
499.267	177.81
499.484	188.81
499.701	194.81
499.918	210.81
500.135	222.81
500.352	220.81
500.569	236.81
500.786	241.81
501.003	222.81
501.22	199.81
501.437	195.81
501.654	171.81
501.871	173.81
502.088	156.81
502.305	169.81
502.522	159.81
502.739	148.81
502.956	130.81
503.172	131.81
503.389	138.81
503.606	122.81
503.823	139.81
504.04	165.81
504.256	136.81
504.473	147.81
504.69	146.81
504.907	145.81
505.123	136.81
505.34	116.81
505.557	118.81
505.773	129.81
505.99	131.81
506.207	125.81
506.423	103.81
506.64	108.81
506.856	128.81
507.073	119.81
507.289	135.81
