Data from SampG_HRD10591_00080.txt Node
Date: Mon Jan 19 11:54:10 EST 2026
User: Yrep
Spectrometer: HR+D1059
Trigger mode: 0
Integration Time (sec): 3.443000E-1
Scans to average: 1
Electric dark correction enabled: true
Nonlinearity correction enabled: false
Boxcar width: 0
XAxis mode: Wavelengths
Number of Pixels in Spectrum: 2048
>>>>>Begin Spectral Data<<<<<
223.165	-24.12
223.4	-24.12
223.635	-24.12
223.869	-32.12
224.104	-20.12
224.338	-10.12
224.573	-7.12
224.808	-11.12
225.042	-2.12
225.277	-7.12
225.511	2.88
225.746	3.88
225.98	3.88
226.215	6.88
226.449	6.88
226.683	23.88
226.918	25.88
227.152	39.88
227.387	41.88
227.621	42.88
227.856	59.88
228.09	46.88
228.324	51.88
228.559	61.88
228.793	49.88
229.027	78.88
229.262	68.88
229.496	69.88
229.73	90.88
229.964	74.88
230.199	72.88
230.433	58.88
230.667	85.88
230.901	94.88
231.136	77.88
231.37	83.88
231.604	85.88
231.838	82.88
232.072	81.88
232.306	87.88
232.541	90.88
232.775	89.88
233.009	85.88
233.243	91.88
233.477	92.88
233.711	92.88
233.945	86.88
234.179	78.88
234.413	94.88
234.647	99.88
234.881	91.88
235.115	83.88
235.349	98.88
235.583	102.88
235.817	85.88
236.051	82.88
236.285	86.88
236.519	78.88
236.753	78.88
236.987	79.88
237.221	83.88
237.455	85.88
237.689	77.88
237.922	74.88
238.156	78.88
238.39	85.88
238.624	94.88
238.858	97.88
239.091	66.88
239.325	78.88
239.559	96.88
239.793	84.88
240.027	99.88
240.26	89.88
240.494	91.88
240.728	87.88
240.961	86.88
241.195	90.88
241.429	83.88
241.662	91.88
241.896	90.88
242.13	71.88
242.363	81.88
242.597	73.88
242.83	79.88
243.064	94.88
243.298	76.88
243.531	76.88
243.765	90.88
243.998	85.88
244.232	100.88
244.465	80.88
244.699	99.88
244.932	90.88
245.166	98.88
245.399	93.88
245.633	103.88
245.866	89.88
246.099	83.88
246.333	86.88
246.566	97.88
246.8	89.88
247.033	82.88
247.266	90.88
247.5	101.88
247.733	74.88
247.966	88.88
248.2	78.88
248.433	86.88
248.666	87.88
248.899	100.88
249.133	95.88
249.366	89.88
249.599	82.88
249.832	83.88
250.066	102.88
250.299	100.88
250.532	95.88
250.765	89.88
250.998	77.88
251.231	79.88
251.465	95.88
251.698	89.88
251.931	91.88
252.164	97.88
252.397	97.88
252.63	90.88
252.863	91.88
253.096	90.88
253.329	91.88
253.562	94.88
253.795	84.88
254.028	104.88
254.261	86.88
254.494	89.88
254.727	101.88
254.96	98.88
255.193	85.88
255.426	99.88
255.659	87.88
255.892	87.88
256.124	98.88
256.357	93.88
256.59	111.88
256.823	100.88
257.056	96.88
257.289	97.88
257.521	105.88
257.754	92.88
257.987	99.88
258.22	111.88
258.452	86.88
258.685	99.88
258.918	104.88
259.151	103.88
259.383	93.88
259.616	88.88
259.849	101.88
260.081	107.88
260.314	92.88
260.547	84.88
260.779	93.88
261.012	99.88
261.244	99.88
261.477	105.88
261.71	97.88
261.942	107.88
262.175	109.88
262.407	81.88
262.64	99.88
262.872	85.88
263.105	82.88
263.337	106.88
263.57	102.88
263.802	102.88
264.035	100.88
264.267	83.88
264.499	99.88
264.732	109.88
264.964	99.88
265.197	106.88
265.429	97.88
265.661	108.88
265.894	108.88
266.126	95.88
266.358	89.88
266.591	101.88
266.823	103.88
267.055	83.88
267.287	108.88
267.52	89.88
267.752	110.88
267.984	101.88
268.216	110.88
268.448	116.88
268.681	106.88
268.913	115.88
269.145	110.88
269.377	108.88
269.609	96.88
269.841	113.88
270.073	101.88
270.306	95.88
270.538	97.88
270.77	106.88
271.002	106.88
271.234	113.88
271.466	108.88
271.698	95.88
271.93	100.88
272.162	114.88
272.394	111.88
272.626	113.88
272.858	85.88
273.09	105.88
273.322	114.88
273.553	115.88
273.785	126.88
274.017	100.88
274.249	103.88
274.481	104.88
274.713	103.88
274.945	106.88
275.176	100.88
275.408	106.88
275.64	98.88
275.872	114.88
276.104	117.88
276.335	111.88
276.567	103.88
276.799	102.88
277.031	100.88
277.262	117.88
277.494	106.88
277.726	105.88
277.957	110.88
278.189	110.88
278.421	102.88
278.652	88.88
278.884	104.88
279.115	123.88
279.347	109.88
279.579	112.88
279.81	120.88
280.042	104.88
280.273	119.88
280.505	101.88
280.736	101.88
280.968	111.88
281.199	120.88
281.431	116.88
281.662	110.88
281.894	109.88
282.125	115.88
282.356	102.88
282.588	118.88
282.819	123.88
283.051	114.88
283.282	112.88
283.513	115.88
283.745	105.88
283.976	128.88
284.207	115.88
284.439	111.88
284.67	120.88
284.901	101.88
285.132	117.88
285.364	112.88
285.595	117.88
285.826	111.88
286.057	119.88
286.288	124.88
286.52	138.88
286.751	106.88
286.982	110.88
287.213	110.88
287.444	110.88
287.675	113.88
287.906	115.88
288.138	118.88
288.369	126.88
288.6	126.88
288.831	114.88
289.062	122.88
289.293	119.88
289.524	103.88
289.755	112.88
289.986	118.88
290.217	114.88
290.448	109.88
290.679	115.88
290.91	131.88
291.141	113.88
291.371	118.88
291.602	111.88
291.833	121.88
292.064	114.88
292.295	118.88
292.526	110.88
292.757	122.88
292.987	114.88
293.218	115.88
293.449	126.88
293.68	122.88
293.91	119.88
294.141	122.88
294.372	121.88
294.603	116.88
294.833	125.88
295.064	111.88
295.295	106.88
295.525	115.88
295.756	124.88
295.987	117.88
296.217	142.88
296.448	128.88
296.679	133.88
296.909	130.88
297.14	126.88
297.37	109.88
297.601	131.88
297.831	129.88
298.062	114.88
298.292	119.88
298.523	128.88
298.753	116.88
298.984	117.88
299.214	137.88
299.445	119.88
299.675	126.88
299.905	130.88
300.136	119.88
300.366	110.88
300.597	129.88
300.827	131.88
301.057	140.88
301.288	138.88
301.518	132.88
301.748	138.88
301.979	154.88
302.209	141.88
302.439	130.88
302.669	127.88
302.9	133.88
303.13	117.88
303.36	117.88
303.59	112.88
303.82	126.88
304.051	120.88
304.281	129.88
304.511	135.88
304.741	117.88
304.971	117.88
305.201	135.88
305.431	116.88
305.661	121.88
305.891	130.88
306.121	124.88
306.352	127.88
306.582	127.88
306.812	125.88
307.042	118.88
307.272	117.88
307.502	124.88
307.731	133.88
307.961	127.88
308.191	124.88
308.421	135.88
308.651	135.88
308.881	138.88
309.111	119.88
309.341	118.88
309.571	117.88
309.8	131.88
310.03	131.88
310.26	133.88
310.49	112.88
310.72	148.88
310.949	119.88
311.179	121.88
311.409	114.88
311.639	135.88
311.868	128.88
312.098	131.88
312.328	125.88
312.557	120.88
312.787	125.88
313.017	123.88
313.246	129.88
313.476	117.88
313.706	134.88
313.935	138.88
314.165	121.88
314.394	143.88
314.624	133.88
314.853	138.88
315.083	121.88
315.312	134.88
315.542	117.88
315.771	122.88
316.001	133.88
316.23	129.88
316.46	132.88
316.689	131.88
316.919	123.88
317.148	133.88
317.377	139.88
317.607	139.88
317.836	135.88
318.065	120.88
318.295	134.88
318.524	132.88
318.753	130.88
318.983	129.88
319.212	126.88
319.441	111.88
319.67	123.88
319.9	140.88
320.129	134.88
320.358	124.88
320.587	145.88
320.816	126.88
321.046	134.88
321.275	137.88
321.504	118.88
321.733	128.88
321.962	142.88
322.191	131.88
322.42	135.88
322.649	127.88
322.878	142.88
323.108	124.88
323.337	142.88
323.566	115.88
323.795	122.88
324.024	140.88
324.253	121.88
324.482	133.88
324.71	127.88
324.939	143.88
325.168	142.88
325.397	140.88
325.626	135.88
325.855	112.88
326.084	132.88
326.313	141.88
326.542	127.88
326.77	130.88
326.999	132.88
327.228	137.88
327.457	125.88
327.686	136.88
327.914	134.88
328.143	143.88
328.372	141.88
328.6	129.88
328.829	118.88
329.058	137.88
329.287	127.88
329.515	126.88
329.744	138.88
329.972	134.88
330.201	131.88
330.43	134.88
330.658	129.88
330.887	140.88
331.115	139.88
331.344	136.88
331.572	142.88
331.801	134.88
332.03	137.88
332.258	152.88
332.486	141.88
332.715	134.88
332.943	165.88
333.172	151.88
333.4	163.88
333.629	165.88
333.857	174.88
334.085	170.88
334.314	150.88
334.542	140.88
334.771	147.88
334.999	137.88
335.227	151.88
335.455	145.88
335.684	149.88
335.912	137.88
336.14	136.88
336.369	141.88
336.597	145.88
336.825	144.88
337.053	148.88
337.281	145.88
337.51	139.88
337.738	133.88
337.966	142.88
338.194	123.88
338.422	129.88
338.65	152.88
338.878	147.88
339.106	135.88
339.334	143.88
339.562	135.88
339.79	130.88
340.018	138.88
340.246	129.88
340.474	126.88
340.702	138.88
340.93	118.88
341.158	142.88
341.386	129.88
341.614	137.88
341.842	139.88
342.07	143.88
342.298	131.88
342.526	145.88
342.754	135.88
342.981	130.88
343.209	137.88
343.437	169.88
343.665	131.88
343.893	149.88
344.12	160.88
344.348	133.88
344.576	146.88
344.804	126.88
345.031	137.88
345.259	130.88
345.487	141.88
345.714	161.88
345.942	130.88
346.17	146.88
346.397	155.88
346.625	150.88
346.853	141.88
347.08	152.88
347.308	145.88
347.535	130.88
347.763	129.88
347.99	131.88
348.218	140.88
348.445	139.88
348.673	133.88
348.9	146.88
349.128	131.88
349.355	126.88
349.583	134.88
349.81	134.88
350.037	153.88
350.265	142.88
350.492	136.88
350.72	133.88
350.947	125.88
351.174	125.88
351.402	134.88
351.629	129.88
351.856	121.88
352.083	124.88
352.311	140.88
352.538	120.88
352.765	139.88
352.992	141.88
353.22	139.88
353.447	134.88
353.674	151.88
353.901	149.88
354.128	133.88
354.355	126.88
354.583	126.88
354.81	127.88
355.037	158.88
355.264	119.88
355.491	139.88
355.718	151.88
355.945	145.88
356.172	130.88
356.399	130.88
356.626	130.88
356.853	139.88
357.08	120.88
357.307	140.88
357.534	141.88
357.761	139.88
357.988	147.88
358.215	132.88
358.441	143.88
358.668	128.88
358.895	135.88
359.122	151.88
359.349	131.88
359.576	137.88
359.802	151.88
360.029	139.88
360.256	132.88
360.483	132.88
360.709	121.88
360.936	140.88
361.163	143.88
361.39	143.88
361.616	133.88
361.843	126.88
362.07	124.88
362.296	129.88
362.523	124.88
362.749	127.88
362.976	145.88
363.203	164.88
363.429	136.88
363.656	129.88
363.882	127.88
364.109	130.88
364.335	135.88
364.562	130.88
364.788	119.88
365.015	126.88
365.241	145.88
365.468	140.88
365.694	137.88
365.92	138.88
366.147	140.88
366.373	131.88
366.599	146.88
366.826	133.88
367.052	138.88
367.278	128.88
367.505	143.88
367.731	149.88
367.957	134.88
368.184	139.88
368.41	140.88
368.636	134.88
368.862	133.88
369.089	137.88
369.315	135.88
369.541	140.88
369.767	122.88
369.993	139.88
370.219	128.88
370.445	129.88
370.672	124.88
370.898	138.88
371.124	137.88
371.35	146.88
371.576	146.88
371.802	139.88
372.028	131.88
372.254	137.88
372.48	143.88
372.706	153.88
372.932	125.88
373.158	148.88
373.384	133.88
373.61	143.88
373.835	140.88
374.061	133.88
374.287	142.88
374.513	164.88
374.739	156.88
374.965	141.88
375.191	154.88
375.416	138.88
375.642	154.88
375.868	148.88
376.094	154.88
376.319	159.88
376.545	137.88
376.771	129.88
376.997	123.88
377.222	145.88
377.448	152.88
377.674	140.88
377.899	134.88
378.125	139.88
378.35	138.88
378.576	134.88
378.802	137.88
379.027	139.88
379.253	141.88
379.478	151.88
379.704	135.88
379.929	140.88
380.155	123.88
380.38	152.88
380.606	131.88
380.831	149.88
381.057	159.88
381.282	151.88
381.507	155.88
381.733	149.88
381.958	130.88
382.184	150.88
382.409	151.88
382.634	148.88
382.86	172.88
383.085	142.88
383.31	143.88
383.535	137.88
383.761	143.88
383.986	150.88
384.211	153.88
384.436	150.88
384.662	145.88
384.887	148.88
385.112	166.88
385.337	145.88
385.562	159.88
385.787	166.88
386.013	148.88
386.238	160.88
386.463	157.88
386.688	184.88
386.913	171.88
387.138	156.88
387.363	165.88
387.588	164.88
387.813	165.88
388.038	146.88
388.263	152.88
388.488	154.88
388.713	139.88
388.938	145.88
389.163	156.88
389.387	141.88
389.612	138.88
389.837	149.88
390.062	161.88
390.287	143.88
390.512	146.88
390.736	138.88
390.961	152.88
391.186	166.88
391.411	157.88
391.636	147.88
391.86	158.88
392.085	167.88
392.31	158.88
392.534	160.88
392.759	164.88
392.984	149.88
393.208	151.88
393.433	165.88
393.658	163.88
393.882	155.88
394.107	164.88
394.331	147.88
394.556	149.88
394.78	152.88
395.005	167.88
395.229	156.88
395.454	168.88
395.678	161.88
395.903	161.88
396.127	164.88
396.352	156.88
396.576	153.88
396.801	149.88
397.025	164.88
397.249	157.88
397.474	176.88
397.698	161.88
397.922	166.88
398.147	163.88
398.371	154.88
398.595	173.88
398.82	177.88
399.044	185.88
399.268	197.88
399.492	219.88
399.717	229.88
399.941	213.88
400.165	199.88
400.389	172.88
400.613	184.88
400.837	178.88
401.062	179.88
401.286	174.88
401.51	171.88
401.734	201.88
401.958	182.88
402.182	192.88
402.406	162.88
402.63	187.88
402.854	177.88
403.078	185.88
403.302	185.88
403.526	211.88
403.75	173.88
403.974	196.88
404.198	183.88
404.422	205.88
404.645	186.88
404.869	199.88
405.093	179.88
405.317	172.88
405.541	199.88
405.765	201.88
405.988	189.88
406.212	195.88
406.436	198.88
406.66	197.88
406.883	198.88
407.107	211.88
407.331	205.88
407.555	212.88
407.778	188.88
408.002	200.88
408.226	198.88
408.449	187.88
408.673	194.88
408.896	183.88
409.12	196.88
409.344	189.88
409.567	176.88
409.791	196.88
410.014	189.88
410.238	188.88
410.461	183.88
410.685	197.88
410.908	182.88
411.132	181.88
411.355	187.88
411.578	180.88
411.802	174.88
412.025	171.88
412.249	183.88
412.472	192.88
412.695	172.88
412.919	179.88
413.142	183.88
413.365	177.88
413.589	177.88
413.812	169.88
414.035	175.88
414.258	167.88
414.482	170.88
414.705	187.88
414.928	184.88
415.151	188.88
415.374	191.88
415.597	175.88
415.821	177.88
416.044	179.88
416.267	178.88
416.49	166.88
416.713	183.88
416.936	179.88
417.159	183.88
417.382	176.88
417.605	181.88
417.828	175.88
418.051	192.88
418.274	185.88
418.497	183.88
418.72	181.88
418.943	199.88
419.166	199.88
419.389	190.88
419.611	192.88
419.834	179.88
420.057	185.88
420.28	183.88
420.503	175.88
420.726	174.88
420.948	165.88
421.171	175.88
421.394	176.88
421.617	161.88
421.839	163.88
422.062	186.88
422.285	175.88
422.507	173.88
422.73	174.88
422.953	173.88
423.175	178.88
423.398	193.88
423.621	187.88
423.843	179.88
424.066	207.88
424.288	193.88
424.511	181.88
424.733	188.88
424.956	188.88
425.178	214.88
425.401	179.88
425.623	168.88
425.846	168.88
426.068	167.88
426.291	173.88
426.513	168.88
426.735	172.88
426.958	177.88
427.18	167.88
427.402	183.88
427.625	174.88
427.847	159.88
428.069	164.88
428.292	147.88
428.514	153.88
428.736	162.88
428.958	163.88
429.181	154.88
429.403	167.88
429.625	157.88
429.847	159.88
430.069	156.88
430.292	163.88
430.514	164.88
430.736	163.88
430.958	167.88
431.18	150.88
431.402	165.88
431.624	172.88
431.846	177.88
432.068	160.88
432.29	162.88
432.512	170.88
432.734	157.88
432.956	167.88
433.178	185.88
433.4	167.88
433.622	174.88
433.844	157.88
434.066	157.88
434.287	149.88
434.509	170.88
434.731	164.88
434.953	185.88
435.175	180.88
435.397	183.88
435.618	173.88
435.84	165.88
436.062	152.88
436.284	154.88
436.505	168.88
436.727	172.88
436.949	178.88
437.17	163.88
437.392	150.88
437.614	165.88
437.835	154.88
438.057	146.88
438.278	134.88
438.5	163.88
438.721	155.88
438.943	164.88
439.165	167.88
439.386	166.88
439.608	179.88
439.829	156.88
440.05	165.88
440.272	155.88
440.493	161.88
440.715	156.88
440.936	162.88
441.158	171.88
441.379	162.88
441.6	186.88
441.822	181.88
442.043	179.88
442.264	181.88
442.486	173.88
442.707	168.88
442.928	187.88
443.149	173.88
443.371	194.88
443.592	162.88
443.813	171.88
444.034	161.88
444.255	183.88
444.476	194.88
444.698	199.88
444.919	195.88
445.14	392.88
445.361	274.88
445.582	177.88
445.803	163.88
446.024	164.88
446.245	179.88
446.466	184.88
446.687	164.88
446.908	159.88
447.129	180.88
447.35	156.88
447.571	170.88
447.792	159.88
448.013	169.88
448.234	155.88
448.455	149.88
448.675	163.88
448.896	145.88
449.117	153.88
449.338	164.88
449.559	154.88
449.779	166.88
450	166.88
450.221	170.88
450.442	164.88
450.662	148.88
450.883	154.88
451.104	167.88
451.324	165.88
451.545	165.88
451.766	161.88
451.986	171.88
452.207	157.88
452.428	156.88
452.648	148.88
452.869	158.88
453.089	168.88
453.31	173.88
453.53	151.88
453.751	162.88
453.971	155.88
454.192	165.88
454.412	168.88
454.633	152.88
454.853	164.88
455.073	165.88
455.294	160.88
455.514	135.88
455.734	147.88
455.955	150.88
456.175	142.88
456.395	163.88
456.616	147.88
456.836	149.88
457.056	146.88
457.276	151.88
457.497	164.88
457.717	151.88
457.937	157.88
458.157	139.88
458.377	137.88
458.598	158.88
458.818	169.88
459.038	143.88
459.258	169.88
459.478	156.88
459.698	167.88
459.918	171.88
460.138	182.88
460.358	187.88
460.578	189.88
460.798	187.88
461.018	185.88
461.238	191.88
461.458	191.88
461.678	184.88
461.898	201.88
462.118	193.88
462.338	191.88
462.558	191.88
462.777	209.88
462.997	216.88
463.217	216.88
463.437	231.88
463.657	199.88
463.876	200.88
464.096	210.88
464.316	197.88
464.536	199.88
464.755	206.88
464.975	194.88
465.195	175.88
465.414	165.88
465.634	163.88
465.854	177.88
466.073	172.88
466.293	158.88
466.512	166.88
466.732	154.88
466.951	167.88
467.171	166.88
467.391	153.88
467.61	165.88
467.829	155.88
468.049	150.88
468.268	150.88
468.488	150.88
468.707	154.88
468.927	169.88
469.146	134.88
469.365	165.88
469.585	177.88
469.804	154.88
470.023	159.88
470.243	164.88
470.462	170.88
470.681	167.88
470.901	166.88
471.12	171.88
471.339	166.88
471.558	170.88
471.777	166.88
471.997	159.88
472.216	160.88
472.435	167.88
472.654	134.88
472.873	157.88
473.092	157.88
473.311	148.88
473.53	153.88
473.749	151.88
473.968	166.88
474.187	155.88
474.406	151.88
474.625	161.88
474.844	158.88
475.063	131.88
475.282	167.88
475.501	147.88
475.72	147.88
475.939	172.88
476.158	163.88
476.377	163.88
476.596	159.88
476.814	176.88
477.033	162.88
477.252	164.88
477.471	165.88
477.69	161.88
477.908	176.88
478.127	176.88
478.346	182.88
478.564	172.88
478.783	180.88
479.002	193.88
479.22	172.88
479.439	182.88
479.658	174.88
479.876	172.88
480.095	174.88
480.313	178.88
480.532	189.88
480.751	190.88
480.969	181.88
481.188	176.88
481.406	194.88
481.624	170.88
481.843	168.88
482.061	181.88
482.28	187.88
482.498	157.88
482.717	166.88
482.935	170.88
483.153	167.88
483.372	169.88
483.59	179.88
483.808	186.88
484.027	183.88
484.245	180.88
484.463	181.88
484.681	193.88
484.9	183.88
485.118	203.88
485.336	187.88
485.554	175.88
485.772	165.88
485.99	173.88
486.209	164.88
486.427	177.88
486.645	173.88
486.863	174.88
487.081	167.88
487.299	180.88
487.517	178.88
487.735	197.88
487.953	181.88
488.171	175.88
488.389	175.88
488.607	175.88
488.825	182.88
489.043	163.88
489.261	177.88
489.479	179.88
489.696	174.88
489.914	164.88
490.132	175.88
490.35	190.88
490.568	155.88
490.786	173.88
491.003	170.88
491.221	183.88
491.439	179.88
491.657	184.88
491.874	184.88
492.092	186.88
492.31	201.88
492.527	164.88
492.745	177.88
492.963	171.88
493.18	178.88
493.398	188.88
493.615	169.88
493.833	183.88
494.05	182.88
494.268	184.88
494.485	168.88
494.703	202.88
494.92	173.88
495.138	181.88
495.355	197.88
495.573	194.88
495.79	175.88
496.008	169.88
496.225	187.88
496.442	194.88
496.66	215.88
496.877	189.88
497.094	200.88
497.312	178.88
497.529	197.88
497.746	199.88
497.963	183.88
498.181	217.88
498.398	219.88
498.615	230.88
498.832	239.88
499.049	267.88
499.267	273.88
499.484	259.88
499.701	323.88
499.918	331.88
500.135	387.88
500.352	407.88
500.569	416.88
500.786	413.88
501.003	369.88
501.22	326.88
501.437	302.88
501.654	266.88
501.871	246.88
502.088	230.88
502.305	230.88
502.522	242.88
502.739	222.88
502.956	209.88
503.172	223.88
503.389	220.88
503.606	200.88
503.823	209.88
504.04	203.88
504.256	205.88
504.473	188.88
504.69	212.88
