Data from SampG_HRD10591_00015.txt Node
Date: Mon Jan 19 11:53:48 EST 2026
User: Yrep
Spectrometer: HR+D1059
Trigger mode: 0
Integration Time (sec): 3.443000E-1
Scans to average: 1
Electric dark correction enabled: true
Nonlinearity correction enabled: false
Boxcar width: 0
XAxis mode: Wavelengths
Number of Pixels in Spectrum: 2048
>>>>>Begin Spectral Data<<<<<
223.165	-17.38
223.4	-17.38
223.635	-17.38
223.869	-15.38
224.104	-21.38
224.338	-13.38
224.573	-30.38
224.808	-7.38
225.042	-12.38
225.277	4.62
225.511	-14.38
225.746	8.62
225.98	14.62
226.215	5.62
226.449	24.62
226.683	21.62
226.918	28.62
227.152	23.62
227.387	40.62
227.621	36.62
227.856	62.62
228.09	45.62
228.324	52.62
228.559	51.62
228.793	69.62
229.027	62.62
229.262	63.62
229.496	74.62
229.73	73.62
229.964	73.62
230.199	82.62
230.433	83.62
230.667	75.62
230.901	74.62
231.136	71.62
231.37	87.62
231.604	84.62
231.838	91.62
232.072	78.62
232.306	79.62
232.541	89.62
232.775	85.62
233.009	94.62
233.243	66.62
233.477	98.62
233.711	77.62
233.945	74.62
234.179	80.62
234.413	84.62
234.647	73.62
234.881	84.62
235.115	70.62
235.349	83.62
235.583	84.62
235.817	90.62
236.051	77.62
236.285	71.62
236.519	91.62
236.753	68.62
236.987	82.62
237.221	83.62
237.455	80.62
237.689	79.62
237.922	95.62
238.156	80.62
238.39	86.62
238.624	98.62
238.858	86.62
239.091	82.62
239.325	78.62
239.559	71.62
239.793	73.62
240.027	89.62
240.26	91.62
240.494	85.62
240.728	88.62
240.961	81.62
241.195	82.62
241.429	71.62
241.662	84.62
241.896	79.62
242.13	84.62
242.363	79.62
242.597	86.62
242.83	100.62
243.064	75.62
243.298	82.62
243.531	90.62
243.765	85.62
243.998	86.62
244.232	109.62
244.465	88.62
244.699	86.62
244.932	79.62
245.166	81.62
245.399	89.62
245.633	90.62
245.866	83.62
246.099	69.62
246.333	78.62
246.566	76.62
246.8	88.62
247.033	86.62
247.266	85.62
247.5	83.62
247.733	91.62
247.966	92.62
248.2	83.62
248.433	78.62
248.666	66.62
248.899	90.62
249.133	103.62
249.366	102.62
249.599	82.62
249.832	101.62
250.066	88.62
250.299	95.62
250.532	75.62
250.765	82.62
250.998	88.62
251.231	89.62
251.465	90.62
251.698	83.62
251.931	76.62
252.164	90.62
252.397	100.62
252.63	88.62
252.863	70.62
253.096	89.62
253.329	88.62
253.562	84.62
253.795	88.62
254.028	117.62
254.261	85.62
254.494	80.62
254.727	94.62
254.96	87.62
255.193	105.62
255.426	101.62
255.659	75.62
255.892	92.62
256.124	97.62
256.357	96.62
256.59	86.62
256.823	91.62
257.056	91.62
257.289	75.62
257.521	119.62
257.754	74.62
257.987	100.62
258.22	100.62
258.452	90.62
258.685	95.62
258.918	105.62
259.151	100.62
259.383	99.62
259.616	90.62
259.849	89.62
260.081	80.62
260.314	99.62
260.547	76.62
260.779	110.62
261.012	94.62
261.244	81.62
261.477	106.62
261.71	107.62
261.942	85.62
262.175	94.62
262.407	101.62
262.64	104.62
262.872	91.62
263.105	97.62
263.337	114.62
263.57	88.62
263.802	98.62
264.035	93.62
264.267	95.62
264.499	99.62
264.732	91.62
264.964	100.62
265.197	101.62
265.429	97.62
265.661	116.62
265.894	114.62
266.126	107.62
266.358	108.62
266.591	88.62
266.823	89.62
267.055	94.62
267.287	98.62
267.52	87.62
267.752	96.62
267.984	102.62
268.216	97.62
268.448	95.62
268.681	103.62
268.913	121.62
269.145	108.62
269.377	106.62
269.609	99.62
269.841	107.62
270.073	101.62
270.306	87.62
270.538	111.62
270.77	92.62
271.002	103.62
271.234	93.62
271.466	100.62
271.698	99.62
271.93	88.62
272.162	101.62
272.394	112.62
272.626	95.62
272.858	110.62
273.09	105.62
273.322	102.62
273.553	103.62
273.785	104.62
274.017	86.62
274.249	98.62
274.481	115.62
274.713	114.62
274.945	98.62
275.176	107.62
275.408	103.62
275.64	93.62
275.872	110.62
276.104	123.62
276.335	104.62
276.567	125.62
276.799	107.62
277.031	87.62
277.262	116.62
277.494	106.62
277.726	115.62
277.957	107.62
278.189	94.62
278.421	98.62
278.652	105.62
278.884	115.62
279.115	107.62
279.347	110.62
279.579	83.62
279.81	92.62
280.042	128.62
280.273	112.62
280.505	102.62
280.736	97.62
280.968	102.62
281.199	103.62
281.431	101.62
281.662	112.62
281.894	112.62
282.125	121.62
282.356	103.62
282.588	102.62
282.819	120.62
283.051	113.62
283.282	116.62
283.513	113.62
283.745	108.62
283.976	121.62
284.207	117.62
284.439	118.62
284.67	106.62
284.901	102.62
285.132	119.62
285.364	117.62
285.595	116.62
285.826	124.62
286.057	128.62
286.288	112.62
286.52	122.62
286.751	107.62
286.982	108.62
287.213	108.62
287.444	120.62
287.675	113.62
287.906	108.62
288.138	103.62
288.369	113.62
288.6	117.62
288.831	115.62
289.062	112.62
289.293	123.62
289.524	123.62
289.755	115.62
289.986	117.62
290.217	106.62
290.448	108.62
290.679	116.62
290.91	126.62
291.141	123.62
291.371	118.62
291.602	91.62
291.833	105.62
292.064	112.62
292.295	118.62
292.526	113.62
292.757	114.62
292.987	122.62
293.218	136.62
293.449	113.62
293.68	113.62
293.91	109.62
294.141	113.62
294.372	123.62
294.603	120.62
294.833	115.62
295.064	110.62
295.295	102.62
295.525	117.62
295.756	142.62
295.987	111.62
296.217	143.62
296.448	122.62
296.679	123.62
296.909	122.62
297.14	135.62
297.37	133.62
297.601	119.62
297.831	111.62
298.062	134.62
298.292	114.62
298.523	128.62
298.753	118.62
298.984	118.62
299.214	107.62
299.445	132.62
299.675	123.62
299.905	119.62
300.136	114.62
300.366	122.62
300.597	112.62
300.827	119.62
301.057	125.62
301.288	118.62
301.518	127.62
301.748	123.62
301.979	153.62
302.209	118.62
302.439	117.62
302.669	127.62
302.9	116.62
303.13	123.62
303.36	121.62
303.59	129.62
303.82	123.62
304.051	107.62
304.281	140.62
304.511	139.62
304.741	127.62
304.971	114.62
305.201	134.62
305.431	120.62
305.661	116.62
305.891	130.62
306.121	113.62
306.352	116.62
306.582	133.62
306.812	131.62
307.042	113.62
307.272	104.62
307.502	94.62
307.731	120.62
307.961	131.62
308.191	131.62
308.421	126.62
308.651	116.62
308.881	143.62
309.111	117.62
309.341	118.62
309.571	126.62
309.8	126.62
310.03	125.62
310.26	127.62
310.49	115.62
310.72	113.62
310.949	145.62
311.179	106.62
311.409	127.62
311.639	103.62
311.868	136.62
312.098	122.62
312.328	116.62
312.557	120.62
312.787	134.62
313.017	131.62
313.246	137.62
313.476	121.62
313.706	132.62
313.935	110.62
314.165	139.62
314.394	122.62
314.624	112.62
314.853	126.62
315.083	118.62
315.312	108.62
315.542	108.62
315.771	105.62
316.001	118.62
316.23	117.62
316.46	126.62
316.689	114.62
316.919	126.62
317.148	119.62
317.377	145.62
317.607	135.62
317.836	119.62
318.065	134.62
318.295	130.62
318.524	123.62
318.753	119.62
318.983	131.62
319.212	116.62
319.441	128.62
319.67	148.62
319.9	124.62
320.129	124.62
320.358	115.62
320.587	114.62
320.816	123.62
321.046	113.62
321.275	136.62
321.504	134.62
321.733	131.62
321.962	135.62
322.191	129.62
322.42	126.62
322.649	122.62
322.878	128.62
323.108	119.62
323.337	123.62
323.566	117.62
323.795	124.62
324.024	133.62
324.253	111.62
324.482	113.62
324.71	145.62
324.939	140.62
325.168	136.62
325.397	127.62
325.626	147.62
325.855	134.62
326.084	131.62
326.313	118.62
326.542	134.62
326.77	135.62
326.999	135.62
327.228	143.62
327.457	126.62
327.686	121.62
327.914	136.62
328.143	142.62
328.372	133.62
328.6	137.62
328.829	115.62
329.058	125.62
329.287	138.62
329.515	122.62
329.744	132.62
329.972	131.62
330.201	116.62
330.43	134.62
330.658	120.62
330.887	137.62
331.115	139.62
331.344	135.62
331.572	135.62
331.801	119.62
332.03	144.62
332.258	132.62
332.486	142.62
332.715	137.62
332.943	164.62
333.172	160.62
333.4	146.62
333.629	156.62
333.857	160.62
334.085	161.62
334.314	150.62
334.542	147.62
334.771	139.62
334.999	150.62
335.227	150.62
335.455	142.62
335.684	145.62
335.912	140.62
336.14	149.62
336.369	123.62
336.597	148.62
336.825	142.62
337.053	138.62
337.281	135.62
337.51	133.62
337.738	132.62
337.966	134.62
338.194	143.62
338.422	128.62
338.65	144.62
338.878	128.62
339.106	135.62
339.334	148.62
339.562	128.62
339.79	132.62
340.018	131.62
340.246	135.62
340.474	136.62
340.702	143.62
340.93	144.62
341.158	127.62
341.386	139.62
341.614	133.62
341.842	134.62
342.07	132.62
342.298	127.62
342.526	120.62
342.754	133.62
342.981	142.62
343.209	136.62
343.437	165.62
343.665	146.62
343.893	154.62
344.12	158.62
344.348	145.62
344.576	135.62
344.804	131.62
345.031	130.62
345.259	126.62
345.487	144.62
345.714	127.62
345.942	159.62
346.17	123.62
346.397	130.62
346.625	119.62
346.853	121.62
347.08	135.62
347.308	135.62
347.535	122.62
347.763	130.62
347.99	124.62
348.218	134.62
348.445	129.62
348.673	120.62
348.9	126.62
349.128	144.62
349.355	132.62
349.583	119.62
349.81	128.62
350.037	134.62
350.265	122.62
350.492	116.62
350.72	119.62
350.947	135.62
351.174	124.62
351.402	136.62
351.629	127.62
351.856	125.62
352.083	130.62
352.311	127.62
352.538	133.62
352.765	138.62
352.992	140.62
353.22	131.62
353.447	124.62
353.674	135.62
353.901	132.62
354.128	134.62
354.355	125.62
354.583	131.62
354.81	128.62
355.037	123.62
355.264	139.62
355.491	143.62
355.718	110.62
355.945	126.62
356.172	132.62
356.399	130.62
356.626	112.62
356.853	123.62
357.08	125.62
357.307	132.62
357.534	146.62
357.761	126.62
357.988	126.62
358.215	128.62
358.441	124.62
358.668	113.62
358.895	124.62
359.122	127.62
359.349	121.62
359.576	131.62
359.802	123.62
360.029	113.62
360.256	124.62
360.483	121.62
360.709	127.62
360.936	144.62
361.163	145.62
361.39	108.62
361.616	140.62
361.843	136.62
362.07	136.62
362.296	119.62
362.523	117.62
362.749	131.62
362.976	126.62
363.203	147.62
363.429	132.62
363.656	136.62
363.882	114.62
364.109	114.62
364.335	130.62
364.562	132.62
364.788	115.62
365.015	129.62
365.241	122.62
365.468	126.62
365.694	125.62
365.92	128.62
366.147	119.62
366.373	119.62
366.599	115.62
366.826	117.62
367.052	128.62
367.278	130.62
367.505	127.62
367.731	148.62
367.957	124.62
368.184	119.62
368.41	108.62
368.636	136.62
368.862	117.62
369.089	132.62
369.315	129.62
369.541	133.62
369.767	136.62
369.993	128.62
370.219	121.62
370.445	133.62
370.672	128.62
370.898	136.62
371.124	115.62
371.35	138.62
371.576	132.62
371.802	147.62
372.028	129.62
372.254	119.62
372.48	121.62
372.706	137.62
372.932	138.62
373.158	138.62
373.384	151.62
373.61	135.62
373.835	143.62
374.061	141.62
374.287	123.62
374.513	134.62
374.739	123.62
374.965	134.62
375.191	144.62
375.416	151.62
375.642	144.62
375.868	155.62
376.094	138.62
376.319	136.62
376.545	125.62
376.771	146.62
376.997	133.62
377.222	136.62
377.448	143.62
377.674	128.62
377.899	140.62
378.125	135.62
378.35	121.62
378.576	132.62
378.802	135.62
379.027	115.62
379.253	145.62
379.478	140.62
379.704	130.62
379.929	139.62
380.155	117.62
380.38	114.62
380.606	134.62
380.831	142.62
381.057	143.62
381.282	133.62
381.507	130.62
381.733	123.62
381.958	136.62
382.184	137.62
382.409	137.62
382.634	132.62
382.86	148.62
383.085	150.62
383.31	126.62
383.535	153.62
383.761	143.62
383.986	142.62
384.211	149.62
384.436	138.62
384.662	144.62
384.887	143.62
385.112	139.62
385.337	152.62
385.562	145.62
385.787	143.62
386.013	150.62
386.238	158.62
386.463	154.62
386.688	186.62
386.913	146.62
387.138	137.62
387.363	142.62
387.588	160.62
387.813	161.62
388.038	131.62
388.263	143.62
388.488	138.62
388.713	144.62
388.938	150.62
389.163	137.62
389.387	157.62
389.612	142.62
389.837	144.62
390.062	155.62
390.287	138.62
390.512	136.62
390.736	133.62
390.961	147.62
391.186	145.62
391.411	147.62
391.636	161.62
391.86	162.62
392.085	160.62
392.31	164.62
392.534	156.62
392.759	147.62
392.984	150.62
393.208	151.62
393.433	163.62
393.658	152.62
393.882	148.62
394.107	157.62
394.331	146.62
394.556	143.62
394.78	151.62
395.005	151.62
395.229	154.62
395.454	139.62
395.678	162.62
395.903	154.62
396.127	163.62
396.352	172.62
396.576	142.62
396.801	160.62
397.025	171.62
397.249	162.62
397.474	167.62
397.698	176.62
397.922	160.62
398.147	171.62
398.371	164.62
398.595	156.62
398.82	182.62
399.044	185.62
399.268	192.62
399.492	217.62
399.717	222.62
399.941	210.62
400.165	188.62
400.389	181.62
400.613	176.62
400.837	165.62
401.062	176.62
401.286	178.62
401.51	168.62
401.734	164.62
401.958	181.62
402.182	165.62
402.406	171.62
402.63	185.62
402.854	178.62
403.078	187.62
403.302	169.62
403.526	201.62
403.75	191.62
403.974	195.62
404.198	198.62
404.422	193.62
404.645	169.62
404.869	185.62
405.093	207.62
405.317	190.62
405.541	178.62
405.765	188.62
405.988	197.62
406.212	177.62
406.436	168.62
406.66	188.62
406.883	205.62
407.107	194.62
407.331	193.62
407.555	209.62
407.778	199.62
408.002	192.62
408.226	190.62
408.449	184.62
408.673	185.62
408.896	185.62
409.12	183.62
409.344	193.62
409.567	163.62
409.791	179.62
410.014	192.62
410.238	184.62
410.461	173.62
410.685	187.62
410.908	184.62
411.132	193.62
411.355	174.62
411.578	185.62
411.802	151.62
412.025	178.62
412.249	182.62
412.472	174.62
412.695	167.62
412.919	164.62
413.142	168.62
413.365	169.62
413.589	166.62
413.812	170.62
414.035	171.62
414.258	147.62
414.482	166.62
414.705	178.62
414.928	176.62
415.151	182.62
415.374	177.62
415.597	162.62
415.821	162.62
416.044	174.62
416.267	169.62
416.49	166.62
416.713	170.62
416.936	167.62
417.159	161.62
417.382	162.62
417.605	167.62
417.828	172.62
418.051	162.62
418.274	163.62
418.497	165.62
418.72	182.62
418.943	176.62
419.166	191.62
419.389	191.62
419.611	171.62
419.834	177.62
420.057	181.62
420.28	160.62
420.503	175.62
420.726	178.62
420.948	165.62
421.171	170.62
421.394	173.62
421.617	170.62
421.839	167.62
422.062	183.62
422.285	173.62
422.507	171.62
422.73	152.62
422.953	151.62
423.175	177.62
423.398	181.62
423.621	192.62
423.843	183.62
424.066	181.62
424.288	188.62
424.511	174.62
424.733	178.62
424.956	174.62
425.178	170.62
425.401	167.62
425.623	168.62
425.846	162.62
426.068	164.62
426.291	170.62
426.513	165.62
426.735	149.62
426.958	169.62
427.18	153.62
427.402	144.62
427.625	152.62
427.847	161.62
428.069	160.62
428.292	161.62
428.514	150.62
428.736	162.62
428.958	160.62
429.181	148.62
429.403	155.62
429.625	151.62
429.847	161.62
430.069	153.62
430.292	161.62
430.514	161.62
430.736	163.62
430.958	168.62
431.18	162.62
431.402	156.62
431.624	162.62
431.846	156.62
432.068	152.62
432.29	154.62
432.512	153.62
432.734	166.62
432.956	155.62
433.178	168.62
433.4	161.62
433.622	167.62
433.844	163.62
434.066	173.62
434.287	152.62
434.509	162.62
434.731	175.62
434.953	173.62
435.175	182.62
435.397	187.62
435.618	162.62
435.84	155.62
436.062	144.62
436.284	148.62
436.505	162.62
436.727	160.62
436.949	159.62
437.17	139.62
437.392	155.62
437.614	158.62
437.835	147.62
438.057	164.62
438.278	147.62
438.5	165.62
438.721	164.62
438.943	169.62
439.165	176.62
439.386	166.62
439.608	160.62
439.829	154.62
440.05	152.62
440.272	160.62
440.493	143.62
440.715	164.62
440.936	177.62
441.158	169.62
441.379	164.62
441.6	170.62
441.822	175.62
442.043	172.62
442.264	166.62
442.486	181.62
442.707	162.62
442.928	178.62
443.149	177.62
443.371	176.62
443.592	167.62
443.813	182.62
444.034	166.62
444.255	190.62
444.476	189.62
444.698	196.62
444.919	184.62
445.14	468.62
445.361	288.62
445.582	174.62
445.803	172.62
446.024	174.62
446.245	177.62
446.466	166.62
446.687	150.62
446.908	164.62
447.129	153.62
447.35	157.62
447.571	174.62
447.792	145.62
448.013	148.62
448.234	134.62
448.455	142.62
448.675	148.62
448.896	150.62
449.117	167.62
449.338	174.62
449.559	163.62
449.779	149.62
450	156.62
450.221	151.62
450.442	148.62
450.662	144.62
450.883	148.62
451.104	161.62
451.324	151.62
451.545	151.62
451.766	145.62
451.986	148.62
452.207	139.62
452.428	129.62
452.648	160.62
452.869	152.62
453.089	139.62
453.31	147.62
453.53	147.62
453.751	152.62
453.971	159.62
454.192	157.62
454.412	147.62
454.633	163.62
454.853	145.62
455.073	147.62
455.294	147.62
455.514	146.62
455.734	147.62
455.955	149.62
456.175	145.62
456.395	142.62
456.616	142.62
456.836	136.62
457.056	145.62
457.276	148.62
457.497	151.62
457.717	142.62
457.937	144.62
458.157	131.62
458.377	134.62
458.598	147.62
458.818	146.62
459.038	164.62
459.258	163.62
459.478	163.62
459.698	172.62
459.918	161.62
460.138	162.62
460.358	178.62
460.578	166.62
460.798	194.62
461.018	177.62
461.238	168.62
461.458	171.62
461.678	172.62
461.898	181.62
462.118	178.62
462.338	206.62
462.558	193.62
462.777	197.62
462.997	212.62
463.217	206.62
463.437	216.62
463.657	202.62
463.876	196.62
464.096	185.62
464.316	176.62
464.536	190.62
464.755	193.62
464.975	186.62
465.195	195.62
465.414	168.62
465.634	159.62
465.854	151.62
466.073	159.62
466.293	135.62
466.512	151.62
466.732	162.62
466.951	146.62
467.171	155.62
467.391	158.62
467.61	150.62
467.829	160.62
468.049	147.62
468.268	143.62
468.488	149.62
468.707	162.62
468.927	159.62
469.146	148.62
469.365	138.62
469.585	160.62
469.804	148.62
470.023	150.62
470.243	162.62
470.462	171.62
470.681	165.62
470.901	163.62
471.12	145.62
471.339	143.62
471.558	154.62
471.777	162.62
471.997	166.62
472.216	168.62
472.435	164.62
472.654	164.62
472.873	157.62
473.092	148.62
473.311	167.62
473.53	135.62
473.749	148.62
473.968	160.62
474.187	147.62
474.406	146.62
474.625	148.62
474.844	153.62
475.063	154.62
475.282	156.62
475.501	142.62
475.72	172.62
475.939	148.62
476.158	158.62
476.377	150.62
476.596	151.62
476.814	163.62
477.033	151.62
477.252	148.62
477.471	152.62
477.69	143.62
477.908	152.62
478.127	179.62
478.346	182.62
478.564	166.62
478.783	169.62
479.002	163.62
479.22	159.62
479.439	182.62
479.658	167.62
479.876	168.62
480.095	180.62
480.313	183.62
480.532	192.62
480.751	169.62
480.969	162.62
481.188	185.62
481.406	177.62
481.624	172.62
481.843	146.62
482.061	162.62
482.28	158.62
482.498	163.62
482.717	163.62
482.935	149.62
483.153	161.62
483.372	162.62
483.59	179.62
483.808	156.62
484.027	170.62
484.245	172.62
484.463	167.62
484.681	177.62
484.9	167.62
485.118	168.62
485.336	155.62
485.554	171.62
485.772	170.62
485.99	158.62
486.209	156.62
486.427	162.62
486.645	167.62
486.863	158.62
487.081	150.62
487.299	173.62
487.517	178.62
487.735	148.62
487.953	181.62
488.171	185.62
488.389	173.62
488.607	168.62
488.825	167.62
489.043	170.62
489.261	158.62
489.479	159.62
489.696	167.62
489.914	170.62
490.132	168.62
490.35	191.62
490.568	169.62
490.786	170.62
491.003	165.62
491.221	169.62
491.439	178.62
491.657	167.62
491.874	189.62
492.092	178.62
492.31	174.62
492.527	177.62
492.745	165.62
492.963	178.62
493.18	174.62
493.398	174.62
493.615	174.62
493.833	179.62
494.05	184.62
494.268	183.62
494.485	172.62
494.703	169.62
494.92	185.62
495.138	169.62
495.355	175.62
495.573	195.62
495.79	179.62
496.008	177.62
496.225	181.62
496.442	181.62
496.66	187.62
496.877	178.62
497.094	173.62
497.312	176.62
497.529	187.62
497.746	195.62
497.963	203.62
498.181	189.62
498.398	200.62
498.615	223.62
498.832	233.62
499.049	240.62
499.267	253.62
499.484	280.62
499.701	274.62
499.918	326.62
500.135	341.62
500.352	375.62
500.569	378.62
500.786	401.62
501.003	324.62
501.22	298.62
501.437	292.62
501.654	273.62
501.871	244.62
502.088	237.62
502.305	223.62
502.522	217.62
502.739	212.62
502.956	201.62
503.172	196.62
503.389	182.62
503.606	194.62
503.823	186.62
504.04	199.62
504.256	193.62
504.473	190.62
504.69	198.62
504.907	216.62
