Data from SampG_HRD10591_00056.txt Node
Date: Mon Jan 19 11:54:02 EST 2026
User: Yrep
Spectrometer: HR+D1059
Trigger mode: 0
Integration Time (sec): 3.443000E-1
Scans to average: 1
Electric dark correction enabled: true
Nonlinearity correction enabled: false
Boxcar width: 0
XAxis mode: Wavelengths
Number of Pixels in Spectrum: 2048
>>>>>Begin Spectral Data<<<<<
223.165	-31.19
223.4	-31.19
223.635	-31.19
223.869	-30.19
224.104	-19.19
224.338	-9.19
224.573	-2.19
224.808	-18.19
225.042	-15.19
225.277	-12.19
225.511	0.81
225.746	8.81
225.98	11.81
226.215	7.81
226.449	16.81
226.683	20.81
226.918	30.81
227.152	39.81
227.387	44.81
227.621	39.81
227.856	40.81
228.09	55.81
228.324	36.81
228.559	56.81
228.793	61.81
229.027	69.81
229.262	65.81
229.496	78.81
229.73	76.81
229.964	77.81
230.199	73.81
230.433	68.81
230.667	72.81
230.901	86.81
231.136	98.81
231.37	89.81
231.604	89.81
231.838	78.81
232.072	83.81
232.306	91.81
232.541	77.81
232.775	72.81
233.009	87.81
233.243	67.81
233.477	82.81
233.711	106.81
233.945	71.81
234.179	82.81
234.413	110.81
234.647	90.81
234.881	87.81
235.115	86.81
235.349	93.81
235.583	94.81
235.817	90.81
236.051	86.81
236.285	72.81
236.519	76.81
236.753	73.81
236.987	92.81
237.221	92.81
237.455	76.81
237.689	84.81
237.922	88.81
238.156	80.81
238.39	84.81
238.624	81.81
238.858	85.81
239.091	82.81
239.325	74.81
239.559	94.81
239.793	71.81
240.027	82.81
240.26	92.81
240.494	69.81
240.728	78.81
240.961	75.81
241.195	90.81
241.429	86.81
241.662	73.81
241.896	75.81
242.13	84.81
242.363	92.81
242.597	80.81
242.83	92.81
243.064	84.81
243.298	76.81
243.531	82.81
243.765	76.81
243.998	91.81
244.232	95.81
244.465	86.81
244.699	83.81
244.932	87.81
245.166	97.81
245.399	97.81
245.633	88.81
245.866	82.81
246.099	76.81
246.333	75.81
246.566	89.81
246.8	86.81
247.033	84.81
247.266	85.81
247.5	85.81
247.733	92.81
247.966	85.81
248.2	97.81
248.433	91.81
248.666	93.81
248.899	86.81
249.133	99.81
249.366	96.81
249.599	91.81
249.832	83.81
250.066	109.81
250.299	107.81
250.532	90.81
250.765	86.81
250.998	86.81
251.231	91.81
251.465	105.81
251.698	85.81
251.931	96.81
252.164	98.81
252.397	86.81
252.63	90.81
252.863	96.81
253.096	77.81
253.329	89.81
253.562	102.81
253.795	112.81
254.028	92.81
254.261	100.81
254.494	102.81
254.727	88.81
254.96	103.81
255.193	104.81
255.426	70.81
255.659	110.81
255.892	116.81
256.124	98.81
256.357	92.81
256.59	94.81
256.823	88.81
257.056	95.81
257.289	103.81
257.521	93.81
257.754	92.81
257.987	90.81
258.22	93.81
258.452	105.81
258.685	111.81
258.918	104.81
259.151	98.81
259.383	97.81
259.616	97.81
259.849	107.81
260.081	114.81
260.314	92.81
260.547	93.81
260.779	84.81
261.012	100.81
261.244	110.81
261.477	102.81
261.71	94.81
261.942	110.81
262.175	102.81
262.407	96.81
262.64	89.81
262.872	91.81
263.105	107.81
263.337	93.81
263.57	101.81
263.802	88.81
264.035	93.81
264.267	93.81
264.499	96.81
264.732	103.81
264.964	108.81
265.197	97.81
265.429	116.81
265.661	108.81
265.894	102.81
266.126	99.81
266.358	98.81
266.591	112.81
266.823	114.81
267.055	94.81
267.287	82.81
267.52	98.81
267.752	111.81
267.984	100.81
268.216	94.81
268.448	110.81
268.681	93.81
268.913	101.81
269.145	102.81
269.377	92.81
269.609	101.81
269.841	108.81
270.073	104.81
270.306	104.81
270.538	102.81
270.77	102.81
271.002	89.81
271.234	97.81
271.466	96.81
271.698	105.81
271.93	95.81
272.162	109.81
272.394	111.81
272.626	96.81
272.858	106.81
273.09	104.81
273.322	92.81
273.553	105.81
273.785	115.81
274.017	101.81
274.249	108.81
274.481	118.81
274.713	91.81
274.945	125.81
275.176	94.81
275.408	111.81
275.64	102.81
275.872	113.81
276.104	112.81
276.335	97.81
276.567	108.81
276.799	111.81
277.031	100.81
277.262	111.81
277.494	125.81
277.726	107.81
277.957	112.81
278.189	108.81
278.421	105.81
278.652	118.81
278.884	101.81
279.115	113.81
279.347	118.81
279.579	117.81
279.81	122.81
280.042	102.81
280.273	111.81
280.505	107.81
280.736	108.81
280.968	128.81
281.199	114.81
281.431	123.81
281.662	116.81
281.894	112.81
282.125	114.81
282.356	104.81
282.588	124.81
282.819	113.81
283.051	103.81
283.282	106.81
283.513	125.81
283.745	118.81
283.976	109.81
284.207	108.81
284.439	114.81
284.67	116.81
284.901	117.81
285.132	116.81
285.364	113.81
285.595	117.81
285.826	98.81
286.057	133.81
286.288	118.81
286.52	129.81
286.751	111.81
286.982	121.81
287.213	119.81
287.444	129.81
287.675	117.81
287.906	109.81
288.138	103.81
288.369	120.81
288.6	113.81
288.831	113.81
289.062	113.81
289.293	119.81
289.524	110.81
289.755	108.81
289.986	113.81
290.217	117.81
290.448	114.81
290.679	113.81
290.91	126.81
291.141	119.81
291.371	125.81
291.602	120.81
291.833	109.81
292.064	112.81
292.295	111.81
292.526	109.81
292.757	122.81
292.987	139.81
293.218	123.81
293.449	127.81
293.68	110.81
293.91	104.81
294.141	119.81
294.372	104.81
294.603	133.81
294.833	122.81
295.064	110.81
295.295	123.81
295.525	125.81
295.756	117.81
295.987	115.81
296.217	132.81
296.448	122.81
296.679	131.81
296.909	130.81
297.14	127.81
297.37	136.81
297.601	119.81
297.831	117.81
298.062	117.81
298.292	124.81
298.523	125.81
298.753	132.81
298.984	114.81
299.214	128.81
299.445	134.81
299.675	116.81
299.905	116.81
300.136	121.81
300.366	125.81
300.597	116.81
300.827	120.81
301.057	123.81
301.288	133.81
301.518	118.81
301.748	123.81
301.979	166.81
302.209	135.81
302.439	121.81
302.669	128.81
302.9	115.81
303.13	145.81
303.36	148.81
303.59	137.81
303.82	124.81
304.051	112.81
304.281	130.81
304.511	145.81
304.741	125.81
304.971	107.81
305.201	113.81
305.431	125.81
305.661	134.81
305.891	124.81
306.121	132.81
306.352	123.81
306.582	131.81
306.812	130.81
307.042	121.81
307.272	129.81
307.502	121.81
307.731	131.81
307.961	131.81
308.191	128.81
308.421	122.81
308.651	130.81
308.881	131.81
309.111	116.81
309.341	128.81
309.571	134.81
309.8	132.81
310.03	125.81
310.26	114.81
310.49	123.81
310.72	120.81
310.949	123.81
311.179	121.81
311.409	130.81
311.639	128.81
311.868	120.81
312.098	141.81
312.328	117.81
312.557	129.81
312.787	109.81
313.017	135.81
313.246	128.81
313.476	127.81
313.706	133.81
313.935	134.81
314.165	122.81
314.394	129.81
314.624	120.81
314.853	144.81
315.083	137.81
315.312	121.81
315.542	108.81
315.771	118.81
316.001	130.81
316.23	133.81
316.46	119.81
316.689	126.81
316.919	120.81
317.148	137.81
317.377	116.81
317.607	133.81
317.836	125.81
318.065	119.81
318.295	124.81
318.524	121.81
318.753	122.81
318.983	135.81
319.212	135.81
319.441	123.81
319.67	126.81
319.9	109.81
320.129	116.81
320.358	128.81
320.587	126.81
320.816	110.81
321.046	139.81
321.275	138.81
321.504	145.81
321.733	136.81
321.962	128.81
322.191	119.81
322.42	124.81
322.649	122.81
322.878	128.81
323.108	142.81
323.337	144.81
323.566	138.81
323.795	140.81
324.024	126.81
324.253	120.81
324.482	132.81
324.71	122.81
324.939	129.81
325.168	129.81
325.397	136.81
325.626	139.81
325.855	129.81
326.084	121.81
326.313	138.81
326.542	125.81
326.77	145.81
326.999	149.81
327.228	137.81
327.457	131.81
327.686	139.81
327.914	123.81
328.143	137.81
328.372	124.81
328.6	125.81
328.829	123.81
329.058	117.81
329.287	131.81
329.515	126.81
329.744	140.81
329.972	134.81
330.201	145.81
330.43	143.81
330.658	110.81
330.887	124.81
331.115	137.81
331.344	123.81
331.572	146.81
331.801	138.81
332.03	140.81
332.258	138.81
332.486	143.81
332.715	153.81
332.943	145.81
333.172	169.81
333.4	155.81
333.629	153.81
333.857	154.81
334.085	144.81
334.314	148.81
334.542	134.81
334.771	138.81
334.999	150.81
335.227	148.81
335.455	123.81
335.684	164.81
335.912	144.81
336.14	142.81
336.369	142.81
336.597	138.81
336.825	141.81
337.053	124.81
337.281	135.81
337.51	141.81
337.738	148.81
337.966	152.81
338.194	122.81
338.422	129.81
338.65	159.81
338.878	147.81
339.106	126.81
339.334	138.81
339.562	137.81
339.79	135.81
340.018	131.81
340.246	138.81
340.474	137.81
340.702	134.81
340.93	111.81
341.158	128.81
341.386	129.81
341.614	126.81
341.842	133.81
342.07	142.81
342.298	136.81
342.526	140.81
342.754	130.81
342.981	120.81
343.209	132.81
343.437	188.81
343.665	155.81
343.893	144.81
344.12	173.81
344.348	149.81
344.576	135.81
344.804	132.81
345.031	127.81
345.259	136.81
345.487	152.81
345.714	141.81
345.942	135.81
346.17	132.81
346.397	129.81
346.625	136.81
346.853	118.81
347.08	113.81
347.308	123.81
347.535	126.81
347.763	124.81
347.99	133.81
348.218	128.81
348.445	123.81
348.673	120.81
348.9	140.81
349.128	127.81
349.355	121.81
349.583	116.81
349.81	127.81
350.037	133.81
350.265	136.81
350.492	116.81
350.72	118.81
350.947	129.81
351.174	132.81
351.402	122.81
351.629	125.81
351.856	128.81
352.083	137.81
352.311	147.81
352.538	128.81
352.765	142.81
352.992	162.81
353.22	130.81
353.447	118.81
353.674	131.81
353.901	138.81
354.128	125.81
354.355	134.81
354.583	119.81
354.81	144.81
355.037	135.81
355.264	137.81
355.491	126.81
355.718	139.81
355.945	138.81
356.172	126.81
356.399	145.81
356.626	124.81
356.853	121.81
357.08	122.81
357.307	122.81
357.534	121.81
357.761	139.81
357.988	154.81
358.215	140.81
358.441	140.81
358.668	118.81
358.895	121.81
359.122	139.81
359.349	126.81
359.576	127.81
359.802	125.81
360.029	141.81
360.256	124.81
360.483	127.81
360.709	128.81
360.936	150.81
361.163	131.81
361.39	131.81
361.616	133.81
361.843	141.81
362.07	138.81
362.296	123.81
362.523	134.81
362.749	131.81
362.976	131.81
363.203	151.81
363.429	122.81
363.656	146.81
363.882	134.81
364.109	142.81
364.335	136.81
364.562	152.81
364.788	138.81
365.015	124.81
365.241	135.81
365.468	145.81
365.694	133.81
365.92	143.81
366.147	144.81
366.373	127.81
366.599	134.81
366.826	140.81
367.052	142.81
367.278	145.81
367.505	128.81
367.731	150.81
367.957	136.81
368.184	122.81
368.41	124.81
368.636	132.81
368.862	127.81
369.089	136.81
369.315	139.81
369.541	134.81
369.767	139.81
369.993	136.81
370.219	135.81
370.445	126.81
370.672	135.81
370.898	131.81
371.124	140.81
371.35	143.81
371.576	150.81
371.802	126.81
372.028	130.81
372.254	136.81
372.48	128.81
372.706	129.81
372.932	129.81
373.158	136.81
373.384	125.81
373.61	154.81
373.835	141.81
374.061	129.81
374.287	130.81
374.513	149.81
374.739	149.81
374.965	144.81
375.191	132.81
375.416	145.81
375.642	137.81
375.868	144.81
376.094	149.81
376.319	123.81
376.545	137.81
376.771	140.81
376.997	155.81
377.222	139.81
377.448	138.81
377.674	124.81
377.899	136.81
378.125	138.81
378.35	126.81
378.576	135.81
378.802	132.81
379.027	145.81
379.253	126.81
379.478	140.81
379.704	125.81
379.929	131.81
380.155	145.81
380.38	158.81
380.606	134.81
380.831	140.81
381.057	142.81
381.282	134.81
381.507	140.81
381.733	137.81
381.958	149.81
382.184	140.81
382.409	141.81
382.634	172.81
382.86	146.81
383.085	160.81
383.31	151.81
383.535	142.81
383.761	146.81
383.986	145.81
384.211	138.81
384.436	133.81
384.662	162.81
384.887	149.81
385.112	148.81
385.337	154.81
385.562	163.81
385.787	155.81
386.013	132.81
386.238	163.81
386.463	144.81
386.688	171.81
386.913	130.81
387.138	144.81
387.363	153.81
387.588	153.81
387.813	160.81
388.038	149.81
388.263	164.81
388.488	153.81
388.713	139.81
388.938	154.81
389.163	152.81
389.387	149.81
389.612	146.81
389.837	149.81
390.062	148.81
390.287	137.81
390.512	146.81
390.736	157.81
390.961	157.81
391.186	148.81
391.411	129.81
391.636	166.81
391.86	158.81
392.085	164.81
392.31	142.81
392.534	149.81
392.759	175.81
392.984	157.81
393.208	149.81
393.433	158.81
393.658	167.81
393.882	141.81
394.107	169.81
394.331	156.81
394.556	150.81
394.78	163.81
395.005	159.81
395.229	160.81
395.454	161.81
395.678	155.81
395.903	160.81
396.127	183.81
396.352	149.81
396.576	154.81
396.801	142.81
397.025	148.81
397.249	148.81
397.474	173.81
397.698	169.81
397.922	170.81
398.147	158.81
398.371	166.81
398.595	172.81
398.82	165.81
399.044	183.81
399.268	204.81
399.492	219.81
399.717	227.81
399.941	216.81
400.165	217.81
400.389	178.81
400.613	177.81
400.837	169.81
401.062	174.81
401.286	163.81
401.51	182.81
401.734	168.81
401.958	152.81
402.182	172.81
402.406	165.81
402.63	173.81
402.854	175.81
403.078	178.81
403.302	186.81
403.526	187.81
403.75	179.81
403.974	179.81
404.198	196.81
404.422	188.81
404.645	180.81
404.869	183.81
405.093	173.81
405.317	185.81
405.541	187.81
405.765	172.81
405.988	184.81
406.212	170.81
406.436	169.81
406.66	184.81
406.883	189.81
407.107	170.81
407.331	200.81
407.555	182.81
407.778	187.81
408.002	183.81
408.226	187.81
408.449	224.81
408.673	182.81
408.896	181.81
409.12	171.81
409.344	185.81
409.567	168.81
409.791	191.81
410.014	187.81
410.238	192.81
410.461	190.81
410.685	181.81
410.908	161.81
411.132	191.81
411.355	179.81
411.578	165.81
411.802	169.81
412.025	169.81
412.249	170.81
412.472	173.81
412.695	159.81
412.919	184.81
413.142	180.81
413.365	181.81
413.589	171.81
413.812	174.81
414.035	179.81
414.258	165.81
414.482	179.81
414.705	171.81
414.928	154.81
415.151	173.81
415.374	166.81
415.597	185.81
415.821	175.81
416.044	164.81
416.267	163.81
416.49	157.81
416.713	162.81
416.936	182.81
417.159	155.81
417.382	178.81
417.605	172.81
417.828	170.81
418.051	146.81
418.274	174.81
418.497	181.81
418.72	175.81
418.943	183.81
419.166	166.81
419.389	187.81
419.611	167.81
419.834	193.81
420.057	179.81
420.28	199.81
420.503	169.81
420.726	165.81
420.948	179.81
421.171	176.81
421.394	159.81
421.617	176.81
421.839	169.81
422.062	172.81
422.285	167.81
422.507	176.81
422.73	170.81
422.953	166.81
423.175	161.81
423.398	168.81
423.621	179.81
423.843	184.81
424.066	172.81
424.288	179.81
424.511	189.81
424.733	172.81
424.956	188.81
425.178	168.81
425.401	178.81
425.623	152.81
425.846	168.81
426.068	172.81
426.291	164.81
426.513	168.81
426.735	167.81
426.958	153.81
427.18	163.81
427.402	172.81
427.625	170.81
427.847	145.81
428.069	162.81
428.292	179.81
428.514	163.81
428.736	148.81
428.958	153.81
429.181	162.81
429.403	160.81
429.625	168.81
429.847	176.81
430.069	163.81
430.292	152.81
430.514	138.81
430.736	156.81
430.958	170.81
431.18	159.81
431.402	148.81
431.624	160.81
431.846	163.81
432.068	154.81
432.29	164.81
432.512	167.81
432.734	160.81
432.956	152.81
433.178	164.81
433.4	160.81
433.622	185.81
433.844	173.81
434.066	161.81
434.287	172.81
434.509	174.81
434.731	174.81
434.953	169.81
435.175	149.81
435.397	160.81
435.618	172.81
435.84	165.81
436.062	181.81
436.284	156.81
436.505	162.81
436.727	137.81
436.949	136.81
437.17	164.81
437.392	147.81
437.614	168.81
437.835	133.81
438.057	157.81
438.278	169.81
438.5	156.81
438.721	158.81
438.943	147.81
439.165	168.81
439.386	156.81
439.608	154.81
439.829	152.81
440.05	155.81
440.272	164.81
440.493	165.81
440.715	154.81
440.936	179.81
441.158	163.81
441.379	164.81
441.6	169.81
441.822	173.81
442.043	177.81
442.264	164.81
442.486	150.81
442.707	157.81
442.928	171.81
443.149	151.81
443.371	164.81
443.592	188.81
443.813	183.81
444.034	189.81
444.255	166.81
444.476	182.81
444.698	195.81
444.919	181.81
445.14	386.81
445.361	274.81
445.582	182.81
445.803	162.81
446.024	165.81
446.245	185.81
446.466	163.81
446.687	170.81
446.908	164.81
447.129	160.81
447.35	146.81
447.571	165.81
447.792	158.81
448.013	148.81
448.234	151.81
448.455	164.81
448.675	156.81
448.896	150.81
449.117	153.81
449.338	162.81
449.559	158.81
449.779	154.81
450	149.81
450.221	133.81
450.442	155.81
450.662	151.81
450.883	146.81
451.104	163.81
451.324	171.81
451.545	152.81
451.766	144.81
451.986	162.81
452.207	160.81
452.428	141.81
452.648	148.81
452.869	146.81
453.089	149.81
453.31	153.81
453.53	150.81
453.751	162.81
453.971	145.81
454.192	145.81
454.412	138.81
454.633	141.81
454.853	152.81
455.073	152.81
455.294	130.81
455.514	160.81
455.734	121.81
455.955	146.81
456.175	148.81
456.395	126.81
456.616	130.81
456.836	141.81
457.056	137.81
457.276	141.81
457.497	137.81
457.717	149.81
457.937	149.81
458.157	156.81
458.377	132.81
458.598	139.81
458.818	152.81
459.038	151.81
459.258	160.81
459.478	160.81
459.698	160.81
459.918	174.81
460.138	163.81
460.358	162.81
460.578	167.81
460.798	167.81
461.018	181.81
461.238	174.81
461.458	181.81
461.678	185.81
461.898	185.81
462.118	176.81
462.338	173.81
462.558	198.81
462.777	186.81
462.997	204.81
463.217	219.81
463.437	212.81
463.657	186.81
463.876	184.81
464.096	200.81
464.316	179.81
464.536	180.81
464.755	186.81
464.975	194.81
465.195	166.81
465.414	161.81
465.634	160.81
465.854	168.81
466.073	155.81
466.293	157.81
466.512	163.81
466.732	144.81
466.951	146.81
467.171	152.81
467.391	170.81
467.61	142.81
467.829	132.81
468.049	153.81
468.268	145.81
468.488	141.81
468.707	148.81
468.927	145.81
469.146	156.81
469.365	152.81
469.585	165.81
469.804	168.81
470.023	159.81
470.243	161.81
470.462	161.81
470.681	150.81
470.901	162.81
471.12	164.81
471.339	155.81
471.558	156.81
471.777	149.81
471.997	146.81
472.216	162.81
472.435	140.81
472.654	146.81
472.873	156.81
473.092	147.81
473.311	149.81
473.53	156.81
473.749	149.81
473.968	155.81
474.187	153.81
474.406	144.81
474.625	146.81
474.844	164.81
475.063	131.81
475.282	160.81
475.501	148.81
475.72	150.81
475.939	139.81
476.158	149.81
476.377	158.81
476.596	165.81
476.814	153.81
477.033	164.81
477.252	157.81
477.471	166.81
477.69	165.81
477.908	161.81
478.127	172.81
478.346	147.81
478.564	166.81
478.783	163.81
479.002	166.81
479.22	171.81
479.439	176.81
479.658	152.81
479.876	169.81
480.095	168.81
480.313	190.81
480.532	179.81
480.751	179.81
480.969	176.81
481.188	163.81
481.406	164.81
481.624	174.81
481.843	171.81
482.061	168.81
482.28	153.81
482.498	150.81
482.717	146.81
482.935	163.81
483.153	168.81
483.372	164.81
483.59	174.81
483.808	150.81
484.027	167.81
484.245	164.81
484.463	163.81
484.681	183.81
484.9	161.81
485.118	171.81
485.336	138.81
485.554	142.81
485.772	179.81
485.99	166.81
486.209	151.81
486.427	181.81
486.645	164.81
486.863	171.81
487.081	171.81
487.299	149.81
487.517	162.81
487.735	154.81
487.953	166.81
488.171	171.81
488.389	157.81
488.607	168.81
488.825	169.81
489.043	162.81
489.261	180.81
489.479	182.81
489.696	155.81
489.914	170.81
490.132	179.81
490.35	173.81
490.568	184.81
490.786	177.81
491.003	153.81
491.221	159.81
491.439	168.81
491.657	174.81
491.874	165.81
492.092	174.81
492.31	173.81
492.527	151.81
492.745	171.81
492.963	173.81
493.18	170.81
493.398	184.81
493.615	174.81
493.833	168.81
494.05	165.81
494.268	180.81
494.485	174.81
494.703	167.81
494.92	172.81
495.138	175.81
495.355	186.81
495.573	180.81
495.79	163.81
496.008	169.81
496.225	182.81
496.442	185.81
496.66	200.81
496.877	177.81
497.094	181.81
497.312	182.81
497.529	181.81
497.746	193.81
497.963	186.81
498.181	200.81
498.398	210.81
498.615	212.81
498.832	202.81
499.049	236.81
499.267	250.81
499.484	275.81
499.701	301.81
499.918	310.81
500.135	352.81
500.352	374.81
500.569	402.81
500.786	398.81
501.003	341.81
501.22	312.81
501.437	291.81
501.654	256.81
501.871	248.81
502.088	232.81
502.305	214.81
502.522	220.81
502.739	225.81
502.956	217.81
503.172	196.81
503.389	198.81
503.606	192.81
503.823	203.81
504.04	198.81
504.256	186.81
504.473	189.81
504.69	212.81
