Data from SampG_HRD10591_00013.txt Node
Date: Mon Jan 19 11:53:47 EST 2026
User: Yrep
Spectrometer: HR+D1059
Trigger mode: 0
Integration Time (sec): 3.443000E-1
Scans to average: 1
Electric dark correction enabled: true
Nonlinearity correction enabled: false
Boxcar width: 0
XAxis mode: Wavelengths
Number of Pixels in Spectrum: 2048
>>>>>Begin Spectral Data<<<<<
223.165	-30.25
223.4	-30.25
223.635	-30.25
223.869	-26.25
224.104	-26.25
224.338	-15.25
224.573	-19.25
224.808	-16.25
225.042	2.75
225.277	-5.25
225.511	5.75
225.746	6.75
225.98	2.75
226.215	23.75
226.449	2.75
226.683	44.75
226.918	24.75
227.152	24.75
227.387	17.75
227.621	36.75
227.856	38.75
228.09	45.75
228.324	46.75
228.559	47.75
228.793	54.75
229.027	51.75
229.262	68.75
229.496	69.75
229.73	77.75
229.964	74.75
230.199	87.75
230.433	79.75
230.667	79.75
230.901	83.75
231.136	59.75
231.37	81.75
231.604	79.75
231.838	80.75
232.072	74.75
232.306	75.75
232.541	78.75
232.775	83.75
233.009	85.75
233.243	80.75
233.477	86.75
233.711	82.75
233.945	77.75
234.179	78.75
234.413	83.75
234.647	89.75
234.881	90.75
235.115	81.75
235.349	99.75
235.583	95.75
235.817	81.75
236.051	82.75
236.285	80.75
236.519	73.75
236.753	88.75
236.987	93.75
237.221	89.75
237.455	79.75
237.689	72.75
237.922	82.75
238.156	77.75
238.39	86.75
238.624	82.75
238.858	80.75
239.091	72.75
239.325	73.75
239.559	79.75
239.793	82.75
240.027	85.75
240.26	65.75
240.494	88.75
240.728	75.75
240.961	70.75
241.195	83.75
241.429	84.75
241.662	73.75
241.896	89.75
242.13	82.75
242.363	72.75
242.597	74.75
242.83	86.75
243.064	91.75
243.298	79.75
243.531	91.75
243.765	94.75
243.998	89.75
244.232	78.75
244.465	71.75
244.699	88.75
244.932	77.75
245.166	76.75
245.399	90.75
245.633	81.75
245.866	74.75
246.099	77.75
246.333	69.75
246.566	79.75
246.8	84.75
247.033	70.75
247.266	82.75
247.5	94.75
247.733	94.75
247.966	97.75
248.2	90.75
248.433	81.75
248.666	81.75
248.899	83.75
249.133	82.75
249.366	93.75
249.599	101.75
249.832	96.75
250.066	75.75
250.299	83.75
250.532	109.75
250.765	85.75
250.998	84.75
251.231	84.75
251.465	105.75
251.698	90.75
251.931	86.75
252.164	90.75
252.397	77.75
252.63	98.75
252.863	98.75
253.096	89.75
253.329	86.75
253.562	91.75
253.795	96.75
254.028	94.75
254.261	94.75
254.494	90.75
254.727	102.75
254.96	84.75
255.193	88.75
255.426	88.75
255.659	90.75
255.892	93.75
256.124	77.75
256.357	87.75
256.59	87.75
256.823	99.75
257.056	93.75
257.289	87.75
257.521	86.75
257.754	93.75
257.987	100.75
258.22	95.75
258.452	80.75
258.685	85.75
258.918	71.75
259.151	85.75
259.383	102.75
259.616	86.75
259.849	95.75
260.081	88.75
260.314	95.75
260.547	94.75
260.779	96.75
261.012	87.75
261.244	97.75
261.477	106.75
261.71	89.75
261.942	97.75
262.175	97.75
262.407	107.75
262.64	86.75
262.872	90.75
263.105	88.75
263.337	88.75
263.57	91.75
263.802	81.75
264.035	102.75
264.267	99.75
264.499	102.75
264.732	106.75
264.964	97.75
265.197	106.75
265.429	93.75
265.661	93.75
265.894	89.75
266.126	102.75
266.358	103.75
266.591	91.75
266.823	79.75
267.055	103.75
267.287	98.75
267.52	106.75
267.752	113.75
267.984	110.75
268.216	108.75
268.448	86.75
268.681	112.75
268.913	122.75
269.145	111.75
269.377	108.75
269.609	95.75
269.841	94.75
270.073	101.75
270.306	93.75
270.538	92.75
270.77	96.75
271.002	94.75
271.234	105.75
271.466	103.75
271.698	88.75
271.93	103.75
272.162	105.75
272.394	99.75
272.626	113.75
272.858	112.75
273.09	104.75
273.322	112.75
273.553	88.75
273.785	108.75
274.017	102.75
274.249	108.75
274.481	105.75
274.713	97.75
274.945	109.75
275.176	103.75
275.408	108.75
275.64	96.75
275.872	101.75
276.104	122.75
276.335	111.75
276.567	105.75
276.799	101.75
277.031	89.75
277.262	106.75
277.494	102.75
277.726	107.75
277.957	113.75
278.189	112.75
278.421	95.75
278.652	106.75
278.884	109.75
279.115	119.75
279.347	103.75
279.579	102.75
279.81	106.75
280.042	113.75
280.273	95.75
280.505	109.75
280.736	104.75
280.968	119.75
281.199	104.75
281.431	97.75
281.662	92.75
281.894	104.75
282.125	100.75
282.356	105.75
282.588	118.75
282.819	112.75
283.051	111.75
283.282	88.75
283.513	114.75
283.745	110.75
283.976	111.75
284.207	107.75
284.439	125.75
284.67	116.75
284.901	122.75
285.132	114.75
285.364	107.75
285.595	111.75
285.826	102.75
286.057	103.75
286.288	105.75
286.52	106.75
286.751	120.75
286.982	117.75
287.213	111.75
287.444	114.75
287.675	111.75
287.906	128.75
288.138	109.75
288.369	131.75
288.6	113.75
288.831	113.75
289.062	112.75
289.293	119.75
289.524	118.75
289.755	105.75
289.986	107.75
290.217	116.75
290.448	111.75
290.679	116.75
290.91	120.75
291.141	122.75
291.371	118.75
291.602	117.75
291.833	115.75
292.064	118.75
292.295	121.75
292.526	103.75
292.757	107.75
292.987	101.75
293.218	102.75
293.449	107.75
293.68	116.75
293.91	112.75
294.141	116.75
294.372	118.75
294.603	122.75
294.833	131.75
295.064	113.75
295.295	123.75
295.525	111.75
295.756	126.75
295.987	130.75
296.217	126.75
296.448	126.75
296.679	115.75
296.909	125.75
297.14	119.75
297.37	118.75
297.601	126.75
297.831	125.75
298.062	117.75
298.292	107.75
298.523	129.75
298.753	115.75
298.984	127.75
299.214	108.75
299.445	115.75
299.675	135.75
299.905	115.75
300.136	116.75
300.366	115.75
300.597	115.75
300.827	137.75
301.057	115.75
301.288	128.75
301.518	119.75
301.748	127.75
301.979	162.75
302.209	102.75
302.439	125.75
302.669	121.75
302.9	120.75
303.13	110.75
303.36	119.75
303.59	109.75
303.82	121.75
304.051	136.75
304.281	130.75
304.511	129.75
304.741	145.75
304.971	114.75
305.201	133.75
305.431	125.75
305.661	118.75
305.891	119.75
306.121	122.75
306.352	117.75
306.582	116.75
306.812	110.75
307.042	126.75
307.272	119.75
307.502	116.75
307.731	135.75
307.961	117.75
308.191	121.75
308.421	121.75
308.651	119.75
308.881	125.75
309.111	127.75
309.341	101.75
309.571	112.75
309.8	119.75
310.03	134.75
310.26	117.75
310.49	114.75
310.72	113.75
310.949	116.75
311.179	120.75
311.409	125.75
311.639	127.75
311.868	131.75
312.098	132.75
312.328	117.75
312.557	114.75
312.787	112.75
313.017	127.75
313.246	115.75
313.476	138.75
313.706	125.75
313.935	122.75
314.165	116.75
314.394	122.75
314.624	116.75
314.853	133.75
315.083	134.75
315.312	120.75
315.542	113.75
315.771	129.75
316.001	119.75
316.23	125.75
316.46	118.75
316.689	133.75
316.919	117.75
317.148	122.75
317.377	138.75
317.607	126.75
317.836	120.75
318.065	130.75
318.295	113.75
318.524	114.75
318.753	126.75
318.983	129.75
319.212	131.75
319.441	121.75
319.67	132.75
319.9	111.75
320.129	135.75
320.358	130.75
320.587	120.75
320.816	106.75
321.046	117.75
321.275	142.75
321.504	103.75
321.733	125.75
321.962	123.75
322.191	126.75
322.42	126.75
322.649	130.75
322.878	124.75
323.108	121.75
323.337	121.75
323.566	117.75
323.795	125.75
324.024	122.75
324.253	133.75
324.482	119.75
324.71	134.75
324.939	125.75
325.168	123.75
325.397	126.75
325.626	125.75
325.855	123.75
326.084	125.75
326.313	140.75
326.542	137.75
326.77	123.75
326.999	117.75
327.228	138.75
327.457	129.75
327.686	133.75
327.914	138.75
328.143	142.75
328.372	125.75
328.6	134.75
328.829	120.75
329.058	129.75
329.287	110.75
329.515	133.75
329.744	130.75
329.972	124.75
330.201	122.75
330.43	130.75
330.658	121.75
330.887	135.75
331.115	129.75
331.344	130.75
331.572	127.75
331.801	154.75
332.03	138.75
332.258	131.75
332.486	145.75
332.715	142.75
332.943	138.75
333.172	155.75
333.4	151.75
333.629	150.75
333.857	163.75
334.085	147.75
334.314	147.75
334.542	141.75
334.771	143.75
334.999	137.75
335.227	141.75
335.455	136.75
335.684	131.75
335.912	143.75
336.14	155.75
336.369	143.75
336.597	125.75
336.825	125.75
337.053	143.75
337.281	143.75
337.51	134.75
337.738	130.75
337.966	135.75
338.194	139.75
338.422	151.75
338.65	134.75
338.878	139.75
339.106	127.75
339.334	131.75
339.562	124.75
339.79	125.75
340.018	148.75
340.246	138.75
340.474	125.75
340.702	147.75
340.93	136.75
341.158	122.75
341.386	149.75
341.614	129.75
341.842	128.75
342.07	127.75
342.298	149.75
342.526	132.75
342.754	133.75
342.981	127.75
343.209	124.75
343.437	163.75
343.665	145.75
343.893	159.75
344.12	147.75
344.348	135.75
344.576	137.75
344.804	124.75
345.031	132.75
345.259	125.75
345.487	147.75
345.714	119.75
345.942	135.75
346.17	139.75
346.397	129.75
346.625	122.75
346.853	134.75
347.08	129.75
347.308	139.75
347.535	129.75
347.763	134.75
347.99	143.75
348.218	148.75
348.445	145.75
348.673	129.75
348.9	132.75
349.128	140.75
349.355	114.75
349.583	118.75
349.81	130.75
350.037	115.75
350.265	147.75
350.492	118.75
350.72	125.75
350.947	138.75
351.174	123.75
351.402	122.75
351.629	126.75
351.856	129.75
352.083	132.75
352.311	137.75
352.538	119.75
352.765	123.75
352.992	132.75
353.22	132.75
353.447	130.75
353.674	123.75
353.901	128.75
354.128	137.75
354.355	134.75
354.583	128.75
354.81	125.75
355.037	141.75
355.264	127.75
355.491	115.75
355.718	116.75
355.945	147.75
356.172	132.75
356.399	126.75
356.626	136.75
356.853	123.75
357.08	134.75
357.307	126.75
357.534	141.75
357.761	125.75
357.988	125.75
358.215	137.75
358.441	131.75
358.668	127.75
358.895	119.75
359.122	118.75
359.349	124.75
359.576	122.75
359.802	129.75
360.029	138.75
360.256	128.75
360.483	143.75
360.709	128.75
360.936	146.75
361.163	125.75
361.39	141.75
361.616	124.75
361.843	127.75
362.07	131.75
362.296	130.75
362.523	137.75
362.749	121.75
362.976	116.75
363.203	148.75
363.429	121.75
363.656	131.75
363.882	130.75
364.109	128.75
364.335	120.75
364.562	132.75
364.788	125.75
365.015	134.75
365.241	131.75
365.468	142.75
365.694	119.75
365.92	109.75
366.147	125.75
366.373	128.75
366.599	127.75
366.826	117.75
367.052	115.75
367.278	128.75
367.505	138.75
367.731	137.75
367.957	134.75
368.184	125.75
368.41	128.75
368.636	128.75
368.862	134.75
369.089	131.75
369.315	113.75
369.541	132.75
369.767	133.75
369.993	123.75
370.219	113.75
370.445	130.75
370.672	135.75
370.898	128.75
371.124	130.75
371.35	116.75
371.576	144.75
371.802	116.75
372.028	121.75
372.254	120.75
372.48	142.75
372.706	136.75
372.932	142.75
373.158	131.75
373.384	137.75
373.61	132.75
373.835	124.75
374.061	123.75
374.287	129.75
374.513	136.75
374.739	149.75
374.965	130.75
375.191	130.75
375.416	154.75
375.642	148.75
375.868	147.75
376.094	146.75
376.319	143.75
376.545	129.75
376.771	145.75
376.997	141.75
377.222	120.75
377.448	146.75
377.674	126.75
377.899	136.75
378.125	125.75
378.35	138.75
378.576	144.75
378.802	138.75
379.027	130.75
379.253	122.75
379.478	133.75
379.704	129.75
379.929	132.75
380.155	130.75
380.38	126.75
380.606	137.75
380.831	128.75
381.057	133.75
381.282	130.75
381.507	126.75
381.733	134.75
381.958	138.75
382.184	130.75
382.409	134.75
382.634	138.75
382.86	122.75
383.085	136.75
383.31	137.75
383.535	127.75
383.761	154.75
383.986	154.75
384.211	138.75
384.436	136.75
384.662	137.75
384.887	148.75
385.112	139.75
385.337	161.75
385.562	154.75
385.787	145.75
386.013	175.75
386.238	140.75
386.463	151.75
386.688	169.75
386.913	146.75
387.138	157.75
387.363	152.75
387.588	159.75
387.813	142.75
388.038	144.75
388.263	153.75
388.488	151.75
388.713	136.75
388.938	135.75
389.163	158.75
389.387	131.75
389.612	133.75
389.837	141.75
390.062	143.75
390.287	129.75
390.512	149.75
390.736	134.75
390.961	143.75
391.186	147.75
391.411	158.75
391.636	153.75
391.86	160.75
392.085	160.75
392.31	158.75
392.534	136.75
392.759	143.75
392.984	156.75
393.208	172.75
393.433	141.75
393.658	151.75
393.882	170.75
394.107	142.75
394.331	144.75
394.556	160.75
394.78	160.75
395.005	136.75
395.229	140.75
395.454	149.75
395.678	158.75
395.903	164.75
396.127	156.75
396.352	165.75
396.576	163.75
396.801	149.75
397.025	157.75
397.249	157.75
397.474	160.75
397.698	162.75
397.922	163.75
398.147	156.75
398.371	159.75
398.595	174.75
398.82	164.75
399.044	180.75
399.268	184.75
399.492	213.75
399.717	227.75
399.941	232.75
400.165	200.75
400.389	167.75
400.613	174.75
400.837	179.75
401.062	166.75
401.286	178.75
401.51	163.75
401.734	144.75
401.958	168.75
402.182	171.75
402.406	170.75
402.63	174.75
402.854	185.75
403.078	177.75
403.302	187.75
403.526	183.75
403.75	189.75
403.974	178.75
404.198	181.75
404.422	191.75
404.645	206.75
404.869	195.75
405.093	192.75
405.317	171.75
405.541	193.75
405.765	181.75
405.988	169.75
406.212	177.75
406.436	190.75
406.66	193.75
406.883	187.75
407.107	181.75
407.331	191.75
407.555	197.75
407.778	190.75
408.002	196.75
408.226	186.75
408.449	190.75
408.673	197.75
408.896	183.75
409.12	161.75
409.344	191.75
409.567	183.75
409.791	197.75
410.014	189.75
410.238	171.75
410.461	182.75
410.685	173.75
410.908	174.75
411.132	174.75
411.355	149.75
411.578	177.75
411.802	166.75
412.025	169.75
412.249	169.75
412.472	168.75
412.695	162.75
412.919	165.75
413.142	167.75
413.365	161.75
413.589	167.75
413.812	147.75
414.035	167.75
414.258	190.75
414.482	170.75
414.705	160.75
414.928	188.75
415.151	172.75
415.374	170.75
415.597	176.75
415.821	168.75
416.044	158.75
416.267	157.75
416.49	162.75
416.713	159.75
416.936	167.75
417.159	158.75
417.382	162.75
417.605	158.75
417.828	178.75
418.051	184.75
418.274	167.75
418.497	175.75
418.72	171.75
418.943	162.75
419.166	169.75
419.389	182.75
419.611	179.75
419.834	185.75
420.057	179.75
420.28	164.75
420.503	179.75
420.726	165.75
420.948	178.75
421.171	173.75
421.394	152.75
421.617	169.75
421.839	171.75
422.062	166.75
422.285	179.75
422.507	185.75
422.73	155.75
422.953	163.75
423.175	183.75
423.398	181.75
423.621	182.75
423.843	179.75
424.066	164.75
424.288	173.75
424.511	154.75
424.733	185.75
424.956	177.75
425.178	175.75
425.401	167.75
425.623	183.75
425.846	149.75
426.068	165.75
426.291	169.75
426.513	158.75
426.735	141.75
426.958	148.75
427.18	170.75
427.402	137.75
427.625	169.75
427.847	169.75
428.069	143.75
428.292	155.75
428.514	163.75
428.736	160.75
428.958	150.75
429.181	161.75
429.403	169.75
429.625	158.75
429.847	141.75
430.069	164.75
430.292	135.75
430.514	163.75
430.736	159.75
430.958	166.75
431.18	144.75
431.402	142.75
431.624	146.75
431.846	149.75
432.068	155.75
432.29	175.75
432.512	149.75
432.734	147.75
432.956	151.75
433.178	149.75
433.4	144.75
433.622	168.75
433.844	155.75
434.066	138.75
434.287	146.75
434.509	164.75
434.731	161.75
434.953	181.75
435.175	155.75
435.397	167.75
435.618	157.75
435.84	180.75
436.062	170.75
436.284	165.75
436.505	154.75
436.727	166.75
436.949	167.75
437.17	153.75
437.392	149.75
437.614	146.75
437.835	163.75
438.057	144.75
438.278	153.75
438.5	158.75
438.721	155.75
438.943	148.75
439.165	151.75
439.386	148.75
439.608	163.75
439.829	163.75
440.05	150.75
440.272	161.75
440.493	155.75
440.715	158.75
440.936	181.75
441.158	171.75
441.379	170.75
441.6	168.75
441.822	160.75
442.043	171.75
442.264	167.75
442.486	165.75
442.707	158.75
442.928	154.75
443.149	144.75
443.371	175.75
443.592	177.75
443.813	184.75
444.034	189.75
444.255	170.75
444.476	189.75
444.698	190.75
444.919	185.75
445.14	424.75
445.361	289.75
445.582	165.75
445.803	164.75
446.024	158.75
446.245	165.75
446.466	151.75
446.687	147.75
446.908	158.75
447.129	152.75
447.35	151.75
447.571	134.75
447.792	161.75
448.013	169.75
448.234	162.75
448.455	166.75
448.675	146.75
448.896	158.75
449.117	147.75
449.338	137.75
449.559	160.75
449.779	149.75
450	141.75
450.221	171.75
450.442	153.75
450.662	161.75
450.883	163.75
451.104	141.75
451.324	155.75
451.545	145.75
451.766	142.75
451.986	142.75
452.207	150.75
452.428	131.75
452.648	162.75
452.869	160.75
453.089	150.75
453.31	127.75
453.53	149.75
453.751	134.75
453.971	157.75
454.192	144.75
454.412	141.75
454.633	152.75
454.853	139.75
455.073	149.75
455.294	141.75
455.514	151.75
455.734	145.75
455.955	134.75
456.175	138.75
456.395	143.75
456.616	132.75
456.836	145.75
457.056	137.75
457.276	127.75
457.497	130.75
457.717	138.75
457.937	144.75
458.157	155.75
458.377	149.75
458.598	163.75
458.818	146.75
459.038	146.75
459.258	147.75
459.478	151.75
459.698	160.75
459.918	170.75
460.138	172.75
460.358	186.75
460.578	177.75
460.798	187.75
461.018	172.75
461.238	163.75
461.458	169.75
461.678	172.75
461.898	180.75
462.118	186.75
462.338	174.75
462.558	185.75
462.777	189.75
462.997	209.75
463.217	224.75
463.437	216.75
463.657	200.75
463.876	186.75
464.096	194.75
464.316	192.75
464.536	188.75
464.755	174.75
464.975	185.75
465.195	190.75
465.414	169.75
465.634	159.75
465.854	154.75
466.073	154.75
466.293	145.75
466.512	148.75
466.732	166.75
466.951	163.75
467.171	153.75
467.391	159.75
467.61	149.75
467.829	162.75
468.049	144.75
468.268	160.75
468.488	146.75
468.707	153.75
468.927	135.75
469.146	146.75
469.365	153.75
469.585	151.75
469.804	162.75
470.023	150.75
470.243	151.75
470.462	163.75
470.681	165.75
470.901	146.75
471.12	149.75
471.339	149.75
471.558	155.75
471.777	168.75
471.997	148.75
472.216	147.75
472.435	138.75
472.654	151.75
472.873	153.75
473.092	158.75
473.311	150.75
473.53	147.75
473.749	152.75
473.968	157.75
474.187	147.75
474.406	149.75
474.625	143.75
474.844	162.75
475.063	151.75
475.282	144.75
475.501	161.75
475.72	159.75
475.939	140.75
476.158	147.75
476.377	151.75
476.596	152.75
476.814	143.75
477.033	165.75
477.252	141.75
477.471	143.75
477.69	167.75
477.908	164.75
478.127	170.75
478.346	158.75
478.564	176.75
478.783	171.75
479.002	176.75
479.22	181.75
479.439	174.75
479.658	189.75
479.876	163.75
480.095	155.75
480.313	172.75
480.532	176.75
480.751	165.75
480.969	184.75
481.188	164.75
481.406	182.75
481.624	172.75
481.843	150.75
482.061	160.75
482.28	149.75
482.498	154.75
482.717	159.75
482.935	154.75
483.153	153.75
483.372	178.75
483.59	162.75
483.808	158.75
484.027	160.75
484.245	162.75
484.463	173.75
484.681	183.75
484.9	178.75
485.118	168.75
485.336	166.75
485.554	168.75
485.772	174.75
485.99	169.75
486.209	170.75
486.427	173.75
486.645	146.75
486.863	173.75
487.081	161.75
487.299	173.75
487.517	159.75
487.735	163.75
487.953	182.75
488.171	161.75
488.389	171.75
488.607	164.75
488.825	159.75
489.043	152.75
489.261	169.75
489.479	176.75
489.696	165.75
489.914	163.75
490.132	189.75
490.35	176.75
490.568	157.75
490.786	154.75
491.003	179.75
491.221	149.75
491.439	181.75
491.657	177.75
491.874	184.75
492.092	152.75
492.31	171.75
492.527	165.75
492.745	172.75
492.963	173.75
493.18	159.75
493.398	167.75
493.615	163.75
493.833	174.75
494.05	175.75
494.268	175.75
494.485	175.75
494.703	169.75
494.92	182.75
495.138	184.75
495.355	184.75
495.573	178.75
495.79	163.75
496.008	171.75
496.225	162.75
496.442	185.75
496.66	178.75
496.877	178.75
497.094	188.75
497.312	178.75
497.529	186.75
497.746	183.75
497.963	203.75
498.181	190.75
498.398	199.75
498.615	200.75
498.832	231.75
499.049	230.75
499.267	263.75
499.484	258.75
499.701	278.75
499.918	315.75
500.135	346.75
500.352	388.75
500.569	404.75
500.786	387.75
501.003	351.75
501.22	315.75
501.437	294.75
501.654	255.75
501.871	250.75
502.088	226.75
502.305	240.75
502.522	230.75
502.739	209.75
502.956	189.75
503.172	185.75
503.389	182.75
503.606	188.75
503.823	199.75
504.04	186.75
504.256	207.75
504.473	211.75
504.69	194.75
504.907	214.75
505.123	178.75
