Data from 17600_3_HRD10591_00049.txt Node
Date: Mon Jan 19 14:09:48 EST 2026
User: Yrep
Spectrometer: HR+D1059
Trigger mode: 1
Integration Time (sec): 1.000000E-1
Scans to average: 1
Electric dark correction enabled: true
Nonlinearity correction enabled: false
Boxcar width: 0
XAxis mode: Wavelengths
Number of Pixels in Spectrum: 2048
>>>>>Begin Spectral Data<<<<<
223.165	-6.56
223.4	-6.56
223.635	-6.56
223.869	-28.56
224.104	-28.56
224.338	-9.56
224.573	-20.56
224.808	-16.56
225.042	-0.56
225.277	5.44
225.511	-6.56
225.746	-5.56
225.98	5.44
226.215	14.44
226.449	22.44
226.683	15.44
226.918	34.44
227.152	25.44
227.387	43.44
227.621	58.44
227.856	54.44
228.09	64.44
228.324	66.44
228.559	49.44
228.793	74.44
229.027	72.44
229.262	71.44
229.496	58.44
229.73	78.44
229.964	71.44
230.199	79.44
230.433	82.44
230.667	64.44
230.901	74.44
231.136	82.44
231.37	88.44
231.604	75.44
231.838	69.44
232.072	89.44
232.306	91.44
232.541	91.44
232.775	78.44
233.009	86.44
233.243	76.44
233.477	90.44
233.711	86.44
233.945	90.44
234.179	85.44
234.413	89.44
234.647	74.44
234.881	79.44
235.115	88.44
235.349	94.44
235.583	80.44
235.817	87.44
236.051	79.44
236.285	101.44
236.519	81.44
236.753	78.44
236.987	93.44
237.221	81.44
237.455	74.44
237.689	67.44
237.922	82.44
238.156	90.44
238.39	77.44
238.624	69.44
238.858	79.44
239.091	78.44
239.325	82.44
239.559	77.44
239.793	81.44
240.027	85.44
240.26	89.44
240.494	82.44
240.728	66.44
240.961	82.44
241.195	74.44
241.429	75.44
241.662	70.44
241.896	97.44
242.13	81.44
242.363	87.44
242.597	85.44
242.83	79.44
243.064	94.44
243.298	78.44
243.531	74.44
243.765	72.44
243.998	82.44
244.232	87.44
244.465	85.44
244.699	79.44
244.932	70.44
245.166	79.44
245.399	78.44
245.633	86.44
245.866	73.44
246.099	73.44
246.333	74.44
246.566	83.44
246.8	76.44
247.033	91.44
247.266	97.44
247.5	87.44
247.733	84.44
247.966	81.44
248.2	80.44
248.433	68.44
248.666	93.44
248.899	94.44
249.133	72.44
249.366	96.44
249.599	83.44
249.832	81.44
250.066	92.44
250.299	81.44
250.532	76.44
250.765	93.44
250.998	83.44
251.231	91.44
251.465	97.44
251.698	90.44
251.931	77.44
252.164	79.44
252.397	81.44
252.63	83.44
252.863	109.44
253.096	87.44
253.329	86.44
253.562	87.44
253.795	93.44
254.028	83.44
254.261	96.44
254.494	95.44
254.727	90.44
254.96	88.44
255.193	98.44
255.426	83.44
255.659	89.44
255.892	84.44
256.124	86.44
256.357	85.44
256.59	88.44
256.823	89.44
257.056	92.44
257.289	90.44
257.521	88.44
257.754	84.44
257.987	88.44
258.22	78.44
258.452	73.44
258.685	90.44
258.918	91.44
259.151	97.44
259.383	105.44
259.616	88.44
259.849	78.44
260.081	88.44
260.314	82.44
260.547	90.44
260.779	84.44
261.012	80.44
261.244	99.44
261.477	79.44
261.71	83.44
261.942	83.44
262.175	83.44
262.407	99.44
262.64	90.44
262.872	87.44
263.105	83.44
263.337	99.44
263.57	97.44
263.802	83.44
264.035	78.44
264.267	98.44
264.499	81.44
264.732	87.44
264.964	85.44
265.197	84.44
265.429	84.44
265.661	92.44
265.894	82.44
266.126	88.44
266.358	85.44
266.591	91.44
266.823	90.44
267.055	78.44
267.287	81.44
267.52	69.44
267.752	89.44
267.984	84.44
268.216	88.44
268.448	88.44
268.681	71.44
268.913	92.44
269.145	81.44
269.377	87.44
269.609	86.44
269.841	107.44
270.073	82.44
270.306	80.44
270.538	84.44
270.77	97.44
271.002	86.44
271.234	81.44
271.466	85.44
271.698	78.44
271.93	89.44
272.162	91.44
272.394	87.44
272.626	75.44
272.858	80.44
273.09	93.44
273.322	81.44
273.553	73.44
273.785	84.44
274.017	92.44
274.249	82.44
274.481	81.44
274.713	95.44
274.945	90.44
275.176	87.44
275.408	87.44
275.64	86.44
275.872	87.44
276.104	91.44
276.335	83.44
276.567	68.44
276.799	82.44
277.031	90.44
277.262	83.44
277.494	84.44
277.726	97.44
277.957	78.44
278.189	86.44
278.421	98.44
278.652	94.44
278.884	101.44
279.115	103.44
279.347	97.44
279.579	87.44
279.81	105.44
280.042	91.44
280.273	103.44
280.505	73.44
280.736	89.44
280.968	90.44
281.199	91.44
281.431	86.44
281.662	88.44
281.894	96.44
282.125	77.44
282.356	92.44
282.588	107.44
282.819	87.44
283.051	84.44
283.282	87.44
283.513	103.44
283.745	89.44
283.976	88.44
284.207	101.44
284.439	97.44
284.67	85.44
284.901	83.44
285.132	83.44
285.364	84.44
285.595	80.44
285.826	83.44
286.057	93.44
286.288	102.44
286.52	79.44
286.751	94.44
286.982	83.44
287.213	93.44
287.444	104.44
287.675	82.44
287.906	89.44
288.138	85.44
288.369	94.44
288.6	89.44
288.831	84.44
289.062	99.44
289.293	94.44
289.524	93.44
289.755	106.44
289.986	79.44
290.217	91.44
290.448	90.44
290.679	88.44
290.91	84.44
291.141	93.44
291.371	95.44
291.602	95.44
291.833	88.44
292.064	83.44
292.295	94.44
292.526	92.44
292.757	89.44
292.987	93.44
293.218	95.44
293.449	89.44
293.68	93.44
293.91	74.44
294.141	95.44
294.372	107.44
294.603	95.44
294.833	83.44
295.064	85.44
295.295	83.44
295.525	87.44
295.756	96.44
295.987	80.44
296.217	80.44
296.448	91.44
296.679	90.44
296.909	98.44
297.14	90.44
297.37	101.44
297.601	95.44
297.831	89.44
298.062	97.44
298.292	86.44
298.523	83.44
298.753	87.44
298.984	89.44
299.214	84.44
299.445	89.44
299.675	83.44
299.905	89.44
300.136	91.44
300.366	83.44
300.597	89.44
300.827	93.44
301.057	87.44
301.288	106.44
301.518	83.44
301.748	89.44
301.979	114.44
302.209	87.44
302.439	103.44
302.669	88.44
302.9	83.44
303.13	92.44
303.36	86.44
303.59	105.44
303.82	91.44
304.051	87.44
304.281	79.44
304.511	93.44
304.741	96.44
304.971	95.44
305.201	88.44
305.431	84.44
305.661	86.44
305.891	82.44
306.121	89.44
306.352	90.44
306.582	82.44
306.812	91.44
307.042	97.44
307.272	84.44
307.502	76.44
307.731	78.44
307.961	88.44
308.191	87.44
308.421	103.44
308.651	91.44
308.881	97.44
309.111	84.44
309.341	107.44
309.571	105.44
309.8	96.44
310.03	94.44
310.26	98.44
310.49	74.44
310.72	83.44
310.949	86.44
311.179	73.44
311.409	89.44
311.639	99.44
311.868	96.44
312.098	84.44
312.328	81.44
312.557	86.44
312.787	96.44
313.017	98.44
313.246	78.44
313.476	80.44
313.706	79.44
313.935	88.44
314.165	96.44
314.394	98.44
314.624	95.44
314.853	95.44
315.083	87.44
315.312	84.44
315.542	89.44
315.771	91.44
316.001	91.44
316.23	84.44
316.46	72.44
316.689	88.44
316.919	88.44
317.148	97.44
317.377	94.44
317.607	85.44
317.836	82.44
318.065	95.44
318.295	105.44
318.524	95.44
318.753	97.44
318.983	82.44
319.212	95.44
319.441	97.44
319.67	90.44
319.9	104.44
320.129	93.44
320.358	85.44
320.587	93.44
320.816	106.44
321.046	93.44
321.275	96.44
321.504	97.44
321.733	103.44
321.962	89.44
322.191	95.44
322.42	95.44
322.649	92.44
322.878	84.44
323.108	93.44
323.337	94.44
323.566	89.44
323.795	92.44
324.024	91.44
324.253	82.44
324.482	103.44
324.71	88.44
324.939	91.44
325.168	84.44
325.397	88.44
325.626	93.44
325.855	91.44
326.084	90.44
326.313	93.44
326.542	81.44
326.77	79.44
326.999	101.44
327.228	96.44
327.457	64.44
327.686	91.44
327.914	94.44
328.143	95.44
328.372	83.44
328.6	90.44
328.829	91.44
329.058	97.44
329.287	91.44
329.515	81.44
329.744	95.44
329.972	97.44
330.201	88.44
330.43	92.44
330.658	89.44
330.887	106.44
331.115	84.44
331.344	93.44
331.572	99.44
331.801	98.44
332.03	101.44
332.258	93.44
332.486	101.44
332.715	96.44
332.943	95.44
333.172	90.44
333.4	97.44
333.629	85.44
333.857	98.44
334.085	97.44
334.314	98.44
334.542	79.44
334.771	91.44
334.999	98.44
335.227	84.44
335.455	90.44
335.684	105.44
335.912	86.44
336.14	79.44
336.369	73.44
336.597	101.44
336.825	86.44
337.053	90.44
337.281	81.44
337.51	98.44
337.738	98.44
337.966	99.44
338.194	101.44
338.422	93.44
338.65	98.44
338.878	87.44
339.106	92.44
339.334	107.44
339.562	96.44
339.79	82.44
340.018	90.44
340.246	96.44
340.474	93.44
340.702	88.44
340.93	88.44
341.158	101.44
341.386	81.44
341.614	90.44
341.842	95.44
342.07	83.44
342.298	89.44
342.526	75.44
342.754	81.44
342.981	95.44
343.209	77.44
343.437	88.44
343.665	94.44
343.893	88.44
344.12	104.44
344.348	97.44
344.576	82.44
344.804	97.44
345.031	87.44
345.259	89.44
345.487	94.44
345.714	88.44
345.942	74.44
346.17	93.44
346.397	82.44
346.625	74.44
346.853	81.44
347.08	98.44
347.308	91.44
347.535	98.44
347.763	86.44
347.99	89.44
348.218	92.44
348.445	110.44
348.673	94.44
348.9	106.44
349.128	93.44
349.355	84.44
349.583	89.44
349.81	92.44
350.037	96.44
350.265	96.44
350.492	94.44
350.72	91.44
350.947	87.44
351.174	90.44
351.402	91.44
351.629	82.44
351.856	95.44
352.083	99.44
352.311	102.44
352.538	79.44
352.765	82.44
352.992	94.44
353.22	83.44
353.447	91.44
353.674	86.44
353.901	96.44
354.128	89.44
354.355	82.44
354.583	95.44
354.81	99.44
355.037	92.44
355.264	86.44
355.491	98.44
355.718	85.44
355.945	92.44
356.172	85.44
356.399	98.44
356.626	97.44
356.853	91.44
357.08	104.44
357.307	91.44
357.534	82.44
357.761	90.44
357.988	93.44
358.215	102.44
358.441	98.44
358.668	75.44
358.895	78.44
359.122	98.44
359.349	96.44
359.576	89.44
359.802	99.44
360.029	94.44
360.256	79.44
360.483	91.44
360.709	93.44
360.936	87.44
361.163	96.44
361.39	90.44
361.616	92.44
361.843	85.44
362.07	98.44
362.296	78.44
362.523	98.44
362.749	92.44
362.976	85.44
363.203	99.44
363.429	94.44
363.656	97.44
363.882	87.44
364.109	87.44
364.335	102.44
364.562	103.44
364.788	104.44
365.015	81.44
365.241	93.44
365.468	97.44
365.694	79.44
365.92	95.44
366.147	91.44
366.373	97.44
366.599	95.44
366.826	94.44
367.052	88.44
367.278	105.44
367.505	91.44
367.731	91.44
367.957	90.44
368.184	92.44
368.41	93.44
368.636	86.44
368.862	96.44
369.089	79.44
369.315	102.44
369.541	77.44
369.767	94.44
369.993	91.44
370.219	107.44
370.445	94.44
370.672	93.44
370.898	85.44
371.124	90.44
371.35	93.44
371.576	101.44
371.802	93.44
372.028	92.44
372.254	84.44
372.48	84.44
372.706	87.44
372.932	86.44
373.158	100.44
373.384	98.44
373.61	97.44
373.835	103.44
374.061	79.44
374.287	88.44
374.513	99.44
374.739	82.44
374.965	72.44
375.191	85.44
375.416	94.44
375.642	85.44
375.868	86.44
376.094	94.44
376.319	84.44
376.545	97.44
376.771	90.44
376.997	87.44
377.222	97.44
377.448	101.44
377.674	73.44
377.899	79.44
378.125	76.44
378.35	95.44
378.576	86.44
378.802	93.44
379.027	89.44
379.253	85.44
379.478	73.44
379.704	87.44
379.929	81.44
380.155	97.44
380.38	86.44
380.606	90.44
380.831	94.44
381.057	85.44
381.282	99.44
381.507	93.44
381.733	93.44
381.958	83.44
382.184	85.44
382.409	95.44
382.634	96.44
382.86	85.44
383.085	93.44
383.31	92.44
383.535	100.44
383.761	89.44
383.986	96.44
384.211	89.44
384.436	90.44
384.662	82.44
384.887	89.44
385.112	95.44
385.337	91.44
385.562	80.44
385.787	89.44
386.013	88.44
386.238	87.44
386.463	91.44
386.688	97.44
386.913	102.44
387.138	81.44
387.363	110.44
387.588	97.44
387.813	99.44
388.038	103.44
388.263	102.44
388.488	90.44
388.713	88.44
388.938	88.44
389.163	86.44
389.387	95.44
389.612	99.44
389.837	87.44
390.062	88.44
390.287	81.44
390.512	94.44
390.736	85.44
390.961	96.44
391.186	81.44
391.411	83.44
391.636	74.44
391.86	90.44
392.085	80.44
392.31	94.44
392.534	97.44
392.759	114.44
392.984	111.44
393.208	132.44
393.433	181.44
393.658	151.44
393.882	109.44
394.107	88.44
394.331	100.44
394.556	103.44
394.78	109.44
395.005	92.44
395.229	103.44
395.454	98.44
395.678	94.44
395.903	81.44
396.127	111.44
396.352	101.44
396.576	111.44
396.801	153.44
397.025	149.44
397.249	96.44
397.474	98.44
397.698	86.44
397.922	97.44
398.147	86.44
398.371	75.44
398.595	91.44
398.82	72.44
399.044	93.44
399.268	83.44
399.492	96.44
399.717	96.44
399.941	90.44
400.165	91.44
400.389	100.44
400.613	91.44
400.837	86.44
401.062	83.44
401.286	88.44
401.51	89.44
401.734	90.44
401.958	89.44
402.182	78.44
402.406	81.44
402.63	86.44
402.854	89.44
403.078	74.44
403.302	87.44
403.526	95.44
403.75	101.44
403.974	77.44
404.198	89.44
404.422	83.44
404.645	102.44
404.869	90.44
405.093	94.44
405.317	90.44
405.541	95.44
405.765	93.44
405.988	75.44
406.212	79.44
406.436	88.44
406.66	98.44
406.883	89.44
407.107	90.44
407.331	86.44
407.555	93.44
407.778	100.44
408.002	109.44
408.226	87.44
408.449	82.44
408.673	81.44
408.896	95.44
409.12	92.44
409.344	88.44
409.567	91.44
409.791	84.44
410.014	95.44
410.238	89.44
410.461	89.44
410.685	81.44
410.908	73.44
411.132	109.44
411.355	96.44
411.578	95.44
411.802	83.44
412.025	80.44
412.249	95.44
412.472	78.44
412.695	77.44
412.919	88.44
413.142	88.44
413.365	89.44
413.589	78.44
413.812	88.44
414.035	87.44
414.258	92.44
414.482	96.44
414.705	76.44
414.928	82.44
415.151	101.44
415.374	87.44
415.597	90.44
415.821	85.44
416.044	100.44
416.267	92.44
416.49	88.44
416.713	83.44
416.936	84.44
417.159	83.44
417.382	85.44
417.605	91.44
417.828	96.44
418.051	81.44
418.274	93.44
418.497	79.44
418.72	93.44
418.943	95.44
419.166	79.44
419.389	85.44
419.611	88.44
419.834	92.44
420.057	89.44
420.28	84.44
420.503	104.44
420.726	93.44
420.948	93.44
421.171	93.44
421.394	106.44
421.617	105.44
421.839	95.44
422.062	91.44
422.285	121.44
422.507	136.44
422.73	173.44
422.953	178.44
423.175	117.44
423.398	99.44
423.621	101.44
423.843	95.44
424.066	87.44
424.288	92.44
424.511	83.44
424.733	87.44
424.956	88.44
425.178	93.44
425.401	84.44
425.623	97.44
425.846	75.44
426.068	85.44
426.291	91.44
426.513	83.44
426.735	93.44
426.958	79.44
427.18	87.44
427.402	97.44
427.625	92.44
427.847	93.44
428.069	102.44
428.292	91.44
428.514	121.44
428.736	96.44
428.958	102.44
429.181	107.44
429.403	97.44
429.625	80.44
429.847	86.44
430.069	118.44
430.292	131.44
430.514	120.44
430.736	105.44
430.958	88.44
431.18	93.44
431.402	81.44
431.624	97.44
431.846	90.44
432.068	114.44
432.29	98.44
432.512	95.44
432.734	97.44
432.956	94.44
433.178	92.44
433.4	86.44
433.622	76.44
433.844	90.44
434.066	90.44
434.287	99.44
434.509	101.44
434.731	84.44
434.953	77.44
435.175	91.44
435.397	85.44
435.618	96.44
435.84	78.44
436.062	77.44
436.284	90.44
436.505	103.44
436.727	93.44
436.949	93.44
437.17	81.44
437.392	103.44
437.614	76.44
437.835	99.44
438.057	92.44
438.278	101.44
438.5	89.44
438.721	86.44
438.943	66.44
439.165	62.44
439.386	96.44
439.608	86.44
439.829	89.44
440.05	95.44
440.272	91.44
440.493	92.44
440.715	81.44
440.936	95.44
441.158	96.44
441.379	87.44
441.6	83.44
441.822	104.44
442.043	90.44
442.264	70.44
442.486	102.44
442.707	103.44
442.928	115.44
443.149	87.44
443.371	93.44
443.592	119.44
443.813	111.44
444.034	98.44
444.255	100.44
444.476	87.44
444.698	91.44
444.919	98.44
445.14	148.44
445.361	130.44
445.582	138.44
445.803	136.44
446.024	97.44
446.245	97.44
446.466	97.44
446.687	87.44
446.908	83.44
447.129	105.44
447.35	89.44
447.571	81.44
447.792	87.44
448.013	97.44
448.234	83.44
448.455	82.44
448.675	93.44
448.896	79.44
449.117	98.44
449.338	92.44
449.559	93.44
449.779	86.44
450	74.44
450.221	82.44
450.442	90.44
450.662	77.44
450.883	80.44
451.104	92.44
451.324	96.44
451.545	97.44
451.766	92.44
451.986	106.44
452.207	80.44
452.428	91.44
452.648	98.44
452.869	97.44
453.089	78.44
453.31	72.44
453.53	89.44
453.751	95.44
453.971	81.44
454.192	98.44
454.412	105.44
454.633	81.44
454.853	86.44
455.073	92.44
455.294	83.44
455.514	102.44
455.734	95.44
455.955	87.44
456.175	83.44
456.395	79.44
456.616	96.44
456.836	95.44
457.056	88.44
457.276	82.44
457.497	95.44
457.717	76.44
457.937	96.44
458.157	99.44
458.377	96.44
458.598	88.44
458.818	94.44
459.038	81.44
459.258	82.44
459.478	79.44
459.698	102.44
459.918	90.44
460.138	97.44
460.358	98.44
460.578	111.44
460.798	98.44
461.018	91.44
461.238	95.44
461.458	85.44
461.678	82.44
461.898	95.44
462.118	89.44
462.338	93.44
462.558	99.44
462.777	91.44
462.997	84.44
463.217	82.44
463.437	84.44
463.657	79.44
463.876	89.44
464.096	85.44
464.316	95.44
464.536	81.44
464.755	104.44
464.975	79.44
465.195	79.44
465.414	75.44
465.634	86.44
465.854	82.44
466.073	87.44
466.293	95.44
466.512	85.44
466.732	78.44
466.951	100.44
467.171	87.44
467.391	95.44
467.61	87.44
467.829	93.44
468.049	90.44
468.268	82.44
468.488	91.44
468.707	92.44
468.927	80.44
469.146	77.44
469.365	79.44
469.585	82.44
469.804	88.44
470.023	98.44
470.243	88.44
470.462	90.44
470.681	98.44
470.901	80.44
471.12	87.44
471.339	84.44
471.558	80.44
471.777	71.44
471.997	90.44
472.216	99.44
472.435	85.44
472.654	89.44
472.873	91.44
473.092	92.44
473.311	87.44
473.53	76.44
473.749	97.44
473.968	96.44
474.187	99.44
474.406	74.44
474.625	79.44
474.844	85.44
475.063	84.44
475.282	95.44
475.501	93.44
475.72	102.44
475.939	88.44
476.158	74.44
476.377	84.44
476.596	82.44
476.814	81.44
477.033	83.44
477.252	84.44
477.471	93.44
477.69	91.44
477.908	95.44
478.127	88.44
478.346	97.44
478.564	79.44
478.783	75.44
479.002	90.44
479.22	91.44
479.439	93.44
479.658	95.44
479.876	92.44
480.095	90.44
480.313	90.44
480.532	95.44
480.751	84.44
480.969	87.44
481.188	105.44
481.406	91.44
481.624	99.44
481.843	86.44
482.061	92.44
482.28	84.44
482.498	94.44
482.717	76.44
482.935	93.44
483.153	90.44
483.372	87.44
483.59	97.44
483.808	87.44
484.027	103.44
484.245	100.44
484.463	92.44
484.681	96.44
484.9	87.44
485.118	83.44
485.336	91.44
485.554	90.44
485.772	95.44
485.99	79.44
486.209	83.44
486.427	94.44
486.645	75.44
486.863	89.44
487.081	91.44
487.299	77.44
487.517	89.44
487.735	95.44
487.953	117.44
488.171	112.44
488.389	99.44
488.607	103.44
488.825	82.44
489.043	79.44
489.261	95.44
489.479	78.44
489.696	87.44
489.914	89.44
490.132	79.44
490.35	93.44
490.568	89.44
490.786	82.44
491.003	94.44
491.221	91.44
491.439	89.44
491.657	78.44
491.874	90.44
492.092	93.44
492.31	84.44
492.527	97.44
492.745	87.44
492.963	98.44
493.18	80.44
493.398	81.44
493.615	89.44
493.833	79.44
494.05	91.44
494.268	87.44
494.485	77.44
494.703	81.44
494.92	88.44
495.138	92.44
495.355	86.44
495.573	87.44
495.79	97.44
496.008	95.44
496.225	83.44
496.442	90.44
496.66	101.44
496.877	89.44
497.094	91.44
497.312	89.44
497.529	81.44
497.746	87.44
497.963	91.44
498.181	91.44
498.398	94.44
498.615	96.44
498.832	102.44
499.049	70.44
499.267	86.44
499.484	90.44
499.701	88.44
499.918	101.44
500.135	101.44
500.352	87.44
500.569	89.44
500.786	87.44
501.003	93.44
501.22	85.44
501.437	85.44
501.654	98.44
501.871	97.44
502.088	97.44
502.305	98.44
502.522	92.44
502.739	90.44
502.956	81.44
503.172	92.44
503.389	90.44
503.606	97.44
503.823	94.44
504.04	108.44
504.256	109.44
504.473	92.44
504.69	87.44
504.907	78.44
505.123	96.44
505.34	93.44
505.557	85.44
505.773	88.44
505.99	88.44
506.207	102.44
506.423	80.44
506.64	95.44
506.856	82.44
507.073	90.44
507.289	91.44
507.506	83.44
507.722	81.44
507.939	90.44
508.155	79.44
508.372	89.44
508.588	85.44
508.805	89.44
509.021	88.44
509.238	89.44
509.454	83.44
509.67	81.44
509.887	88.44
510.103	89.44
510.319	82.44
510.536	89.44
510.752	89.44
510.968	86.44
511.184	94.44
511.401	69.44
511.617	90.44
511.833	83.44
512.049	84.44
512.265	97.44
512.481	98.44
512.698	96.44
512.914	89.44
513.13	93.44
513.346	83.44
513.562	92.44
513.778	87.44
513.994	104.44
514.21	83.44
514.426	99.44
514.642	83.44
514.858	88.44
515.074	85.44
515.29	86.44
515.506	94.44
515.721	83.44
515.937	101.44
516.153	94.44
516.369	98.44
516.585	79.44
516.801	91.44
517.016	103.44
517.232	90.44
517.448	92.44
517.664	91.44
517.879	101.44
518.095	101.44
518.311	88.44
