Data from 17600_3_HRD10591_00024.txt Node
Date: Mon Jan 19 14:09:35 EST 2026
User: Yrep
Spectrometer: HR+D1059
Trigger mode: 1
Integration Time (sec): 1.000000E-1
Scans to average: 1
Electric dark correction enabled: true
Nonlinearity correction enabled: false
Boxcar width: 0
XAxis mode: Wavelengths
Number of Pixels in Spectrum: 2048
>>>>>Begin Spectral Data<<<<<
223.165	-14.94
223.4	-14.94
223.635	-14.94
223.869	-23.94
224.104	-8.94
224.338	-11.94
224.573	-9.94
224.808	-5.94
225.042	-20.94
225.277	-14.94
225.511	7.06
225.746	7.06
225.98	-10.94
226.215	7.06
226.449	11.06
226.683	22.06
226.918	38.06
227.152	30.06
227.387	30.06
227.621	43.06
227.856	43.06
228.09	52.06
228.324	59.06
228.559	55.06
228.793	51.06
229.027	73.06
229.262	62.06
229.496	51.06
229.73	71.06
229.964	77.06
230.199	84.06
230.433	63.06
230.667	84.06
230.901	75.06
231.136	80.06
231.37	61.06
231.604	76.06
231.838	80.06
232.072	89.06
232.306	86.06
232.541	89.06
232.775	72.06
233.009	91.06
233.243	77.06
233.477	80.06
233.711	89.06
233.945	81.06
234.179	70.06
234.413	72.06
234.647	81.06
234.881	86.06
235.115	86.06
235.349	80.06
235.583	76.06
235.817	77.06
236.051	66.06
236.285	90.06
236.519	75.06
236.753	68.06
236.987	70.06
237.221	82.06
237.455	70.06
237.689	70.06
237.922	85.06
238.156	95.06
238.39	75.06
238.624	85.06
238.858	87.06
239.091	72.06
239.325	80.06
239.559	72.06
239.793	78.06
240.027	86.06
240.26	87.06
240.494	74.06
240.728	73.06
240.961	79.06
241.195	87.06
241.429	71.06
241.662	65.06
241.896	77.06
242.13	76.06
242.363	71.06
242.597	66.06
242.83	67.06
243.064	74.06
243.298	74.06
243.531	80.06
243.765	58.06
243.998	73.06
244.232	79.06
244.465	81.06
244.699	79.06
244.932	83.06
245.166	69.06
245.399	71.06
245.633	67.06
245.866	96.06
246.099	80.06
246.333	82.06
246.566	82.06
246.8	79.06
247.033	79.06
247.266	76.06
247.5	74.06
247.733	72.06
247.966	81.06
248.2	80.06
248.433	80.06
248.666	81.06
248.899	74.06
249.133	77.06
249.366	92.06
249.599	81.06
249.832	68.06
250.066	80.06
250.299	84.06
250.532	84.06
250.765	73.06
250.998	83.06
251.231	81.06
251.465	85.06
251.698	71.06
251.931	89.06
252.164	93.06
252.397	82.06
252.63	74.06
252.863	68.06
253.096	82.06
253.329	83.06
253.562	75.06
253.795	73.06
254.028	76.06
254.261	83.06
254.494	72.06
254.727	75.06
254.96	72.06
255.193	79.06
255.426	82.06
255.659	76.06
255.892	75.06
256.124	86.06
256.357	80.06
256.59	82.06
256.823	72.06
257.056	56.06
257.289	71.06
257.521	90.06
257.754	80.06
257.987	80.06
258.22	79.06
258.452	88.06
258.685	80.06
258.918	90.06
259.151	79.06
259.383	70.06
259.616	78.06
259.849	89.06
260.081	86.06
260.314	83.06
260.547	90.06
260.779	68.06
261.012	72.06
261.244	72.06
261.477	67.06
261.71	66.06
261.942	65.06
262.175	91.06
262.407	81.06
262.64	77.06
262.872	76.06
263.105	84.06
263.337	92.06
263.57	87.06
263.802	68.06
264.035	87.06
264.267	76.06
264.499	66.06
264.732	80.06
264.964	75.06
265.197	68.06
265.429	64.06
265.661	84.06
265.894	82.06
266.126	80.06
266.358	87.06
266.591	75.06
266.823	82.06
267.055	72.06
267.287	80.06
267.52	78.06
267.752	84.06
267.984	70.06
268.216	80.06
268.448	85.06
268.681	83.06
268.913	87.06
269.145	88.06
269.377	82.06
269.609	74.06
269.841	82.06
270.073	81.06
270.306	72.06
270.538	97.06
270.77	80.06
271.002	87.06
271.234	74.06
271.466	80.06
271.698	102.06
271.93	77.06
272.162	68.06
272.394	95.06
272.626	86.06
272.858	86.06
273.09	78.06
273.322	90.06
273.553	77.06
273.785	75.06
274.017	97.06
274.249	78.06
274.481	80.06
274.713	93.06
274.945	80.06
275.176	83.06
275.408	84.06
275.64	85.06
275.872	70.06
276.104	83.06
276.335	73.06
276.567	86.06
276.799	78.06
277.031	91.06
277.262	78.06
277.494	85.06
277.726	77.06
277.957	74.06
278.189	79.06
278.421	82.06
278.652	82.06
278.884	87.06
279.115	84.06
279.347	97.06
279.579	76.06
279.81	84.06
280.042	71.06
280.273	78.06
280.505	83.06
280.736	72.06
280.968	84.06
281.199	85.06
281.431	92.06
281.662	87.06
281.894	74.06
282.125	71.06
282.356	79.06
282.588	88.06
282.819	97.06
283.051	74.06
283.282	84.06
283.513	90.06
283.745	97.06
283.976	81.06
284.207	91.06
284.439	77.06
284.67	62.06
284.901	88.06
285.132	80.06
285.364	99.06
285.595	94.06
285.826	79.06
286.057	97.06
286.288	73.06
286.52	81.06
286.751	82.06
286.982	74.06
287.213	72.06
287.444	83.06
287.675	78.06
287.906	89.06
288.138	82.06
288.369	86.06
288.6	92.06
288.831	76.06
289.062	88.06
289.293	88.06
289.524	80.06
289.755	87.06
289.986	83.06
290.217	90.06
290.448	83.06
290.679	97.06
290.91	93.06
291.141	84.06
291.371	83.06
291.602	93.06
291.833	81.06
292.064	76.06
292.295	83.06
292.526	57.06
292.757	76.06
292.987	92.06
293.218	94.06
293.449	88.06
293.68	70.06
293.91	84.06
294.141	88.06
294.372	82.06
294.603	92.06
294.833	85.06
295.064	86.06
295.295	80.06
295.525	86.06
295.756	92.06
295.987	82.06
296.217	85.06
296.448	88.06
296.679	93.06
296.909	88.06
297.14	88.06
297.37	93.06
297.601	104.06
297.831	83.06
298.062	72.06
298.292	70.06
298.523	87.06
298.753	76.06
298.984	90.06
299.214	90.06
299.445	89.06
299.675	95.06
299.905	83.06
300.136	104.06
300.366	80.06
300.597	91.06
300.827	85.06
301.057	81.06
301.288	94.06
301.518	95.06
301.748	96.06
301.979	103.06
302.209	87.06
302.439	90.06
302.669	79.06
302.9	74.06
303.13	84.06
303.36	72.06
303.59	91.06
303.82	80.06
304.051	100.06
304.281	87.06
304.511	82.06
304.741	78.06
304.971	94.06
305.201	79.06
305.431	79.06
305.661	83.06
305.891	87.06
306.121	94.06
306.352	93.06
306.582	90.06
306.812	83.06
307.042	87.06
307.272	82.06
307.502	88.06
307.731	87.06
307.961	85.06
308.191	97.06
308.421	94.06
308.651	86.06
308.881	97.06
309.111	95.06
309.341	95.06
309.571	102.06
309.8	82.06
310.03	77.06
310.26	80.06
310.49	80.06
310.72	97.06
310.949	86.06
311.179	94.06
311.409	98.06
311.639	68.06
311.868	89.06
312.098	83.06
312.328	96.06
312.557	82.06
312.787	66.06
313.017	94.06
313.246	77.06
313.476	80.06
313.706	72.06
313.935	84.06
314.165	76.06
314.394	96.06
314.624	94.06
314.853	87.06
315.083	85.06
315.312	88.06
315.542	93.06
315.771	92.06
316.001	110.06
316.23	85.06
316.46	103.06
316.689	92.06
316.919	89.06
317.148	81.06
317.377	92.06
317.607	99.06
317.836	87.06
318.065	111.06
318.295	88.06
318.524	94.06
318.753	91.06
318.983	82.06
319.212	84.06
319.441	87.06
319.67	98.06
319.9	88.06
320.129	80.06
320.358	82.06
320.587	80.06
320.816	92.06
321.046	84.06
321.275	90.06
321.504	92.06
321.733	99.06
321.962	66.06
322.191	76.06
322.42	86.06
322.649	88.06
322.878	83.06
323.108	79.06
323.337	92.06
323.566	90.06
323.795	96.06
324.024	88.06
324.253	91.06
324.482	79.06
324.71	84.06
324.939	98.06
325.168	87.06
325.397	85.06
325.626	96.06
325.855	62.06
326.084	82.06
326.313	90.06
326.542	90.06
326.77	88.06
326.999	86.06
327.228	98.06
327.457	78.06
327.686	89.06
327.914	83.06
328.143	94.06
328.372	98.06
328.6	87.06
328.829	81.06
329.058	72.06
329.287	71.06
329.515	76.06
329.744	102.06
329.972	83.06
330.201	97.06
330.43	88.06
330.658	90.06
330.887	60.06
331.115	85.06
331.344	95.06
331.572	96.06
331.801	91.06
332.03	95.06
332.258	86.06
332.486	63.06
332.715	84.06
332.943	72.06
333.172	98.06
333.4	89.06
333.629	98.06
333.857	74.06
334.085	95.06
334.314	100.06
334.542	88.06
334.771	86.06
334.999	97.06
335.227	89.06
335.455	90.06
335.684	97.06
335.912	92.06
336.14	93.06
336.369	98.06
336.597	73.06
336.825	80.06
337.053	78.06
337.281	91.06
337.51	99.06
337.738	96.06
337.966	85.06
338.194	90.06
338.422	83.06
338.65	90.06
338.878	94.06
339.106	88.06
339.334	98.06
339.562	92.06
339.79	95.06
340.018	91.06
340.246	97.06
340.474	88.06
340.702	98.06
340.93	96.06
341.158	92.06
341.386	75.06
341.614	96.06
341.842	98.06
342.07	92.06
342.298	88.06
342.526	76.06
342.754	95.06
342.981	98.06
343.209	82.06
343.437	94.06
343.665	81.06
343.893	88.06
344.12	87.06
344.348	91.06
344.576	84.06
344.804	93.06
345.031	73.06
345.259	89.06
345.487	71.06
345.714	93.06
345.942	77.06
346.17	78.06
346.397	81.06
346.625	99.06
346.853	89.06
347.08	84.06
347.308	96.06
347.535	89.06
347.763	89.06
347.99	92.06
348.218	91.06
348.445	92.06
348.673	95.06
348.9	80.06
349.128	83.06
349.355	89.06
349.583	90.06
349.81	95.06
350.037	97.06
350.265	90.06
350.492	74.06
350.72	94.06
350.947	88.06
351.174	80.06
351.402	91.06
351.629	88.06
351.856	98.06
352.083	81.06
352.311	81.06
352.538	82.06
352.765	89.06
352.992	85.06
353.22	96.06
353.447	80.06
353.674	75.06
353.901	75.06
354.128	90.06
354.355	85.06
354.583	84.06
354.81	94.06
355.037	73.06
355.264	80.06
355.491	88.06
355.718	81.06
355.945	79.06
356.172	83.06
356.399	87.06
356.626	76.06
356.853	96.06
357.08	102.06
357.307	90.06
357.534	69.06
357.761	92.06
357.988	110.06
358.215	95.06
358.441	86.06
358.668	105.06
358.895	92.06
359.122	92.06
359.349	85.06
359.576	81.06
359.802	72.06
360.029	68.06
360.256	82.06
360.483	82.06
360.709	79.06
360.936	95.06
361.163	102.06
361.39	89.06
361.616	80.06
361.843	97.06
362.07	94.06
362.296	106.06
362.523	111.06
362.749	104.06
362.976	119.06
363.203	131.06
363.429	104.06
363.656	87.06
363.882	103.06
364.109	120.06
364.335	136.06
364.562	150.06
364.788	120.06
365.015	88.06
365.241	97.06
365.468	94.06
365.694	87.06
365.92	82.06
366.147	90.06
366.373	83.06
366.599	96.06
366.826	90.06
367.052	83.06
367.278	95.06
367.505	84.06
367.731	94.06
367.957	83.06
368.184	88.06
368.41	95.06
368.636	92.06
368.862	96.06
369.089	80.06
369.315	88.06
369.541	97.06
369.767	88.06
369.993	90.06
370.219	86.06
370.445	90.06
370.672	96.06
370.898	100.06
371.124	80.06
371.35	86.06
371.576	96.06
371.802	100.06
372.028	106.06
372.254	100.06
372.48	98.06
372.706	94.06
372.932	93.06
373.158	91.06
373.384	98.06
373.61	120.06
373.835	122.06
374.061	112.06
374.287	89.06
374.513	91.06
374.739	115.06
374.965	98.06
375.191	98.06
375.416	103.06
375.642	101.06
375.868	92.06
376.094	97.06
376.319	92.06
376.545	82.06
376.771	87.06
376.997	96.06
377.222	79.06
377.448	67.06
377.674	88.06
377.899	78.06
378.125	92.06
378.35	94.06
378.576	99.06
378.802	80.06
379.027	88.06
379.253	97.06
379.478	86.06
379.704	78.06
379.929	79.06
380.155	74.06
380.38	78.06
380.606	79.06
380.831	91.06
381.057	91.06
381.282	78.06
381.507	112.06
381.733	100.06
381.958	97.06
382.184	102.06
382.409	105.06
382.634	87.06
382.86	94.06
383.085	95.06
383.31	111.06
383.535	95.06
383.761	96.06
383.986	98.06
384.211	95.06
384.436	84.06
384.662	104.06
384.887	95.06
385.112	108.06
385.337	77.06
385.562	86.06
385.787	106.06
386.013	99.06
386.238	87.06
386.463	96.06
386.688	103.06
386.913	102.06
387.138	96.06
387.363	95.06
387.588	99.06
387.813	100.06
388.038	84.06
388.263	102.06
388.488	101.06
388.713	103.06
388.938	99.06
389.163	86.06
389.387	91.06
389.612	82.06
389.837	90.06
390.062	87.06
390.287	100.06
390.512	89.06
390.736	68.06
390.961	95.06
391.186	97.06
391.411	88.06
391.636	91.06
391.86	86.06
392.085	94.06
392.31	124.06
392.534	120.06
392.759	118.06
392.984	183.06
393.208	313.06
393.433	466.06
393.658	348.06
393.882	177.06
394.107	113.06
394.331	118.06
394.556	139.06
394.78	112.06
395.005	103.06
395.229	106.06
395.454	87.06
395.678	111.06
395.903	129.06
396.127	183.06
396.352	181.06
396.576	205.06
396.801	318.06
397.025	357.06
397.249	202.06
397.474	126.06
397.698	110.06
397.922	91.06
398.147	92.06
398.371	98.06
398.595	64.06
398.82	89.06
399.044	100.06
399.268	76.06
399.492	81.06
399.717	104.06
399.941	81.06
400.165	81.06
400.389	92.06
400.613	86.06
400.837	87.06
401.062	77.06
401.286	75.06
401.51	88.06
401.734	96.06
401.958	80.06
402.182	83.06
402.406	90.06
402.63	95.06
402.854	82.06
403.078	98.06
403.302	91.06
403.526	86.06
403.75	92.06
403.974	90.06
404.198	75.06
404.422	101.06
404.645	114.06
404.869	95.06
405.093	89.06
405.317	87.06
405.541	87.06
405.765	89.06
405.988	106.06
406.212	82.06
406.436	86.06
406.66	94.06
406.883	77.06
407.107	96.06
407.331	88.06
407.555	94.06
407.778	124.06
408.002	138.06
408.226	93.06
408.449	69.06
408.673	85.06
408.896	98.06
409.12	87.06
409.344	94.06
409.567	105.06
409.791	103.06
410.014	101.06
410.238	107.06
410.461	90.06
410.685	88.06
410.908	88.06
411.132	101.06
411.355	103.06
411.578	92.06
411.802	97.06
412.025	79.06
412.249	73.06
412.472	89.06
412.695	86.06
412.919	76.06
413.142	90.06
413.365	87.06
413.589	86.06
413.812	100.06
414.035	83.06
414.258	100.06
414.482	81.06
414.705	88.06
414.928	84.06
415.151	100.06
415.374	95.06
415.597	79.06
415.821	78.06
416.044	113.06
416.267	71.06
416.49	88.06
416.713	88.06
416.936	94.06
417.159	84.06
417.382	80.06
417.605	90.06
417.828	96.06
418.051	82.06
418.274	100.06
418.497	88.06
418.72	84.06
418.943	83.06
419.166	94.06
419.389	85.06
419.611	90.06
419.834	101.06
420.057	89.06
420.28	87.06
420.503	95.06
420.726	89.06
420.948	90.06
421.171	102.06
421.394	119.06
421.617	144.06
421.839	142.06
422.062	150.06
422.285	215.06
422.507	359.06
422.73	529.06
422.953	468.06
423.175	249.06
423.398	148.06
423.621	124.06
423.843	120.06
424.066	104.06
424.288	90.06
424.511	106.06
424.733	104.06
424.956	99.06
425.178	88.06
425.401	75.06
425.623	82.06
425.846	86.06
426.068	91.06
426.291	100.06
426.513	88.06
426.735	107.06
426.958	95.06
427.18	104.06
427.402	95.06
427.625	95.06
427.847	111.06
428.069	117.06
428.292	138.06
428.514	141.06
428.736	135.06
428.958	144.06
429.181	139.06
429.403	99.06
429.625	99.06
429.847	132.06
430.069	175.06
430.292	210.06
430.514	188.06
430.736	127.06
430.958	148.06
431.18	118.06
431.402	86.06
431.624	103.06
431.846	135.06
432.068	156.06
432.29	127.06
432.512	96.06
432.734	90.06
432.956	81.06
433.178	83.06
433.4	71.06
433.622	90.06
433.844	82.06
434.066	86.06
434.287	88.06
434.509	76.06
434.731	89.06
434.953	90.06
435.175	75.06
435.397	84.06
435.618	100.06
435.84	97.06
436.062	106.06
436.284	94.06
436.505	93.06
436.727	76.06
436.949	96.06
437.17	86.06
437.392	94.06
437.614	90.06
437.835	82.06
438.057	90.06
438.278	103.06
438.5	100.06
438.721	97.06
438.943	77.06
439.165	90.06
439.386	92.06
439.608	88.06
439.829	83.06
440.05	83.06
440.272	77.06
440.493	79.06
440.715	89.06
440.936	82.06
441.158	97.06
441.379	97.06
441.6	86.06
441.822	99.06
442.043	104.06
442.264	110.06
442.486	152.06
442.707	192.06
442.928	137.06
443.149	104.06
443.371	171.06
443.592	292.06
443.813	263.06
444.034	119.06
444.255	98.06
444.476	91.06
444.698	96.06
444.919	92.06
445.14	198.06
445.361	226.06
445.582	354.06
445.803	299.06
446.024	137.06
446.245	116.06
446.466	100.06
446.687	80.06
446.908	100.06
447.129	93.06
447.35	84.06
447.571	85.06
447.792	84.06
448.013	87.06
448.234	88.06
448.455	89.06
448.675	100.06
448.896	89.06
449.117	95.06
449.338	95.06
449.559	87.06
449.779	97.06
450	74.06
450.221	83.06
450.442	76.06
450.662	89.06
450.883	95.06
451.104	99.06
451.324	83.06
451.545	92.06
451.766	71.06
451.986	90.06
452.207	80.06
452.428	97.06
452.648	92.06
452.869	123.06
453.089	80.06
453.31	96.06
453.53	103.06
453.751	103.06
453.971	79.06
454.192	79.06
454.412	92.06
454.633	100.06
454.853	86.06
455.073	90.06
455.294	106.06
455.514	100.06
455.734	91.06
455.955	87.06
456.175	83.06
456.395	86.06
456.616	97.06
456.836	99.06
457.056	83.06
457.276	89.06
457.497	90.06
457.717	98.06
457.937	106.06
458.157	130.06
458.377	139.06
458.598	138.06
458.818	144.06
459.038	97.06
459.258	100.06
459.478	70.06
459.698	84.06
459.918	96.06
460.138	91.06
460.358	90.06
460.578	115.06
460.798	150.06
461.018	125.06
461.238	100.06
461.458	90.06
461.678	95.06
461.898	101.06
462.118	97.06
462.338	83.06
462.558	83.06
462.777	91.06
462.997	95.06
463.217	84.06
463.437	87.06
463.657	80.06
463.876	74.06
464.096	91.06
464.316	86.06
464.536	88.06
464.755	75.06
464.975	79.06
465.195	89.06
465.414	85.06
465.634	93.06
465.854	81.06
466.073	95.06
466.293	90.06
466.512	99.06
466.732	76.06
466.951	77.06
467.171	104.06
467.391	95.06
467.61	79.06
467.829	92.06
468.049	89.06
468.268	95.06
468.488	86.06
468.707	99.06
468.927	88.06
469.146	86.06
469.365	83.06
469.585	88.06
469.804	99.06
470.023	94.06
470.243	87.06
470.462	81.06
470.681	84.06
470.901	92.06
471.12	81.06
471.339	91.06
471.558	101.06
471.777	82.06
471.997	79.06
472.216	88.06
472.435	78.06
472.654	88.06
472.873	90.06
473.092	91.06
473.311	92.06
473.53	87.06
473.749	99.06
473.968	102.06
474.187	95.06
474.406	89.06
474.625	76.06
474.844	95.06
475.063	92.06
475.282	90.06
475.501	87.06
475.72	101.06
475.939	78.06
476.158	89.06
476.377	89.06
476.596	98.06
476.814	79.06
477.033	75.06
477.252	82.06
477.471	82.06
477.69	90.06
477.908	84.06
478.127	95.06
478.346	98.06
478.564	90.06
478.783	66.06
479.002	93.06
479.22	95.06
479.439	83.06
479.658	90.06
479.876	89.06
480.095	91.06
480.313	75.06
480.532	83.06
480.751	85.06
480.969	97.06
481.188	87.06
481.406	123.06
481.624	94.06
481.843	88.06
482.061	74.06
482.28	80.06
482.498	90.06
482.717	83.06
482.935	98.06
483.153	80.06
483.372	97.06
483.59	94.06
483.808	94.06
484.027	78.06
484.245	110.06
484.463	85.06
484.681	100.06
484.9	97.06
485.118	106.06
485.336	89.06
485.554	87.06
485.772	83.06
485.99	95.06
486.209	82.06
486.427	99.06
486.645	101.06
486.863	100.06
487.081	98.06
487.299	100.06
487.517	123.06
487.735	114.06
487.953	199.06
488.171	165.06
488.389	112.06
488.607	99.06
488.825	99.06
489.043	86.06
489.261	91.06
489.479	96.06
489.696	96.06
489.914	96.06
490.132	92.06
490.35	111.06
490.568	95.06
490.786	79.06
491.003	86.06
491.221	101.06
491.439	97.06
491.657	95.06
491.874	112.06
492.092	105.06
492.31	105.06
492.527	90.06
492.745	89.06
492.963	81.06
493.18	104.06
493.398	88.06
493.615	89.06
493.833	95.06
494.05	90.06
494.268	88.06
494.485	98.06
494.703	97.06
494.92	94.06
495.138	92.06
495.355	81.06
495.573	92.06
495.79	84.06
496.008	107.06
496.225	106.06
496.442	107.06
496.66	96.06
496.877	96.06
497.094	89.06
497.312	98.06
497.529	66.06
497.746	95.06
497.963	81.06
498.181	74.06
498.398	100.06
498.615	105.06
498.832	90.06
499.049	84.06
499.267	97.06
499.484	95.06
499.701	84.06
499.918	99.06
500.135	104.06
500.352	98.06
500.569	84.06
500.786	111.06
501.003	92.06
501.22	86.06
501.437	100.06
501.654	90.06
501.871	89.06
502.088	105.06
502.305	98.06
502.522	91.06
502.739	109.06
502.956	91.06
503.172	87.06
503.389	85.06
503.606	89.06
503.823	94.06
504.04	102.06
504.256	137.06
504.473	140.06
504.69	104.06
504.907	110.06
505.123	92.06
505.34	83.06
505.557	83.06
505.773	76.06
505.99	94.06
506.207	96.06
506.423	88.06
506.64	84.06
506.856	83.06
507.073	102.06
507.289	98.06
507.506	88.06
507.722	86.06
507.939	89.06
508.155	80.06
508.372	100.06
508.588	80.06
508.805	86.06
509.021	90.06
509.238	71.06
509.454	92.06
509.67	83.06
509.887	92.06
510.103	96.06
510.319	102.06
510.536	102.06
510.752	94.06
510.968	87.06
511.184	85.06
511.401	86.06
511.617	85.06
511.833	86.06
512.049	100.06
512.265	94.06
512.481	101.06
512.698	114.06
512.914	86.06
513.13	77.06
513.346	96.06
513.562	98.06
513.778	97.06
513.994	90.06
514.21	89.06
514.426	87.06
514.642	107.06
514.858	96.06
515.074	82.06
515.29	97.06
515.506	94.06
515.721	93.06
515.937	87.06
516.153	82.06
516.369	75.06
516.585	85.06
516.801	98.06
517.016	88.06
517.232	90.06
