Data from 17600_3_HRD10591_00043.txt Node
Date: Mon Jan 19 14:09:45 EST 2026
User: Yrep
Spectrometer: HR+D1059
Trigger mode: 1
Integration Time (sec): 1.000000E-1
Scans to average: 1
Electric dark correction enabled: true
Nonlinearity correction enabled: false
Boxcar width: 0
XAxis mode: Wavelengths
Number of Pixels in Spectrum: 2048
>>>>>Begin Spectral Data<<<<<
223.165	-14.69
223.4	-14.69
223.635	-14.69
223.869	-28.69
224.104	-8.69
224.338	-21.69
224.573	-7.69
224.808	-13.69
225.042	-19.69
225.277	-11.69
225.511	-0.69
225.746	-1.69
225.98	5.31
226.215	17.31
226.449	20.31
226.683	15.31
226.918	42.31
227.152	28.31
227.387	37.31
227.621	32.31
227.856	40.31
228.09	49.31
228.324	63.31
228.559	45.31
228.793	60.31
229.027	74.31
229.262	64.31
229.496	62.31
229.73	69.31
229.964	84.31
230.199	59.31
230.433	81.31
230.667	79.31
230.901	80.31
231.136	92.31
231.37	79.31
231.604	90.31
231.838	87.31
232.072	93.31
232.306	89.31
232.541	76.31
232.775	93.31
233.009	90.31
233.243	74.31
233.477	67.31
233.711	80.31
233.945	78.31
234.179	82.31
234.413	93.31
234.647	73.31
234.881	79.31
235.115	84.31
235.349	83.31
235.583	85.31
235.817	88.31
236.051	76.31
236.285	74.31
236.519	77.31
236.753	82.31
236.987	74.31
237.221	78.31
237.455	81.31
237.689	77.31
237.922	79.31
238.156	84.31
238.39	84.31
238.624	79.31
238.858	76.31
239.091	88.31
239.325	75.31
239.559	76.31
239.793	74.31
240.027	92.31
240.26	78.31
240.494	83.31
240.728	73.31
240.961	66.31
241.195	86.31
241.429	84.31
241.662	61.31
241.896	85.31
242.13	79.31
242.363	77.31
242.597	86.31
242.83	86.31
243.064	87.31
243.298	73.31
243.531	80.31
243.765	84.31
243.998	66.31
244.232	86.31
244.465	81.31
244.699	78.31
244.932	70.31
245.166	73.31
245.399	88.31
245.633	84.31
245.866	74.31
246.099	69.31
246.333	82.31
246.566	101.31
246.8	80.31
247.033	94.31
247.266	89.31
247.5	82.31
247.733	94.31
247.966	78.31
248.2	83.31
248.433	90.31
248.666	72.31
248.899	76.31
249.133	74.31
249.366	89.31
249.599	96.31
249.832	87.31
250.066	90.31
250.299	79.31
250.532	76.31
250.765	82.31
250.998	91.31
251.231	76.31
251.465	85.31
251.698	88.31
251.931	66.31
252.164	88.31
252.397	70.31
252.63	81.31
252.863	75.31
253.096	72.31
253.329	86.31
253.562	83.31
253.795	91.31
254.028	78.31
254.261	90.31
254.494	85.31
254.727	87.31
254.96	76.31
255.193	72.31
255.426	85.31
255.659	84.31
255.892	89.31
256.124	85.31
256.357	83.31
256.59	82.31
256.823	82.31
257.056	100.31
257.289	87.31
257.521	80.31
257.754	86.31
257.987	80.31
258.22	88.31
258.452	73.31
258.685	78.31
258.918	81.31
259.151	87.31
259.383	91.31
259.616	79.31
259.849	86.31
260.081	64.31
260.314	71.31
260.547	76.31
260.779	74.31
261.012	85.31
261.244	66.31
261.477	96.31
261.71	91.31
261.942	109.31
262.175	88.31
262.407	93.31
262.64	81.31
262.872	82.31
263.105	82.31
263.337	99.31
263.57	83.31
263.802	70.31
264.035	77.31
264.267	83.31
264.499	87.31
264.732	94.31
264.964	94.31
265.197	86.31
265.429	68.31
265.661	72.31
265.894	76.31
266.126	84.31
266.358	91.31
266.591	78.31
266.823	84.31
267.055	94.31
267.287	88.31
267.52	86.31
267.752	86.31
267.984	91.31
268.216	79.31
268.448	85.31
268.681	78.31
268.913	77.31
269.145	88.31
269.377	65.31
269.609	81.31
269.841	81.31
270.073	97.31
270.306	90.31
270.538	85.31
270.77	86.31
271.002	71.31
271.234	84.31
271.466	71.31
271.698	78.31
271.93	75.31
272.162	77.31
272.394	89.31
272.626	95.31
272.858	94.31
273.09	84.31
273.322	99.31
273.553	78.31
273.785	89.31
274.017	80.31
274.249	77.31
274.481	77.31
274.713	77.31
274.945	78.31
275.176	84.31
275.408	94.31
275.64	82.31
275.872	84.31
276.104	85.31
276.335	84.31
276.567	78.31
276.799	75.31
277.031	89.31
277.262	94.31
277.494	91.31
277.726	87.31
277.957	79.31
278.189	90.31
278.421	68.31
278.652	89.31
278.884	93.31
279.115	85.31
279.347	70.31
279.579	80.31
279.81	76.31
280.042	84.31
280.273	77.31
280.505	74.31
280.736	76.31
280.968	86.31
281.199	84.31
281.431	87.31
281.662	79.31
281.894	88.31
282.125	76.31
282.356	75.31
282.588	73.31
282.819	83.31
283.051	94.31
283.282	84.31
283.513	76.31
283.745	87.31
283.976	88.31
284.207	75.31
284.439	87.31
284.67	82.31
284.901	88.31
285.132	81.31
285.364	89.31
285.595	85.31
285.826	96.31
286.057	84.31
286.288	83.31
286.52	96.31
286.751	89.31
286.982	91.31
287.213	90.31
287.444	91.31
287.675	72.31
287.906	82.31
288.138	99.31
288.369	85.31
288.6	85.31
288.831	77.31
289.062	77.31
289.293	92.31
289.524	88.31
289.755	85.31
289.986	92.31
290.217	100.31
290.448	78.31
290.679	91.31
290.91	92.31
291.141	97.31
291.371	78.31
291.602	84.31
291.833	101.31
292.064	91.31
292.295	84.31
292.526	73.31
292.757	86.31
292.987	82.31
293.218	91.31
293.449	85.31
293.68	93.31
293.91	97.31
294.141	72.31
294.372	85.31
294.603	98.31
294.833	84.31
295.064	76.31
295.295	78.31
295.525	71.31
295.756	83.31
295.987	84.31
296.217	91.31
296.448	86.31
296.679	81.31
296.909	99.31
297.14	66.31
297.37	84.31
297.601	88.31
297.831	89.31
298.062	82.31
298.292	91.31
298.523	78.31
298.753	83.31
298.984	82.31
299.214	68.31
299.445	89.31
299.675	88.31
299.905	94.31
300.136	88.31
300.366	85.31
300.597	97.31
300.827	87.31
301.057	95.31
301.288	78.31
301.518	90.31
301.748	80.31
301.979	76.31
302.209	91.31
302.439	90.31
302.669	82.31
302.9	92.31
303.13	87.31
303.36	77.31
303.59	86.31
303.82	96.31
304.051	85.31
304.281	85.31
304.511	81.31
304.741	80.31
304.971	76.31
305.201	91.31
305.431	78.31
305.661	100.31
305.891	91.31
306.121	84.31
306.352	86.31
306.582	87.31
306.812	78.31
307.042	86.31
307.272	85.31
307.502	96.31
307.731	82.31
307.961	77.31
308.191	79.31
308.421	82.31
308.651	77.31
308.881	89.31
309.111	94.31
309.341	91.31
309.571	81.31
309.8	85.31
310.03	85.31
310.26	74.31
310.49	98.31
310.72	84.31
310.949	74.31
311.179	98.31
311.409	87.31
311.639	82.31
311.868	93.31
312.098	75.31
312.328	84.31
312.557	90.31
312.787	93.31
313.017	100.31
313.246	108.31
313.476	83.31
313.706	91.31
313.935	96.31
314.165	77.31
314.394	93.31
314.624	86.31
314.853	100.31
315.083	90.31
315.312	84.31
315.542	82.31
315.771	86.31
316.001	84.31
316.23	81.31
316.46	78.31
316.689	90.31
316.919	75.31
317.148	82.31
317.377	81.31
317.607	74.31
317.836	94.31
318.065	102.31
318.295	93.31
318.524	76.31
318.753	80.31
318.983	85.31
319.212	92.31
319.441	73.31
319.67	86.31
319.9	91.31
320.129	100.31
320.358	84.31
320.587	91.31
320.816	97.31
321.046	86.31
321.275	90.31
321.504	90.31
321.733	86.31
321.962	99.31
322.191	87.31
322.42	81.31
322.649	70.31
322.878	87.31
323.108	92.31
323.337	76.31
323.566	83.31
323.795	90.31
324.024	89.31
324.253	93.31
324.482	83.31
324.71	97.31
324.939	86.31
325.168	93.31
325.397	90.31
325.626	93.31
325.855	83.31
326.084	77.31
326.313	75.31
326.542	88.31
326.77	85.31
326.999	92.31
327.228	81.31
327.457	83.31
327.686	80.31
327.914	96.31
328.143	88.31
328.372	87.31
328.6	78.31
328.829	86.31
329.058	83.31
329.287	95.31
329.515	75.31
329.744	100.31
329.972	85.31
330.201	98.31
330.43	92.31
330.658	84.31
330.887	79.31
331.115	85.31
331.344	88.31
331.572	85.31
331.801	106.31
332.03	96.31
332.258	88.31
332.486	90.31
332.715	84.31
332.943	95.31
333.172	76.31
333.4	86.31
333.629	101.31
333.857	80.31
334.085	83.31
334.314	93.31
334.542	89.31
334.771	95.31
334.999	88.31
335.227	91.31
335.455	80.31
335.684	86.31
335.912	105.31
336.14	94.31
336.369	93.31
336.597	80.31
336.825	84.31
337.053	83.31
337.281	80.31
337.51	87.31
337.738	86.31
337.966	99.31
338.194	92.31
338.422	84.31
338.65	88.31
338.878	84.31
339.106	83.31
339.334	90.31
339.562	89.31
339.79	97.31
340.018	79.31
340.246	75.31
340.474	86.31
340.702	78.31
340.93	82.31
341.158	92.31
341.386	99.31
341.614	81.31
341.842	82.31
342.07	92.31
342.298	79.31
342.526	81.31
342.754	73.31
342.981	73.31
343.209	81.31
343.437	79.31
343.665	77.31
343.893	80.31
344.12	89.31
344.348	94.31
344.576	91.31
344.804	93.31
345.031	82.31
345.259	83.31
345.487	88.31
345.714	81.31
345.942	93.31
346.17	82.31
346.397	85.31
346.625	75.31
346.853	86.31
347.08	84.31
347.308	99.31
347.535	78.31
347.763	88.31
347.99	98.31
348.218	84.31
348.445	95.31
348.673	93.31
348.9	92.31
349.128	95.31
349.355	78.31
349.583	92.31
349.81	86.31
350.037	72.31
350.265	69.31
350.492	88.31
350.72	72.31
350.947	88.31
351.174	93.31
351.402	73.31
351.629	61.31
351.856	82.31
352.083	81.31
352.311	85.31
352.538	77.31
352.765	73.31
352.992	76.31
353.22	88.31
353.447	78.31
353.674	88.31
353.901	74.31
354.128	92.31
354.355	83.31
354.583	89.31
354.81	94.31
355.037	87.31
355.264	97.31
355.491	78.31
355.718	68.31
355.945	91.31
356.172	98.31
356.399	77.31
356.626	97.31
356.853	86.31
357.08	80.31
357.307	100.31
357.534	75.31
357.761	64.31
357.988	112.31
358.215	98.31
358.441	90.31
358.668	84.31
358.895	87.31
359.122	91.31
359.349	81.31
359.576	77.31
359.802	66.31
360.029	78.31
360.256	84.31
360.483	83.31
360.709	69.31
360.936	91.31
361.163	80.31
361.39	86.31
361.616	93.31
361.843	90.31
362.07	78.31
362.296	93.31
362.523	91.31
362.749	86.31
362.976	84.31
363.203	94.31
363.429	79.31
363.656	86.31
363.882	78.31
364.109	82.31
364.335	82.31
364.562	77.31
364.788	91.31
365.015	96.31
365.241	90.31
365.468	95.31
365.694	91.31
365.92	77.31
366.147	81.31
366.373	80.31
366.599	78.31
366.826	90.31
367.052	86.31
367.278	83.31
367.505	76.31
367.731	114.31
367.957	69.31
368.184	74.31
368.41	69.31
368.636	86.31
368.862	82.31
369.089	88.31
369.315	96.31
369.541	90.31
369.767	89.31
369.993	88.31
370.219	84.31
370.445	83.31
370.672	74.31
370.898	80.31
371.124	89.31
371.35	84.31
371.576	76.31
371.802	83.31
372.028	96.31
372.254	91.31
372.48	70.31
372.706	84.31
372.932	91.31
373.158	82.31
373.384	79.31
373.61	86.31
373.835	100.31
374.061	79.31
374.287	87.31
374.513	87.31
374.739	76.31
374.965	91.31
375.191	83.31
375.416	83.31
375.642	88.31
375.868	76.31
376.094	85.31
376.319	76.31
376.545	78.31
376.771	85.31
376.997	82.31
377.222	78.31
377.448	96.31
377.674	91.31
377.899	83.31
378.125	65.31
378.35	88.31
378.576	84.31
378.802	74.31
379.027	70.31
379.253	90.31
379.478	86.31
379.704	87.31
379.929	81.31
380.155	94.31
380.38	78.31
380.606	92.31
380.831	74.31
381.057	84.31
381.282	75.31
381.507	78.31
381.733	78.31
381.958	83.31
382.184	83.31
382.409	82.31
382.634	89.31
382.86	85.31
383.085	92.31
383.31	91.31
383.535	83.31
383.761	85.31
383.986	76.31
384.211	77.31
384.436	78.31
384.662	86.31
384.887	85.31
385.112	85.31
385.337	89.31
385.562	76.31
385.787	68.31
386.013	84.31
386.238	110.31
386.463	94.31
386.688	88.31
386.913	91.31
387.138	81.31
387.363	90.31
387.588	84.31
387.813	105.31
388.038	80.31
388.263	87.31
388.488	73.31
388.713	85.31
388.938	84.31
389.163	79.31
389.387	78.31
389.612	80.31
389.837	83.31
390.062	88.31
390.287	82.31
390.512	89.31
390.736	84.31
390.961	88.31
391.186	76.31
391.411	79.31
391.636	80.31
391.86	86.31
392.085	89.31
392.31	88.31
392.534	76.31
392.759	101.31
392.984	130.31
393.208	144.31
393.433	181.31
393.658	140.31
393.882	97.31
394.107	88.31
394.331	80.31
394.556	76.31
394.78	70.31
395.005	76.31
395.229	66.31
395.454	91.31
395.678	91.31
395.903	114.31
396.127	102.31
396.352	90.31
396.576	104.31
396.801	117.31
397.025	164.31
397.249	115.31
397.474	91.31
397.698	85.31
397.922	84.31
398.147	101.31
398.371	88.31
398.595	80.31
398.82	76.31
399.044	97.31
399.268	92.31
399.492	88.31
399.717	88.31
399.941	91.31
400.165	79.31
400.389	86.31
400.613	90.31
400.837	81.31
401.062	82.31
401.286	81.31
401.51	78.31
401.734	83.31
401.958	98.31
402.182	92.31
402.406	83.31
402.63	92.31
402.854	90.31
403.078	82.31
403.302	67.31
403.526	91.31
403.75	95.31
403.974	84.31
404.198	83.31
404.422	98.31
404.645	76.31
404.869	84.31
405.093	70.31
405.317	79.31
405.541	71.31
405.765	86.31
405.988	84.31
406.212	86.31
406.436	102.31
406.66	79.31
406.883	76.31
407.107	76.31
407.331	86.31
407.555	85.31
407.778	88.31
408.002	86.31
408.226	86.31
408.449	80.31
408.673	83.31
408.896	85.31
409.12	88.31
409.344	92.31
409.567	84.31
409.791	77.31
410.014	80.31
410.238	86.31
410.461	85.31
410.685	78.31
410.908	83.31
411.132	85.31
411.355	64.31
411.578	85.31
411.802	84.31
412.025	80.31
412.249	74.31
412.472	72.31
412.695	84.31
412.919	84.31
413.142	87.31
413.365	94.31
413.589	86.31
413.812	86.31
414.035	83.31
414.258	92.31
414.482	83.31
414.705	74.31
414.928	79.31
415.151	100.31
415.374	89.31
415.597	74.31
415.821	77.31
416.044	81.31
416.267	75.31
416.49	80.31
416.713	71.31
416.936	70.31
417.159	88.31
417.382	78.31
417.605	88.31
417.828	84.31
418.051	84.31
418.274	79.31
418.497	86.31
418.72	89.31
418.943	93.31
419.166	81.31
419.389	85.31
419.611	78.31
419.834	84.31
420.057	81.31
420.28	78.31
420.503	80.31
420.726	76.31
420.948	89.31
421.171	88.31
421.394	94.31
421.617	103.31
421.839	88.31
422.062	104.31
422.285	89.31
422.507	136.31
422.73	198.31
422.953	158.31
423.175	115.31
423.398	89.31
423.621	92.31
423.843	92.31
424.066	85.31
424.288	70.31
424.511	83.31
424.733	88.31
424.956	92.31
425.178	78.31
425.401	84.31
425.623	76.31
425.846	71.31
426.068	77.31
426.291	88.31
426.513	88.31
426.735	73.31
426.958	81.31
427.18	96.31
427.402	97.31
427.625	80.31
427.847	87.31
428.069	90.31
428.292	91.31
428.514	97.31
428.736	88.31
428.958	106.31
429.181	106.31
429.403	81.31
429.625	82.31
429.847	85.31
430.069	104.31
430.292	117.31
430.514	100.31
430.736	90.31
430.958	84.31
431.18	89.31
431.402	84.31
431.624	102.31
431.846	82.31
432.068	85.31
432.29	76.31
432.512	88.31
432.734	92.31
432.956	91.31
433.178	73.31
433.4	67.31
433.622	82.31
433.844	79.31
434.066	83.31
434.287	71.31
434.509	72.31
434.731	92.31
434.953	97.31
435.175	91.31
435.397	94.31
435.618	85.31
435.84	65.31
436.062	92.31
436.284	78.31
436.505	83.31
436.727	90.31
436.949	95.31
437.17	85.31
437.392	58.31
437.614	94.31
437.835	75.31
438.057	71.31
438.278	98.31
438.5	71.31
438.721	82.31
438.943	90.31
439.165	82.31
439.386	84.31
439.608	90.31
439.829	80.31
440.05	86.31
440.272	92.31
440.493	90.31
440.715	87.31
440.936	71.31
441.158	80.31
441.379	91.31
441.6	92.31
441.822	78.31
442.043	79.31
442.264	76.31
442.486	88.31
442.707	96.31
442.928	91.31
443.149	91.31
443.371	122.31
443.592	115.31
443.813	117.31
444.034	93.31
444.255	77.31
444.476	79.31
444.698	85.31
444.919	82.31
445.14	146.31
445.361	138.31
445.582	130.31
445.803	117.31
446.024	101.31
446.245	89.31
446.466	81.31
446.687	83.31
446.908	86.31
447.129	80.31
447.35	102.31
447.571	83.31
447.792	63.31
448.013	75.31
448.234	93.31
448.455	93.31
448.675	85.31
448.896	99.31
449.117	87.31
449.338	80.31
449.559	84.31
449.779	89.31
450	88.31
450.221	68.31
450.442	82.31
450.662	70.31
450.883	93.31
451.104	76.31
451.324	79.31
451.545	80.31
451.766	80.31
451.986	83.31
452.207	78.31
452.428	75.31
452.648	75.31
452.869	83.31
453.089	92.31
453.31	72.31
453.53	72.31
453.751	98.31
453.971	90.31
454.192	81.31
454.412	87.31
454.633	84.31
454.853	78.31
455.073	84.31
455.294	84.31
455.514	84.31
455.734	71.31
455.955	78.31
456.175	92.31
456.395	82.31
456.616	80.31
456.836	85.31
457.056	86.31
457.276	97.31
457.497	81.31
457.717	82.31
457.937	82.31
458.157	81.31
458.377	86.31
458.598	96.31
458.818	103.31
459.038	92.31
459.258	94.31
459.478	71.31
459.698	70.31
459.918	89.31
460.138	68.31
460.358	86.31
460.578	102.31
460.798	96.31
461.018	100.31
461.238	95.31
461.458	96.31
461.678	90.31
461.898	83.31
462.118	92.31
462.338	74.31
462.558	81.31
462.777	91.31
462.997	89.31
463.217	92.31
463.437	90.31
463.657	81.31
463.876	82.31
464.096	79.31
464.316	94.31
464.536	102.31
464.755	91.31
464.975	79.31
465.195	80.31
465.414	88.31
465.634	76.31
465.854	71.31
466.073	78.31
466.293	65.31
466.512	82.31
466.732	72.31
466.951	77.31
467.171	74.31
467.391	83.31
467.61	67.31
467.829	78.31
468.049	86.31
468.268	73.31
468.488	93.31
468.707	91.31
468.927	72.31
469.146	100.31
469.365	72.31
469.585	84.31
469.804	89.31
470.023	76.31
470.243	93.31
470.462	90.31
470.681	95.31
470.901	81.31
471.12	75.31
471.339	73.31
471.558	82.31
471.777	82.31
471.997	84.31
472.216	90.31
472.435	88.31
472.654	88.31
472.873	87.31
473.092	81.31
473.311	93.31
473.53	83.31
473.749	81.31
473.968	79.31
474.187	82.31
474.406	83.31
474.625	69.31
474.844	67.31
475.063	88.31
475.282	82.31
475.501	85.31
475.72	83.31
475.939	84.31
476.158	85.31
476.377	90.31
476.596	83.31
476.814	74.31
477.033	96.31
477.252	85.31
477.471	83.31
477.69	82.31
477.908	77.31
478.127	79.31
478.346	79.31
478.564	88.31
478.783	81.31
479.002	88.31
479.22	85.31
479.439	91.31
479.658	83.31
479.876	84.31
480.095	87.31
480.313	83.31
480.532	82.31
480.751	88.31
480.969	80.31
481.188	71.31
481.406	73.31
481.624	78.31
481.843	83.31
482.061	85.31
482.28	93.31
482.498	77.31
482.717	90.31
482.935	83.31
483.153	93.31
483.372	84.31
483.59	71.31
483.808	90.31
484.027	85.31
484.245	65.31
484.463	72.31
484.681	99.31
484.9	85.31
485.118	97.31
485.336	81.31
485.554	85.31
485.772	89.31
485.99	84.31
486.209	99.31
486.427	74.31
486.645	85.31
486.863	78.31
487.081	78.31
487.299	83.31
487.517	77.31
487.735	91.31
487.953	106.31
488.171	104.31
488.389	86.31
488.607	81.31
488.825	101.31
489.043	77.31
489.261	100.31
489.479	89.31
489.696	83.31
489.914	85.31
490.132	73.31
490.35	77.31
490.568	88.31
490.786	91.31
491.003	81.31
491.221	81.31
491.439	86.31
491.657	88.31
491.874	88.31
492.092	90.31
492.31	94.31
492.527	90.31
492.745	87.31
492.963	80.31
493.18	94.31
493.398	86.31
493.615	74.31
493.833	86.31
494.05	73.31
494.268	90.31
494.485	86.31
494.703	93.31
494.92	75.31
495.138	86.31
495.355	88.31
495.573	89.31
495.79	92.31
496.008	92.31
496.225	87.31
496.442	101.31
496.66	94.31
496.877	100.31
497.094	97.31
497.312	98.31
497.529	71.31
497.746	80.31
497.963	71.31
498.181	86.31
498.398	84.31
498.615	94.31
498.832	78.31
499.049	89.31
499.267	82.31
499.484	83.31
499.701	77.31
499.918	90.31
500.135	101.31
500.352	84.31
500.569	80.31
500.786	90.31
501.003	87.31
501.22	66.31
501.437	79.31
501.654	85.31
501.871	82.31
502.088	89.31
502.305	91.31
502.522	95.31
502.739	78.31
502.956	96.31
503.172	90.31
503.389	93.31
503.606	86.31
503.823	94.31
504.04	92.31
504.256	89.31
504.473	97.31
504.69	80.31
504.907	97.31
505.123	86.31
505.34	90.31
505.557	88.31
505.773	89.31
505.99	84.31
506.207	88.31
506.423	84.31
506.64	95.31
506.856	90.31
507.073	80.31
507.289	96.31
507.506	100.31
507.722	80.31
507.939	72.31
508.155	92.31
508.372	85.31
508.588	98.31
508.805	85.31
509.021	90.31
509.238	88.31
509.454	76.31
509.67	88.31
509.887	84.31
510.103	85.31
510.319	77.31
510.536	89.31
510.752	79.31
510.968	92.31
511.184	93.31
511.401	86.31
511.617	78.31
511.833	80.31
512.049	93.31
512.265	99.31
512.481	82.31
512.698	78.31
512.914	94.31
513.13	107.31
513.346	86.31
513.562	89.31
513.778	91.31
513.994	81.31
514.21	86.31
514.426	90.31
514.642	85.31
514.858	81.31
515.074	100.31
515.29	102.31
515.506	69.31
515.721	77.31
515.937	92.31
516.153	75.31
516.369	72.31
516.585	82.31
516.801	79.31
517.016	79.31
517.232	99.31
517.448	90.31
517.664	96.31
517.879	97.31
518.095	82.31
518.311	87.31
518.527	90.31
518.742	93.31
518.958	100.31
519.173	102.31
