Data from 17600_3_HRD10591_00022.txt Node
Date: Mon Jan 19 14:09:34 EST 2026
User: Yrep
Spectrometer: HR+D1059
Trigger mode: 1
Integration Time (sec): 1.000000E-1
Scans to average: 1
Electric dark correction enabled: true
Nonlinearity correction enabled: false
Boxcar width: 0
XAxis mode: Wavelengths
Number of Pixels in Spectrum: 2048
>>>>>Begin Spectral Data<<<<<
223.165	-11
223.4	-11
223.635	-11
223.869	-26
224.104	-18
224.338	-26
224.573	-24
224.808	-18
225.042	11
225.277	-7
225.511	3
225.746	-13
225.98	20
226.215	13
226.449	20
226.683	21
226.918	24
227.152	31
227.387	35
227.621	42
227.856	50
228.09	46
228.324	50
228.559	59
228.793	63
229.027	45
229.262	65
229.496	75
229.73	69
229.964	95
230.199	91
230.433	65
230.667	69
230.901	71
231.136	70
231.37	91
231.604	85
231.838	100
232.072	85
232.306	85
232.541	89
232.775	104
233.009	76
233.243	70
233.477	85
233.711	67
233.945	73
234.179	89
234.413	76
234.647	75
234.881	65
235.115	75
235.349	98
235.583	78
235.817	76
236.051	83
236.285	87
236.519	83
236.753	80
236.987	75
237.221	78
237.455	75
237.689	67
237.922	94
238.156	79
238.39	95
238.624	75
238.858	87
239.091	85
239.325	69
239.559	75
239.793	76
240.027	82
240.26	85
240.494	77
240.728	77
240.961	79
241.195	82
241.429	82
241.662	59
241.896	86
242.13	78
242.363	79
242.597	77
242.83	69
243.064	74
243.298	85
243.531	84
243.765	79
243.998	78
244.232	78
244.465	79
244.699	90
244.932	75
245.166	92
245.399	86
245.633	73
245.866	91
246.099	70
246.333	75
246.566	90
246.8	66
247.033	85
247.266	78
247.5	85
247.733	77
247.966	75
248.2	90
248.433	72
248.666	78
248.899	79
249.133	73
249.366	83
249.599	85
249.832	74
250.066	64
250.299	89
250.532	85
250.765	79
250.998	83
251.231	85
251.465	67
251.698	79
251.931	73
252.164	81
252.397	71
252.63	89
252.863	87
253.096	87
253.329	82
253.562	86
253.795	83
254.028	85
254.261	82
254.494	83
254.727	74
254.96	87
255.193	80
255.426	63
255.659	81
255.892	71
256.124	85
256.357	80
256.59	88
256.823	79
257.056	84
257.289	96
257.521	92
257.754	79
257.987	75
258.22	83
258.452	87
258.685	88
258.918	90
259.151	79
259.383	82
259.616	85
259.849	79
260.081	81
260.314	97
260.547	73
260.779	90
261.012	85
261.244	86
261.477	86
261.71	75
261.942	93
262.175	83
262.407	70
262.64	85
262.872	80
263.105	83
263.337	85
263.57	88
263.802	80
264.035	79
264.267	91
264.499	85
264.732	98
264.964	76
265.197	78
265.429	67
265.661	72
265.894	87
266.126	89
266.358	87
266.591	80
266.823	80
267.055	82
267.287	79
267.52	91
267.752	94
267.984	85
268.216	79
268.448	73
268.681	98
268.913	83
269.145	75
269.377	80
269.609	89
269.841	101
270.073	95
270.306	79
270.538	98
270.77	89
271.002	89
271.234	91
271.466	86
271.698	92
271.93	84
272.162	84
272.394	96
272.626	101
272.858	89
273.09	91
273.322	85
273.553	80
273.785	89
274.017	79
274.249	93
274.481	75
274.713	75
274.945	97
275.176	95
275.408	73
275.64	83
275.872	95
276.104	73
276.335	81
276.567	74
276.799	86
277.031	87
277.262	77
277.494	83
277.726	87
277.957	83
278.189	82
278.421	101
278.652	85
278.884	87
279.115	98
279.347	93
279.579	95
279.81	92
280.042	99
280.273	75
280.505	77
280.736	88
280.968	99
281.199	76
281.431	89
281.662	78
281.894	84
282.125	83
282.356	79
282.588	101
282.819	82
283.051	85
283.282	78
283.513	91
283.745	91
283.976	94
284.207	85
284.439	90
284.67	82
284.901	83
285.132	87
285.364	79
285.595	80
285.826	88
286.057	87
286.288	92
286.52	76
286.751	94
286.982	90
287.213	105
287.444	92
287.675	84
287.906	90
288.138	91
288.369	87
288.6	94
288.831	92
289.062	89
289.293	92
289.524	92
289.755	97
289.986	87
290.217	77
290.448	89
290.679	88
290.91	93
291.141	74
291.371	81
291.602	90
291.833	82
292.064	85
292.295	91
292.526	82
292.757	86
292.987	84
293.218	93
293.449	78
293.68	97
293.91	100
294.141	83
294.372	97
294.603	80
294.833	77
295.064	95
295.295	89
295.525	99
295.756	81
295.987	97
296.217	79
296.448	80
296.679	90
296.909	82
297.14	82
297.37	92
297.601	90
297.831	85
298.062	105
298.292	85
298.523	86
298.753	78
298.984	77
299.214	94
299.445	101
299.675	91
299.905	89
300.136	89
300.366	90
300.597	81
300.827	92
301.057	96
301.288	86
301.518	83
301.748	87
301.979	94
302.209	71
302.439	95
302.669	97
302.9	94
303.13	86
303.36	83
303.59	77
303.82	97
304.051	85
304.281	87
304.511	96
304.741	91
304.971	94
305.201	79
305.431	81
305.661	85
305.891	77
306.121	90
306.352	88
306.582	93
306.812	92
307.042	86
307.272	82
307.502	85
307.731	75
307.961	91
308.191	89
308.421	86
308.651	85
308.881	92
309.111	90
309.341	86
309.571	88
309.8	89
310.03	101
310.26	95
310.49	89
310.72	89
310.949	87
311.179	101
311.409	91
311.639	105
311.868	96
312.098	77
312.328	82
312.557	79
312.787	101
313.017	96
313.246	107
313.476	78
313.706	83
313.935	97
314.165	100
314.394	84
314.624	84
314.853	84
315.083	79
315.312	86
315.542	85
315.771	87
316.001	106
316.23	90
316.46	94
316.689	91
316.919	97
317.148	95
317.377	87
317.607	89
317.836	89
318.065	90
318.295	115
318.524	89
318.753	93
318.983	83
319.212	75
319.441	83
319.67	86
319.9	89
320.129	88
320.358	92
320.587	105
320.816	109
321.046	82
321.275	94
321.504	89
321.733	79
321.962	99
322.191	90
322.42	94
322.649	92
322.878	94
323.108	96
323.337	92
323.566	80
323.795	90
324.024	69
324.253	70
324.482	89
324.71	83
324.939	86
325.168	97
325.397	94
325.626	93
325.855	92
326.084	86
326.313	80
326.542	86
326.77	75
326.999	85
327.228	99
327.457	96
327.686	85
327.914	85
328.143	92
328.372	83
328.6	98
328.829	101
329.058	91
329.287	85
329.515	85
329.744	95
329.972	96
330.201	110
330.43	99
330.658	88
330.887	85
331.115	85
331.344	69
331.572	99
331.801	82
332.03	87
332.258	115
332.486	78
332.715	85
332.943	88
333.172	88
333.4	85
333.629	93
333.857	91
334.085	101
334.314	93
334.542	96
334.771	96
334.999	100
335.227	90
335.455	86
335.684	84
335.912	105
336.14	103
336.369	86
336.597	94
336.825	94
337.053	97
337.281	101
337.51	95
337.738	79
337.966	68
338.194	97
338.422	76
338.65	88
338.878	93
339.106	87
339.334	100
339.562	85
339.79	88
340.018	88
340.246	85
340.474	90
340.702	87
340.93	72
341.158	87
341.386	82
341.614	98
341.842	97
342.07	82
342.298	74
342.526	80
342.754	78
342.981	85
343.209	108
343.437	104
343.665	95
343.893	93
344.12	89
344.348	92
344.576	79
344.804	62
345.031	90
345.259	83
345.487	75
345.714	86
345.942	85
346.17	98
346.397	88
346.625	89
346.853	91
347.08	92
347.308	94
347.535	97
347.763	85
347.99	85
348.218	102
348.445	95
348.673	89
348.9	99
349.128	79
349.355	107
349.583	96
349.81	93
350.037	84
350.265	85
350.492	83
350.72	86
350.947	77
351.174	80
351.402	103
351.629	80
351.856	87
352.083	92
352.311	87
352.538	96
352.765	88
352.992	95
353.22	91
353.447	94
353.674	75
353.901	97
354.128	86
354.355	83
354.583	83
354.81	93
355.037	104
355.264	91
355.491	85
355.718	80
355.945	100
356.172	88
356.399	104
356.626	87
356.853	101
357.08	89
357.307	90
357.534	92
357.761	87
357.988	97
358.215	93
358.441	83
358.668	89
358.895	107
359.122	97
359.349	88
359.576	73
359.802	95
360.029	90
360.256	101
360.483	92
360.709	103
360.936	92
361.163	103
361.39	94
361.616	90
361.843	84
362.07	96
362.296	91
362.523	97
362.749	115
362.976	110
363.203	120
363.429	105
363.656	97
363.882	97
364.109	106
364.335	114
364.562	119
364.788	101
365.015	83
365.241	89
365.468	99
365.694	84
365.92	95
366.147	87
366.373	97
366.599	91
366.826	86
367.052	93
367.278	105
367.505	83
367.731	102
367.957	82
368.184	90
368.41	81
368.636	93
368.862	107
369.089	77
369.315	87
369.541	99
369.767	89
369.993	78
370.219	83
370.445	91
370.672	109
370.898	85
371.124	77
371.35	76
371.576	98
371.802	97
372.028	87
372.254	91
372.48	97
372.706	87
372.932	97
373.158	85
373.384	102
373.61	99
373.835	98
374.061	89
374.287	96
374.513	90
374.739	102
374.965	101
375.191	96
375.416	92
375.642	94
375.868	74
376.094	94
376.319	101
376.545	78
376.771	75
376.997	92
377.222	97
377.448	92
377.674	78
377.899	90
378.125	79
378.35	97
378.576	93
378.802	83
379.027	87
379.253	90
379.478	104
379.704	89
379.929	87
380.155	89
380.38	86
380.606	91
380.831	98
381.057	90
381.282	90
381.507	89
381.733	89
381.958	91
382.184	90
382.409	91
382.634	95
382.86	101
383.085	94
383.31	101
383.535	103
383.761	90
383.986	99
384.211	94
384.436	102
384.662	94
384.887	90
385.112	82
385.337	101
385.562	84
385.787	99
386.013	95
386.238	82
386.463	92
386.688	93
386.913	86
387.138	95
387.363	88
387.588	83
387.813	93
388.038	108
388.263	95
388.488	95
388.713	100
388.938	74
389.163	91
389.387	88
389.612	89
389.837	94
390.062	89
390.287	93
390.512	91
390.736	89
390.961	91
391.186	87
391.411	85
391.636	80
391.86	87
392.085	86
392.31	83
392.534	94
392.759	122
392.984	139
393.208	186
393.433	237
393.658	187
393.882	122
394.107	92
394.331	99
394.556	119
394.78	105
395.005	95
395.229	108
395.454	102
395.678	86
395.903	134
396.127	136
396.352	131
396.576	157
396.801	188
397.025	204
397.249	142
397.474	127
397.698	98
397.922	92
398.147	82
398.371	85
398.595	101
398.82	94
399.044	98
399.268	96
399.492	99
399.717	90
399.941	92
400.165	101
400.389	91
400.613	89
400.837	75
401.062	79
401.286	78
401.51	83
401.734	95
401.958	89
402.182	95
402.406	97
402.63	87
402.854	78
403.078	91
403.302	92
403.526	106
403.75	91
403.974	89
404.198	91
404.422	101
404.645	100
404.869	101
405.093	93
405.317	97
405.541	79
405.765	89
405.988	91
406.212	97
406.436	93
406.66	76
406.883	102
407.107	100
407.331	93
407.555	105
407.778	103
408.002	113
408.226	88
408.449	89
408.673	83
408.896	97
409.12	72
409.344	93
409.567	96
409.791	107
410.014	104
410.238	95
410.461	106
410.685	78
410.908	93
411.132	87
411.355	83
411.578	83
411.802	82
412.025	95
412.249	86
412.472	81
412.695	85
412.919	91
413.142	87
413.365	76
413.589	93
413.812	91
414.035	92
414.258	77
414.482	75
414.705	73
414.928	101
415.151	92
415.374	89
415.597	89
415.821	87
416.044	97
416.267	96
416.49	86
416.713	79
416.936	85
417.159	99
417.382	87
417.605	98
417.828	93
418.051	89
418.274	86
418.497	86
418.72	85
418.943	97
419.166	102
419.389	102
419.611	96
419.834	91
420.057	90
420.28	92
420.503	84
420.726	83
420.948	101
421.171	93
421.394	98
421.617	101
421.839	116
422.062	130
422.285	147
422.507	228
422.73	300
422.953	280
423.175	192
423.398	125
423.621	89
423.843	106
424.066	98
424.288	101
424.511	88
424.733	91
424.956	87
425.178	85
425.401	98
425.623	92
425.846	97
426.068	90
426.291	99
426.513	85
426.735	89
426.958	97
427.18	103
427.402	92
427.625	107
427.847	79
428.069	110
428.292	121
428.514	125
428.736	104
428.958	110
429.181	110
429.403	90
429.625	97
429.847	99
430.069	158
430.292	134
430.514	129
430.736	102
430.958	110
431.18	95
431.402	87
431.624	92
431.846	114
432.068	109
432.29	97
432.512	86
432.734	81
432.956	91
433.178	99
433.4	72
433.622	86
433.844	86
434.066	76
434.287	94
434.509	87
434.731	68
434.953	91
435.175	88
435.397	79
435.618	95
435.84	103
436.062	83
436.284	78
436.505	87
436.727	91
436.949	94
437.17	79
437.392	81
437.614	91
437.835	92
438.057	75
438.278	90
438.5	87
438.721	97
438.943	95
439.165	97
439.386	91
439.608	109
439.829	86
440.05	83
440.272	80
440.493	89
440.715	94
440.936	91
441.158	72
441.379	96
441.6	91
441.822	92
442.043	99
442.264	103
442.486	123
442.707	140
442.928	113
443.149	115
443.371	134
443.592	189
443.813	159
444.034	101
444.255	101
444.476	94
444.698	95
444.919	91
445.14	166
445.361	161
445.582	238
445.803	206
446.024	113
446.245	89
446.466	71
446.687	87
446.908	86
447.129	92
447.35	95
447.571	99
447.792	83
448.013	91
448.234	86
448.455	87
448.675	79
448.896	81
449.117	75
449.338	89
449.559	82
449.779	113
450	93
450.221	82
450.442	95
450.662	87
450.883	74
451.104	87
451.324	101
451.545	81
451.766	93
451.986	95
452.207	91
452.428	93
452.648	94
452.869	89
453.089	96
453.31	91
453.53	81
453.751	106
453.971	91
454.192	95
454.412	77
454.633	95
454.853	92
455.073	74
455.294	89
455.514	99
455.734	83
455.955	83
456.175	80
456.395	97
456.616	91
456.836	78
457.056	85
457.276	85
457.497	80
457.717	105
457.937	91
458.157	99
458.377	126
458.598	109
458.818	126
459.038	93
459.258	82
459.478	101
459.698	98
459.918	94
460.138	77
460.358	84
460.578	99
460.798	111
461.018	122
461.238	97
461.458	89
461.678	85
461.898	85
462.118	91
462.338	88
462.558	86
462.777	87
462.997	90
463.217	83
463.437	85
463.657	90
463.876	81
464.096	84
464.316	85
464.536	86
464.755	88
464.975	86
465.195	85
465.414	84
465.634	108
465.854	72
466.073	68
466.293	94
466.512	88
466.732	93
466.951	87
467.171	87
467.391	71
467.61	97
467.829	84
468.049	75
468.268	101
468.488	91
468.707	78
468.927	91
469.146	71
469.365	78
469.585	85
469.804	85
470.023	93
470.243	95
470.462	98
470.681	98
470.901	93
471.12	94
471.339	89
471.558	90
471.777	90
471.997	97
472.216	79
472.435	91
472.654	89
472.873	109
473.092	94
473.311	85
473.53	83
473.749	85
473.968	89
474.187	87
474.406	92
474.625	85
474.844	78
475.063	96
475.282	92
475.501	89
475.72	90
475.939	89
476.158	85
476.377	93
476.596	74
476.814	83
477.033	97
477.252	94
477.471	95
477.69	89
477.908	94
478.127	98
478.346	92
478.564	103
478.783	94
479.002	83
479.22	81
479.439	85
479.658	89
479.876	83
480.095	85
480.313	75
480.532	85
480.751	101
480.969	90
481.188	84
481.406	78
481.624	91
481.843	80
482.061	79
482.28	92
482.498	81
482.717	82
482.935	77
483.153	90
483.372	91
483.59	102
483.808	97
484.027	91
484.245	98
484.463	74
484.681	100
484.9	87
485.118	84
485.336	74
485.554	105
485.772	84
485.99	82
486.209	89
486.427	88
486.645	87
486.863	85
487.081	100
487.299	109
487.517	94
487.735	91
487.953	154
488.171	132
488.389	94
488.607	91
488.825	89
489.043	78
489.261	94
489.479	95
489.696	79
489.914	79
490.132	93
490.35	94
490.568	86
490.786	84
491.003	85
491.221	92
491.439	87
491.657	93
491.874	86
492.092	86
492.31	69
492.527	95
492.745	82
492.963	75
493.18	91
493.398	77
493.615	89
493.833	90
494.05	82
494.268	98
494.485	93
494.703	101
494.92	100
495.138	82
495.355	85
495.573	82
495.79	96
496.008	99
496.225	97
496.442	107
496.66	89
496.877	87
497.094	76
497.312	88
497.529	105
497.746	85
497.963	85
498.181	81
498.398	89
498.615	93
498.832	80
499.049	81
499.267	104
499.484	99
499.701	90
499.918	98
500.135	94
500.352	94
500.569	100
500.786	91
501.003	91
501.22	71
501.437	92
501.654	89
501.871	93
502.088	75
502.305	87
502.522	78
502.739	99
502.956	82
503.172	93
503.389	94
503.606	91
503.823	93
504.04	83
504.256	129
504.473	127
504.69	100
504.907	95
505.123	89
505.34	87
505.557	70
505.773	88
505.99	99
506.207	100
506.423	93
506.64	93
506.856	86
507.073	98
507.289	90
507.506	73
507.722	81
507.939	93
508.155	79
508.372	94
508.588	89
508.805	93
509.021	93
509.238	84
509.454	103
509.67	105
509.887	77
510.103	86
510.319	87
510.536	106
510.752	93
510.968	78
511.184	91
511.401	93
511.617	81
511.833	103
512.049	88
512.265	99
512.481	104
512.698	99
512.914	83
513.13	79
513.346	92
513.562	98
513.778	83
513.994	101
514.21	84
514.426	100
514.642	103
514.858	86
515.074	89
515.29	89
515.506	77
515.721	83
515.937	110
516.153	102
516.369	99
516.585	90
516.801	83
517.016	89
517.232	84
517.448	97
517.664	94
517.879	99
518.095	103
518.311	112
518.527	113
518.742	107
518.958	146
519.173	138
519.389	103
519.605	96
519.82	93
520.036	98
520.251	91
520.467	89
520.682	81
520.898	105
521.113	81
521.329	94
521.544	106
521.76	94
521.975	86
522.19	103
522.406	101
522.621	79
522.836	100
523.052	91
523.267	90
523.482	94
523.698	97
523.913	102
524.128	105
524.343	87
524.559	102
524.774	85
524.989	101
525.204	102
525.419	96
525.634	87
525.849	113
526.064	117
526.28	203
526.495	237
526.71	267
526.925	180
527.14	213
527.355	198
527.57	121
527.785	103
527.999	92
528.214	104
528.429	87
528.644	92
528.859	105
529.074	89
529.289	88
529.503	92
529.718	93
529.933	100
530.148	99
530.363	99
530.577	91
530.792	94
531.007	85
531.221	78
531.436	100
531.651	113
531.865	96
532.08	103
532.295	90
532.509	86
532.724	94
532.938	102
533.153	98
533.367	100
533.582	93
533.796	96
534.011	99
534.225	99
534.44	101
534.654	98
534.868	113
535.083	145
535.297	138
535.511	108
535.726	98
535.94	106
536.154	113
536.369	92
536.583	77
536.797	91
537.011	98
537.225	92
537.44	118
537.654	107
537.868	111
538.082	109
538.296	99
538.51	99
538.724	91
538.938	91
539.153	97
539.367	103
539.581	101
539.795	95
540.009	100
540.222	114
540.436	110
540.65	95
540.864	98
541.078	93
541.292	107
541.506	123
541.72	94
541.934	105
542.147	103
542.361	107
542.575	103
542.789	92
543.002	102
543.216	101
543.43	87
543.644	101
543.857	113
544.071	103
544.285	100
544.498	113
544.712	95
544.925	108
545.139	98
545.352	109
545.566	107
545.779	88
545.993	101
546.206	111
546.42	116
546.633	119
546.847	117
547.06	120
547.274	131
547.487	133
547.7	155
547.914	163
548.127	159
548.34	163
548.554	161
548.767	149
548.98	168
549.193	164
549.407	164
549.62	178
549.833	178
550.046	183
550.259	207
550.473	190
550.686	208
550.899	235
551.112	245
551.325	263
551.538	268
551.751	267
551.964	253
552.177	255
552.39	238
552.603	255
552.816	239
553.029	256
553.242	243
553.455	252
553.667	261
553.88	288
554.093	295
554.306	267
554.519	275
554.732	263
554.944	259
555.157	262
555.37	241
555.583	250
555.795	227
556.008	220
556.221	199
556.433	198
556.646	226
556.859	197
557.071	182
557.284	174
557.496	169
557.709	160
557.921	161
558.134	155
558.346	189
558.559	167
558.771	165
558.984	250
559.196	310
559.409	193
559.621	253
559.833	198
560.046	225
560.258	192
560.47	185
560.683	155
560.895	133
561.107	123
561.32	108
561.532	123
561.744	111
561.956	89
562.168	103
562.381	108
562.593	104
562.805	87
563.017	105
563.229	108
563.441	112
563.653	113
563.865	95
564.077	95
564.289	97
564.501	95
564.713	99
564.925	93
565.137	98
565.349	103
565.561	107
565.773	106
565.985	103
566.197	96
566.408	101
566.62	108
566.832	106
567.044	97
567.255	110
567.467	105
567.679	94
567.891	98
568.102	102
568.314	99
568.526	108
568.737	101
568.949	92
569.161	115
569.372	95
569.584	104
569.795	124
570.007	100
570.218	107
570.43	121
570.641	117
570.853	107
571.064	113
571.276	104
571.487	93
571.698	113
571.91	93
572.121	88
572.333	102
572.544	100
572.755	102
572.966	113
573.178	101
573.389	97
573.6	109
573.811	90
574.023	107
574.234	108
574.445	100
574.656	103
574.867	103
575.078	106
575.289	98
575.501	100
575.712	86
575.923	93
576.134	94
576.345	89
576.556	115
576.767	99
576.978	91
577.188	105
577.399	95
577.61	101
577.821	106
578.032	98
578.243	99
578.454	101
578.665	101
578.875	94
579.086	80
579.297	94
579.508	102
579.718	103
579.929	121
580.14	99
580.35	108
580.561	104
580.772	103
580.982	82
581.193	99
581.403	106
581.614	101
581.825	110
582.035	106
582.246	106
582.456	116
582.667	91
582.877	85
583.087	93
583.298	102
583.508	94
583.719	102
583.929	87
584.139	83
