Data from 17600_3_HRD10591_00050.txt Node
Date: Mon Jan 19 14:09:48 EST 2026
User: Yrep
Spectrometer: HR+D1059
Trigger mode: 1
Integration Time (sec): 1.000000E-1
Scans to average: 1
Electric dark correction enabled: true
Nonlinearity correction enabled: false
Boxcar width: 0
XAxis mode: Wavelengths
Number of Pixels in Spectrum: 2048
>>>>>Begin Spectral Data<<<<<
223.165	-21.19
223.4	-21.19
223.635	-21.19
223.869	-23.19
224.104	-16.19
224.338	-12.19
224.573	-13.19
224.808	-9.19
225.042	-11.19
225.277	0.81
225.511	0.81
225.746	-0.19
225.98	-3.19
226.215	18.81
226.449	12.81
226.683	22.81
226.918	26.81
227.152	26.81
227.387	42.81
227.621	29.81
227.856	50.81
228.09	60.81
228.324	54.81
228.559	54.81
228.793	57.81
229.027	65.81
229.262	57.81
229.496	76.81
229.73	74.81
229.964	71.81
230.199	82.81
230.433	83.81
230.667	91.81
230.901	73.81
231.136	72.81
231.37	82.81
231.604	77.81
231.838	76.81
232.072	88.81
232.306	88.81
232.541	81.81
232.775	72.81
233.009	83.81
233.243	66.81
233.477	76.81
233.711	85.81
233.945	80.81
234.179	76.81
234.413	70.81
234.647	76.81
234.881	76.81
235.115	89.81
235.349	76.81
235.583	88.81
235.817	79.81
236.051	76.81
236.285	83.81
236.519	82.81
236.753	83.81
236.987	80.81
237.221	74.81
237.455	76.81
237.689	86.81
237.922	77.81
238.156	82.81
238.39	90.81
238.624	70.81
238.858	66.81
239.091	87.81
239.325	74.81
239.559	76.81
239.793	79.81
240.027	78.81
240.26	70.81
240.494	86.81
240.728	74.81
240.961	72.81
241.195	73.81
241.429	77.81
241.662	71.81
241.896	82.81
242.13	70.81
242.363	82.81
242.597	74.81
242.83	81.81
243.064	72.81
243.298	77.81
243.531	73.81
243.765	76.81
243.998	81.81
244.232	76.81
244.465	85.81
244.699	76.81
244.932	74.81
245.166	67.81
245.399	74.81
245.633	74.81
245.866	85.81
246.099	85.81
246.333	79.81
246.566	80.81
246.8	83.81
247.033	80.81
247.266	86.81
247.5	81.81
247.733	88.81
247.966	77.81
248.2	74.81
248.433	76.81
248.666	83.81
248.899	69.81
249.133	81.81
249.366	82.81
249.599	75.81
249.832	70.81
250.066	84.81
250.299	78.81
250.532	68.81
250.765	79.81
250.998	76.81
251.231	74.81
251.465	60.81
251.698	82.81
251.931	76.81
252.164	70.81
252.397	90.81
252.63	80.81
252.863	90.81
253.096	80.81
253.329	69.81
253.562	71.81
253.795	67.81
254.028	101.81
254.261	72.81
254.494	74.81
254.727	74.81
254.96	75.81
255.193	80.81
255.426	73.81
255.659	64.81
255.892	80.81
256.124	68.81
256.357	83.81
256.59	89.81
256.823	90.81
257.056	87.81
257.289	76.81
257.521	78.81
257.754	75.81
257.987	72.81
258.22	70.81
258.452	80.81
258.685	82.81
258.918	75.81
259.151	102.81
259.383	94.81
259.616	72.81
259.849	72.81
260.081	86.81
260.314	76.81
260.547	67.81
260.779	76.81
261.012	84.81
261.244	82.81
261.477	79.81
261.71	80.81
261.942	81.81
262.175	82.81
262.407	77.81
262.64	89.81
262.872	71.81
263.105	84.81
263.337	81.81
263.57	75.81
263.802	72.81
264.035	78.81
264.267	86.81
264.499	98.81
264.732	92.81
264.964	88.81
265.197	85.81
265.429	75.81
265.661	76.81
265.894	91.81
266.126	76.81
266.358	68.81
266.591	57.81
266.823	74.81
267.055	72.81
267.287	86.81
267.52	86.81
267.752	76.81
267.984	68.81
268.216	84.81
268.448	71.81
268.681	66.81
268.913	94.81
269.145	85.81
269.377	85.81
269.609	86.81
269.841	94.81
270.073	89.81
270.306	85.81
270.538	75.81
270.77	84.81
271.002	86.81
271.234	75.81
271.466	76.81
271.698	69.81
271.93	76.81
272.162	72.81
272.394	81.81
272.626	80.81
272.858	88.81
273.09	82.81
273.322	87.81
273.553	85.81
273.785	78.81
274.017	85.81
274.249	87.81
274.481	69.81
274.713	74.81
274.945	73.81
275.176	80.81
275.408	76.81
275.64	68.81
275.872	88.81
276.104	74.81
276.335	84.81
276.567	86.81
276.799	79.81
277.031	81.81
277.262	86.81
277.494	84.81
277.726	88.81
277.957	77.81
278.189	71.81
278.421	94.81
278.652	88.81
278.884	83.81
279.115	83.81
279.347	70.81
279.579	89.81
279.81	84.81
280.042	93.81
280.273	95.81
280.505	82.81
280.736	80.81
280.968	86.81
281.199	84.81
281.431	75.81
281.662	81.81
281.894	78.81
282.125	75.81
282.356	80.81
282.588	75.81
282.819	91.81
283.051	58.81
283.282	68.81
283.513	73.81
283.745	77.81
283.976	76.81
284.207	88.81
284.439	79.81
284.67	101.81
284.901	73.81
285.132	79.81
285.364	79.81
285.595	90.81
285.826	90.81
286.057	93.81
286.288	78.81
286.52	79.81
286.751	89.81
286.982	72.81
287.213	87.81
287.444	90.81
287.675	85.81
287.906	82.81
288.138	92.81
288.369	86.81
288.6	86.81
288.831	82.81
289.062	90.81
289.293	92.81
289.524	103.81
289.755	82.81
289.986	73.81
290.217	92.81
290.448	77.81
290.679	84.81
290.91	99.81
291.141	88.81
291.371	82.81
291.602	94.81
291.833	79.81
292.064	88.81
292.295	91.81
292.526	76.81
292.757	86.81
292.987	84.81
293.218	83.81
293.449	82.81
293.68	85.81
293.91	70.81
294.141	94.81
294.372	87.81
294.603	96.81
294.833	86.81
295.064	78.81
295.295	74.81
295.525	78.81
295.756	84.81
295.987	84.81
296.217	86.81
296.448	87.81
296.679	74.81
296.909	89.81
297.14	79.81
297.37	78.81
297.601	67.81
297.831	89.81
298.062	80.81
298.292	91.81
298.523	96.81
298.753	66.81
298.984	80.81
299.214	85.81
299.445	94.81
299.675	68.81
299.905	94.81
300.136	76.81
300.366	88.81
300.597	87.81
300.827	68.81
301.057	92.81
301.288	79.81
301.518	81.81
301.748	71.81
301.979	90.81
302.209	94.81
302.439	85.81
302.669	73.81
302.9	75.81
303.13	72.81
303.36	89.81
303.59	80.81
303.82	74.81
304.051	90.81
304.281	80.81
304.511	90.81
304.741	75.81
304.971	76.81
305.201	76.81
305.431	74.81
305.661	88.81
305.891	80.81
306.121	84.81
306.352	81.81
306.582	87.81
306.812	91.81
307.042	74.81
307.272	74.81
307.502	74.81
307.731	85.81
307.961	70.81
308.191	80.81
308.421	77.81
308.651	82.81
308.881	78.81
309.111	79.81
309.341	75.81
309.571	79.81
309.8	83.81
310.03	91.81
310.26	82.81
310.49	69.81
310.72	82.81
310.949	86.81
311.179	72.81
311.409	89.81
311.639	71.81
311.868	92.81
312.098	69.81
312.328	72.81
312.557	96.81
312.787	74.81
313.017	82.81
313.246	87.81
313.476	100.81
313.706	90.81
313.935	81.81
314.165	87.81
314.394	65.81
314.624	85.81
314.853	89.81
315.083	86.81
315.312	90.81
315.542	87.81
315.771	75.81
316.001	86.81
316.23	103.81
316.46	83.81
316.689	76.81
316.919	88.81
317.148	92.81
317.377	98.81
317.607	97.81
317.836	81.81
318.065	76.81
318.295	67.81
318.524	85.81
318.753	90.81
318.983	74.81
319.212	78.81
319.441	74.81
319.67	99.81
319.9	79.81
320.129	87.81
320.358	86.81
320.587	76.81
320.816	85.81
321.046	90.81
321.275	84.81
321.504	83.81
321.733	80.81
321.962	87.81
322.191	81.81
322.42	85.81
322.649	91.81
322.878	90.81
323.108	99.81
323.337	85.81
323.566	85.81
323.795	84.81
324.024	88.81
324.253	77.81
324.482	90.81
324.71	77.81
324.939	80.81
325.168	76.81
325.397	76.81
325.626	82.81
325.855	82.81
326.084	71.81
326.313	88.81
326.542	90.81
326.77	89.81
326.999	87.81
327.228	94.81
327.457	83.81
327.686	91.81
327.914	83.81
328.143	89.81
328.372	90.81
328.6	79.81
328.829	74.81
329.058	80.81
329.287	88.81
329.515	79.81
329.744	71.81
329.972	82.81
330.201	73.81
330.43	89.81
330.658	88.81
330.887	84.81
331.115	79.81
331.344	81.81
331.572	88.81
331.801	96.81
332.03	84.81
332.258	95.81
332.486	70.81
332.715	79.81
332.943	101.81
333.172	85.81
333.4	94.81
333.629	60.81
333.857	82.81
334.085	85.81
334.314	88.81
334.542	78.81
334.771	92.81
334.999	78.81
335.227	89.81
335.455	76.81
335.684	86.81
335.912	84.81
336.14	96.81
336.369	88.81
336.597	96.81
336.825	84.81
337.053	92.81
337.281	90.81
337.51	66.81
337.738	76.81
337.966	84.81
338.194	79.81
338.422	84.81
338.65	90.81
338.878	82.81
339.106	84.81
339.334	80.81
339.562	75.81
339.79	86.81
340.018	78.81
340.246	90.81
340.474	80.81
340.702	90.81
340.93	74.81
341.158	91.81
341.386	95.81
341.614	79.81
341.842	83.81
342.07	77.81
342.298	84.81
342.526	91.81
342.754	87.81
342.981	69.81
343.209	80.81
343.437	105.81
343.665	76.81
343.893	77.81
344.12	77.81
344.348	86.81
344.576	90.81
344.804	88.81
345.031	75.81
345.259	91.81
345.487	96.81
345.714	81.81
345.942	80.81
346.17	86.81
346.397	86.81
346.625	76.81
346.853	72.81
347.08	75.81
347.308	80.81
347.535	78.81
347.763	82.81
347.99	59.81
348.218	86.81
348.445	89.81
348.673	74.81
348.9	88.81
349.128	74.81
349.355	76.81
349.583	75.81
349.81	86.81
350.037	86.81
350.265	91.81
350.492	81.81
350.72	84.81
350.947	76.81
351.174	85.81
351.402	81.81
351.629	73.81
351.856	70.81
352.083	84.81
352.311	82.81
352.538	71.81
352.765	82.81
352.992	88.81
353.22	78.81
353.447	93.81
353.674	90.81
353.901	88.81
354.128	86.81
354.355	91.81
354.583	85.81
354.81	82.81
355.037	81.81
355.264	96.81
355.491	80.81
355.718	83.81
355.945	88.81
356.172	84.81
356.399	74.81
356.626	75.81
356.853	76.81
357.08	77.81
357.307	80.81
357.534	98.81
357.761	78.81
357.988	84.81
358.215	69.81
358.441	76.81
358.668	96.81
358.895	73.81
359.122	78.81
359.349	78.81
359.576	93.81
359.802	74.81
360.029	83.81
360.256	76.81
360.483	86.81
360.709	92.81
360.936	74.81
361.163	78.81
361.39	80.81
361.616	88.81
361.843	88.81
362.07	103.81
362.296	87.81
362.523	75.81
362.749	91.81
362.976	93.81
363.203	78.81
363.429	93.81
363.656	79.81
363.882	89.81
364.109	83.81
364.335	80.81
364.562	91.81
364.788	87.81
365.015	74.81
365.241	83.81
365.468	86.81
365.694	78.81
365.92	80.81
366.147	88.81
366.373	87.81
366.599	78.81
366.826	66.81
367.052	79.81
367.278	84.81
367.505	80.81
367.731	95.81
367.957	87.81
368.184	80.81
368.41	80.81
368.636	84.81
368.862	79.81
369.089	85.81
369.315	86.81
369.541	94.81
369.767	89.81
369.993	74.81
370.219	82.81
370.445	93.81
370.672	91.81
370.898	79.81
371.124	92.81
371.35	82.81
371.576	77.81
371.802	78.81
372.028	82.81
372.254	66.81
372.48	81.81
372.706	86.81
372.932	88.81
373.158	91.81
373.384	85.81
373.61	97.81
373.835	73.81
374.061	81.81
374.287	88.81
374.513	76.81
374.739	77.81
374.965	73.81
375.191	77.81
375.416	78.81
375.642	62.81
375.868	90.81
376.094	86.81
376.319	91.81
376.545	71.81
376.771	99.81
376.997	74.81
377.222	90.81
377.448	77.81
377.674	98.81
377.899	90.81
378.125	74.81
378.35	82.81
378.576	87.81
378.802	83.81
379.027	70.81
379.253	93.81
379.478	80.81
379.704	92.81
379.929	104.81
380.155	72.81
380.38	83.81
380.606	92.81
380.831	86.81
381.057	88.81
381.282	80.81
381.507	86.81
381.733	87.81
381.958	89.81
382.184	75.81
382.409	88.81
382.634	87.81
382.86	95.81
383.085	102.81
383.31	74.81
383.535	79.81
383.761	77.81
383.986	86.81
384.211	84.81
384.436	94.81
384.662	86.81
384.887	96.81
385.112	75.81
385.337	92.81
385.562	71.81
385.787	89.81
386.013	83.81
386.238	89.81
386.463	100.81
386.688	96.81
386.913	81.81
387.138	91.81
387.363	86.81
387.588	86.81
387.813	92.81
388.038	87.81
388.263	100.81
388.488	67.81
388.713	83.81
388.938	88.81
389.163	81.81
389.387	87.81
389.612	75.81
389.837	70.81
390.062	90.81
390.287	91.81
390.512	99.81
390.736	72.81
390.961	77.81
391.186	78.81
391.411	74.81
391.636	76.81
391.86	84.81
392.085	100.81
392.31	81.81
392.534	72.81
392.759	88.81
392.984	83.81
393.208	110.81
393.433	134.81
393.658	114.81
393.882	93.81
394.107	92.81
394.331	84.81
394.556	88.81
394.78	91.81
395.005	85.81
395.229	85.81
395.454	75.81
395.678	89.81
395.903	84.81
396.127	88.81
396.352	98.81
396.576	93.81
396.801	107.81
397.025	116.81
397.249	86.81
397.474	95.81
397.698	76.81
397.922	95.81
398.147	74.81
398.371	86.81
398.595	89.81
398.82	74.81
399.044	79.81
399.268	93.81
399.492	76.81
399.717	85.81
399.941	98.81
400.165	94.81
400.389	91.81
400.613	74.81
400.837	80.81
401.062	82.81
401.286	85.81
401.51	74.81
401.734	75.81
401.958	83.81
402.182	93.81
402.406	86.81
402.63	84.81
402.854	90.81
403.078	86.81
403.302	96.81
403.526	89.81
403.75	69.81
403.974	88.81
404.198	90.81
404.422	88.81
404.645	78.81
404.869	89.81
405.093	84.81
405.317	95.81
405.541	86.81
405.765	80.81
405.988	80.81
406.212	88.81
406.436	85.81
406.66	80.81
406.883	88.81
407.107	77.81
407.331	72.81
407.555	85.81
407.778	76.81
408.002	91.81
408.226	86.81
408.449	80.81
408.673	81.81
408.896	74.81
409.12	82.81
409.344	91.81
409.567	75.81
409.791	76.81
410.014	82.81
410.238	82.81
410.461	73.81
410.685	92.81
410.908	92.81
411.132	82.81
411.355	79.81
411.578	73.81
411.802	75.81
412.025	96.81
412.249	81.81
412.472	82.81
412.695	85.81
412.919	90.81
413.142	84.81
413.365	74.81
413.589	68.81
413.812	81.81
414.035	82.81
414.258	77.81
414.482	80.81
414.705	90.81
414.928	70.81
415.151	86.81
415.374	80.81
415.597	82.81
415.821	89.81
416.044	83.81
416.267	74.81
416.49	82.81
416.713	87.81
416.936	75.81
417.159	88.81
417.382	73.81
417.605	80.81
417.828	78.81
418.051	88.81
418.274	83.81
418.497	85.81
418.72	95.81
418.943	96.81
419.166	81.81
419.389	76.81
419.611	77.81
419.834	70.81
420.057	79.81
420.28	92.81
420.503	77.81
420.726	79.81
420.948	72.81
421.171	81.81
421.394	92.81
421.617	87.81
421.839	71.81
422.062	91.81
422.285	76.81
422.507	106.81
422.73	131.81
422.953	127.81
423.175	95.81
423.398	84.81
423.621	87.81
423.843	92.81
424.066	104.81
424.288	81.81
424.511	87.81
424.733	73.81
424.956	83.81
425.178	81.81
425.401	98.81
425.623	74.81
425.846	67.81
426.068	98.81
426.291	73.81
426.513	68.81
426.735	81.81
426.958	86.81
427.18	85.81
427.402	88.81
427.625	89.81
427.847	77.81
428.069	80.81
428.292	88.81
428.514	96.81
428.736	84.81
428.958	81.81
429.181	88.81
429.403	86.81
429.625	86.81
429.847	88.81
430.069	101.81
430.292	80.81
430.514	83.81
430.736	83.81
430.958	84.81
431.18	87.81
431.402	82.81
431.624	92.81
431.846	86.81
432.068	87.81
432.29	83.81
432.512	71.81
432.734	88.81
432.956	88.81
433.178	98.81
433.4	82.81
433.622	80.81
433.844	74.81
434.066	75.81
434.287	79.81
434.509	75.81
434.731	87.81
434.953	82.81
435.175	76.81
435.397	82.81
435.618	84.81
435.84	79.81
436.062	69.81
436.284	73.81
436.505	87.81
436.727	75.81
436.949	78.81
437.17	82.81
437.392	90.81
437.614	94.81
437.835	76.81
438.057	82.81
438.278	82.81
438.5	81.81
438.721	86.81
438.943	82.81
439.165	73.81
439.386	66.81
439.608	83.81
439.829	78.81
440.05	92.81
440.272	76.81
440.493	86.81
440.715	86.81
440.936	89.81
441.158	70.81
441.379	85.81
441.6	85.81
441.822	93.81
442.043	84.81
442.264	82.81
442.486	76.81
442.707	66.81
442.928	72.81
443.149	76.81
443.371	80.81
443.592	93.81
443.813	90.81
444.034	91.81
444.255	64.81
444.476	66.81
444.698	72.81
444.919	94.81
445.14	140.81
445.361	119.81
445.582	104.81
445.803	108.81
446.024	92.81
446.245	82.81
446.466	81.81
446.687	91.81
446.908	78.81
447.129	91.81
447.35	92.81
447.571	89.81
447.792	92.81
448.013	86.81
448.234	80.81
448.455	80.81
448.675	72.81
448.896	78.81
449.117	81.81
449.338	83.81
449.559	83.81
449.779	80.81
450	82.81
450.221	84.81
450.442	77.81
450.662	84.81
450.883	83.81
451.104	105.81
451.324	73.81
451.545	87.81
451.766	78.81
451.986	71.81
452.207	88.81
452.428	93.81
452.648	78.81
452.869	85.81
453.089	78.81
453.31	83.81
453.53	78.81
453.751	102.81
453.971	90.81
454.192	76.81
454.412	96.81
454.633	80.81
454.853	75.81
455.073	80.81
455.294	87.81
455.514	78.81
455.734	92.81
455.955	82.81
456.175	94.81
456.395	84.81
456.616	93.81
456.836	88.81
457.056	91.81
457.276	85.81
457.497	86.81
457.717	74.81
457.937	94.81
458.157	91.81
458.377	72.81
458.598	76.81
458.818	79.81
459.038	83.81
459.258	69.81
459.478	86.81
459.698	84.81
459.918	66.81
460.138	80.81
460.358	74.81
460.578	81.81
460.798	94.81
461.018	95.81
461.238	95.81
461.458	78.81
461.678	80.81
461.898	82.81
462.118	76.81
462.338	84.81
462.558	80.81
462.777	72.81
462.997	72.81
463.217	87.81
463.437	83.81
463.657	84.81
463.876	88.81
464.096	80.81
464.316	73.81
464.536	73.81
464.755	89.81
464.975	87.81
465.195	91.81
465.414	82.81
465.634	94.81
465.854	87.81
466.073	90.81
466.293	86.81
466.512	84.81
466.732	75.81
466.951	71.81
467.171	90.81
467.391	78.81
467.61	90.81
467.829	81.81
468.049	82.81
468.268	80.81
468.488	86.81
468.707	93.81
468.927	83.81
469.146	84.81
469.365	83.81
469.585	77.81
469.804	86.81
470.023	88.81
470.243	80.81
470.462	62.81
470.681	96.81
470.901	89.81
471.12	90.81
471.339	92.81
471.558	86.81
471.777	87.81
471.997	87.81
472.216	83.81
472.435	75.81
472.654	78.81
472.873	76.81
473.092	79.81
473.311	93.81
473.53	87.81
473.749	80.81
473.968	82.81
474.187	96.81
474.406	74.81
474.625	86.81
474.844	80.81
475.063	95.81
475.282	96.81
475.501	71.81
475.72	82.81
475.939	80.81
476.158	80.81
476.377	86.81
476.596	92.81
476.814	82.81
477.033	74.81
477.252	97.81
477.471	70.81
477.69	82.81
477.908	91.81
478.127	86.81
478.346	70.81
478.564	85.81
478.783	76.81
479.002	72.81
479.22	72.81
479.439	82.81
479.658	80.81
479.876	66.81
480.095	80.81
480.313	89.81
480.532	84.81
480.751	81.81
480.969	88.81
481.188	84.81
481.406	88.81
481.624	72.81
481.843	78.81
482.061	73.81
482.28	74.81
482.498	81.81
482.717	81.81
482.935	83.81
483.153	91.81
483.372	89.81
483.59	85.81
483.808	95.81
484.027	82.81
484.245	80.81
484.463	74.81
484.681	100.81
484.9	87.81
485.118	76.81
485.336	91.81
485.554	97.81
485.772	75.81
485.99	78.81
486.209	75.81
486.427	80.81
486.645	73.81
486.863	90.81
487.081	78.81
487.299	78.81
487.517	91.81
487.735	80.81
487.953	84.81
488.171	91.81
488.389	82.81
488.607	77.81
488.825	81.81
489.043	73.81
489.261	93.81
489.479	78.81
489.696	79.81
489.914	77.81
490.132	83.81
490.35	88.81
490.568	93.81
490.786	74.81
491.003	90.81
491.221	63.81
491.439	89.81
491.657	90.81
491.874	86.81
492.092	89.81
492.31	69.81
492.527	86.81
492.745	86.81
492.963	83.81
493.18	97.81
493.398	102.81
493.615	76.81
493.833	74.81
494.05	92.81
494.268	92.81
494.485	98.81
494.703	84.81
494.92	86.81
495.138	80.81
495.355	85.81
495.573	82.81
495.79	76.81
496.008	90.81
496.225	78.81
496.442	83.81
496.66	86.81
496.877	82.81
497.094	102.81
497.312	85.81
497.529	95.81
497.746	92.81
497.963	86.81
498.181	69.81
498.398	94.81
498.615	87.81
498.832	84.81
499.049	82.81
499.267	80.81
499.484	82.81
499.701	85.81
499.918	63.81
500.135	87.81
500.352	70.81
500.569	66.81
500.786	74.81
501.003	90.81
501.22	67.81
501.437	82.81
501.654	93.81
501.871	97.81
502.088	94.81
502.305	88.81
502.522	86.81
502.739	88.81
502.956	84.81
503.172	92.81
503.389	87.81
503.606	85.81
503.823	100.81
504.04	86.81
504.256	81.81
504.473	87.81
504.69	84.81
504.907	82.81
505.123	77.81
505.34	87.81
505.557	79.81
505.773	78.81
505.99	81.81
506.207	74.81
506.423	82.81
506.64	92.81
506.856	77.81
507.073	91.81
507.289	98.81
507.506	88.81
507.722	76.81
507.939	83.81
508.155	80.81
508.372	84.81
508.588	70.81
508.805	94.81
509.021	84.81
509.238	81.81
509.454	84.81
509.67	89.81
509.887	82.81
510.103	77.81
510.319	88.81
510.536	82.81
510.752	85.81
510.968	74.81
511.184	95.81
511.401	70.81
511.617	92.81
511.833	92.81
512.049	72.81
512.265	69.81
512.481	72.81
512.698	86.81
512.914	82.81
513.13	76.81
513.346	84.81
513.562	94.81
513.778	98.81
513.994	71.81
514.21	94.81
514.426	90.81
514.642	87.81
514.858	84.81
515.074	75.81
515.29	89.81
515.506	76.81
515.721	94.81
515.937	82.81
516.153	76.81
516.369	88.81
516.585	83.81
516.801	84.81
517.016	92.81
517.232	87.81
517.448	102.81
517.664	82.81
517.879	80.81
518.095	83.81
518.311	98.81
518.527	72.81
518.742	102.81
518.958	83.81
519.173	94.81
519.389	83.81
519.605	82.81
519.82	92.81
