Data from 17600_3_HRD10591_00019.txt Node
Date: Mon Jan 19 14:09:33 EST 2026
User: Yrep
Spectrometer: HR+D1059
Trigger mode: 1
Integration Time (sec): 1.000000E-1
Scans to average: 1
Electric dark correction enabled: true
Nonlinearity correction enabled: false
Boxcar width: 0
XAxis mode: Wavelengths
Number of Pixels in Spectrum: 2048
>>>>>Begin Spectral Data<<<<<
223.165	-23.06
223.4	-23.06
223.635	-23.06
223.869	2.94
224.104	-27.06
224.338	-7.06
224.573	-7.06
224.808	-16.06
225.042	-13.06
225.277	-12.06
225.511	-10.06
225.746	7.94
225.98	-0.06
226.215	14.94
226.449	15.94
226.683	11.94
226.918	23.94
227.152	37.94
227.387	43.94
227.621	36.94
227.856	42.94
228.09	49.94
228.324	48.94
228.559	55.94
228.793	72.94
229.027	59.94
229.262	48.94
229.496	62.94
229.73	60.94
229.964	57.94
230.199	65.94
230.433	69.94
230.667	83.94
230.901	67.94
231.136	82.94
231.37	79.94
231.604	74.94
231.838	76.94
232.072	82.94
232.306	75.94
232.541	74.94
232.775	87.94
233.009	69.94
233.243	74.94
233.477	72.94
233.711	83.94
233.945	96.94
234.179	64.94
234.413	77.94
234.647	80.94
234.881	83.94
235.115	72.94
235.349	75.94
235.583	72.94
235.817	73.94
236.051	75.94
236.285	83.94
236.519	92.94
236.753	77.94
236.987	71.94
237.221	85.94
237.455	72.94
237.689	82.94
237.922	65.94
238.156	72.94
238.39	78.94
238.624	80.94
238.858	68.94
239.091	60.94
239.325	80.94
239.559	72.94
239.793	77.94
240.027	88.94
240.26	72.94
240.494	77.94
240.728	80.94
240.961	69.94
241.195	66.94
241.429	72.94
241.662	70.94
241.896	78.94
242.13	68.94
242.363	81.94
242.597	76.94
242.83	67.94
243.064	77.94
243.298	85.94
243.531	72.94
243.765	72.94
243.998	80.94
244.232	85.94
244.465	84.94
244.699	72.94
244.932	82.94
245.166	87.94
245.399	78.94
245.633	72.94
245.866	85.94
246.099	71.94
246.333	79.94
246.566	77.94
246.8	82.94
247.033	74.94
247.266	80.94
247.5	74.94
247.733	79.94
247.966	76.94
248.2	82.94
248.433	92.94
248.666	74.94
248.899	65.94
249.133	75.94
249.366	72.94
249.599	69.94
249.832	86.94
250.066	104.94
250.299	101.94
250.532	93.94
250.765	71.94
250.998	83.94
251.231	80.94
251.465	70.94
251.698	71.94
251.931	82.94
252.164	70.94
252.397	81.94
252.63	86.94
252.863	70.94
253.096	84.94
253.329	81.94
253.562	78.94
253.795	78.94
254.028	71.94
254.261	78.94
254.494	67.94
254.727	103.94
254.96	77.94
255.193	65.94
255.426	68.94
255.659	80.94
255.892	98.94
256.124	80.94
256.357	80.94
256.59	71.94
256.823	54.94
257.056	72.94
257.289	80.94
257.521	84.94
257.754	80.94
257.987	66.94
258.22	72.94
258.452	77.94
258.685	90.94
258.918	75.94
259.151	85.94
259.383	78.94
259.616	86.94
259.849	89.94
260.081	78.94
260.314	77.94
260.547	80.94
260.779	83.94
261.012	94.94
261.244	68.94
261.477	97.94
261.71	72.94
261.942	86.94
262.175	76.94
262.407	70.94
262.64	74.94
262.872	77.94
263.105	91.94
263.337	79.94
263.57	86.94
263.802	75.94
264.035	84.94
264.267	82.94
264.499	73.94
264.732	84.94
264.964	79.94
265.197	75.94
265.429	84.94
265.661	81.94
265.894	87.94
266.126	71.94
266.358	74.94
266.591	74.94
266.823	77.94
267.055	80.94
267.287	75.94
267.52	90.94
267.752	77.94
267.984	80.94
268.216	81.94
268.448	70.94
268.681	80.94
268.913	93.94
269.145	73.94
269.377	85.94
269.609	94.94
269.841	76.94
270.073	71.94
270.306	82.94
270.538	84.94
270.77	75.94
271.002	71.94
271.234	64.94
271.466	81.94
271.698	79.94
271.93	82.94
272.162	82.94
272.394	86.94
272.626	80.94
272.858	78.94
273.09	97.94
273.322	80.94
273.553	76.94
273.785	84.94
274.017	75.94
274.249	80.94
274.481	72.94
274.713	84.94
274.945	68.94
275.176	83.94
275.408	86.94
275.64	78.94
275.872	68.94
276.104	80.94
276.335	78.94
276.567	74.94
276.799	86.94
277.031	76.94
277.262	86.94
277.494	91.94
277.726	98.94
277.957	89.94
278.189	90.94
278.421	80.94
278.652	68.94
278.884	84.94
279.115	84.94
279.347	75.94
279.579	80.94
279.81	93.94
280.042	66.94
280.273	87.94
280.505	89.94
280.736	82.94
280.968	61.94
281.199	89.94
281.431	85.94
281.662	69.94
281.894	88.94
282.125	80.94
282.356	74.94
282.588	100.94
282.819	89.94
283.051	80.94
283.282	79.94
283.513	93.94
283.745	85.94
283.976	82.94
284.207	83.94
284.439	82.94
284.67	101.94
284.901	86.94
285.132	81.94
285.364	73.94
285.595	91.94
285.826	88.94
286.057	75.94
286.288	84.94
286.52	86.94
286.751	84.94
286.982	71.94
287.213	83.94
287.444	76.94
287.675	88.94
287.906	89.94
288.138	96.94
288.369	82.94
288.6	98.94
288.831	82.94
289.062	74.94
289.293	82.94
289.524	87.94
289.755	88.94
289.986	66.94
290.217	84.94
290.448	86.94
290.679	70.94
290.91	87.94
291.141	82.94
291.371	81.94
291.602	104.94
291.833	77.94
292.064	89.94
292.295	72.94
292.526	78.94
292.757	80.94
292.987	89.94
293.218	80.94
293.449	68.94
293.68	84.94
293.91	78.94
294.141	101.94
294.372	84.94
294.603	84.94
294.833	86.94
295.064	82.94
295.295	75.94
295.525	84.94
295.756	80.94
295.987	81.94
296.217	78.94
296.448	82.94
296.679	72.94
296.909	66.94
297.14	78.94
297.37	80.94
297.601	71.94
297.831	94.94
298.062	86.94
298.292	76.94
298.523	81.94
298.753	70.94
298.984	84.94
299.214	74.94
299.445	87.94
299.675	79.94
299.905	74.94
300.136	72.94
300.366	88.94
300.597	89.94
300.827	92.94
301.057	91.94
301.288	96.94
301.518	86.94
301.748	88.94
301.979	105.94
302.209	80.94
302.439	80.94
302.669	85.94
302.9	79.94
303.13	75.94
303.36	87.94
303.59	78.94
303.82	83.94
304.051	76.94
304.281	71.94
304.511	79.94
304.741	80.94
304.971	80.94
305.201	80.94
305.431	95.94
305.661	89.94
305.891	80.94
306.121	86.94
306.352	91.94
306.582	78.94
306.812	82.94
307.042	85.94
307.272	80.94
307.502	82.94
307.731	85.94
307.961	86.94
308.191	78.94
308.421	87.94
308.651	85.94
308.881	101.94
309.111	86.94
309.341	91.94
309.571	94.94
309.8	75.94
310.03	84.94
310.26	91.94
310.49	83.94
310.72	92.94
310.949	86.94
311.179	76.94
311.409	86.94
311.639	89.94
311.868	78.94
312.098	92.94
312.328	81.94
312.557	90.94
312.787	66.94
313.017	82.94
313.246	87.94
313.476	74.94
313.706	96.94
313.935	83.94
314.165	72.94
314.394	87.94
314.624	87.94
314.853	82.94
315.083	88.94
315.312	72.94
315.542	81.94
315.771	85.94
316.001	99.94
316.23	85.94
316.46	76.94
316.689	81.94
316.919	86.94
317.148	84.94
317.377	82.94
317.607	75.94
317.836	86.94
318.065	78.94
318.295	82.94
318.524	79.94
318.753	77.94
318.983	85.94
319.212	83.94
319.441	77.94
319.67	86.94
319.9	89.94
320.129	72.94
320.358	110.94
320.587	88.94
320.816	67.94
321.046	84.94
321.275	86.94
321.504	73.94
321.733	80.94
321.962	93.94
322.191	75.94
322.42	91.94
322.649	89.94
322.878	82.94
323.108	85.94
323.337	75.94
323.566	88.94
323.795	78.94
324.024	81.94
324.253	88.94
324.482	88.94
324.71	92.94
324.939	80.94
325.168	79.94
325.397	89.94
325.626	90.94
325.855	88.94
326.084	92.94
326.313	90.94
326.542	76.94
326.77	95.94
326.999	86.94
327.228	72.94
327.457	91.94
327.686	90.94
327.914	86.94
328.143	97.94
328.372	89.94
328.6	79.94
328.829	99.94
329.058	78.94
329.287	72.94
329.515	82.94
329.744	82.94
329.972	78.94
330.201	85.94
330.43	71.94
330.658	90.94
330.887	83.94
331.115	85.94
331.344	80.94
331.572	90.94
331.801	80.94
332.03	78.94
332.258	88.94
332.486	77.94
332.715	79.94
332.943	72.94
333.172	86.94
333.4	78.94
333.629	81.94
333.857	84.94
334.085	76.94
334.314	70.94
334.542	78.94
334.771	78.94
334.999	77.94
335.227	81.94
335.455	81.94
335.684	88.94
335.912	91.94
336.14	76.94
336.369	95.94
336.597	85.94
336.825	82.94
337.053	87.94
337.281	74.94
337.51	87.94
337.738	87.94
337.966	97.94
338.194	64.94
338.422	93.94
338.65	84.94
338.878	82.94
339.106	82.94
339.334	85.94
339.562	72.94
339.79	79.94
340.018	81.94
340.246	94.94
340.474	74.94
340.702	88.94
340.93	72.94
341.158	74.94
341.386	77.94
341.614	79.94
341.842	70.94
342.07	80.94
342.298	88.94
342.526	78.94
342.754	71.94
342.981	78.94
343.209	90.94
343.437	98.94
343.665	75.94
343.893	84.94
344.12	68.94
344.348	90.94
344.576	84.94
344.804	79.94
345.031	78.94
345.259	95.94
345.487	80.94
345.714	70.94
345.942	76.94
346.17	71.94
346.397	80.94
346.625	74.94
346.853	81.94
347.08	75.94
347.308	75.94
347.535	81.94
347.763	88.94
347.99	72.94
348.218	86.94
348.445	70.94
348.673	82.94
348.9	92.94
349.128	88.94
349.355	76.94
349.583	86.94
349.81	85.94
350.037	62.94
350.265	79.94
350.492	92.94
350.72	80.94
350.947	80.94
351.174	85.94
351.402	97.94
351.629	71.94
351.856	90.94
352.083	73.94
352.311	84.94
352.538	84.94
352.765	87.94
352.992	89.94
353.22	84.94
353.447	72.94
353.674	82.94
353.901	77.94
354.128	81.94
354.355	66.94
354.583	80.94
354.81	70.94
355.037	87.94
355.264	84.94
355.491	83.94
355.718	81.94
355.945	82.94
356.172	89.94
356.399	80.94
356.626	90.94
356.853	82.94
357.08	78.94
357.307	78.94
357.534	90.94
357.761	92.94
357.988	76.94
358.215	87.94
358.441	71.94
358.668	66.94
358.895	82.94
359.122	82.94
359.349	92.94
359.576	113.94
359.802	79.94
360.029	74.94
360.256	86.94
360.483	78.94
360.709	81.94
360.936	78.94
361.163	85.94
361.39	96.94
361.616	74.94
361.843	86.94
362.07	93.94
362.296	92.94
362.523	83.94
362.749	68.94
362.976	84.94
363.203	89.94
363.429	82.94
363.656	92.94
363.882	80.94
364.109	94.94
364.335	70.94
364.562	90.94
364.788	85.94
365.015	72.94
365.241	72.94
365.468	74.94
365.694	62.94
365.92	72.94
366.147	70.94
366.373	77.94
366.599	95.94
366.826	86.94
367.052	84.94
367.278	87.94
367.505	92.94
367.731	84.94
367.957	83.94
368.184	98.94
368.41	80.94
368.636	81.94
368.862	77.94
369.089	75.94
369.315	93.94
369.541	72.94
369.767	72.94
369.993	84.94
370.219	70.94
370.445	93.94
370.672	94.94
370.898	89.94
371.124	74.94
371.35	79.94
371.576	90.94
371.802	80.94
372.028	84.94
372.254	82.94
372.48	82.94
372.706	96.94
372.932	89.94
373.158	97.94
373.384	86.94
373.61	84.94
373.835	94.94
374.061	94.94
374.287	94.94
374.513	77.94
374.739	82.94
374.965	75.94
375.191	65.94
375.416	73.94
375.642	88.94
375.868	92.94
376.094	94.94
376.319	85.94
376.545	58.94
376.771	83.94
376.997	76.94
377.222	82.94
377.448	85.94
377.674	80.94
377.899	91.94
378.125	97.94
378.35	74.94
378.576	88.94
378.802	84.94
379.027	81.94
379.253	60.94
379.478	95.94
379.704	92.94
379.929	80.94
380.155	91.94
380.38	76.94
380.606	75.94
380.831	96.94
381.057	70.94
381.282	74.94
381.507	80.94
381.733	100.94
381.958	75.94
382.184	72.94
382.409	74.94
382.634	83.94
382.86	77.94
383.085	81.94
383.31	71.94
383.535	70.94
383.761	74.94
383.986	86.94
384.211	82.94
384.436	82.94
384.662	79.94
384.887	83.94
385.112	89.94
385.337	95.94
385.562	86.94
385.787	82.94
386.013	81.94
386.238	76.94
386.463	84.94
386.688	92.94
386.913	83.94
387.138	80.94
387.363	73.94
387.588	79.94
387.813	80.94
388.038	85.94
388.263	92.94
388.488	86.94
388.713	66.94
388.938	80.94
389.163	80.94
389.387	81.94
389.612	78.94
389.837	75.94
390.062	88.94
390.287	87.94
390.512	77.94
390.736	79.94
390.961	96.94
391.186	89.94
391.411	84.94
391.636	80.94
391.86	66.94
392.085	86.94
392.31	84.94
392.534	94.94
392.759	89.94
392.984	112.94
393.208	124.94
393.433	172.94
393.658	144.94
393.882	85.94
394.107	91.94
394.331	84.94
394.556	80.94
394.78	80.94
395.005	80.94
395.229	85.94
395.454	76.94
395.678	81.94
395.903	92.94
396.127	88.94
396.352	96.94
396.576	92.94
396.801	140.94
397.025	133.94
397.249	98.94
397.474	78.94
397.698	84.94
397.922	68.94
398.147	93.94
398.371	76.94
398.595	92.94
398.82	76.94
399.044	79.94
399.268	72.94
399.492	73.94
399.717	72.94
399.941	105.94
400.165	80.94
400.389	94.94
400.613	80.94
400.837	87.94
401.062	84.94
401.286	72.94
401.51	71.94
401.734	83.94
401.958	74.94
402.182	89.94
402.406	74.94
402.63	93.94
402.854	86.94
403.078	89.94
403.302	70.94
403.526	81.94
403.75	78.94
403.974	81.94
404.198	65.94
404.422	82.94
404.645	77.94
404.869	75.94
405.093	81.94
405.317	77.94
405.541	73.94
405.765	78.94
405.988	79.94
406.212	80.94
406.436	85.94
406.66	82.94
406.883	80.94
407.107	83.94
407.331	72.94
407.555	85.94
407.778	96.94
408.002	81.94
408.226	87.94
408.449	71.94
408.673	78.94
408.896	84.94
409.12	81.94
409.344	83.94
409.567	91.94
409.791	80.94
410.014	72.94
410.238	73.94
410.461	75.94
410.685	80.94
410.908	76.94
411.132	81.94
411.355	91.94
411.578	69.94
411.802	83.94
412.025	81.94
412.249	97.94
412.472	70.94
412.695	86.94
412.919	77.94
413.142	87.94
413.365	73.94
413.589	75.94
413.812	88.94
414.035	76.94
414.258	81.94
414.482	77.94
414.705	68.94
414.928	77.94
415.151	76.94
415.374	81.94
415.597	80.94
415.821	75.94
416.044	77.94
416.267	80.94
416.49	83.94
416.713	80.94
416.936	83.94
417.159	94.94
417.382	58.94
417.605	85.94
417.828	74.94
418.051	82.94
418.274	84.94
418.497	76.94
418.72	79.94
418.943	79.94
419.166	83.94
419.389	73.94
419.611	80.94
419.834	73.94
420.057	82.94
420.28	80.94
420.503	81.94
420.726	75.94
420.948	90.94
421.171	78.94
421.394	89.94
421.617	79.94
421.839	96.94
422.062	79.94
422.285	105.94
422.507	128.94
422.73	148.94
422.953	141.94
423.175	117.94
423.398	79.94
423.621	81.94
423.843	88.94
424.066	83.94
424.288	85.94
424.511	71.94
424.733	92.94
424.956	92.94
425.178	71.94
425.401	76.94
425.623	84.94
425.846	79.94
426.068	87.94
426.291	81.94
426.513	69.94
426.735	84.94
426.958	82.94
427.18	95.94
427.402	88.94
427.625	83.94
427.847	83.94
428.069	82.94
428.292	99.94
428.514	87.94
428.736	87.94
428.958	82.94
429.181	87.94
429.403	86.94
429.625	91.94
429.847	70.94
430.069	93.94
430.292	86.94
430.514	98.94
430.736	96.94
430.958	96.94
431.18	80.94
431.402	75.94
431.624	74.94
431.846	103.94
432.068	101.94
432.29	100.94
432.512	74.94
432.734	78.94
432.956	69.94
433.178	91.94
433.4	80.94
433.622	85.94
433.844	73.94
434.066	83.94
434.287	80.94
434.509	87.94
434.731	86.94
434.953	92.94
435.175	82.94
435.397	76.94
435.618	87.94
435.84	82.94
436.062	69.94
436.284	65.94
436.505	74.94
436.727	88.94
436.949	94.94
437.17	82.94
437.392	79.94
437.614	77.94
437.835	73.94
438.057	88.94
438.278	87.94
438.5	71.94
438.721	84.94
438.943	90.94
439.165	88.94
439.386	80.94
439.608	73.94
439.829	83.94
440.05	97.94
440.272	88.94
440.493	81.94
440.715	90.94
440.936	78.94
441.158	92.94
441.379	71.94
441.6	69.94
441.822	77.94
442.043	75.94
442.264	73.94
442.486	82.94
442.707	89.94
442.928	89.94
443.149	81.94
443.371	106.94
443.592	110.94
443.813	96.94
444.034	93.94
444.255	74.94
444.476	80.94
444.698	73.94
444.919	80.94
445.14	157.94
445.361	131.94
445.582	129.94
445.803	112.94
446.024	93.94
446.245	79.94
446.466	73.94
446.687	98.94
446.908	81.94
447.129	82.94
447.35	106.94
447.571	85.94
447.792	74.94
448.013	82.94
448.234	79.94
448.455	79.94
448.675	65.94
448.896	74.94
449.117	92.94
449.338	78.94
449.559	75.94
449.779	77.94
450	85.94
450.221	70.94
450.442	89.94
450.662	84.94
450.883	82.94
451.104	80.94
451.324	84.94
451.545	84.94
451.766	82.94
451.986	87.94
452.207	79.94
452.428	61.94
452.648	85.94
452.869	97.94
453.089	80.94
453.31	80.94
453.53	92.94
453.751	64.94
453.971	88.94
454.192	89.94
454.412	88.94
454.633	87.94
454.853	71.94
455.073	78.94
455.294	72.94
455.514	82.94
455.734	86.94
455.955	102.94
456.175	80.94
456.395	67.94
456.616	69.94
456.836	74.94
457.056	78.94
457.276	87.94
457.497	66.94
457.717	84.94
457.937	100.94
458.157	90.94
458.377	82.94
458.598	69.94
458.818	82.94
459.038	70.94
459.258	78.94
459.478	69.94
459.698	77.94
459.918	80.94
460.138	96.94
460.358	79.94
460.578	87.94
460.798	95.94
461.018	88.94
461.238	78.94
461.458	82.94
461.678	80.94
461.898	85.94
462.118	82.94
462.338	84.94
462.558	72.94
462.777	69.94
462.997	76.94
463.217	80.94
463.437	80.94
463.657	76.94
463.876	64.94
464.096	74.94
464.316	74.94
464.536	81.94
464.755	91.94
464.975	78.94
465.195	80.94
465.414	71.94
465.634	73.94
465.854	90.94
466.073	74.94
466.293	80.94
466.512	82.94
466.732	88.94
466.951	80.94
467.171	74.94
467.391	72.94
467.61	83.94
467.829	88.94
468.049	76.94
468.268	81.94
468.488	80.94
468.707	80.94
468.927	71.94
469.146	89.94
469.365	75.94
469.585	84.94
469.804	84.94
470.023	88.94
470.243	92.94
470.462	77.94
470.681	76.94
470.901	89.94
471.12	80.94
471.339	84.94
471.558	78.94
471.777	75.94
471.997	67.94
472.216	88.94
472.435	68.94
472.654	94.94
472.873	80.94
473.092	84.94
473.311	69.94
473.53	82.94
473.749	86.94
473.968	84.94
474.187	90.94
474.406	65.94
474.625	70.94
474.844	84.94
475.063	80.94
475.282	93.94
475.501	80.94
475.72	78.94
475.939	75.94
476.158	66.94
476.377	80.94
476.596	88.94
476.814	90.94
477.033	72.94
477.252	77.94
477.471	92.94
477.69	73.94
477.908	84.94
478.127	84.94
478.346	80.94
478.564	80.94
478.783	83.94
479.002	94.94
479.22	76.94
479.439	85.94
479.658	71.94
479.876	76.94
480.095	80.94
480.313	74.94
480.532	82.94
480.751	81.94
480.969	80.94
481.188	77.94
481.406	87.94
481.624	78.94
481.843	90.94
482.061	75.94
482.28	70.94
482.498	82.94
482.717	80.94
482.935	69.94
483.153	87.94
483.372	79.94
483.59	80.94
483.808	72.94
484.027	80.94
484.245	86.94
484.463	99.94
484.681	82.94
484.9	80.94
485.118	87.94
485.336	86.94
485.554	78.94
485.772	77.94
485.99	87.94
486.209	70.94
486.427	74.94
486.645	87.94
486.863	78.94
487.081	75.94
487.299	78.94
487.517	68.94
487.735	78.94
487.953	112.94
488.171	84.94
488.389	88.94
488.607	74.94
488.825	77.94
489.043	65.94
489.261	88.94
489.479	84.94
489.696	83.94
489.914	87.94
490.132	78.94
490.35	79.94
490.568	97.94
490.786	80.94
491.003	83.94
491.221	78.94
491.439	87.94
491.657	85.94
491.874	83.94
492.092	88.94
492.31	85.94
492.527	72.94
492.745	80.94
492.963	88.94
493.18	77.94
493.398	85.94
493.615	83.94
493.833	81.94
494.05	84.94
494.268	93.94
494.485	68.94
494.703	74.94
494.92	86.94
495.138	82.94
495.355	83.94
495.573	89.94
495.79	75.94
496.008	75.94
496.225	81.94
496.442	81.94
496.66	86.94
496.877	90.94
497.094	94.94
497.312	92.94
497.529	72.94
497.746	85.94
497.963	85.94
498.181	71.94
498.398	90.94
498.615	83.94
498.832	74.94
499.049	87.94
499.267	80.94
499.484	85.94
499.701	92.94
499.918	70.94
500.135	95.94
500.352	82.94
500.569	80.94
500.786	95.94
501.003	92.94
501.22	91.94
501.437	78.94
501.654	96.94
501.871	70.94
502.088	86.94
502.305	78.94
502.522	85.94
502.739	92.94
502.956	78.94
503.172	94.94
503.389	71.94
503.606	82.94
503.823	73.94
504.04	82.94
504.256	101.94
504.473	80.94
504.69	88.94
504.907	81.94
505.123	80.94
505.34	76.94
505.557	75.94
505.773	72.94
505.99	87.94
506.207	77.94
506.423	78.94
506.64	74.94
506.856	89.94
507.073	82.94
507.289	88.94
507.506	80.94
507.722	70.94
507.939	70.94
508.155	82.94
508.372	87.94
508.588	86.94
508.805	86.94
509.021	77.94
509.238	80.94
509.454	80.94
509.67	83.94
509.887	81.94
510.103	86.94
510.319	82.94
510.536	92.94
510.752	79.94
510.968	100.94
511.184	78.94
511.401	74.94
511.617	78.94
511.833	77.94
512.049	80.94
512.265	78.94
512.481	82.94
512.698	92.94
512.914	101.94
513.13	85.94
513.346	81.94
513.562	68.94
513.778	73.94
513.994	88.94
514.21	86.94
514.426	99.94
514.642	80.94
514.858	89.94
515.074	97.94
515.29	89.94
515.506	81.94
515.721	86.94
515.937	78.94
516.153	79.94
516.369	89.94
516.585	85.94
516.801	74.94
517.016	82.94
517.232	76.94
517.448	96.94
517.664	89.94
517.879	84.94
518.095	82.94
518.311	86.94
518.527	84.94
518.742	96.94
518.958	90.94
519.173	88.94
519.389	77.94
519.605	97.94
519.82	84.94
