Data from 17600_3_HRD10591_00008.txt Node
Date: Mon Jan 19 14:09:27 EST 2026
User: Yrep
Spectrometer: HR+D1059
Trigger mode: 1
Integration Time (sec): 1.000000E-1
Scans to average: 1
Electric dark correction enabled: true
Nonlinearity correction enabled: false
Boxcar width: 0
XAxis mode: Wavelengths
Number of Pixels in Spectrum: 2048
>>>>>Begin Spectral Data<<<<<
223.165	-33.62
223.4	-33.62
223.635	-33.62
223.869	-14.62
224.104	-29.62
224.338	-13.62
224.573	-18.62
224.808	-13.62
225.042	-11.62
225.277	-0.62
225.511	5.38
225.746	14.38
225.98	18.38
226.215	-0.62
226.449	20.38
226.683	17.38
226.918	26.38
227.152	34.38
227.387	34.38
227.621	43.38
227.856	39.38
228.09	55.38
228.324	42.38
228.559	56.38
228.793	57.38
229.027	57.38
229.262	60.38
229.496	64.38
229.73	72.38
229.964	83.38
230.199	68.38
230.433	84.38
230.667	79.38
230.901	74.38
231.136	77.38
231.37	78.38
231.604	89.38
231.838	82.38
232.072	55.38
232.306	64.38
232.541	95.38
232.775	68.38
233.009	72.38
233.243	78.38
233.477	67.38
233.711	79.38
233.945	85.38
234.179	74.38
234.413	72.38
234.647	81.38
234.881	90.38
235.115	85.38
235.349	83.38
235.583	89.38
235.817	76.38
236.051	69.38
236.285	66.38
236.519	73.38
236.753	80.38
236.987	80.38
237.221	68.38
237.455	69.38
237.689	67.38
237.922	73.38
238.156	68.38
238.39	81.38
238.624	80.38
238.858	71.38
239.091	64.38
239.325	70.38
239.559	75.38
239.793	80.38
240.027	68.38
240.26	64.38
240.494	60.38
240.728	77.38
240.961	80.38
241.195	74.38
241.429	73.38
241.662	66.38
241.896	70.38
242.13	72.38
242.363	70.38
242.597	76.38
242.83	77.38
243.064	79.38
243.298	73.38
243.531	76.38
243.765	72.38
243.998	77.38
244.232	79.38
244.465	80.38
244.699	84.38
244.932	64.38
245.166	69.38
245.399	80.38
245.633	68.38
245.866	74.38
246.099	81.38
246.333	83.38
246.566	84.38
246.8	78.38
247.033	83.38
247.266	65.38
247.5	73.38
247.733	70.38
247.966	78.38
248.2	80.38
248.433	77.38
248.666	77.38
248.899	81.38
249.133	75.38
249.366	88.38
249.599	75.38
249.832	73.38
250.066	83.38
250.299	96.38
250.532	79.38
250.765	70.38
250.998	87.38
251.231	64.38
251.465	78.38
251.698	73.38
251.931	72.38
252.164	76.38
252.397	70.38
252.63	84.38
252.863	78.38
253.096	71.38
253.329	70.38
253.562	69.38
253.795	77.38
254.028	71.38
254.261	64.38
254.494	70.38
254.727	72.38
254.96	78.38
255.193	79.38
255.426	80.38
255.659	66.38
255.892	76.38
256.124	74.38
256.357	57.38
256.59	88.38
256.823	82.38
257.056	81.38
257.289	84.38
257.521	78.38
257.754	88.38
257.987	74.38
258.22	84.38
258.452	78.38
258.685	73.38
258.918	80.38
259.151	74.38
259.383	84.38
259.616	80.38
259.849	74.38
260.081	74.38
260.314	82.38
260.547	88.38
260.779	86.38
261.012	96.38
261.244	72.38
261.477	88.38
261.71	85.38
261.942	96.38
262.175	76.38
262.407	77.38
262.64	70.38
262.872	78.38
263.105	68.38
263.337	76.38
263.57	73.38
263.802	78.38
264.035	72.38
264.267	72.38
264.499	72.38
264.732	99.38
264.964	82.38
265.197	80.38
265.429	84.38
265.661	85.38
265.894	70.38
266.126	62.38
266.358	85.38
266.591	87.38
266.823	83.38
267.055	83.38
267.287	77.38
267.52	73.38
267.752	84.38
267.984	66.38
268.216	80.38
268.448	92.38
268.681	77.38
268.913	91.38
269.145	89.38
269.377	93.38
269.609	81.38
269.841	81.38
270.073	70.38
270.306	86.38
270.538	84.38
270.77	86.38
271.002	62.38
271.234	92.38
271.466	78.38
271.698	80.38
271.93	71.38
272.162	81.38
272.394	77.38
272.626	70.38
272.858	76.38
273.09	77.38
273.322	84.38
273.553	85.38
273.785	74.38
274.017	84.38
274.249	70.38
274.481	76.38
274.713	85.38
274.945	75.38
275.176	68.38
275.408	73.38
275.64	72.38
275.872	78.38
276.104	70.38
276.335	64.38
276.567	63.38
276.799	88.38
277.031	87.38
277.262	66.38
277.494	82.38
277.726	78.38
277.957	93.38
278.189	81.38
278.421	82.38
278.652	79.38
278.884	91.38
279.115	82.38
279.347	58.38
279.579	83.38
279.81	80.38
280.042	87.38
280.273	84.38
280.505	85.38
280.736	79.38
280.968	76.38
281.199	79.38
281.431	87.38
281.662	80.38
281.894	75.38
282.125	89.38
282.356	91.38
282.588	82.38
282.819	84.38
283.051	78.38
283.282	65.38
283.513	89.38
283.745	73.38
283.976	82.38
284.207	76.38
284.439	89.38
284.67	76.38
284.901	86.38
285.132	97.38
285.364	85.38
285.595	82.38
285.826	74.38
286.057	73.38
286.288	81.38
286.52	83.38
286.751	86.38
286.982	89.38
287.213	73.38
287.444	82.38
287.675	64.38
287.906	75.38
288.138	74.38
288.369	79.38
288.6	86.38
288.831	82.38
289.062	90.38
289.293	75.38
289.524	80.38
289.755	79.38
289.986	60.38
290.217	89.38
290.448	94.38
290.679	68.38
290.91	70.38
291.141	77.38
291.371	85.38
291.602	86.38
291.833	70.38
292.064	81.38
292.295	78.38
292.526	75.38
292.757	66.38
292.987	77.38
293.218	93.38
293.449	93.38
293.68	81.38
293.91	93.38
294.141	90.38
294.372	76.38
294.603	99.38
294.833	84.38
295.064	80.38
295.295	95.38
295.525	88.38
295.756	64.38
295.987	84.38
296.217	78.38
296.448	78.38
296.679	81.38
296.909	93.38
297.14	89.38
297.37	86.38
297.601	92.38
297.831	81.38
298.062	87.38
298.292	78.38
298.523	84.38
298.753	80.38
298.984	71.38
299.214	100.38
299.445	98.38
299.675	84.38
299.905	72.38
300.136	83.38
300.366	81.38
300.597	87.38
300.827	78.38
301.057	89.38
301.288	93.38
301.518	86.38
301.748	76.38
301.979	96.38
302.209	90.38
302.439	80.38
302.669	86.38
302.9	84.38
303.13	87.38
303.36	90.38
303.59	84.38
303.82	72.38
304.051	91.38
304.281	90.38
304.511	92.38
304.741	89.38
304.971	76.38
305.201	88.38
305.431	88.38
305.661	93.38
305.891	96.38
306.121	80.38
306.352	94.38
306.582	81.38
306.812	64.38
307.042	84.38
307.272	89.38
307.502	75.38
307.731	100.38
307.961	85.38
308.191	81.38
308.421	88.38
308.651	85.38
308.881	100.38
309.111	92.38
309.341	109.38
309.571	92.38
309.8	91.38
310.03	89.38
310.26	84.38
310.49	78.38
310.72	72.38
310.949	72.38
311.179	89.38
311.409	85.38
311.639	75.38
311.868	93.38
312.098	84.38
312.328	80.38
312.557	77.38
312.787	81.38
313.017	93.38
313.246	89.38
313.476	84.38
313.706	91.38
313.935	87.38
314.165	86.38
314.394	83.38
314.624	96.38
314.853	93.38
315.083	93.38
315.312	92.38
315.542	91.38
315.771	76.38
316.001	98.38
316.23	78.38
316.46	89.38
316.689	84.38
316.919	89.38
317.148	93.38
317.377	101.38
317.607	96.38
317.836	89.38
318.065	75.38
318.295	82.38
318.524	78.38
318.753	95.38
318.983	78.38
319.212	92.38
319.441	89.38
319.67	85.38
319.9	85.38
320.129	83.38
320.358	74.38
320.587	102.38
320.816	80.38
321.046	80.38
321.275	93.38
321.504	99.38
321.733	88.38
321.962	74.38
322.191	98.38
322.42	80.38
322.649	99.38
322.878	77.38
323.108	74.38
323.337	89.38
323.566	92.38
323.795	80.38
324.024	74.38
324.253	80.38
324.482	99.38
324.71	90.38
324.939	77.38
325.168	76.38
325.397	88.38
325.626	80.38
325.855	89.38
326.084	98.38
326.313	83.38
326.542	85.38
326.77	90.38
326.999	84.38
327.228	82.38
327.457	93.38
327.686	80.38
327.914	81.38
328.143	84.38
328.372	82.38
328.6	75.38
328.829	100.38
329.058	93.38
329.287	84.38
329.515	72.38
329.744	86.38
329.972	81.38
330.201	80.38
330.43	90.38
330.658	84.38
330.887	95.38
331.115	79.38
331.344	86.38
331.572	84.38
331.801	81.38
332.03	94.38
332.258	71.38
332.486	78.38
332.715	91.38
332.943	98.38
333.172	90.38
333.4	85.38
333.629	88.38
333.857	92.38
334.085	79.38
334.314	100.38
334.542	80.38
334.771	85.38
334.999	81.38
335.227	88.38
335.455	95.38
335.684	90.38
335.912	97.38
336.14	96.38
336.369	106.38
336.597	75.38
336.825	91.38
337.053	99.38
337.281	87.38
337.51	57.38
337.738	82.38
337.966	82.38
338.194	78.38
338.422	86.38
338.65	73.38
338.878	76.38
339.106	96.38
339.334	88.38
339.562	77.38
339.79	87.38
340.018	95.38
340.246	80.38
340.474	82.38
340.702	78.38
340.93	88.38
341.158	92.38
341.386	66.38
341.614	90.38
341.842	85.38
342.07	78.38
342.298	89.38
342.526	90.38
342.754	67.38
342.981	79.38
343.209	84.38
343.437	105.38
343.665	72.38
343.893	86.38
344.12	81.38
344.348	90.38
344.576	78.38
344.804	98.38
345.031	77.38
345.259	82.38
345.487	77.38
345.714	75.38
345.942	82.38
346.17	91.38
346.397	95.38
346.625	86.38
346.853	70.38
347.08	80.38
347.308	101.38
347.535	91.38
347.763	73.38
347.99	96.38
348.218	85.38
348.445	85.38
348.673	96.38
348.9	93.38
349.128	90.38
349.355	64.38
349.583	80.38
349.81	88.38
350.037	81.38
350.265	83.38
350.492	74.38
350.72	90.38
350.947	89.38
351.174	93.38
351.402	106.38
351.629	62.38
351.856	100.38
352.083	90.38
352.311	75.38
352.538	81.38
352.765	90.38
352.992	84.38
353.22	92.38
353.447	87.38
353.674	74.38
353.901	84.38
354.128	97.38
354.355	86.38
354.583	83.38
354.81	93.38
355.037	90.38
355.264	71.38
355.491	84.38
355.718	70.38
355.945	87.38
356.172	80.38
356.399	95.38
356.626	71.38
356.853	78.38
357.08	86.38
357.307	82.38
357.534	94.38
357.761	94.38
357.988	104.38
358.215	102.38
358.441	95.38
358.668	102.38
358.895	104.38
359.122	74.38
359.349	82.38
359.576	84.38
359.802	86.38
360.029	84.38
360.256	89.38
360.483	84.38
360.709	96.38
360.936	92.38
361.163	83.38
361.39	78.38
361.616	96.38
361.843	88.38
362.07	78.38
362.296	75.38
362.523	93.38
362.749	96.38
362.976	110.38
363.203	105.38
363.429	88.38
363.656	77.38
363.882	88.38
364.109	87.38
364.335	125.38
364.562	137.38
364.788	98.38
365.015	89.38
365.241	75.38
365.468	82.38
365.694	77.38
365.92	92.38
366.147	87.38
366.373	86.38
366.599	82.38
366.826	89.38
367.052	82.38
367.278	95.38
367.505	88.38
367.731	103.38
367.957	92.38
368.184	80.38
368.41	78.38
368.636	78.38
368.862	85.38
369.089	84.38
369.315	91.38
369.541	99.38
369.767	87.38
369.993	72.38
370.219	87.38
370.445	86.38
370.672	95.38
370.898	74.38
371.124	84.38
371.35	84.38
371.576	90.38
371.802	97.38
372.028	91.38
372.254	94.38
372.48	89.38
372.706	91.38
372.932	83.38
373.158	91.38
373.384	101.38
373.61	105.38
373.835	100.38
374.061	95.38
374.287	89.38
374.513	96.38
374.739	82.38
374.965	101.38
375.191	91.38
375.416	86.38
375.642	84.38
375.868	104.38
376.094	82.38
376.319	95.38
376.545	99.38
376.771	93.38
376.997	97.38
377.222	78.38
377.448	80.38
377.674	90.38
377.899	80.38
378.125	86.38
378.35	89.38
378.576	79.38
378.802	80.38
379.027	90.38
379.253	100.38
379.478	98.38
379.704	90.38
379.929	83.38
380.155	84.38
380.38	87.38
380.606	82.38
380.831	82.38
381.057	85.38
381.282	76.38
381.507	96.38
381.733	74.38
381.958	92.38
382.184	83.38
382.409	97.38
382.634	106.38
382.86	83.38
383.085	99.38
383.31	104.38
383.535	85.38
383.761	90.38
383.986	100.38
384.211	80.38
384.436	80.38
384.662	94.38
384.887	82.38
385.112	85.38
385.337	100.38
385.562	88.38
385.787	95.38
386.013	87.38
386.238	87.38
386.463	91.38
386.688	91.38
386.913	82.38
387.138	79.38
387.363	95.38
387.588	92.38
387.813	104.38
388.038	93.38
388.263	110.38
388.488	92.38
388.713	97.38
388.938	88.38
389.163	92.38
389.387	81.38
389.612	90.38
389.837	79.38
390.062	90.38
390.287	95.38
390.512	90.38
390.736	90.38
390.961	84.38
391.186	77.38
391.411	74.38
391.636	89.38
391.86	82.38
392.085	89.38
392.31	89.38
392.534	75.38
392.759	105.38
392.984	130.38
393.208	213.38
393.433	277.38
393.658	210.38
393.882	115.38
394.107	108.38
394.331	116.38
394.556	115.38
394.78	107.38
395.005	94.38
395.229	86.38
395.454	87.38
395.678	94.38
395.903	126.38
396.127	132.38
396.352	148.38
396.576	161.38
396.801	230.38
397.025	236.38
397.249	150.38
397.474	118.38
397.698	95.38
397.922	103.38
398.147	93.38
398.371	86.38
398.595	97.38
398.82	96.38
399.044	96.38
399.268	88.38
399.492	100.38
399.717	90.38
399.941	99.38
400.165	90.38
400.389	101.38
400.613	76.38
400.837	89.38
401.062	89.38
401.286	84.38
401.51	92.38
401.734	87.38
401.958	86.38
402.182	84.38
402.406	86.38
402.63	75.38
402.854	73.38
403.078	84.38
403.302	86.38
403.526	97.38
403.75	92.38
403.974	78.38
404.198	81.38
404.422	111.38
404.645	101.38
404.869	94.38
405.093	91.38
405.317	79.38
405.541	82.38
405.765	66.38
405.988	89.38
406.212	78.38
406.436	81.38
406.66	89.38
406.883	70.38
407.107	87.38
407.331	89.38
407.555	85.38
407.778	110.38
408.002	136.38
408.226	81.38
408.449	80.38
408.673	74.38
408.896	80.38
409.12	100.38
409.344	92.38
409.567	101.38
409.791	117.38
410.014	96.38
410.238	88.38
410.461	85.38
410.685	86.38
410.908	81.38
411.132	88.38
411.355	81.38
411.578	74.38
411.802	96.38
412.025	79.38
412.249	74.38
412.472	79.38
412.695	92.38
412.919	89.38
413.142	82.38
413.365	78.38
413.589	81.38
413.812	88.38
414.035	86.38
414.258	92.38
414.482	87.38
414.705	63.38
414.928	80.38
415.151	95.38
415.374	86.38
415.597	84.38
415.821	87.38
416.044	83.38
416.267	76.38
416.49	81.38
416.713	80.38
416.936	92.38
417.159	80.38
417.382	89.38
417.605	85.38
417.828	85.38
418.051	88.38
418.274	92.38
418.497	77.38
418.72	92.38
418.943	86.38
419.166	77.38
419.389	84.38
419.611	87.38
419.834	84.38
420.057	79.38
420.28	96.38
420.503	84.38
420.726	93.38
420.948	92.38
421.171	103.38
421.394	99.38
421.617	124.38
421.839	134.38
422.062	124.38
422.285	167.38
422.507	258.38
422.73	367.38
422.953	337.38
423.175	195.38
423.398	123.38
423.621	103.38
423.843	103.38
424.066	97.38
424.288	96.38
424.511	105.38
424.733	95.38
424.956	93.38
425.178	96.38
425.401	87.38
425.623	92.38
425.846	97.38
426.068	89.38
426.291	82.38
426.513	83.38
426.735	84.38
426.958	85.38
427.18	113.38
427.402	91.38
427.625	77.38
427.847	90.38
428.069	84.38
428.292	124.38
428.514	133.38
428.736	106.38
428.958	129.38
429.181	126.38
429.403	89.38
429.625	89.38
429.847	118.38
430.069	138.38
430.292	165.38
430.514	154.38
430.736	129.38
430.958	126.38
431.18	91.38
431.402	94.38
431.624	98.38
431.846	124.38
432.068	121.38
432.29	87.38
432.512	85.38
432.734	101.38
432.956	74.38
433.178	76.38
433.4	88.38
433.622	99.38
433.844	76.38
434.066	79.38
434.287	83.38
434.509	68.38
434.731	95.38
434.953	84.38
435.175	96.38
435.397	100.38
435.618	100.38
435.84	88.38
436.062	80.38
436.284	94.38
436.505	89.38
436.727	74.38
436.949	83.38
437.17	87.38
437.392	84.38
437.614	76.38
437.835	85.38
438.057	86.38
438.278	89.38
438.5	95.38
438.721	91.38
438.943	84.38
439.165	87.38
439.386	72.38
439.608	84.38
439.829	65.38
440.05	72.38
440.272	92.38
440.493	78.38
440.715	85.38
440.936	87.38
441.158	93.38
441.379	80.38
441.6	93.38
441.822	98.38
442.043	97.38
442.264	99.38
442.486	108.38
442.707	159.38
442.928	126.38
443.149	103.38
443.371	134.38
443.592	207.38
443.813	192.38
444.034	102.38
444.255	100.38
444.476	81.38
444.698	89.38
444.919	102.38
445.14	183.38
445.361	194.38
445.582	253.38
445.803	209.38
446.024	118.38
446.245	96.38
446.466	82.38
446.687	78.38
446.908	89.38
447.129	87.38
447.35	101.38
447.571	89.38
447.792	83.38
448.013	75.38
448.234	86.38
448.455	94.38
448.675	84.38
448.896	70.38
449.117	75.38
449.338	86.38
449.559	91.38
449.779	80.38
450	73.38
450.221	89.38
450.442	82.38
450.662	103.38
450.883	89.38
451.104	89.38
451.324	93.38
451.545	78.38
451.766	90.38
451.986	85.38
452.207	91.38
452.428	70.38
452.648	103.38
452.869	78.38
453.089	80.38
453.31	70.38
453.53	94.38
453.751	88.38
453.971	92.38
454.192	84.38
454.412	81.38
454.633	94.38
454.853	86.38
455.073	74.38
455.294	88.38
455.514	82.38
455.734	79.38
455.955	75.38
456.175	69.38
456.395	82.38
456.616	79.38
456.836	89.38
457.056	91.38
457.276	95.38
457.497	80.38
457.717	96.38
457.937	106.38
458.157	114.38
458.377	115.38
458.598	117.38
458.818	129.38
459.038	99.38
459.258	71.38
459.478	71.38
459.698	77.38
459.918	92.38
460.138	87.38
460.358	85.38
460.578	106.38
460.798	116.38
461.018	124.38
461.238	83.38
461.458	73.38
461.678	92.38
461.898	73.38
462.118	78.38
462.338	75.38
462.558	94.38
462.777	76.38
462.997	82.38
463.217	69.38
463.437	80.38
463.657	86.38
463.876	82.38
464.096	75.38
464.316	80.38
464.536	79.38
464.755	78.38
464.975	86.38
465.195	105.38
465.414	88.38
465.634	81.38
465.854	90.38
466.073	89.38
466.293	92.38
466.512	91.38
466.732	81.38
466.951	74.38
467.171	85.38
467.391	82.38
467.61	84.38
467.829	73.38
468.049	73.38
468.268	92.38
468.488	101.38
468.707	80.38
468.927	74.38
469.146	83.38
469.365	81.38
469.585	88.38
469.804	69.38
470.023	90.38
470.243	78.38
470.462	74.38
470.681	69.38
470.901	84.38
471.12	82.38
471.339	94.38
471.558	80.38
471.777	92.38
471.997	88.38
472.216	86.38
472.435	101.38
472.654	88.38
472.873	88.38
473.092	88.38
473.311	94.38
473.53	86.38
473.749	97.38
473.968	97.38
474.187	86.38
474.406	99.38
474.625	90.38
474.844	82.38
475.063	88.38
475.282	74.38
475.501	78.38
475.72	81.38
475.939	80.38
476.158	80.38
476.377	82.38
476.596	92.38
476.814	97.38
477.033	82.38
477.252	74.38
477.471	88.38
477.69	78.38
477.908	77.38
478.127	99.38
478.346	93.38
478.564	89.38
478.783	89.38
479.002	77.38
479.22	89.38
479.439	79.38
479.658	92.38
479.876	88.38
480.095	90.38
480.313	84.38
480.532	83.38
480.751	84.38
480.969	84.38
481.188	108.38
481.406	92.38
481.624	85.38
481.843	83.38
482.061	96.38
482.28	96.38
482.498	92.38
482.717	80.38
482.935	75.38
483.153	96.38
483.372	101.38
483.59	94.38
483.808	95.38
484.027	91.38
484.245	82.38
484.463	107.38
484.681	95.38
484.9	100.38
485.118	88.38
485.336	84.38
485.554	89.38
485.772	93.38
485.99	92.38
486.209	65.38
486.427	96.38
486.645	97.38
486.863	92.38
487.081	81.38
487.299	96.38
487.517	104.38
487.735	114.38
487.953	149.38
488.171	130.38
488.389	87.38
488.607	66.38
488.825	89.38
489.043	81.38
489.261	108.38
489.479	79.38
489.696	78.38
489.914	94.38
490.132	85.38
490.35	92.38
490.568	94.38
490.786	90.38
491.003	93.38
491.221	85.38
491.439	97.38
491.657	78.38
491.874	88.38
492.092	86.38
492.31	64.38
492.527	82.38
492.745	92.38
492.963	96.38
493.18	96.38
493.398	95.38
493.615	80.38
493.833	94.38
494.05	92.38
494.268	77.38
494.485	95.38
494.703	97.38
494.92	93.38
495.138	94.38
495.355	94.38
495.573	89.38
495.79	83.38
496.008	89.38
496.225	83.38
496.442	101.38
496.66	100.38
496.877	71.38
497.094	84.38
497.312	80.38
497.529	88.38
497.746	95.38
497.963	89.38
498.181	98.38
498.398	99.38
498.615	87.38
498.832	94.38
499.049	96.38
499.267	85.38
499.484	92.38
499.701	102.38
499.918	83.38
500.135	71.38
500.352	80.38
500.569	80.38
500.786	92.38
501.003	94.38
501.22	87.38
501.437	104.38
501.654	97.38
501.871	76.38
502.088	89.38
502.305	85.38
502.522	72.38
502.739	82.38
502.956	80.38
503.172	100.38
503.389	99.38
503.606	97.38
503.823	106.38
504.04	96.38
504.256	129.38
504.473	127.38
504.69	96.38
504.907	91.38
505.123	85.38
505.34	87.38
505.557	91.38
505.773	109.38
505.99	83.38
506.207	94.38
506.423	86.38
506.64	80.38
506.856	92.38
507.073	80.38
507.289	84.38
507.506	97.38
507.722	80.38
507.939	88.38
508.155	77.38
508.372	84.38
508.588	78.38
508.805	96.38
509.021	79.38
509.238	86.38
509.454	101.38
509.67	93.38
509.887	79.38
510.103	93.38
510.319	88.38
510.536	93.38
510.752	73.38
510.968	80.38
511.184	80.38
511.401	81.38
511.617	95.38
511.833	82.38
512.049	96.38
512.265	88.38
512.481	89.38
512.698	93.38
512.914	89.38
513.13	89.38
513.346	75.38
513.562	86.38
513.778	106.38
513.994	82.38
514.21	80.38
514.426	87.38
514.642	85.38
514.858	85.38
515.074	104.38
515.29	81.38
515.506	80.38
515.721	93.38
515.937	99.38
516.153	102.38
516.369	84.38
516.585	78.38
516.801	94.38
517.016	100.38
517.232	94.38
517.448	113.38
517.664	98.38
517.879	92.38
518.095	86.38
