Data from 17600_3_HRD10591_00028.txt Node
Date: Mon Jan 19 14:09:37 EST 2026
User: Yrep
Spectrometer: HR+D1059
Trigger mode: 1
Integration Time (sec): 1.000000E-1
Scans to average: 1
Electric dark correction enabled: true
Nonlinearity correction enabled: false
Boxcar width: 0
XAxis mode: Wavelengths
Number of Pixels in Spectrum: 2048
>>>>>Begin Spectral Data<<<<<
223.165	-10.56
223.4	-10.56
223.635	-10.56
223.869	-4.56
224.104	-21.56
224.338	-13.56
224.573	-4.56
224.808	-9.56
225.042	-0.56
225.277	-8.56
225.511	-13.56
225.746	1.44
225.98	1.44
226.215	8.44
226.449	12.44
226.683	12.44
226.918	33.44
227.152	17.44
227.387	30.44
227.621	19.44
227.856	44.44
228.09	48.44
228.324	47.44
228.559	65.44
228.793	51.44
229.027	63.44
229.262	65.44
229.496	70.44
229.73	77.44
229.964	65.44
230.199	65.44
230.433	59.44
230.667	71.44
230.901	87.44
231.136	64.44
231.37	76.44
231.604	72.44
231.838	82.44
232.072	77.44
232.306	85.44
232.541	81.44
232.775	74.44
233.009	77.44
233.243	85.44
233.477	81.44
233.711	77.44
233.945	72.44
234.179	76.44
234.413	72.44
234.647	63.44
234.881	65.44
235.115	76.44
235.349	75.44
235.583	81.44
235.817	67.44
236.051	67.44
236.285	81.44
236.519	63.44
236.753	64.44
236.987	63.44
237.221	73.44
237.455	68.44
237.689	83.44
237.922	73.44
238.156	79.44
238.39	72.44
238.624	64.44
238.858	70.44
239.091	64.44
239.325	69.44
239.559	63.44
239.793	78.44
240.027	68.44
240.26	77.44
240.494	70.44
240.728	59.44
240.961	60.44
241.195	68.44
241.429	62.44
241.662	59.44
241.896	68.44
242.13	80.44
242.363	73.44
242.597	84.44
242.83	68.44
243.064	64.44
243.298	61.44
243.531	67.44
243.765	79.44
243.998	82.44
244.232	67.44
244.465	84.44
244.699	69.44
244.932	68.44
245.166	68.44
245.399	76.44
245.633	69.44
245.866	81.44
246.099	74.44
246.333	65.44
246.566	53.44
246.8	79.44
247.033	85.44
247.266	75.44
247.5	71.44
247.733	71.44
247.966	86.44
248.2	89.44
248.433	68.44
248.666	76.44
248.899	82.44
249.133	75.44
249.366	71.44
249.599	62.44
249.832	79.44
250.066	64.44
250.299	79.44
250.532	59.44
250.765	66.44
250.998	78.44
251.231	69.44
251.465	84.44
251.698	84.44
251.931	71.44
252.164	67.44
252.397	72.44
252.63	75.44
252.863	80.44
253.096	71.44
253.329	81.44
253.562	71.44
253.795	72.44
254.028	85.44
254.261	66.44
254.494	65.44
254.727	69.44
254.96	81.44
255.193	85.44
255.426	72.44
255.659	67.44
255.892	84.44
256.124	81.44
256.357	71.44
256.59	75.44
256.823	75.44
257.056	74.44
257.289	84.44
257.521	90.44
257.754	78.44
257.987	78.44
258.22	81.44
258.452	71.44
258.685	66.44
258.918	57.44
259.151	70.44
259.383	89.44
259.616	69.44
259.849	60.44
260.081	75.44
260.314	91.44
260.547	89.44
260.779	78.44
261.012	85.44
261.244	78.44
261.477	77.44
261.71	81.44
261.942	71.44
262.175	75.44
262.407	58.44
262.64	80.44
262.872	68.44
263.105	76.44
263.337	81.44
263.57	75.44
263.802	85.44
264.035	79.44
264.267	71.44
264.499	71.44
264.732	76.44
264.964	86.44
265.197	89.44
265.429	83.44
265.661	84.44
265.894	71.44
266.126	77.44
266.358	89.44
266.591	85.44
266.823	65.44
267.055	78.44
267.287	85.44
267.52	67.44
267.752	71.44
267.984	84.44
268.216	77.44
268.448	91.44
268.681	65.44
268.913	92.44
269.145	77.44
269.377	89.44
269.609	74.44
269.841	80.44
270.073	72.44
270.306	71.44
270.538	86.44
270.77	74.44
271.002	76.44
271.234	75.44
271.466	82.44
271.698	71.44
271.93	79.44
272.162	82.44
272.394	94.44
272.626	82.44
272.858	70.44
273.09	80.44
273.322	77.44
273.553	79.44
273.785	87.44
274.017	80.44
274.249	72.44
274.481	87.44
274.713	81.44
274.945	79.44
275.176	81.44
275.408	71.44
275.64	81.44
275.872	85.44
276.104	97.44
276.335	74.44
276.567	71.44
276.799	72.44
277.031	78.44
277.262	78.44
277.494	81.44
277.726	69.44
277.957	74.44
278.189	77.44
278.421	77.44
278.652	82.44
278.884	81.44
279.115	77.44
279.347	78.44
279.579	77.44
279.81	71.44
280.042	79.44
280.273	65.44
280.505	78.44
280.736	81.44
280.968	80.44
281.199	76.44
281.431	85.44
281.662	70.44
281.894	64.44
282.125	90.44
282.356	75.44
282.588	70.44
282.819	99.44
283.051	77.44
283.282	90.44
283.513	71.44
283.745	85.44
283.976	92.44
284.207	67.44
284.439	81.44
284.67	87.44
284.901	78.44
285.132	79.44
285.364	79.44
285.595	93.44
285.826	76.44
286.057	59.44
286.288	79.44
286.52	77.44
286.751	69.44
286.982	73.44
287.213	77.44
287.444	90.44
287.675	87.44
287.906	85.44
288.138	91.44
288.369	81.44
288.6	80.44
288.831	69.44
289.062	82.44
289.293	77.44
289.524	79.44
289.755	81.44
289.986	75.44
290.217	87.44
290.448	90.44
290.679	62.44
290.91	90.44
291.141	82.44
291.371	70.44
291.602	71.44
291.833	89.44
292.064	78.44
292.295	87.44
292.526	83.44
292.757	84.44
292.987	83.44
293.218	80.44
293.449	82.44
293.68	60.44
293.91	85.44
294.141	84.44
294.372	82.44
294.603	83.44
294.833	85.44
295.064	80.44
295.295	88.44
295.525	94.44
295.756	81.44
295.987	84.44
296.217	86.44
296.448	73.44
296.679	89.44
296.909	92.44
297.14	81.44
297.37	81.44
297.601	71.44
297.831	71.44
298.062	78.44
298.292	81.44
298.523	71.44
298.753	72.44
298.984	69.44
299.214	75.44
299.445	91.44
299.675	101.44
299.905	78.44
300.136	86.44
300.366	78.44
300.597	79.44
300.827	77.44
301.057	88.44
301.288	73.44
301.518	86.44
301.748	78.44
301.979	86.44
302.209	89.44
302.439	76.44
302.669	79.44
302.9	86.44
303.13	79.44
303.36	74.44
303.59	81.44
303.82	78.44
304.051	93.44
304.281	71.44
304.511	83.44
304.741	75.44
304.971	74.44
305.201	94.44
305.431	82.44
305.661	72.44
305.891	87.44
306.121	84.44
306.352	77.44
306.582	76.44
306.812	85.44
307.042	80.44
307.272	79.44
307.502	81.44
307.731	90.44
307.961	73.44
308.191	82.44
308.421	70.44
308.651	83.44
308.881	93.44
309.111	85.44
309.341	82.44
309.571	76.44
309.8	85.44
310.03	80.44
310.26	91.44
310.49	78.44
310.72	85.44
310.949	75.44
311.179	85.44
311.409	75.44
311.639	77.44
311.868	76.44
312.098	74.44
312.328	71.44
312.557	82.44
312.787	77.44
313.017	91.44
313.246	92.44
313.476	84.44
313.706	82.44
313.935	88.44
314.165	75.44
314.394	82.44
314.624	85.44
314.853	77.44
315.083	65.44
315.312	87.44
315.542	79.44
315.771	72.44
316.001	87.44
316.23	90.44
316.46	80.44
316.689	84.44
316.919	82.44
317.148	90.44
317.377	79.44
317.607	78.44
317.836	95.44
318.065	84.44
318.295	82.44
318.524	67.44
318.753	91.44
318.983	83.44
319.212	97.44
319.441	85.44
319.67	85.44
319.9	86.44
320.129	90.44
320.358	85.44
320.587	95.44
320.816	79.44
321.046	93.44
321.275	86.44
321.504	81.44
321.733	81.44
321.962	84.44
322.191	80.44
322.42	85.44
322.649	84.44
322.878	86.44
323.108	89.44
323.337	63.44
323.566	74.44
323.795	85.44
324.024	89.44
324.253	93.44
324.482	86.44
324.71	85.44
324.939	83.44
325.168	85.44
325.397	80.44
325.626	76.44
325.855	73.44
326.084	75.44
326.313	87.44
326.542	71.44
326.77	82.44
326.999	75.44
327.228	76.44
327.457	80.44
327.686	87.44
327.914	83.44
328.143	72.44
328.372	91.44
328.6	72.44
328.829	87.44
329.058	67.44
329.287	68.44
329.515	79.44
329.744	82.44
329.972	76.44
330.201	84.44
330.43	68.44
330.658	84.44
330.887	80.44
331.115	97.44
331.344	65.44
331.572	99.44
331.801	85.44
332.03	88.44
332.258	79.44
332.486	77.44
332.715	84.44
332.943	83.44
333.172	95.44
333.4	82.44
333.629	86.44
333.857	90.44
334.085	89.44
334.314	91.44
334.542	81.44
334.771	88.44
334.999	83.44
335.227	74.44
335.455	89.44
335.684	84.44
335.912	85.44
336.14	83.44
336.369	71.44
336.597	90.44
336.825	69.44
337.053	91.44
337.281	68.44
337.51	70.44
337.738	83.44
337.966	85.44
338.194	77.44
338.422	83.44
338.65	81.44
338.878	77.44
339.106	97.44
339.334	93.44
339.562	75.44
339.79	94.44
340.018	82.44
340.246	75.44
340.474	89.44
340.702	81.44
340.93	78.44
341.158	85.44
341.386	75.44
341.614	86.44
341.842	82.44
342.07	82.44
342.298	80.44
342.526	90.44
342.754	90.44
342.981	77.44
343.209	75.44
343.437	95.44
343.665	77.44
343.893	77.44
344.12	88.44
344.348	82.44
344.576	83.44
344.804	70.44
345.031	70.44
345.259	74.44
345.487	85.44
345.714	81.44
345.942	79.44
346.17	87.44
346.397	90.44
346.625	96.44
346.853	73.44
347.08	78.44
347.308	84.44
347.535	79.44
347.763	91.44
347.99	88.44
348.218	65.44
348.445	82.44
348.673	77.44
348.9	95.44
349.128	81.44
349.355	82.44
349.583	80.44
349.81	77.44
350.037	89.44
350.265	76.44
350.492	81.44
350.72	73.44
350.947	86.44
351.174	74.44
351.402	79.44
351.629	86.44
351.856	68.44
352.083	73.44
352.311	85.44
352.538	89.44
352.765	72.44
352.992	81.44
353.22	82.44
353.447	79.44
353.674	86.44
353.901	79.44
354.128	86.44
354.355	74.44
354.583	84.44
354.81	80.44
355.037	77.44
355.264	85.44
355.491	73.44
355.718	78.44
355.945	92.44
356.172	64.44
356.399	90.44
356.626	92.44
356.853	79.44
357.08	74.44
357.307	83.44
357.534	77.44
357.761	76.44
357.988	71.44
358.215	90.44
358.441	71.44
358.668	87.44
358.895	67.44
359.122	84.44
359.349	84.44
359.576	89.44
359.802	76.44
360.029	77.44
360.256	87.44
360.483	76.44
360.709	76.44
360.936	90.44
361.163	87.44
361.39	84.44
361.616	89.44
361.843	85.44
362.07	91.44
362.296	94.44
362.523	70.44
362.749	80.44
362.976	89.44
363.203	96.44
363.429	94.44
363.656	86.44
363.882	88.44
364.109	91.44
364.335	114.44
364.562	99.44
364.788	100.44
365.015	87.44
365.241	75.44
365.468	64.44
365.694	82.44
365.92	83.44
366.147	77.44
366.373	85.44
366.599	76.44
366.826	78.44
367.052	86.44
367.278	87.44
367.505	61.44
367.731	80.44
367.957	61.44
368.184	77.44
368.41	78.44
368.636	80.44
368.862	74.44
369.089	82.44
369.315	78.44
369.541	93.44
369.767	91.44
369.993	79.44
370.219	84.44
370.445	105.44
370.672	96.44
370.898	76.44
371.124	75.44
371.35	69.44
371.576	75.44
371.802	81.44
372.028	101.44
372.254	72.44
372.48	75.44
372.706	90.44
372.932	83.44
373.158	82.44
373.384	92.44
373.61	97.44
373.835	99.44
374.061	93.44
374.287	83.44
374.513	85.44
374.739	97.44
374.965	84.44
375.191	86.44
375.416	86.44
375.642	94.44
375.868	77.44
376.094	91.44
376.319	77.44
376.545	74.44
376.771	77.44
376.997	69.44
377.222	65.44
377.448	81.44
377.674	66.44
377.899	78.44
378.125	66.44
378.35	91.44
378.576	90.44
378.802	69.44
379.027	71.44
379.253	87.44
379.478	80.44
379.704	87.44
379.929	84.44
380.155	78.44
380.38	86.44
380.606	80.44
380.831	85.44
381.057	86.44
381.282	73.44
381.507	95.44
381.733	82.44
381.958	64.44
382.184	81.44
382.409	91.44
382.634	77.44
382.86	84.44
383.085	75.44
383.31	80.44
383.535	94.44
383.761	81.44
383.986	90.44
384.211	83.44
384.436	91.44
384.662	71.44
384.887	80.44
385.112	91.44
385.337	83.44
385.562	95.44
385.787	77.44
386.013	84.44
386.238	81.44
386.463	72.44
386.688	73.44
386.913	69.44
387.138	78.44
387.363	73.44
387.588	79.44
387.813	90.44
388.038	78.44
388.263	79.44
388.488	87.44
388.713	82.44
388.938	91.44
389.163	89.44
389.387	67.44
389.612	91.44
389.837	69.44
390.062	80.44
390.287	86.44
390.512	81.44
390.736	67.44
390.961	78.44
391.186	73.44
391.411	70.44
391.636	72.44
391.86	79.44
392.085	90.44
392.31	78.44
392.534	87.44
392.759	92.44
392.984	111.44
393.208	176.44
393.433	235.44
393.658	190.44
393.882	111.44
394.107	95.44
394.331	89.44
394.556	95.44
394.78	105.44
395.005	91.44
395.229	89.44
395.454	98.44
395.678	85.44
395.903	101.44
396.127	102.44
396.352	119.44
396.576	134.44
396.801	175.44
397.025	203.44
397.249	133.44
397.474	93.44
397.698	87.44
397.922	85.44
398.147	71.44
398.371	83.44
398.595	85.44
398.82	83.44
399.044	97.44
399.268	73.44
399.492	87.44
399.717	87.44
399.941	84.44
400.165	76.44
400.389	63.44
400.613	70.44
400.837	94.44
401.062	81.44
401.286	93.44
401.51	71.44
401.734	82.44
401.958	89.44
402.182	81.44
402.406	87.44
402.63	82.44
402.854	90.44
403.078	73.44
403.302	79.44
403.526	84.44
403.75	73.44
403.974	86.44
404.198	84.44
404.422	82.44
404.645	73.44
404.869	75.44
405.093	68.44
405.317	82.44
405.541	82.44
405.765	78.44
405.988	71.44
406.212	90.44
406.436	86.44
406.66	91.44
406.883	77.44
407.107	77.44
407.331	78.44
407.555	101.44
407.778	95.44
408.002	99.44
408.226	82.44
408.449	73.44
408.673	71.44
408.896	77.44
409.12	86.44
409.344	75.44
409.567	79.44
409.791	91.44
410.014	99.44
410.238	77.44
410.461	84.44
410.685	90.44
410.908	83.44
411.132	88.44
411.355	79.44
411.578	91.44
411.802	75.44
412.025	70.44
412.249	80.44
412.472	86.44
412.695	77.44
412.919	84.44
413.142	70.44
413.365	88.44
413.589	70.44
413.812	84.44
414.035	106.44
414.258	67.44
414.482	83.44
414.705	85.44
414.928	88.44
415.151	63.44
415.374	75.44
415.597	87.44
415.821	88.44
416.044	83.44
416.267	81.44
416.49	68.44
416.713	73.44
416.936	78.44
417.159	87.44
417.382	68.44
417.605	69.44
417.828	87.44
418.051	72.44
418.274	82.44
418.497	77.44
418.72	62.44
418.943	81.44
419.166	75.44
419.389	61.44
419.611	83.44
419.834	77.44
420.057	91.44
420.28	83.44
420.503	87.44
420.726	80.44
420.948	85.44
421.171	86.44
421.394	81.44
421.617	98.44
421.839	91.44
422.062	112.44
422.285	151.44
422.507	211.44
422.73	285.44
422.953	258.44
423.175	137.44
423.398	86.44
423.621	83.44
423.843	91.44
424.066	77.44
424.288	92.44
424.511	93.44
424.733	84.44
424.956	82.44
425.178	70.44
425.401	61.44
425.623	95.44
425.846	83.44
426.068	79.44
426.291	83.44
426.513	87.44
426.735	56.44
426.958	71.44
427.18	67.44
427.402	65.44
427.625	68.44
427.847	93.44
428.069	90.44
428.292	100.44
428.514	108.44
428.736	89.44
428.958	99.44
429.181	113.44
429.403	79.44
429.625	93.44
429.847	107.44
430.069	134.44
430.292	130.44
430.514	114.44
430.736	97.44
430.958	100.44
431.18	99.44
431.402	76.44
431.624	89.44
431.846	112.44
432.068	111.44
432.29	86.44
432.512	77.44
432.734	70.44
432.956	79.44
433.178	81.44
433.4	71.44
433.622	71.44
433.844	72.44
434.066	72.44
434.287	86.44
434.509	68.44
434.731	69.44
434.953	80.44
435.175	73.44
435.397	91.44
435.618	82.44
435.84	69.44
436.062	70.44
436.284	68.44
436.505	78.44
436.727	73.44
436.949	65.44
437.17	79.44
437.392	88.44
437.614	80.44
437.835	83.44
438.057	84.44
438.278	83.44
438.5	79.44
438.721	75.44
438.943	77.44
439.165	67.44
439.386	89.44
439.608	85.44
439.829	73.44
440.05	77.44
440.272	84.44
440.493	87.44
440.715	87.44
440.936	80.44
441.158	76.44
441.379	73.44
441.6	80.44
441.822	76.44
442.043	86.44
442.264	87.44
442.486	89.44
442.707	118.44
442.928	115.44
443.149	93.44
443.371	121.44
443.592	172.44
443.813	141.44
444.034	79.44
444.255	82.44
444.476	72.44
444.698	82.44
444.919	89.44
445.14	162.44
445.361	146.44
445.582	183.44
445.803	170.44
446.024	119.44
446.245	101.44
446.466	87.44
446.687	79.44
446.908	83.44
447.129	80.44
447.35	77.44
447.571	77.44
447.792	78.44
448.013	75.44
448.234	75.44
448.455	72.44
448.675	75.44
448.896	79.44
449.117	68.44
449.338	90.44
449.559	94.44
449.779	93.44
450	85.44
450.221	81.44
450.442	67.44
450.662	78.44
450.883	81.44
451.104	71.44
451.324	75.44
451.545	69.44
451.766	79.44
451.986	71.44
452.207	72.44
452.428	81.44
452.648	92.44
452.869	86.44
453.089	75.44
453.31	72.44
453.53	85.44
453.751	70.44
453.971	89.44
454.192	54.44
454.412	81.44
454.633	77.44
454.853	84.44
455.073	76.44
455.294	78.44
455.514	71.44
455.734	79.44
455.955	83.44
456.175	76.44
456.395	77.44
456.616	71.44
456.836	61.44
457.056	64.44
457.276	78.44
457.497	78.44
457.717	75.44
457.937	93.44
458.157	103.44
458.377	101.44
458.598	107.44
458.818	95.44
459.038	92.44
459.258	73.44
459.478	74.44
459.698	86.44
459.918	87.44
460.138	86.44
460.358	86.44
460.578	108.44
460.798	108.44
461.018	91.44
461.238	84.44
461.458	86.44
461.678	79.44
461.898	90.44
462.118	85.44
462.338	73.44
462.558	75.44
462.777	82.44
462.997	94.44
463.217	72.44
463.437	77.44
463.657	75.44
463.876	80.44
464.096	81.44
464.316	81.44
464.536	69.44
464.755	84.44
464.975	60.44
465.195	81.44
465.414	77.44
465.634	72.44
465.854	79.44
466.073	73.44
466.293	85.44
466.512	81.44
466.732	83.44
466.951	67.44
467.171	91.44
467.391	85.44
467.61	70.44
467.829	55.44
468.049	82.44
468.268	96.44
468.488	87.44
468.707	76.44
468.927	78.44
469.146	89.44
469.365	72.44
469.585	76.44
469.804	88.44
470.023	83.44
470.243	77.44
470.462	84.44
470.681	77.44
470.901	75.44
471.12	83.44
471.339	64.44
471.558	81.44
471.777	71.44
471.997	80.44
472.216	86.44
472.435	75.44
472.654	87.44
472.873	74.44
473.092	73.44
473.311	77.44
473.53	76.44
473.749	82.44
473.968	67.44
474.187	74.44
474.406	81.44
474.625	93.44
474.844	90.44
475.063	71.44
475.282	59.44
475.501	75.44
475.72	78.44
475.939	74.44
476.158	69.44
476.377	69.44
476.596	74.44
476.814	87.44
477.033	72.44
477.252	80.44
477.471	77.44
477.69	75.44
477.908	77.44
478.127	82.44
478.346	77.44
478.564	75.44
478.783	82.44
479.002	93.44
479.22	81.44
479.439	82.44
479.658	86.44
479.876	86.44
480.095	77.44
480.313	75.44
480.532	81.44
480.751	83.44
480.969	83.44
481.188	71.44
481.406	83.44
481.624	93.44
481.843	81.44
482.061	65.44
482.28	77.44
482.498	75.44
482.717	78.44
482.935	72.44
483.153	67.44
483.372	82.44
483.59	79.44
483.808	68.44
484.027	83.44
484.245	70.44
484.463	68.44
484.681	85.44
484.9	85.44
485.118	82.44
485.336	89.44
485.554	91.44
485.772	85.44
485.99	79.44
486.209	71.44
486.427	81.44
486.645	94.44
486.863	75.44
487.081	89.44
487.299	90.44
487.517	85.44
487.735	89.44
487.953	118.44
488.171	102.44
488.389	77.44
488.607	81.44
488.825	86.44
489.043	77.44
489.261	85.44
489.479	71.44
489.696	83.44
489.914	75.44
490.132	83.44
490.35	94.44
490.568	86.44
490.786	84.44
491.003	90.44
491.221	85.44
491.439	91.44
491.657	85.44
491.874	97.44
492.092	85.44
492.31	84.44
492.527	74.44
492.745	83.44
492.963	84.44
493.18	78.44
493.398	82.44
493.615	86.44
493.833	94.44
494.05	84.44
494.268	79.44
494.485	92.44
494.703	86.44
494.92	72.44
495.138	83.44
495.355	85.44
495.573	84.44
495.79	78.44
496.008	94.44
496.225	83.44
496.442	84.44
496.66	92.44
496.877	63.44
497.094	74.44
497.312	83.44
497.529	71.44
497.746	91.44
497.963	68.44
498.181	86.44
498.398	89.44
498.615	79.44
498.832	80.44
499.049	82.44
499.267	80.44
499.484	92.44
499.701	89.44
499.918	71.44
500.135	69.44
500.352	82.44
500.569	81.44
500.786	74.44
501.003	77.44
501.22	86.44
501.437	72.44
501.654	83.44
501.871	79.44
502.088	85.44
502.305	92.44
502.522	70.44
502.739	76.44
502.956	79.44
503.172	81.44
503.389	84.44
503.606	87.44
503.823	77.44
504.04	100.44
504.256	100.44
504.473	94.44
504.69	78.44
504.907	102.44
505.123	81.44
505.34	86.44
505.557	86.44
505.773	90.44
505.99	83.44
506.207	85.44
506.423	73.44
506.64	85.44
506.856	68.44
507.073	79.44
507.289	77.44
507.506	85.44
507.722	73.44
507.939	67.44
508.155	91.44
508.372	82.44
508.588	68.44
508.805	87.44
509.021	85.44
509.238	71.44
509.454	81.44
509.67	73.44
509.887	86.44
510.103	78.44
510.319	81.44
510.536	77.44
510.752	79.44
510.968	81.44
511.184	74.44
511.401	77.44
511.617	77.44
511.833	89.44
512.049	87.44
512.265	88.44
512.481	77.44
512.698	73.44
512.914	100.44
513.13	79.44
513.346	77.44
513.562	81.44
513.778	78.44
513.994	82.44
514.21	79.44
514.426	75.44
514.642	79.44
514.858	76.44
515.074	82.44
515.29	67.44
515.506	68.44
515.721	83.44
515.937	81.44
516.153	85.44
516.369	93.44
516.585	81.44
516.801	61.44
517.016	81.44
517.232	89.44
517.448	73.44
517.664	89.44
517.879	79.44
518.095	83.44
518.311	84.44
518.527	81.44
518.742	86.44
518.958	123.44
519.173	127.44
519.389	85.44
