Data from 17600_3_HRD10591_00036.txt Node
Date: Mon Jan 19 14:09:41 EST 2026
User: Yrep
Spectrometer: HR+D1059
Trigger mode: 1
Integration Time (sec): 1.000000E-1
Scans to average: 1
Electric dark correction enabled: true
Nonlinearity correction enabled: false
Boxcar width: 0
XAxis mode: Wavelengths
Number of Pixels in Spectrum: 2048
>>>>>Begin Spectral Data<<<<<
223.165	-20.69
223.4	-20.69
223.635	-20.69
223.869	-8.69
224.104	-8.69
224.338	-17.69
224.573	-13.69
224.808	-26.69
225.042	-3.69
225.277	-10.69
225.511	-5.69
225.746	-5.69
225.98	16.31
226.215	6.31
226.449	15.31
226.683	23.31
226.918	30.31
227.152	30.31
227.387	37.31
227.621	44.31
227.856	35.31
228.09	47.31
228.324	37.31
228.559	49.31
228.793	55.31
229.027	49.31
229.262	54.31
229.496	53.31
229.73	62.31
229.964	47.31
230.199	59.31
230.433	60.31
230.667	68.31
230.901	72.31
231.136	82.31
231.37	69.31
231.604	72.31
231.838	76.31
232.072	72.31
232.306	73.31
232.541	76.31
232.775	75.31
233.009	77.31
233.243	75.31
233.477	77.31
233.711	82.31
233.945	80.31
234.179	78.31
234.413	67.31
234.647	81.31
234.881	85.31
235.115	74.31
235.349	74.31
235.583	65.31
235.817	69.31
236.051	61.31
236.285	78.31
236.519	81.31
236.753	61.31
236.987	80.31
237.221	61.31
237.455	62.31
237.689	85.31
237.922	77.31
238.156	81.31
238.39	83.31
238.624	71.31
238.858	59.31
239.091	72.31
239.325	72.31
239.559	72.31
239.793	64.31
240.027	85.31
240.26	72.31
240.494	77.31
240.728	77.31
240.961	74.31
241.195	60.31
241.429	66.31
241.662	80.31
241.896	83.31
242.13	81.31
242.363	76.31
242.597	64.31
242.83	69.31
243.064	69.31
243.298	72.31
243.531	63.31
243.765	73.31
243.998	60.31
244.232	74.31
244.465	75.31
244.699	62.31
244.932	73.31
245.166	73.31
245.399	69.31
245.633	69.31
245.866	79.31
246.099	81.31
246.333	49.31
246.566	74.31
246.8	71.31
247.033	65.31
247.266	61.31
247.5	70.31
247.733	68.31
247.966	65.31
248.2	66.31
248.433	82.31
248.666	75.31
248.899	79.31
249.133	82.31
249.366	86.31
249.599	86.31
249.832	75.31
250.066	89.31
250.299	76.31
250.532	84.31
250.765	77.31
250.998	69.31
251.231	70.31
251.465	76.31
251.698	77.31
251.931	78.31
252.164	68.31
252.397	72.31
252.63	81.31
252.863	69.31
253.096	71.31
253.329	76.31
253.562	73.31
253.795	74.31
254.028	77.31
254.261	72.31
254.494	77.31
254.727	77.31
254.96	63.31
255.193	78.31
255.426	73.31
255.659	71.31
255.892	79.31
256.124	77.31
256.357	82.31
256.59	75.31
256.823	65.31
257.056	66.31
257.289	80.31
257.521	74.31
257.754	74.31
257.987	74.31
258.22	80.31
258.452	69.31
258.685	89.31
258.918	81.31
259.151	79.31
259.383	75.31
259.616	86.31
259.849	79.31
260.081	77.31
260.314	68.31
260.547	71.31
260.779	79.31
261.012	75.31
261.244	74.31
261.477	74.31
261.71	70.31
261.942	66.31
262.175	65.31
262.407	67.31
262.64	82.31
262.872	70.31
263.105	85.31
263.337	81.31
263.57	71.31
263.802	75.31
264.035	80.31
264.267	83.31
264.499	80.31
264.732	85.31
264.964	74.31
265.197	72.31
265.429	64.31
265.661	75.31
265.894	74.31
266.126	83.31
266.358	89.31
266.591	70.31
266.823	75.31
267.055	88.31
267.287	81.31
267.52	61.31
267.752	83.31
267.984	75.31
268.216	79.31
268.448	77.31
268.681	91.31
268.913	78.31
269.145	75.31
269.377	98.31
269.609	84.31
269.841	72.31
270.073	72.31
270.306	64.31
270.538	74.31
270.77	86.31
271.002	70.31
271.234	69.31
271.466	86.31
271.698	76.31
271.93	77.31
272.162	83.31
272.394	79.31
272.626	59.31
272.858	79.31
273.09	75.31
273.322	77.31
273.553	79.31
273.785	82.31
274.017	78.31
274.249	75.31
274.481	89.31
274.713	69.31
274.945	80.31
275.176	70.31
275.408	87.31
275.64	79.31
275.872	84.31
276.104	89.31
276.335	93.31
276.567	77.31
276.799	75.31
277.031	89.31
277.262	77.31
277.494	86.31
277.726	77.31
277.957	65.31
278.189	87.31
278.421	75.31
278.652	85.31
278.884	76.31
279.115	86.31
279.347	87.31
279.579	80.31
279.81	95.31
280.042	75.31
280.273	79.31
280.505	83.31
280.736	65.31
280.968	77.31
281.199	82.31
281.431	78.31
281.662	78.31
281.894	80.31
282.125	78.31
282.356	74.31
282.588	85.31
282.819	92.31
283.051	79.31
283.282	79.31
283.513	90.31
283.745	95.31
283.976	75.31
284.207	83.31
284.439	79.31
284.67	76.31
284.901	78.31
285.132	78.31
285.364	87.31
285.595	75.31
285.826	88.31
286.057	78.31
286.288	79.31
286.52	73.31
286.751	66.31
286.982	77.31
287.213	100.31
287.444	73.31
287.675	79.31
287.906	89.31
288.138	89.31
288.369	83.31
288.6	79.31
288.831	85.31
289.062	87.31
289.293	80.31
289.524	89.31
289.755	84.31
289.986	83.31
290.217	71.31
290.448	75.31
290.679	69.31
290.91	85.31
291.141	80.31
291.371	81.31
291.602	86.31
291.833	99.31
292.064	75.31
292.295	75.31
292.526	83.31
292.757	75.31
292.987	86.31
293.218	88.31
293.449	83.31
293.68	72.31
293.91	76.31
294.141	85.31
294.372	82.31
294.603	67.31
294.833	84.31
295.064	75.31
295.295	82.31
295.525	73.31
295.756	78.31
295.987	79.31
296.217	78.31
296.448	82.31
296.679	83.31
296.909	69.31
297.14	70.31
297.37	79.31
297.601	87.31
297.831	86.31
298.062	77.31
298.292	93.31
298.523	81.31
298.753	70.31
298.984	79.31
299.214	87.31
299.445	70.31
299.675	90.31
299.905	77.31
300.136	83.31
300.366	90.31
300.597	95.31
300.827	87.31
301.057	72.31
301.288	89.31
301.518	80.31
301.748	71.31
301.979	97.31
302.209	83.31
302.439	86.31
302.669	81.31
302.9	80.31
303.13	87.31
303.36	81.31
303.59	73.31
303.82	74.31
304.051	84.31
304.281	89.31
304.511	81.31
304.741	77.31
304.971	58.31
305.201	83.31
305.431	75.31
305.661	89.31
305.891	88.31
306.121	85.31
306.352	83.31
306.582	77.31
306.812	74.31
307.042	65.31
307.272	83.31
307.502	71.31
307.731	69.31
307.961	87.31
308.191	73.31
308.421	81.31
308.651	66.31
308.881	96.31
309.111	97.31
309.341	86.31
309.571	95.31
309.8	87.31
310.03	74.31
310.26	85.31
310.49	78.31
310.72	78.31
310.949	72.31
311.179	77.31
311.409	87.31
311.639	78.31
311.868	75.31
312.098	72.31
312.328	70.31
312.557	78.31
312.787	90.31
313.017	77.31
313.246	79.31
313.476	87.31
313.706	77.31
313.935	72.31
314.165	85.31
314.394	73.31
314.624	78.31
314.853	81.31
315.083	85.31
315.312	69.31
315.542	84.31
315.771	65.31
316.001	84.31
316.23	78.31
316.46	71.31
316.689	80.31
316.919	75.31
317.148	87.31
317.377	72.31
317.607	89.31
317.836	77.31
318.065	91.31
318.295	90.31
318.524	85.31
318.753	66.31
318.983	69.31
319.212	77.31
319.441	69.31
319.67	74.31
319.9	77.31
320.129	89.31
320.358	72.31
320.587	71.31
320.816	75.31
321.046	91.31
321.275	85.31
321.504	84.31
321.733	85.31
321.962	93.31
322.191	92.31
322.42	77.31
322.649	72.31
322.878	88.31
323.108	78.31
323.337	98.31
323.566	82.31
323.795	75.31
324.024	85.31
324.253	77.31
324.482	77.31
324.71	90.31
324.939	93.31
325.168	80.31
325.397	84.31
325.626	82.31
325.855	75.31
326.084	70.31
326.313	82.31
326.542	69.31
326.77	70.31
326.999	84.31
327.228	88.31
327.457	85.31
327.686	83.31
327.914	78.31
328.143	81.31
328.372	85.31
328.6	77.31
328.829	81.31
329.058	72.31
329.287	84.31
329.515	71.31
329.744	82.31
329.972	88.31
330.201	86.31
330.43	64.31
330.658	85.31
330.887	89.31
331.115	79.31
331.344	87.31
331.572	90.31
331.801	98.31
332.03	106.31
332.258	85.31
332.486	66.31
332.715	82.31
332.943	80.31
333.172	85.31
333.4	96.31
333.629	86.31
333.857	82.31
334.085	84.31
334.314	75.31
334.542	76.31
334.771	84.31
334.999	76.31
335.227	84.31
335.455	80.31
335.684	85.31
335.912	82.31
336.14	83.31
336.369	85.31
336.597	75.31
336.825	85.31
337.053	70.31
337.281	90.31
337.51	84.31
337.738	81.31
337.966	82.31
338.194	72.31
338.422	72.31
338.65	69.31
338.878	67.31
339.106	64.31
339.334	59.31
339.562	79.31
339.79	82.31
340.018	79.31
340.246	78.31
340.474	72.31
340.702	92.31
340.93	72.31
341.158	79.31
341.386	79.31
341.614	77.31
341.842	77.31
342.07	82.31
342.298	88.31
342.526	83.31
342.754	72.31
342.981	63.31
343.209	77.31
343.437	84.31
343.665	83.31
343.893	88.31
344.12	77.31
344.348	81.31
344.576	87.31
344.804	74.31
345.031	65.31
345.259	72.31
345.487	70.31
345.714	85.31
345.942	83.31
346.17	67.31
346.397	62.31
346.625	64.31
346.853	80.31
347.08	75.31
347.308	70.31
347.535	65.31
347.763	81.31
347.99	66.31
348.218	73.31
348.445	84.31
348.673	71.31
348.9	90.31
349.128	87.31
349.355	87.31
349.583	76.31
349.81	83.31
350.037	77.31
350.265	93.31
350.492	75.31
350.72	75.31
350.947	66.31
351.174	77.31
351.402	71.31
351.629	76.31
351.856	83.31
352.083	93.31
352.311	85.31
352.538	78.31
352.765	87.31
352.992	86.31
353.22	71.31
353.447	71.31
353.674	82.31
353.901	84.31
354.128	85.31
354.355	69.31
354.583	75.31
354.81	79.31
355.037	68.31
355.264	69.31
355.491	66.31
355.718	68.31
355.945	90.31
356.172	77.31
356.399	72.31
356.626	90.31
356.853	71.31
357.08	93.31
357.307	87.31
357.534	90.31
357.761	79.31
357.988	95.31
358.215	87.31
358.441	73.31
358.668	69.31
358.895	88.31
359.122	67.31
359.349	76.31
359.576	71.31
359.802	76.31
360.029	77.31
360.256	73.31
360.483	79.31
360.709	82.31
360.936	83.31
361.163	88.31
361.39	78.31
361.616	84.31
361.843	76.31
362.07	86.31
362.296	89.31
362.523	94.31
362.749	95.31
362.976	81.31
363.203	95.31
363.429	80.31
363.656	77.31
363.882	77.31
364.109	85.31
364.335	96.31
364.562	91.31
364.788	83.31
365.015	84.31
365.241	78.31
365.468	77.31
365.694	71.31
365.92	70.31
366.147	92.31
366.373	90.31
366.599	76.31
366.826	67.31
367.052	73.31
367.278	69.31
367.505	71.31
367.731	89.31
367.957	76.31
368.184	75.31
368.41	81.31
368.636	83.31
368.862	74.31
369.089	78.31
369.315	79.31
369.541	77.31
369.767	80.31
369.993	78.31
370.219	86.31
370.445	76.31
370.672	85.31
370.898	86.31
371.124	79.31
371.35	81.31
371.576	95.31
371.802	76.31
372.028	80.31
372.254	74.31
372.48	66.31
372.706	70.31
372.932	82.31
373.158	85.31
373.384	83.31
373.61	84.31
373.835	87.31
374.061	84.31
374.287	85.31
374.513	80.31
374.739	90.31
374.965	79.31
375.191	89.31
375.416	84.31
375.642	91.31
375.868	80.31
376.094	68.31
376.319	81.31
376.545	85.31
376.771	73.31
376.997	89.31
377.222	86.31
377.448	88.31
377.674	78.31
377.899	80.31
378.125	75.31
378.35	79.31
378.576	81.31
378.802	76.31
379.027	86.31
379.253	94.31
379.478	66.31
379.704	82.31
379.929	88.31
380.155	72.31
380.38	62.31
380.606	67.31
380.831	74.31
381.057	70.31
381.282	93.31
381.507	78.31
381.733	84.31
381.958	87.31
382.184	84.31
382.409	81.31
382.634	70.31
382.86	87.31
383.085	70.31
383.31	88.31
383.535	63.31
383.761	77.31
383.986	75.31
384.211	82.31
384.436	87.31
384.662	80.31
384.887	79.31
385.112	69.31
385.337	73.31
385.562	79.31
385.787	91.31
386.013	91.31
386.238	75.31
386.463	64.31
386.688	93.31
386.913	77.31
387.138	78.31
387.363	85.31
387.588	89.31
387.813	87.31
388.038	81.31
388.263	68.31
388.488	59.31
388.713	76.31
388.938	91.31
389.163	73.31
389.387	95.31
389.612	82.31
389.837	90.31
390.062	75.31
390.287	71.31
390.512	87.31
390.736	88.31
390.961	86.31
391.186	72.31
391.411	83.31
391.636	83.31
391.86	85.31
392.085	93.31
392.31	88.31
392.534	109.31
392.759	88.31
392.984	109.31
393.208	155.31
393.433	207.31
393.658	163.31
393.882	106.31
394.107	87.31
394.331	88.31
394.556	94.31
394.78	86.31
395.005	100.31
395.229	76.31
395.454	85.31
395.678	85.31
395.903	89.31
396.127	98.31
396.352	106.31
396.576	121.31
396.801	157.31
397.025	161.31
397.249	131.31
397.474	103.31
397.698	88.31
397.922	77.31
398.147	66.31
398.371	67.31
398.595	85.31
398.82	85.31
399.044	63.31
399.268	83.31
399.492	89.31
399.717	71.31
399.941	84.31
400.165	73.31
400.389	93.31
400.613	87.31
400.837	85.31
401.062	78.31
401.286	76.31
401.51	93.31
401.734	83.31
401.958	87.31
402.182	75.31
402.406	76.31
402.63	88.31
402.854	85.31
403.078	91.31
403.302	90.31
403.526	96.31
403.75	89.31
403.974	77.31
404.198	74.31
404.422	77.31
404.645	85.31
404.869	81.31
405.093	82.31
405.317	81.31
405.541	82.31
405.765	64.31
405.988	87.31
406.212	91.31
406.436	75.31
406.66	78.31
406.883	85.31
407.107	77.31
407.331	83.31
407.555	85.31
407.778	86.31
408.002	98.31
408.226	75.31
408.449	71.31
408.673	82.31
408.896	69.31
409.12	77.31
409.344	82.31
409.567	81.31
409.791	82.31
410.014	75.31
410.238	77.31
410.461	69.31
410.685	67.31
410.908	71.31
411.132	82.31
411.355	90.31
411.578	80.31
411.802	89.31
412.025	66.31
412.249	71.31
412.472	81.31
412.695	67.31
412.919	68.31
413.142	70.31
413.365	73.31
413.589	73.31
413.812	89.31
414.035	89.31
414.258	78.31
414.482	83.31
414.705	64.31
414.928	75.31
415.151	81.31
415.374	85.31
415.597	80.31
415.821	69.31
416.044	86.31
416.267	81.31
416.49	94.31
416.713	92.31
416.936	78.31
417.159	75.31
417.382	80.31
417.605	82.31
417.828	85.31
418.051	61.31
418.274	68.31
418.497	77.31
418.72	70.31
418.943	73.31
419.166	85.31
419.389	86.31
419.611	79.31
419.834	78.31
420.057	78.31
420.28	62.31
420.503	71.31
420.726	62.31
420.948	60.31
421.171	75.31
421.394	79.31
421.617	93.31
421.839	89.31
422.062	103.31
422.285	125.31
422.507	177.31
422.73	229.31
422.953	217.31
423.175	134.31
423.398	85.31
423.621	96.31
423.843	88.31
424.066	78.31
424.288	89.31
424.511	84.31
424.733	72.31
424.956	82.31
425.178	84.31
425.401	84.31
425.623	80.31
425.846	68.31
426.068	82.31
426.291	78.31
426.513	85.31
426.735	81.31
426.958	81.31
427.18	85.31
427.402	76.31
427.625	77.31
427.847	77.31
428.069	84.31
428.292	113.31
428.514	133.31
428.736	98.31
428.958	83.31
429.181	98.31
429.403	90.31
429.625	94.31
429.847	85.31
430.069	109.31
430.292	130.31
430.514	109.31
430.736	102.31
430.958	96.31
431.18	81.31
431.402	80.31
431.624	95.31
431.846	106.31
432.068	94.31
432.29	102.31
432.512	87.31
432.734	90.31
432.956	66.31
433.178	88.31
433.4	69.31
433.622	75.31
433.844	69.31
434.066	83.31
434.287	91.31
434.509	75.31
434.731	76.31
434.953	77.31
435.175	79.31
435.397	76.31
435.618	91.31
435.84	71.31
436.062	83.31
436.284	77.31
436.505	70.31
436.727	79.31
436.949	92.31
437.17	67.31
437.392	66.31
437.614	74.31
437.835	82.31
438.057	69.31
438.278	83.31
438.5	84.31
438.721	86.31
438.943	80.31
439.165	83.31
439.386	74.31
439.608	87.31
439.829	83.31
440.05	77.31
440.272	75.31
440.493	77.31
440.715	85.31
440.936	64.31
441.158	77.31
441.379	71.31
441.6	67.31
441.822	94.31
442.043	91.31
442.264	67.31
442.486	92.31
442.707	119.31
442.928	85.31
443.149	98.31
443.371	115.31
443.592	132.31
443.813	131.31
444.034	93.31
444.255	89.31
444.476	82.31
444.698	71.31
444.919	80.31
445.14	153.31
445.361	125.31
445.582	158.31
445.803	142.31
446.024	103.31
446.245	72.31
446.466	85.31
446.687	77.31
446.908	66.31
447.129	82.31
447.35	74.31
447.571	75.31
447.792	79.31
448.013	83.31
448.234	90.31
448.455	90.31
448.675	79.31
448.896	83.31
449.117	87.31
449.338	82.31
449.559	69.31
449.779	77.31
450	83.31
450.221	73.31
450.442	89.31
450.662	78.31
450.883	87.31
451.104	72.31
451.324	59.31
451.545	69.31
451.766	72.31
451.986	67.31
452.207	85.31
452.428	74.31
452.648	83.31
452.869	77.31
453.089	75.31
453.31	74.31
453.53	84.31
453.751	82.31
453.971	85.31
454.192	77.31
454.412	72.31
454.633	87.31
454.853	84.31
455.073	79.31
455.294	70.31
455.514	83.31
455.734	84.31
455.955	67.31
456.175	75.31
456.395	82.31
456.616	82.31
456.836	71.31
457.056	82.31
457.276	84.31
457.497	72.31
457.717	85.31
457.937	84.31
458.157	91.31
458.377	100.31
458.598	83.31
458.818	88.31
459.038	73.31
459.258	65.31
459.478	72.31
459.698	73.31
459.918	78.31
460.138	77.31
460.358	83.31
460.578	85.31
460.798	100.31
461.018	102.31
461.238	82.31
461.458	74.31
461.678	81.31
461.898	81.31
462.118	94.31
462.338	84.31
462.558	81.31
462.777	73.31
462.997	83.31
463.217	77.31
463.437	69.31
463.657	70.31
463.876	76.31
464.096	73.31
464.316	82.31
464.536	66.31
464.755	70.31
464.975	78.31
465.195	69.31
465.414	83.31
465.634	77.31
465.854	76.31
466.073	76.31
466.293	89.31
466.512	88.31
466.732	75.31
466.951	71.31
467.171	77.31
467.391	71.31
467.61	78.31
467.829	81.31
468.049	81.31
468.268	63.31
468.488	59.31
468.707	90.31
468.927	91.31
469.146	71.31
469.365	81.31
469.585	71.31
469.804	73.31
470.023	73.31
470.243	82.31
470.462	88.31
470.681	92.31
470.901	75.31
471.12	73.31
471.339	82.31
471.558	81.31
471.777	91.31
471.997	86.31
472.216	85.31
472.435	73.31
472.654	70.31
472.873	81.31
473.092	70.31
473.311	84.31
473.53	77.31
473.749	78.31
473.968	89.31
474.187	85.31
474.406	73.31
474.625	88.31
474.844	79.31
475.063	83.31
475.282	83.31
475.501	76.31
475.72	86.31
475.939	81.31
476.158	75.31
476.377	65.31
476.596	82.31
476.814	83.31
477.033	92.31
477.252	84.31
477.471	86.31
477.69	70.31
477.908	66.31
478.127	84.31
478.346	92.31
478.564	79.31
478.783	86.31
479.002	89.31
479.22	77.31
479.439	85.31
479.658	95.31
479.876	77.31
480.095	70.31
480.313	91.31
480.532	85.31
480.751	94.31
480.969	85.31
481.188	76.31
481.406	88.31
481.624	75.31
481.843	98.31
482.061	84.31
482.28	73.31
482.498	76.31
482.717	88.31
482.935	82.31
483.153	75.31
483.372	71.31
483.59	71.31
483.808	100.31
484.027	95.31
484.245	90.31
484.463	90.31
484.681	91.31
484.9	71.31
485.118	73.31
485.336	70.31
485.554	86.31
485.772	86.31
485.99	82.31
486.209	81.31
486.427	81.31
486.645	85.31
486.863	78.31
487.081	72.31
487.299	73.31
487.517	79.31
487.735	98.31
487.953	117.31
488.171	96.31
488.389	80.31
488.607	65.31
488.825	90.31
489.043	75.31
489.261	63.31
489.479	67.31
489.696	94.31
489.914	79.31
490.132	85.31
490.35	77.31
490.568	92.31
490.786	80.31
491.003	81.31
491.221	71.31
491.439	91.31
491.657	86.31
491.874	86.31
492.092	85.31
492.31	76.31
492.527	80.31
492.745	75.31
492.963	84.31
493.18	72.31
493.398	82.31
493.615	77.31
493.833	85.31
494.05	101.31
494.268	89.31
494.485	89.31
494.703	76.31
494.92	85.31
495.138	98.31
495.355	87.31
495.573	88.31
495.79	89.31
496.008	89.31
496.225	95.31
496.442	106.31
496.66	82.31
496.877	73.31
497.094	83.31
497.312	78.31
497.529	89.31
497.746	80.31
497.963	85.31
498.181	93.31
498.398	75.31
498.615	81.31
498.832	90.31
499.049	82.31
499.267	83.31
499.484	79.31
499.701	71.31
499.918	99.31
500.135	90.31
500.352	86.31
500.569	78.31
500.786	87.31
501.003	78.31
501.22	84.31
501.437	94.31
501.654	94.31
501.871	77.31
502.088	97.31
502.305	79.31
502.522	86.31
502.739	86.31
502.956	88.31
503.172	91.31
503.389	92.31
503.606	87.31
503.823	79.31
504.04	85.31
504.256	102.31
504.473	83.31
504.69	93.31
504.907	81.31
505.123	86.31
505.34	70.31
505.557	76.31
505.773	84.31
505.99	94.31
506.207	81.31
506.423	83.31
506.64	82.31
506.856	76.31
507.073	79.31
507.289	87.31
507.506	78.31
507.722	68.31
507.939	69.31
508.155	90.31
508.372	76.31
508.588	64.31
508.805	96.31
509.021	76.31
509.238	78.31
509.454	77.31
509.67	82.31
509.887	69.31
510.103	86.31
510.319	71.31
510.536	87.31
510.752	80.31
510.968	79.31
511.184	90.31
511.401	91.31
511.617	85.31
511.833	92.31
512.049	87.31
512.265	85.31
512.481	71.31
512.698	79.31
512.914	78.31
513.13	84.31
513.346	83.31
513.562	77.31
513.778	78.31
513.994	82.31
514.21	81.31
514.426	81.31
514.642	88.31
514.858	67.31
515.074	69.31
515.29	78.31
515.506	85.31
515.721	83.31
515.937	79.31
516.153	78.31
516.369	81.31
516.585	75.31
516.801	83.31
517.016	93.31
517.232	83.31
517.448	74.31
517.664	91.31
517.879	75.31
518.095	78.31
518.311	86.31
518.527	80.31
518.742	91.31
518.958	111.31
519.173	116.31
519.389	86.31
519.605	87.31
