Data from 17600_3_HRD10591_00014.txt Node
Date: Mon Jan 19 14:09:30 EST 2026
User: Yrep
Spectrometer: HR+D1059
Trigger mode: 1
Integration Time (sec): 1.000000E-1
Scans to average: 1
Electric dark correction enabled: true
Nonlinearity correction enabled: false
Boxcar width: 0
XAxis mode: Wavelengths
Number of Pixels in Spectrum: 2048
>>>>>Begin Spectral Data<<<<<
223.165	-17.44
223.4	-17.44
223.635	-17.44
223.869	-14.44
224.104	-22.44
224.338	-17.44
224.573	-13.44
224.808	-14.44
225.042	-1.44
225.277	1.56
225.511	-5.44
225.746	-4.44
225.98	6.56
226.215	25.56
226.449	10.56
226.683	17.56
226.918	17.56
227.152	31.56
227.387	46.56
227.621	56.56
227.856	41.56
228.09	51.56
228.324	51.56
228.559	65.56
228.793	66.56
229.027	70.56
229.262	67.56
229.496	74.56
229.73	75.56
229.964	63.56
230.199	85.56
230.433	80.56
230.667	87.56
230.901	86.56
231.136	74.56
231.37	75.56
231.604	92.56
231.838	78.56
232.072	90.56
232.306	92.56
232.541	73.56
232.775	79.56
233.009	94.56
233.243	81.56
233.477	99.56
233.711	70.56
233.945	88.56
234.179	93.56
234.413	87.56
234.647	92.56
234.881	83.56
235.115	85.56
235.349	77.56
235.583	83.56
235.817	77.56
236.051	73.56
236.285	83.56
236.519	79.56
236.753	83.56
236.987	83.56
237.221	79.56
237.455	81.56
237.689	67.56
237.922	73.56
238.156	82.56
238.39	85.56
238.624	72.56
238.858	74.56
239.091	83.56
239.325	88.56
239.559	71.56
239.793	78.56
240.027	84.56
240.26	89.56
240.494	83.56
240.728	70.56
240.961	78.56
241.195	84.56
241.429	74.56
241.662	89.56
241.896	84.56
242.13	78.56
242.363	80.56
242.597	84.56
242.83	81.56
243.064	72.56
243.298	83.56
243.531	77.56
243.765	67.56
243.998	69.56
244.232	79.56
244.465	79.56
244.699	88.56
244.932	78.56
245.166	88.56
245.399	92.56
245.633	89.56
245.866	83.56
246.099	75.56
246.333	74.56
246.566	76.56
246.8	91.56
247.033	76.56
247.266	89.56
247.5	69.56
247.733	88.56
247.966	77.56
248.2	84.56
248.433	95.56
248.666	89.56
248.899	65.56
249.133	79.56
249.366	90.56
249.599	78.56
249.832	91.56
250.066	87.56
250.299	71.56
250.532	82.56
250.765	85.56
250.998	91.56
251.231	87.56
251.465	77.56
251.698	85.56
251.931	69.56
252.164	74.56
252.397	73.56
252.63	84.56
252.863	61.56
253.096	93.56
253.329	79.56
253.562	71.56
253.795	80.56
254.028	89.56
254.261	83.56
254.494	87.56
254.727	78.56
254.96	73.56
255.193	80.56
255.426	68.56
255.659	84.56
255.892	84.56
256.124	87.56
256.357	87.56
256.59	78.56
256.823	90.56
257.056	89.56
257.289	94.56
257.521	80.56
257.754	85.56
257.987	95.56
258.22	84.56
258.452	98.56
258.685	85.56
258.918	74.56
259.151	85.56
259.383	67.56
259.616	77.56
259.849	98.56
260.081	83.56
260.314	81.56
260.547	73.56
260.779	75.56
261.012	80.56
261.244	79.56
261.477	78.56
261.71	79.56
261.942	81.56
262.175	98.56
262.407	73.56
262.64	92.56
262.872	71.56
263.105	98.56
263.337	89.56
263.57	80.56
263.802	80.56
264.035	97.56
264.267	72.56
264.499	85.56
264.732	75.56
264.964	85.56
265.197	98.56
265.429	71.56
265.661	74.56
265.894	92.56
266.126	85.56
266.358	96.56
266.591	95.56
266.823	90.56
267.055	85.56
267.287	89.56
267.52	77.56
267.752	70.56
267.984	87.56
268.216	86.56
268.448	78.56
268.681	84.56
268.913	86.56
269.145	90.56
269.377	69.56
269.609	84.56
269.841	78.56
270.073	86.56
270.306	91.56
270.538	97.56
270.77	79.56
271.002	84.56
271.234	90.56
271.466	87.56
271.698	78.56
271.93	89.56
272.162	81.56
272.394	84.56
272.626	94.56
272.858	80.56
273.09	83.56
273.322	88.56
273.553	87.56
273.785	93.56
274.017	87.56
274.249	92.56
274.481	99.56
274.713	88.56
274.945	91.56
275.176	83.56
275.408	93.56
275.64	85.56
275.872	87.56
276.104	92.56
276.335	92.56
276.567	75.56
276.799	99.56
277.031	75.56
277.262	95.56
277.494	85.56
277.726	91.56
277.957	85.56
278.189	95.56
278.421	80.56
278.652	79.56
278.884	87.56
279.115	91.56
279.347	88.56
279.579	92.56
279.81	94.56
280.042	90.56
280.273	80.56
280.505	84.56
280.736	95.56
280.968	97.56
281.199	66.56
281.431	80.56
281.662	88.56
281.894	80.56
282.125	80.56
282.356	81.56
282.588	88.56
282.819	95.56
283.051	75.56
283.282	80.56
283.513	97.56
283.745	88.56
283.976	85.56
284.207	70.56
284.439	90.56
284.67	83.56
284.901	71.56
285.132	98.56
285.364	77.56
285.595	81.56
285.826	87.56
286.057	85.56
286.288	79.56
286.52	91.56
286.751	69.56
286.982	84.56
287.213	86.56
287.444	88.56
287.675	89.56
287.906	97.56
288.138	86.56
288.369	79.56
288.6	73.56
288.831	80.56
289.062	94.56
289.293	87.56
289.524	77.56
289.755	87.56
289.986	81.56
290.217	75.56
290.448	87.56
290.679	78.56
290.91	83.56
291.141	103.56
291.371	106.56
291.602	97.56
291.833	69.56
292.064	108.56
292.295	77.56
292.526	90.56
292.757	91.56
292.987	86.56
293.218	83.56
293.449	87.56
293.68	90.56
293.91	93.56
294.141	86.56
294.372	99.56
294.603	71.56
294.833	84.56
295.064	89.56
295.295	85.56
295.525	74.56
295.756	101.56
295.987	97.56
296.217	99.56
296.448	80.56
296.679	85.56
296.909	85.56
297.14	93.56
297.37	87.56
297.601	80.56
297.831	81.56
298.062	88.56
298.292	88.56
298.523	94.56
298.753	97.56
298.984	95.56
299.214	77.56
299.445	96.56
299.675	99.56
299.905	103.56
300.136	86.56
300.366	88.56
300.597	90.56
300.827	97.56
301.057	87.56
301.288	90.56
301.518	93.56
301.748	98.56
301.979	107.56
302.209	86.56
302.439	85.56
302.669	78.56
302.9	95.56
303.13	86.56
303.36	96.56
303.59	98.56
303.82	95.56
304.051	75.56
304.281	87.56
304.511	87.56
304.741	84.56
304.971	90.56
305.201	94.56
305.431	88.56
305.661	81.56
305.891	78.56
306.121	83.56
306.352	88.56
306.582	83.56
306.812	92.56
307.042	95.56
307.272	90.56
307.502	91.56
307.731	82.56
307.961	85.56
308.191	95.56
308.421	86.56
308.651	87.56
308.881	88.56
309.111	87.56
309.341	87.56
309.571	85.56
309.8	78.56
310.03	85.56
310.26	76.56
310.49	99.56
310.72	86.56
310.949	103.56
311.179	93.56
311.409	78.56
311.639	77.56
311.868	93.56
312.098	87.56
312.328	101.56
312.557	93.56
312.787	73.56
313.017	76.56
313.246	95.56
313.476	79.56
313.706	91.56
313.935	81.56
314.165	83.56
314.394	82.56
314.624	86.56
314.853	88.56
315.083	98.56
315.312	97.56
315.542	87.56
315.771	93.56
316.001	89.56
316.23	99.56
316.46	86.56
316.689	86.56
316.919	87.56
317.148	94.56
317.377	99.56
317.607	82.56
317.836	76.56
318.065	89.56
318.295	77.56
318.524	84.56
318.753	85.56
318.983	89.56
319.212	99.56
319.441	85.56
319.67	79.56
319.9	91.56
320.129	94.56
320.358	78.56
320.587	93.56
320.816	86.56
321.046	89.56
321.275	83.56
321.504	87.56
321.733	85.56
321.962	85.56
322.191	84.56
322.42	59.56
322.649	97.56
322.878	77.56
323.108	87.56
323.337	86.56
323.566	92.56
323.795	70.56
324.024	85.56
324.253	89.56
324.482	77.56
324.71	83.56
324.939	94.56
325.168	87.56
325.397	72.56
325.626	79.56
325.855	79.56
326.084	80.56
326.313	93.56
326.542	81.56
326.77	94.56
326.999	87.56
327.228	82.56
327.457	108.56
327.686	105.56
327.914	92.56
328.143	86.56
328.372	89.56
328.6	89.56
328.829	82.56
329.058	84.56
329.287	95.56
329.515	88.56
329.744	100.56
329.972	92.56
330.201	101.56
330.43	89.56
330.658	78.56
330.887	100.56
331.115	79.56
331.344	89.56
331.572	83.56
331.801	85.56
332.03	93.56
332.258	101.56
332.486	89.56
332.715	93.56
332.943	96.56
333.172	77.56
333.4	75.56
333.629	97.56
333.857	83.56
334.085	86.56
334.314	83.56
334.542	93.56
334.771	78.56
334.999	93.56
335.227	96.56
335.455	100.56
335.684	94.56
335.912	85.56
336.14	89.56
336.369	85.56
336.597	74.56
336.825	75.56
337.053	86.56
337.281	84.56
337.51	95.56
337.738	97.56
337.966	85.56
338.194	86.56
338.422	83.56
338.65	105.56
338.878	91.56
339.106	88.56
339.334	88.56
339.562	86.56
339.79	76.56
340.018	85.56
340.246	77.56
340.474	89.56
340.702	87.56
340.93	86.56
341.158	91.56
341.386	81.56
341.614	88.56
341.842	95.56
342.07	79.56
342.298	86.56
342.526	81.56
342.754	80.56
342.981	89.56
343.209	96.56
343.437	98.56
343.665	83.56
343.893	85.56
344.12	68.56
344.348	87.56
344.576	93.56
344.804	88.56
345.031	89.56
345.259	88.56
345.487	99.56
345.714	95.56
345.942	79.56
346.17	87.56
346.397	85.56
346.625	99.56
346.853	90.56
347.08	79.56
347.308	92.56
347.535	86.56
347.763	87.56
347.99	103.56
348.218	90.56
348.445	65.56
348.673	104.56
348.9	85.56
349.128	90.56
349.355	83.56
349.583	94.56
349.81	90.56
350.037	106.56
350.265	87.56
350.492	98.56
350.72	87.56
350.947	99.56
351.174	83.56
351.402	83.56
351.629	72.56
351.856	95.56
352.083	82.56
352.311	91.56
352.538	107.56
352.765	87.56
352.992	96.56
353.22	91.56
353.447	94.56
353.674	93.56
353.901	96.56
354.128	89.56
354.355	85.56
354.583	74.56
354.81	93.56
355.037	89.56
355.264	89.56
355.491	93.56
355.718	91.56
355.945	87.56
356.172	94.56
356.399	96.56
356.626	97.56
356.853	98.56
357.08	98.56
357.307	85.56
357.534	103.56
357.761	93.56
357.988	89.56
358.215	95.56
358.441	93.56
358.668	89.56
358.895	83.56
359.122	85.56
359.349	89.56
359.576	75.56
359.802	83.56
360.029	91.56
360.256	98.56
360.483	86.56
360.709	95.56
360.936	97.56
361.163	100.56
361.39	82.56
361.616	87.56
361.843	79.56
362.07	97.56
362.296	98.56
362.523	100.56
362.749	91.56
362.976	95.56
363.203	95.56
363.429	97.56
363.656	99.56
363.882	86.56
364.109	84.56
364.335	98.56
364.562	99.56
364.788	95.56
365.015	97.56
365.241	77.56
365.468	91.56
365.694	73.56
365.92	81.56
366.147	93.56
366.373	83.56
366.599	69.56
366.826	86.56
367.052	73.56
367.278	85.56
367.505	80.56
367.731	84.56
367.957	80.56
368.184	93.56
368.41	85.56
368.636	93.56
368.862	86.56
369.089	93.56
369.315	70.56
369.541	93.56
369.767	81.56
369.993	72.56
370.219	87.56
370.445	91.56
370.672	79.56
370.898	78.56
371.124	82.56
371.35	85.56
371.576	80.56
371.802	92.56
372.028	82.56
372.254	91.56
372.48	91.56
372.706	77.56
372.932	90.56
373.158	85.56
373.384	77.56
373.61	86.56
373.835	94.56
374.061	94.56
374.287	97.56
374.513	93.56
374.739	77.56
374.965	83.56
375.191	97.56
375.416	86.56
375.642	86.56
375.868	97.56
376.094	95.56
376.319	89.56
376.545	93.56
376.771	82.56
376.997	95.56
377.222	107.56
377.448	97.56
377.674	94.56
377.899	91.56
378.125	75.56
378.35	100.56
378.576	89.56
378.802	94.56
379.027	86.56
379.253	92.56
379.478	89.56
379.704	74.56
379.929	87.56
380.155	93.56
380.38	81.56
380.606	83.56
380.831	95.56
381.057	86.56
381.282	79.56
381.507	101.56
381.733	84.56
381.958	76.56
382.184	92.56
382.409	88.56
382.634	93.56
382.86	85.56
383.085	89.56
383.31	89.56
383.535	85.56
383.761	96.56
383.986	98.56
384.211	80.56
384.436	75.56
384.662	85.56
384.887	95.56
385.112	88.56
385.337	76.56
385.562	85.56
385.787	101.56
386.013	90.56
386.238	90.56
386.463	101.56
386.688	105.56
386.913	95.56
387.138	92.56
387.363	82.56
387.588	88.56
387.813	78.56
388.038	85.56
388.263	93.56
388.488	81.56
388.713	76.56
388.938	105.56
389.163	84.56
389.387	98.56
389.612	78.56
389.837	94.56
390.062	87.56
390.287	90.56
390.512	90.56
390.736	80.56
390.961	85.56
391.186	76.56
391.411	89.56
391.636	95.56
391.86	98.56
392.085	97.56
392.31	68.56
392.534	84.56
392.759	83.56
392.984	130.56
393.208	125.56
393.433	144.56
393.658	135.56
393.882	97.56
394.107	88.56
394.331	97.56
394.556	98.56
394.78	90.56
395.005	80.56
395.229	88.56
395.454	98.56
395.678	83.56
395.903	93.56
396.127	101.56
396.352	114.56
396.576	109.56
396.801	113.56
397.025	126.56
397.249	95.56
397.474	98.56
397.698	102.56
397.922	85.56
398.147	93.56
398.371	93.56
398.595	91.56
398.82	91.56
399.044	88.56
399.268	97.56
399.492	86.56
399.717	82.56
399.941	93.56
400.165	85.56
400.389	90.56
400.613	79.56
400.837	77.56
401.062	97.56
401.286	80.56
401.51	86.56
401.734	94.56
401.958	68.56
402.182	92.56
402.406	79.56
402.63	89.56
402.854	93.56
403.078	79.56
403.302	77.56
403.526	88.56
403.75	85.56
403.974	89.56
404.198	95.56
404.422	87.56
404.645	89.56
404.869	83.56
405.093	85.56
405.317	79.56
405.541	73.56
405.765	88.56
405.988	81.56
406.212	83.56
406.436	83.56
406.66	79.56
406.883	89.56
407.107	78.56
407.331	87.56
407.555	83.56
407.778	87.56
408.002	92.56
408.226	104.56
408.449	94.56
408.673	93.56
408.896	102.56
409.12	91.56
409.344	93.56
409.567	83.56
409.791	102.56
410.014	81.56
410.238	83.56
410.461	72.56
410.685	101.56
410.908	80.56
411.132	83.56
411.355	89.56
411.578	100.56
411.802	75.56
412.025	80.56
412.249	83.56
412.472	89.56
412.695	89.56
412.919	82.56
413.142	78.56
413.365	77.56
413.589	71.56
413.812	84.56
414.035	83.56
414.258	69.56
414.482	87.56
414.705	88.56
414.928	89.56
415.151	86.56
415.374	73.56
415.597	75.56
415.821	87.56
416.044	89.56
416.267	95.56
416.49	90.56
416.713	96.56
416.936	77.56
417.159	97.56
417.382	79.56
417.605	96.56
417.828	78.56
418.051	82.56
418.274	79.56
418.497	83.56
418.72	63.56
418.943	67.56
419.166	83.56
419.389	66.56
419.611	92.56
419.834	78.56
420.057	77.56
420.28	78.56
420.503	94.56
420.726	98.56
420.948	85.56
421.171	87.56
421.394	78.56
421.617	86.56
421.839	107.56
422.062	93.56
422.285	99.56
422.507	127.56
422.73	163.56
422.953	147.56
423.175	102.56
423.398	86.56
423.621	86.56
423.843	88.56
424.066	89.56
424.288	90.56
424.511	77.56
424.733	82.56
424.956	86.56
425.178	98.56
425.401	87.56
425.623	80.56
425.846	92.56
426.068	78.56
426.291	73.56
426.513	102.56
426.735	105.56
426.958	86.56
427.18	87.56
427.402	71.56
427.625	89.56
427.847	79.56
428.069	88.56
428.292	72.56
428.514	97.56
428.736	94.56
428.958	92.56
429.181	103.56
429.403	80.56
429.625	93.56
429.847	98.56
430.069	103.56
430.292	102.56
430.514	116.56
430.736	89.56
430.958	94.56
431.18	85.56
431.402	74.56
431.624	85.56
431.846	104.56
432.068	97.56
432.29	89.56
432.512	86.56
432.734	95.56
432.956	73.56
433.178	99.56
433.4	87.56
433.622	83.56
433.844	105.56
434.066	86.56
434.287	87.56
434.509	94.56
434.731	80.56
434.953	75.56
435.175	81.56
435.397	89.56
435.618	74.56
435.84	75.56
436.062	77.56
436.284	77.56
436.505	86.56
436.727	76.56
436.949	79.56
437.17	89.56
437.392	73.56
437.614	97.56
437.835	83.56
438.057	87.56
438.278	89.56
438.5	85.56
438.721	87.56
438.943	97.56
439.165	79.56
439.386	100.56
439.608	93.56
439.829	99.56
440.05	83.56
440.272	77.56
440.493	82.56
440.715	83.56
440.936	73.56
441.158	87.56
441.379	80.56
441.6	84.56
441.822	87.56
442.043	86.56
442.264	90.56
442.486	87.56
442.707	90.56
442.928	105.56
443.149	94.56
443.371	91.56
443.592	107.56
443.813	118.56
444.034	80.56
444.255	82.56
444.476	78.56
444.698	78.56
444.919	97.56
445.14	164.56
445.361	139.56
445.582	123.56
445.803	113.56
446.024	99.56
446.245	85.56
446.466	92.56
446.687	80.56
446.908	87.56
447.129	80.56
447.35	85.56
447.571	99.56
447.792	71.56
448.013	86.56
448.234	89.56
448.455	93.56
448.675	93.56
448.896	90.56
449.117	99.56
449.338	80.56
449.559	83.56
449.779	83.56
450	82.56
450.221	95.56
450.442	98.56
450.662	92.56
450.883	89.56
451.104	87.56
451.324	71.56
451.545	73.56
451.766	79.56
451.986	95.56
452.207	90.56
452.428	88.56
452.648	80.56
452.869	93.56
453.089	87.56
453.31	64.56
453.53	94.56
453.751	86.56
453.971	100.56
454.192	84.56
454.412	87.56
454.633	92.56
454.853	93.56
455.073	90.56
455.294	96.56
455.514	85.56
455.734	92.56
455.955	84.56
456.175	94.56
456.395	89.56
456.616	95.56
456.836	72.56
457.056	81.56
457.276	75.56
457.497	87.56
457.717	84.56
457.937	90.56
458.157	97.56
458.377	87.56
458.598	91.56
458.818	102.56
459.038	87.56
459.258	95.56
459.478	81.56
459.698	87.56
459.918	89.56
460.138	92.56
460.358	71.56
460.578	88.56
460.798	104.56
461.018	79.56
461.238	78.56
461.458	81.56
461.678	80.56
461.898	83.56
462.118	83.56
462.338	101.56
462.558	87.56
462.777	85.56
462.997	84.56
463.217	85.56
463.437	89.56
463.657	82.56
463.876	80.56
464.096	87.56
464.316	87.56
464.536	86.56
464.755	95.56
464.975	82.56
465.195	92.56
465.414	87.56
465.634	82.56
465.854	89.56
466.073	95.56
466.293	86.56
466.512	85.56
466.732	87.56
466.951	81.56
467.171	85.56
467.391	100.56
467.61	73.56
467.829	93.56
468.049	86.56
468.268	74.56
468.488	72.56
468.707	91.56
468.927	79.56
469.146	80.56
469.365	88.56
469.585	71.56
469.804	80.56
470.023	77.56
470.243	85.56
470.462	88.56
470.681	86.56
470.901	80.56
471.12	92.56
471.339	86.56
471.558	88.56
471.777	82.56
471.997	85.56
472.216	75.56
472.435	91.56
472.654	74.56
472.873	92.56
473.092	103.56
473.311	89.56
473.53	92.56
473.749	77.56
473.968	79.56
474.187	77.56
474.406	103.56
474.625	80.56
474.844	85.56
475.063	93.56
475.282	92.56
475.501	87.56
475.72	91.56
475.939	82.56
476.158	98.56
476.377	78.56
476.596	89.56
476.814	92.56
477.033	98.56
477.252	83.56
477.471	89.56
477.69	97.56
477.908	97.56
478.127	85.56
478.346	80.56
478.564	85.56
478.783	87.56
479.002	85.56
479.22	88.56
479.439	85.56
479.658	82.56
479.876	70.56
480.095	79.56
480.313	77.56
480.532	77.56
480.751	84.56
480.969	83.56
481.188	81.56
481.406	77.56
481.624	100.56
481.843	81.56
482.061	97.56
482.28	90.56
482.498	77.56
482.717	91.56
482.935	100.56
483.153	95.56
483.372	92.56
483.59	87.56
483.808	86.56
484.027	90.56
484.245	89.56
484.463	88.56
484.681	101.56
484.9	90.56
485.118	86.56
485.336	76.56
485.554	77.56
485.772	87.56
485.99	103.56
486.209	89.56
486.427	87.56
486.645	83.56
486.863	92.56
487.081	88.56
487.299	104.56
487.517	84.56
487.735	88.56
487.953	107.56
488.171	87.56
488.389	89.56
488.607	83.56
488.825	90.56
489.043	86.56
489.261	91.56
489.479	91.56
489.696	93.56
489.914	87.56
490.132	75.56
490.35	95.56
490.568	92.56
490.786	88.56
491.003	89.56
491.221	80.56
491.439	97.56
491.657	75.56
491.874	99.56
492.092	87.56
492.31	88.56
492.527	78.56
492.745	78.56
492.963	89.56
493.18	79.56
493.398	78.56
493.615	87.56
493.833	94.56
494.05	94.56
494.268	99.56
494.485	87.56
494.703	100.56
494.92	96.56
495.138	101.56
495.355	87.56
495.573	89.56
495.79	85.56
496.008	101.56
496.225	87.56
496.442	88.56
496.66	93.56
496.877	97.56
497.094	81.56
497.312	87.56
497.529	101.56
497.746	97.56
497.963	78.56
498.181	79.56
498.398	97.56
498.615	92.56
498.832	87.56
499.049	83.56
499.267	75.56
499.484	74.56
499.701	91.56
499.918	85.56
500.135	81.56
500.352	86.56
500.569	94.56
500.786	83.56
501.003	89.56
501.22	73.56
501.437	95.56
501.654	89.56
501.871	83.56
502.088	76.56
502.305	90.56
502.522	94.56
502.739	99.56
502.956	89.56
503.172	87.56
503.389	81.56
503.606	93.56
503.823	91.56
504.04	77.56
504.256	113.56
504.473	107.56
504.69	97.56
504.907	109.56
505.123	81.56
505.34	87.56
505.557	77.56
505.773	76.56
505.99	91.56
506.207	95.56
506.423	86.56
506.64	84.56
506.856	85.56
507.073	93.56
507.289	90.56
507.506	79.56
507.722	90.56
507.939	81.56
508.155	91.56
508.372	83.56
508.588	79.56
508.805	86.56
509.021	82.56
509.238	86.56
509.454	81.56
509.67	84.56
509.887	87.56
510.103	99.56
510.319	81.56
510.536	88.56
510.752	88.56
510.968	93.56
511.184	73.56
511.401	87.56
511.617	76.56
511.833	86.56
512.049	89.56
512.265	93.56
512.481	100.56
512.698	95.56
512.914	91.56
513.13	100.56
513.346	101.56
513.562	92.56
513.778	97.56
513.994	83.56
514.21	94.56
514.426	97.56
514.642	87.56
514.858	88.56
515.074	76.56
515.29	93.56
515.506	88.56
515.721	98.56
515.937	82.56
516.153	85.56
516.369	81.56
516.585	79.56
516.801	83.56
517.016	83.56
517.232	82.56
517.448	103.56
517.664	101.56
517.879	95.56
518.095	90.56
518.311	86.56
518.527	87.56
518.742	89.56
518.958	99.56
