Data from 17600_3_HRD10591_00038.txt Node
Date: Mon Jan 19 14:09:42 EST 2026
User: Yrep
Spectrometer: HR+D1059
Trigger mode: 1
Integration Time (sec): 1.000000E-1
Scans to average: 1
Electric dark correction enabled: true
Nonlinearity correction enabled: false
Boxcar width: 0
XAxis mode: Wavelengths
Number of Pixels in Spectrum: 2048
>>>>>Begin Spectral Data<<<<<
223.165	-22.25
223.4	-22.25
223.635	-22.25
223.869	-26.25
224.104	-27.25
224.338	-13.25
224.573	-9.25
224.808	-13.25
225.042	-10.25
225.277	5.75
225.511	2.75
225.746	-6.25
225.98	9.75
226.215	3.75
226.449	26.75
226.683	24.75
226.918	27.75
227.152	26.75
227.387	47.75
227.621	37.75
227.856	47.75
228.09	47.75
228.324	59.75
228.559	56.75
228.793	51.75
229.027	51.75
229.262	56.75
229.496	65.75
229.73	79.75
229.964	65.75
230.199	71.75
230.433	62.75
230.667	71.75
230.901	85.75
231.136	72.75
231.37	81.75
231.604	81.75
231.838	68.75
232.072	80.75
232.306	95.75
232.541	89.75
232.775	71.75
233.009	65.75
233.243	78.75
233.477	96.75
233.711	86.75
233.945	86.75
234.179	81.75
234.413	80.75
234.647	72.75
234.881	69.75
235.115	75.75
235.349	88.75
235.583	74.75
235.817	88.75
236.051	77.75
236.285	72.75
236.519	68.75
236.753	73.75
236.987	84.75
237.221	72.75
237.455	76.75
237.689	83.75
237.922	82.75
238.156	84.75
238.39	89.75
238.624	80.75
238.858	71.75
239.091	71.75
239.325	79.75
239.559	82.75
239.793	72.75
240.027	73.75
240.26	80.75
240.494	83.75
240.728	74.75
240.961	80.75
241.195	83.75
241.429	90.75
241.662	85.75
241.896	100.75
242.13	66.75
242.363	69.75
242.597	83.75
242.83	85.75
243.064	73.75
243.298	66.75
243.531	76.75
243.765	80.75
243.998	86.75
244.232	92.75
244.465	77.75
244.699	77.75
244.932	92.75
245.166	83.75
245.399	84.75
245.633	80.75
245.866	81.75
246.099	78.75
246.333	76.75
246.566	77.75
246.8	86.75
247.033	77.75
247.266	76.75
247.5	78.75
247.733	74.75
247.966	71.75
248.2	85.75
248.433	81.75
248.666	82.75
248.899	89.75
249.133	74.75
249.366	83.75
249.599	90.75
249.832	71.75
250.066	91.75
250.299	75.75
250.532	73.75
250.765	82.75
250.998	77.75
251.231	78.75
251.465	89.75
251.698	73.75
251.931	89.75
252.164	65.75
252.397	61.75
252.63	91.75
252.863	94.75
253.096	84.75
253.329	83.75
253.562	74.75
253.795	83.75
254.028	84.75
254.261	97.75
254.494	89.75
254.727	79.75
254.96	79.75
255.193	91.75
255.426	86.75
255.659	77.75
255.892	81.75
256.124	82.75
256.357	74.75
256.59	91.75
256.823	86.75
257.056	76.75
257.289	100.75
257.521	84.75
257.754	80.75
257.987	93.75
258.22	82.75
258.452	94.75
258.685	91.75
258.918	84.75
259.151	73.75
259.383	81.75
259.616	65.75
259.849	84.75
260.081	84.75
260.314	80.75
260.547	78.75
260.779	87.75
261.012	74.75
261.244	75.75
261.477	83.75
261.71	71.75
261.942	77.75
262.175	83.75
262.407	81.75
262.64	82.75
262.872	75.75
263.105	73.75
263.337	84.75
263.57	74.75
263.802	77.75
264.035	82.75
264.267	83.75
264.499	79.75
264.732	87.75
264.964	92.75
265.197	78.75
265.429	88.75
265.661	80.75
265.894	68.75
266.126	73.75
266.358	74.75
266.591	73.75
266.823	68.75
267.055	79.75
267.287	84.75
267.52	84.75
267.752	76.75
267.984	71.75
268.216	74.75
268.448	83.75
268.681	71.75
268.913	87.75
269.145	82.75
269.377	88.75
269.609	84.75
269.841	65.75
270.073	85.75
270.306	77.75
270.538	90.75
270.77	79.75
271.002	76.75
271.234	85.75
271.466	83.75
271.698	74.75
271.93	73.75
272.162	75.75
272.394	93.75
272.626	90.75
272.858	89.75
273.09	74.75
273.322	91.75
273.553	86.75
273.785	88.75
274.017	88.75
274.249	89.75
274.481	76.75
274.713	83.75
274.945	71.75
275.176	71.75
275.408	74.75
275.64	82.75
275.872	83.75
276.104	78.75
276.335	73.75
276.567	79.75
276.799	74.75
277.031	79.75
277.262	77.75
277.494	89.75
277.726	89.75
277.957	96.75
278.189	89.75
278.421	75.75
278.652	85.75
278.884	88.75
279.115	69.75
279.347	91.75
279.579	96.75
279.81	94.75
280.042	83.75
280.273	85.75
280.505	68.75
280.736	92.75
280.968	83.75
281.199	73.75
281.431	78.75
281.662	81.75
281.894	99.75
282.125	77.75
282.356	87.75
282.588	76.75
282.819	78.75
283.051	75.75
283.282	77.75
283.513	89.75
283.745	84.75
283.976	86.75
284.207	94.75
284.439	75.75
284.67	89.75
284.901	78.75
285.132	88.75
285.364	73.75
285.595	93.75
285.826	81.75
286.057	86.75
286.288	83.75
286.52	93.75
286.751	87.75
286.982	89.75
287.213	83.75
287.444	81.75
287.675	89.75
287.906	89.75
288.138	83.75
288.369	89.75
288.6	89.75
288.831	75.75
289.062	97.75
289.293	78.75
289.524	77.75
289.755	84.75
289.986	82.75
290.217	76.75
290.448	81.75
290.679	89.75
290.91	99.75
291.141	85.75
291.371	91.75
291.602	87.75
291.833	98.75
292.064	80.75
292.295	93.75
292.526	81.75
292.757	92.75
292.987	95.75
293.218	81.75
293.449	87.75
293.68	75.75
293.91	75.75
294.141	83.75
294.372	76.75
294.603	80.75
294.833	92.75
295.064	90.75
295.295	87.75
295.525	65.75
295.756	97.75
295.987	90.75
296.217	88.75
296.448	89.75
296.679	87.75
296.909	95.75
297.14	72.75
297.37	92.75
297.601	89.75
297.831	80.75
298.062	79.75
298.292	76.75
298.523	97.75
298.753	90.75
298.984	81.75
299.214	83.75
299.445	95.75
299.675	89.75
299.905	93.75
300.136	83.75
300.366	90.75
300.597	76.75
300.827	82.75
301.057	84.75
301.288	77.75
301.518	92.75
301.748	84.75
301.979	92.75
302.209	76.75
302.439	80.75
302.669	69.75
302.9	79.75
303.13	75.75
303.36	88.75
303.59	85.75
303.82	100.75
304.051	85.75
304.281	84.75
304.511	84.75
304.741	83.75
304.971	76.75
305.201	88.75
305.431	88.75
305.661	84.75
305.891	96.75
306.121	83.75
306.352	80.75
306.582	74.75
306.812	87.75
307.042	90.75
307.272	89.75
307.502	80.75
307.731	78.75
307.961	74.75
308.191	83.75
308.421	76.75
308.651	81.75
308.881	85.75
309.111	83.75
309.341	84.75
309.571	87.75
309.8	89.75
310.03	90.75
310.26	77.75
310.49	77.75
310.72	74.75
310.949	76.75
311.179	87.75
311.409	82.75
311.639	73.75
311.868	95.75
312.098	84.75
312.328	93.75
312.557	92.75
312.787	85.75
313.017	77.75
313.246	85.75
313.476	94.75
313.706	88.75
313.935	90.75
314.165	75.75
314.394	74.75
314.624	87.75
314.853	85.75
315.083	97.75
315.312	78.75
315.542	77.75
315.771	71.75
316.001	97.75
316.23	101.75
316.46	87.75
316.689	72.75
316.919	93.75
317.148	79.75
317.377	92.75
317.607	90.75
317.836	82.75
318.065	108.75
318.295	97.75
318.524	93.75
318.753	91.75
318.983	97.75
319.212	86.75
319.441	72.75
319.67	83.75
319.9	76.75
320.129	81.75
320.358	87.75
320.587	74.75
320.816	95.75
321.046	84.75
321.275	82.75
321.504	93.75
321.733	104.75
321.962	84.75
322.191	88.75
322.42	78.75
322.649	84.75
322.878	92.75
323.108	84.75
323.337	83.75
323.566	94.75
323.795	78.75
324.024	80.75
324.253	72.75
324.482	89.75
324.71	97.75
324.939	91.75
325.168	91.75
325.397	89.75
325.626	85.75
325.855	75.75
326.084	89.75
326.313	88.75
326.542	75.75
326.77	81.75
326.999	98.75
327.228	90.75
327.457	86.75
327.686	83.75
327.914	93.75
328.143	97.75
328.372	75.75
328.6	75.75
328.829	89.75
329.058	91.75
329.287	86.75
329.515	91.75
329.744	68.75
329.972	78.75
330.201	75.75
330.43	92.75
330.658	79.75
330.887	86.75
331.115	83.75
331.344	75.75
331.572	95.75
331.801	82.75
332.03	77.75
332.258	83.75
332.486	86.75
332.715	87.75
332.943	87.75
333.172	85.75
333.4	97.75
333.629	106.75
333.857	68.75
334.085	89.75
334.314	83.75
334.542	94.75
334.771	80.75
334.999	82.75
335.227	89.75
335.455	95.75
335.684	82.75
335.912	85.75
336.14	87.75
336.369	86.75
336.597	91.75
336.825	72.75
337.053	84.75
337.281	91.75
337.51	97.75
337.738	91.75
337.966	94.75
338.194	81.75
338.422	92.75
338.65	94.75
338.878	84.75
339.106	85.75
339.334	83.75
339.562	82.75
339.79	91.75
340.018	82.75
340.246	97.75
340.474	91.75
340.702	93.75
340.93	104.75
341.158	84.75
341.386	97.75
341.614	73.75
341.842	86.75
342.07	77.75
342.298	81.75
342.526	85.75
342.754	76.75
342.981	99.75
343.209	92.75
343.437	92.75
343.665	77.75
343.893	81.75
344.12	93.75
344.348	77.75
344.576	86.75
344.804	81.75
345.031	93.75
345.259	90.75
345.487	96.75
345.714	91.75
345.942	97.75
346.17	82.75
346.397	79.75
346.625	83.75
346.853	95.75
347.08	107.75
347.308	83.75
347.535	77.75
347.763	86.75
347.99	91.75
348.218	86.75
348.445	84.75
348.673	85.75
348.9	86.75
349.128	83.75
349.355	83.75
349.583	85.75
349.81	80.75
350.037	82.75
350.265	97.75
350.492	94.75
350.72	99.75
350.947	89.75
351.174	83.75
351.402	84.75
351.629	88.75
351.856	83.75
352.083	82.75
352.311	81.75
352.538	83.75
352.765	85.75
352.992	85.75
353.22	92.75
353.447	91.75
353.674	112.75
353.901	99.75
354.128	79.75
354.355	66.75
354.583	78.75
354.81	75.75
355.037	101.75
355.264	95.75
355.491	66.75
355.718	91.75
355.945	87.75
356.172	84.75
356.399	81.75
356.626	92.75
356.853	88.75
357.08	80.75
357.307	92.75
357.534	92.75
357.761	94.75
357.988	88.75
358.215	74.75
358.441	86.75
358.668	88.75
358.895	98.75
359.122	81.75
359.349	90.75
359.576	92.75
359.802	81.75
360.029	80.75
360.256	88.75
360.483	71.75
360.709	73.75
360.936	76.75
361.163	82.75
361.39	85.75
361.616	81.75
361.843	97.75
362.07	85.75
362.296	93.75
362.523	84.75
362.749	99.75
362.976	91.75
363.203	87.75
363.429	103.75
363.656	83.75
363.882	76.75
364.109	95.75
364.335	101.75
364.562	96.75
364.788	96.75
365.015	97.75
365.241	82.75
365.468	79.75
365.694	88.75
365.92	83.75
366.147	85.75
366.373	89.75
366.599	92.75
366.826	85.75
367.052	82.75
367.278	84.75
367.505	81.75
367.731	101.75
367.957	99.75
368.184	76.75
368.41	86.75
368.636	82.75
368.862	82.75
369.089	73.75
369.315	79.75
369.541	84.75
369.767	89.75
369.993	81.75
370.219	75.75
370.445	89.75
370.672	97.75
370.898	88.75
371.124	80.75
371.35	75.75
371.576	79.75
371.802	94.75
372.028	89.75
372.254	80.75
372.48	89.75
372.706	84.75
372.932	87.75
373.158	97.75
373.384	89.75
373.61	94.75
373.835	102.75
374.061	79.75
374.287	77.75
374.513	94.75
374.739	87.75
374.965	94.75
375.191	93.75
375.416	98.75
375.642	85.75
375.868	85.75
376.094	109.75
376.319	87.75
376.545	85.75
376.771	87.75
376.997	101.75
377.222	94.75
377.448	85.75
377.674	90.75
377.899	83.75
378.125	90.75
378.35	101.75
378.576	81.75
378.802	87.75
379.027	69.75
379.253	82.75
379.478	75.75
379.704	76.75
379.929	78.75
380.155	89.75
380.38	95.75
380.606	83.75
380.831	89.75
381.057	87.75
381.282	75.75
381.507	77.75
381.733	87.75
381.958	83.75
382.184	105.75
382.409	94.75
382.634	95.75
382.86	91.75
383.085	80.75
383.31	82.75
383.535	84.75
383.761	93.75
383.986	88.75
384.211	68.75
384.436	87.75
384.662	84.75
384.887	99.75
385.112	77.75
385.337	89.75
385.562	86.75
385.787	90.75
386.013	80.75
386.238	89.75
386.463	70.75
386.688	100.75
386.913	83.75
387.138	93.75
387.363	92.75
387.588	81.75
387.813	85.75
388.038	103.75
388.263	97.75
388.488	87.75
388.713	88.75
388.938	81.75
389.163	77.75
389.387	62.75
389.612	74.75
389.837	95.75
390.062	84.75
390.287	82.75
390.512	99.75
390.736	87.75
390.961	93.75
391.186	93.75
391.411	78.75
391.636	99.75
391.86	83.75
392.085	86.75
392.31	83.75
392.534	80.75
392.759	114.75
392.984	139.75
393.208	220.75
393.433	320.75
393.658	261.75
393.882	125.75
394.107	91.75
394.331	93.75
394.556	91.75
394.78	102.75
395.005	92.75
395.229	84.75
395.454	90.75
395.678	86.75
395.903	111.75
396.127	113.75
396.352	123.75
396.576	142.75
396.801	220.75
397.025	254.75
397.249	140.75
397.474	96.75
397.698	92.75
397.922	75.75
398.147	81.75
398.371	95.75
398.595	85.75
398.82	88.75
399.044	98.75
399.268	72.75
399.492	69.75
399.717	89.75
399.941	83.75
400.165	86.75
400.389	90.75
400.613	71.75
400.837	88.75
401.062	90.75
401.286	82.75
401.51	90.75
401.734	77.75
401.958	81.75
402.182	78.75
402.406	80.75
402.63	95.75
402.854	82.75
403.078	84.75
403.302	80.75
403.526	79.75
403.75	85.75
403.974	76.75
404.198	78.75
404.422	90.75
404.645	84.75
404.869	90.75
405.093	88.75
405.317	84.75
405.541	87.75
405.765	87.75
405.988	80.75
406.212	91.75
406.436	91.75
406.66	90.75
406.883	97.75
407.107	84.75
407.331	79.75
407.555	99.75
407.778	103.75
408.002	95.75
408.226	80.75
408.449	73.75
408.673	84.75
408.896	76.75
409.12	88.75
409.344	93.75
409.567	98.75
409.791	86.75
410.014	92.75
410.238	87.75
410.461	80.75
410.685	88.75
410.908	79.75
411.132	77.75
411.355	81.75
411.578	85.75
411.802	92.75
412.025	77.75
412.249	80.75
412.472	83.75
412.695	78.75
412.919	84.75
413.142	72.75
413.365	80.75
413.589	97.75
413.812	75.75
414.035	104.75
414.258	76.75
414.482	80.75
414.705	75.75
414.928	104.75
415.151	67.75
415.374	104.75
415.597	79.75
415.821	72.75
416.044	81.75
416.267	95.75
416.49	90.75
416.713	91.75
416.936	83.75
417.159	86.75
417.382	84.75
417.605	68.75
417.828	86.75
418.051	87.75
418.274	84.75
418.497	100.75
418.72	86.75
418.943	73.75
419.166	81.75
419.389	75.75
419.611	85.75
419.834	75.75
420.057	94.75
420.28	87.75
420.503	74.75
420.726	71.75
420.948	92.75
421.171	64.75
421.394	85.75
421.617	111.75
421.839	113.75
422.062	98.75
422.285	113.75
422.507	173.75
422.73	289.75
422.953	239.75
423.175	126.75
423.398	91.75
423.621	99.75
423.843	78.75
424.066	89.75
424.288	75.75
424.511	80.75
424.733	76.75
424.956	90.75
425.178	92.75
425.401	75.75
425.623	86.75
425.846	81.75
426.068	80.75
426.291	69.75
426.513	81.75
426.735	86.75
426.958	81.75
427.18	79.75
427.402	89.75
427.625	84.75
427.847	71.75
428.069	91.75
428.292	98.75
428.514	90.75
428.736	90.75
428.958	120.75
429.181	118.75
429.403	86.75
429.625	98.75
429.847	97.75
430.069	105.75
430.292	145.75
430.514	141.75
430.736	99.75
430.958	119.75
431.18	85.75
431.402	88.75
431.624	95.75
431.846	90.75
432.068	108.75
432.29	87.75
432.512	83.75
432.734	69.75
432.956	95.75
433.178	85.75
433.4	92.75
433.622	91.75
433.844	74.75
434.066	70.75
434.287	94.75
434.509	79.75
434.731	88.75
434.953	73.75
435.175	86.75
435.397	84.75
435.618	84.75
435.84	81.75
436.062	83.75
436.284	83.75
436.505	83.75
436.727	73.75
436.949	90.75
437.17	94.75
437.392	82.75
437.614	89.75
437.835	72.75
438.057	73.75
438.278	85.75
438.5	89.75
438.721	79.75
438.943	81.75
439.165	73.75
439.386	75.75
439.608	94.75
439.829	89.75
440.05	87.75
440.272	85.75
440.493	72.75
440.715	83.75
440.936	97.75
441.158	81.75
441.379	84.75
441.6	87.75
441.822	90.75
442.043	101.75
442.264	85.75
442.486	104.75
442.707	118.75
442.928	95.75
443.149	91.75
443.371	116.75
443.592	156.75
443.813	149.75
444.034	107.75
444.255	108.75
444.476	83.75
444.698	91.75
444.919	91.75
445.14	144.75
445.361	150.75
445.582	196.75
445.803	159.75
446.024	106.75
446.245	87.75
446.466	85.75
446.687	77.75
446.908	74.75
447.129	90.75
447.35	76.75
447.571	89.75
447.792	64.75
448.013	71.75
448.234	67.75
448.455	84.75
448.675	83.75
448.896	96.75
449.117	87.75
449.338	85.75
449.559	90.75
449.779	89.75
450	91.75
450.221	81.75
450.442	73.75
450.662	87.75
450.883	67.75
451.104	84.75
451.324	88.75
451.545	78.75
451.766	68.75
451.986	93.75
452.207	91.75
452.428	88.75
452.648	80.75
452.869	85.75
453.089	79.75
453.31	76.75
453.53	91.75
453.751	77.75
453.971	97.75
454.192	67.75
454.412	85.75
454.633	85.75
454.853	80.75
455.073	69.75
455.294	76.75
455.514	80.75
455.734	75.75
455.955	77.75
456.175	84.75
456.395	89.75
456.616	81.75
456.836	90.75
457.056	76.75
457.276	82.75
457.497	91.75
457.717	94.75
457.937	90.75
458.157	74.75
458.377	89.75
458.598	87.75
458.818	109.75
459.038	80.75
459.258	85.75
459.478	79.75
459.698	67.75
459.918	78.75
460.138	79.75
460.358	69.75
460.578	106.75
460.798	107.75
461.018	106.75
461.238	87.75
461.458	80.75
461.678	85.75
461.898	67.75
462.118	71.75
462.338	79.75
462.558	84.75
462.777	78.75
462.997	84.75
463.217	75.75
463.437	84.75
463.657	88.75
463.876	92.75
464.096	83.75
464.316	83.75
464.536	70.75
464.755	73.75
464.975	81.75
465.195	74.75
465.414	79.75
465.634	84.75
465.854	69.75
466.073	79.75
466.293	70.75
466.512	87.75
466.732	72.75
466.951	77.75
467.171	78.75
467.391	81.75
467.61	89.75
467.829	78.75
468.049	79.75
468.268	86.75
468.488	87.75
468.707	74.75
468.927	84.75
469.146	88.75
469.365	71.75
469.585	71.75
469.804	95.75
470.023	77.75
470.243	75.75
470.462	77.75
470.681	94.75
470.901	87.75
471.12	83.75
471.339	87.75
471.558	75.75
471.777	79.75
471.997	93.75
472.216	82.75
472.435	67.75
472.654	72.75
472.873	81.75
473.092	86.75
473.311	87.75
473.53	82.75
473.749	93.75
473.968	93.75
474.187	83.75
474.406	88.75
474.625	86.75
474.844	86.75
475.063	82.75
475.282	78.75
475.501	86.75
475.72	82.75
475.939	66.75
476.158	88.75
476.377	87.75
476.596	67.75
476.814	84.75
477.033	90.75
477.252	88.75
477.471	81.75
477.69	79.75
477.908	77.75
478.127	71.75
478.346	75.75
478.564	71.75
478.783	91.75
479.002	97.75
479.22	76.75
479.439	93.75
479.658	73.75
479.876	91.75
480.095	73.75
480.313	84.75
480.532	78.75
480.751	85.75
480.969	80.75
481.188	75.75
481.406	78.75
481.624	83.75
481.843	76.75
482.061	83.75
482.28	86.75
482.498	73.75
482.717	91.75
482.935	76.75
483.153	79.75
483.372	79.75
483.59	91.75
483.808	75.75
484.027	77.75
484.245	89.75
484.463	86.75
484.681	87.75
484.9	85.75
485.118	89.75
485.336	78.75
485.554	67.75
485.772	78.75
485.99	86.75
486.209	87.75
486.427	87.75
486.645	79.75
486.863	78.75
487.081	88.75
487.299	109.75
487.517	93.75
487.735	100.75
487.953	111.75
488.171	107.75
488.389	87.75
488.607	73.75
488.825	90.75
489.043	90.75
489.261	89.75
489.479	83.75
489.696	101.75
489.914	89.75
490.132	82.75
490.35	83.75
490.568	89.75
490.786	96.75
491.003	77.75
491.221	84.75
491.439	85.75
491.657	73.75
491.874	89.75
492.092	97.75
492.31	88.75
492.527	70.75
492.745	78.75
492.963	91.75
493.18	87.75
493.398	82.75
493.615	89.75
493.833	89.75
494.05	78.75
494.268	78.75
494.485	87.75
494.703	88.75
494.92	81.75
495.138	79.75
495.355	97.75
495.573	79.75
495.79	80.75
496.008	87.75
496.225	84.75
496.442	86.75
496.66	77.75
496.877	92.75
497.094	84.75
497.312	87.75
497.529	91.75
497.746	86.75
497.963	81.75
498.181	86.75
498.398	88.75
498.615	78.75
498.832	80.75
499.049	98.75
499.267	77.75
499.484	85.75
499.701	88.75
499.918	87.75
500.135	81.75
500.352	90.75
500.569	78.75
500.786	82.75
501.003	87.75
501.22	77.75
501.437	75.75
501.654	90.75
501.871	86.75
502.088	72.75
502.305	98.75
502.522	82.75
502.739	85.75
502.956	81.75
503.172	89.75
503.389	84.75
503.606	80.75
503.823	92.75
504.04	109.75
504.256	118.75
504.473	91.75
504.69	75.75
504.907	89.75
505.123	90.75
505.34	94.75
505.557	92.75
505.773	92.75
505.99	93.75
506.207	82.75
506.423	75.75
506.64	88.75
506.856	84.75
507.073	73.75
507.289	90.75
507.506	99.75
507.722	89.75
507.939	86.75
508.155	102.75
508.372	91.75
508.588	74.75
508.805	84.75
509.021	86.75
509.238	91.75
509.454	87.75
509.67	79.75
509.887	73.75
510.103	76.75
510.319	71.75
510.536	81.75
510.752	80.75
510.968	99.75
511.184	96.75
511.401	87.75
511.617	82.75
511.833	89.75
512.049	91.75
512.265	86.75
512.481	74.75
512.698	77.75
512.914	82.75
513.13	82.75
513.346	94.75
513.562	84.75
513.778	84.75
513.994	89.75
514.21	81.75
514.426	77.75
514.642	80.75
514.858	73.75
515.074	94.75
515.29	103.75
515.506	86.75
515.721	83.75
515.937	81.75
516.153	77.75
516.369	84.75
516.585	84.75
516.801	86.75
517.016	84.75
517.232	89.75
517.448	89.75
517.664	89.75
517.879	80.75
518.095	80.75
518.311	95.75
518.527	94.75
518.742	91.75
518.958	103.75
519.173	128.75
