Data from 17600_3_HRD10591_00042.txt Node
Date: Mon Jan 19 14:09:44 EST 2026
User: Yrep
Spectrometer: HR+D1059
Trigger mode: 1
Integration Time (sec): 1.000000E-1
Scans to average: 1
Electric dark correction enabled: true
Nonlinearity correction enabled: false
Boxcar width: 0
XAxis mode: Wavelengths
Number of Pixels in Spectrum: 2048
>>>>>Begin Spectral Data<<<<<
223.165	-13.12
223.4	-13.12
223.635	-13.12
223.869	-35.12
224.104	-13.12
224.338	-23.12
224.573	-3.12
224.808	-10.12
225.042	-1.12
225.277	-8.12
225.511	10.88
225.746	-0.12
225.98	5.88
226.215	16.88
226.449	5.88
226.683	18.88
226.918	29.88
227.152	18.88
227.387	36.88
227.621	29.88
227.856	43.88
228.09	42.88
228.324	48.88
228.559	51.88
228.793	44.88
229.027	65.88
229.262	61.88
229.496	61.88
229.73	59.88
229.964	68.88
230.199	63.88
230.433	55.88
230.667	74.88
230.901	72.88
231.136	74.88
231.37	66.88
231.604	86.88
231.838	78.88
232.072	82.88
232.306	97.88
232.541	76.88
232.775	71.88
233.009	77.88
233.243	73.88
233.477	76.88
233.711	87.88
233.945	68.88
234.179	80.88
234.413	81.88
234.647	70.88
234.881	82.88
235.115	104.88
235.349	88.88
235.583	69.88
235.817	68.88
236.051	71.88
236.285	84.88
236.519	69.88
236.753	67.88
236.987	68.88
237.221	67.88
237.455	78.88
237.689	76.88
237.922	80.88
238.156	72.88
238.39	80.88
238.624	78.88
238.858	75.88
239.091	68.88
239.325	76.88
239.559	67.88
239.793	64.88
240.027	84.88
240.26	64.88
240.494	77.88
240.728	80.88
240.961	78.88
241.195	73.88
241.429	67.88
241.662	72.88
241.896	81.88
242.13	68.88
242.363	87.88
242.597	71.88
242.83	74.88
243.064	80.88
243.298	71.88
243.531	82.88
243.765	66.88
243.998	72.88
244.232	77.88
244.465	85.88
244.699	73.88
244.932	74.88
245.166	69.88
245.399	65.88
245.633	93.88
245.866	69.88
246.099	68.88
246.333	76.88
246.566	76.88
246.8	79.88
247.033	83.88
247.266	68.88
247.5	69.88
247.733	76.88
247.966	70.88
248.2	68.88
248.433	71.88
248.666	65.88
248.899	82.88
249.133	84.88
249.366	72.88
249.599	86.88
249.832	71.88
250.066	90.88
250.299	78.88
250.532	94.88
250.765	64.88
250.998	65.88
251.231	76.88
251.465	70.88
251.698	96.88
251.931	68.88
252.164	55.88
252.397	72.88
252.63	74.88
252.863	81.88
253.096	76.88
253.329	54.88
253.562	72.88
253.795	78.88
254.028	87.88
254.261	82.88
254.494	76.88
254.727	78.88
254.96	68.88
255.193	72.88
255.426	70.88
255.659	93.88
255.892	79.88
256.124	75.88
256.357	69.88
256.59	80.88
256.823	84.88
257.056	67.88
257.289	68.88
257.521	68.88
257.754	79.88
257.987	76.88
258.22	95.88
258.452	78.88
258.685	71.88
258.918	70.88
259.151	75.88
259.383	78.88
259.616	63.88
259.849	66.88
260.081	82.88
260.314	88.88
260.547	73.88
260.779	63.88
261.012	66.88
261.244	86.88
261.477	92.88
261.71	74.88
261.942	72.88
262.175	88.88
262.407	78.88
262.64	82.88
262.872	75.88
263.105	82.88
263.337	89.88
263.57	61.88
263.802	69.88
264.035	75.88
264.267	79.88
264.499	78.88
264.732	64.88
264.964	97.88
265.197	76.88
265.429	76.88
265.661	81.88
265.894	94.88
266.126	88.88
266.358	70.88
266.591	70.88
266.823	75.88
267.055	76.88
267.287	83.88
267.52	80.88
267.752	83.88
267.984	74.88
268.216	88.88
268.448	82.88
268.681	72.88
268.913	78.88
269.145	83.88
269.377	79.88
269.609	75.88
269.841	73.88
270.073	73.88
270.306	69.88
270.538	74.88
270.77	88.88
271.002	71.88
271.234	71.88
271.466	88.88
271.698	90.88
271.93	90.88
272.162	60.88
272.394	80.88
272.626	80.88
272.858	85.88
273.09	76.88
273.322	82.88
273.553	84.88
273.785	84.88
274.017	78.88
274.249	90.88
274.481	72.88
274.713	74.88
274.945	89.88
275.176	69.88
275.408	97.88
275.64	75.88
275.872	66.88
276.104	74.88
276.335	87.88
276.567	72.88
276.799	75.88
277.031	78.88
277.262	85.88
277.494	69.88
277.726	80.88
277.957	78.88
278.189	82.88
278.421	88.88
278.652	64.88
278.884	86.88
279.115	98.88
279.347	91.88
279.579	89.88
279.81	83.88
280.042	71.88
280.273	80.88
280.505	84.88
280.736	82.88
280.968	95.88
281.199	78.88
281.431	78.88
281.662	77.88
281.894	78.88
282.125	80.88
282.356	87.88
282.588	75.88
282.819	69.88
283.051	94.88
283.282	80.88
283.513	68.88
283.745	82.88
283.976	67.88
284.207	63.88
284.439	82.88
284.67	81.88
284.901	76.88
285.132	94.88
285.364	66.88
285.595	85.88
285.826	82.88
286.057	86.88
286.288	84.88
286.52	98.88
286.751	86.88
286.982	60.88
287.213	69.88
287.444	88.88
287.675	78.88
287.906	88.88
288.138	92.88
288.369	79.88
288.6	84.88
288.831	74.88
289.062	78.88
289.293	82.88
289.524	74.88
289.755	86.88
289.986	76.88
290.217	79.88
290.448	75.88
290.679	75.88
290.91	87.88
291.141	81.88
291.371	71.88
291.602	97.88
291.833	89.88
292.064	73.88
292.295	71.88
292.526	80.88
292.757	80.88
292.987	82.88
293.218	69.88
293.449	76.88
293.68	88.88
293.91	86.88
294.141	80.88
294.372	78.88
294.603	70.88
294.833	82.88
295.064	77.88
295.295	89.88
295.525	84.88
295.756	88.88
295.987	72.88
296.217	79.88
296.448	69.88
296.679	83.88
296.909	77.88
297.14	80.88
297.37	96.88
297.601	83.88
297.831	78.88
298.062	92.88
298.292	72.88
298.523	75.88
298.753	91.88
298.984	79.88
299.214	79.88
299.445	87.88
299.675	78.88
299.905	91.88
300.136	88.88
300.366	64.88
300.597	80.88
300.827	79.88
301.057	85.88
301.288	88.88
301.518	84.88
301.748	83.88
301.979	88.88
302.209	98.88
302.439	95.88
302.669	96.88
302.9	82.88
303.13	89.88
303.36	95.88
303.59	83.88
303.82	84.88
304.051	73.88
304.281	95.88
304.511	101.88
304.741	84.88
304.971	98.88
305.201	87.88
305.431	76.88
305.661	80.88
305.891	87.88
306.121	90.88
306.352	74.88
306.582	87.88
306.812	72.88
307.042	73.88
307.272	63.88
307.502	81.88
307.731	84.88
307.961	92.88
308.191	78.88
308.421	88.88
308.651	80.88
308.881	78.88
309.111	91.88
309.341	88.88
309.571	91.88
309.8	91.88
310.03	77.88
310.26	80.88
310.49	88.88
310.72	70.88
310.949	72.88
311.179	67.88
311.409	73.88
311.639	70.88
311.868	74.88
312.098	94.88
312.328	90.88
312.557	84.88
312.787	78.88
313.017	78.88
313.246	81.88
313.476	78.88
313.706	72.88
313.935	88.88
314.165	88.88
314.394	67.88
314.624	86.88
314.853	101.88
315.083	86.88
315.312	85.88
315.542	76.88
315.771	90.88
316.001	99.88
316.23	91.88
316.46	97.88
316.689	96.88
316.919	70.88
317.148	78.88
317.377	85.88
317.607	88.88
317.836	98.88
318.065	106.88
318.295	107.88
318.524	85.88
318.753	65.88
318.983	90.88
319.212	95.88
319.441	75.88
319.67	84.88
319.9	83.88
320.129	94.88
320.358	78.88
320.587	91.88
320.816	68.88
321.046	88.88
321.275	96.88
321.504	100.88
321.733	75.88
321.962	74.88
322.191	86.88
322.42	76.88
322.649	86.88
322.878	85.88
323.108	87.88
323.337	94.88
323.566	80.88
323.795	83.88
324.024	82.88
324.253	74.88
324.482	80.88
324.71	98.88
324.939	105.88
325.168	83.88
325.397	90.88
325.626	84.88
325.855	92.88
326.084	90.88
326.313	81.88
326.542	88.88
326.77	99.88
326.999	85.88
327.228	72.88
327.457	83.88
327.686	62.88
327.914	77.88
328.143	87.88
328.372	84.88
328.6	86.88
328.829	83.88
329.058	91.88
329.287	95.88
329.515	76.88
329.744	79.88
329.972	86.88
330.201	73.88
330.43	80.88
330.658	79.88
330.887	89.88
331.115	80.88
331.344	83.88
331.572	84.88
331.801	77.88
332.03	68.88
332.258	72.88
332.486	87.88
332.715	73.88
332.943	92.88
333.172	90.88
333.4	75.88
333.629	92.88
333.857	88.88
334.085	75.88
334.314	64.88
334.542	90.88
334.771	73.88
334.999	78.88
335.227	85.88
335.455	91.88
335.684	103.88
335.912	89.88
336.14	87.88
336.369	90.88
336.597	78.88
336.825	82.88
337.053	85.88
337.281	86.88
337.51	83.88
337.738	87.88
337.966	82.88
338.194	76.88
338.422	77.88
338.65	87.88
338.878	78.88
339.106	70.88
339.334	67.88
339.562	80.88
339.79	71.88
340.018	74.88
340.246	70.88
340.474	76.88
340.702	78.88
340.93	80.88
341.158	81.88
341.386	78.88
341.614	82.88
341.842	75.88
342.07	78.88
342.298	70.88
342.526	84.88
342.754	61.88
342.981	84.88
343.209	94.88
343.437	84.88
343.665	97.88
343.893	85.88
344.12	94.88
344.348	81.88
344.576	78.88
344.804	67.88
345.031	76.88
345.259	87.88
345.487	91.88
345.714	76.88
345.942	93.88
346.17	93.88
346.397	75.88
346.625	73.88
346.853	81.88
347.08	74.88
347.308	67.88
347.535	87.88
347.763	93.88
347.99	82.88
348.218	73.88
348.445	81.88
348.673	98.88
348.9	94.88
349.128	82.88
349.355	76.88
349.583	82.88
349.81	86.88
350.037	87.88
350.265	75.88
350.492	92.88
350.72	83.88
350.947	50.88
351.174	83.88
351.402	79.88
351.629	87.88
351.856	88.88
352.083	85.88
352.311	73.88
352.538	94.88
352.765	88.88
352.992	82.88
353.22	76.88
353.447	78.88
353.674	101.88
353.901	84.88
354.128	91.88
354.355	91.88
354.583	78.88
354.81	77.88
355.037	85.88
355.264	89.88
355.491	87.88
355.718	88.88
355.945	77.88
356.172	75.88
356.399	75.88
356.626	88.88
356.853	94.88
357.08	95.88
357.307	83.88
357.534	76.88
357.761	91.88
357.988	86.88
358.215	96.88
358.441	78.88
358.668	99.88
358.895	96.88
359.122	73.88
359.349	91.88
359.576	93.88
359.802	78.88
360.029	69.88
360.256	66.88
360.483	72.88
360.709	84.88
360.936	100.88
361.163	91.88
361.39	80.88
361.616	84.88
361.843	72.88
362.07	103.88
362.296	98.88
362.523	103.88
362.749	104.88
362.976	97.88
363.203	114.88
363.429	88.88
363.656	84.88
363.882	80.88
364.109	85.88
364.335	111.88
364.562	124.88
364.788	100.88
365.015	95.88
365.241	86.88
365.468	84.88
365.694	85.88
365.92	78.88
366.147	80.88
366.373	100.88
366.599	88.88
366.826	93.88
367.052	88.88
367.278	84.88
367.505	66.88
367.731	90.88
367.957	94.88
368.184	89.88
368.41	81.88
368.636	76.88
368.862	86.88
369.089	85.88
369.315	90.88
369.541	83.88
369.767	71.88
369.993	79.88
370.219	86.88
370.445	84.88
370.672	97.88
370.898	96.88
371.124	74.88
371.35	78.88
371.576	79.88
371.802	87.88
372.028	91.88
372.254	78.88
372.48	87.88
372.706	82.88
372.932	73.88
373.158	76.88
373.384	98.88
373.61	92.88
373.835	114.88
374.061	94.88
374.287	90.88
374.513	91.88
374.739	111.88
374.965	94.88
375.191	89.88
375.416	88.88
375.642	92.88
375.868	94.88
376.094	80.88
376.319	93.88
376.545	89.88
376.771	79.88
376.997	73.88
377.222	81.88
377.448	80.88
377.674	87.88
377.899	93.88
378.125	74.88
378.35	94.88
378.576	90.88
378.802	77.88
379.027	99.88
379.253	83.88
379.478	71.88
379.704	86.88
379.929	84.88
380.155	77.88
380.38	90.88
380.606	78.88
380.831	76.88
381.057	75.88
381.282	88.88
381.507	77.88
381.733	100.88
381.958	84.88
382.184	90.88
382.409	97.88
382.634	108.88
382.86	95.88
383.085	78.88
383.31	81.88
383.535	90.88
383.761	80.88
383.986	93.88
384.211	87.88
384.436	90.88
384.662	83.88
384.887	94.88
385.112	87.88
385.337	98.88
385.562	86.88
385.787	76.88
386.013	76.88
386.238	94.88
386.463	101.88
386.688	102.88
386.913	72.88
387.138	90.88
387.363	88.88
387.588	98.88
387.813	101.88
388.038	85.88
388.263	94.88
388.488	94.88
388.713	87.88
388.938	97.88
389.163	74.88
389.387	85.88
389.612	75.88
389.837	96.88
390.062	84.88
390.287	87.88
390.512	89.88
390.736	86.88
390.961	79.88
391.186	85.88
391.411	78.88
391.636	88.88
391.86	88.88
392.085	86.88
392.31	103.88
392.534	108.88
392.759	125.88
392.984	183.88
393.208	353.88
393.433	518.88
393.658	385.88
393.882	159.88
394.107	103.88
394.331	110.88
394.556	112.88
394.78	106.88
395.005	80.88
395.229	94.88
395.454	91.88
395.678	104.88
395.903	123.88
396.127	135.88
396.352	161.88
396.576	199.88
396.801	340.88
397.025	436.88
397.249	181.88
397.474	122.88
397.698	102.88
397.922	83.88
398.147	100.88
398.371	102.88
398.595	78.88
398.82	73.88
399.044	83.88
399.268	74.88
399.492	70.88
399.717	87.88
399.941	96.88
400.165	84.88
400.389	94.88
400.613	89.88
400.837	95.88
401.062	86.88
401.286	82.88
401.51	78.88
401.734	80.88
401.958	75.88
402.182	88.88
402.406	84.88
402.63	87.88
402.854	74.88
403.078	94.88
403.302	78.88
403.526	78.88
403.75	79.88
403.974	78.88
404.198	79.88
404.422	98.88
404.645	87.88
404.869	89.88
405.093	78.88
405.317	79.88
405.541	84.88
405.765	72.88
405.988	76.88
406.212	85.88
406.436	82.88
406.66	76.88
406.883	73.88
407.107	84.88
407.331	95.88
407.555	93.88
407.778	136.88
408.002	132.88
408.226	94.88
408.449	69.88
408.673	70.88
408.896	85.88
409.12	74.88
409.344	90.88
409.567	78.88
409.791	97.88
410.014	78.88
410.238	94.88
410.461	98.88
410.685	109.88
410.908	81.88
411.132	95.88
411.355	79.88
411.578	74.88
411.802	85.88
412.025	82.88
412.249	85.88
412.472	97.88
412.695	84.88
412.919	83.88
413.142	81.88
413.365	97.88
413.589	93.88
413.812	81.88
414.035	82.88
414.258	78.88
414.482	86.88
414.705	79.88
414.928	81.88
415.151	83.88
415.374	74.88
415.597	84.88
415.821	71.88
416.044	78.88
416.267	78.88
416.49	84.88
416.713	61.88
416.936	82.88
417.159	95.88
417.382	88.88
417.605	80.88
417.828	78.88
418.051	86.88
418.274	81.88
418.497	66.88
418.72	86.88
418.943	90.88
419.166	88.88
419.389	98.88
419.611	86.88
419.834	85.88
420.057	72.88
420.28	80.88
420.503	84.88
420.726	68.88
420.948	82.88
421.171	92.88
421.394	109.88
421.617	145.88
421.839	128.88
422.062	110.88
422.285	168.88
422.507	272.88
422.73	493.88
422.953	414.88
423.175	178.88
423.398	101.88
423.621	108.88
423.843	88.88
424.066	90.88
424.288	92.88
424.511	98.88
424.733	92.88
424.956	66.88
425.178	70.88
425.401	74.88
425.623	85.88
425.846	81.88
426.068	93.88
426.291	84.88
426.513	77.88
426.735	83.88
426.958	95.88
427.18	80.88
427.402	96.88
427.625	92.88
427.847	90.88
428.069	100.88
428.292	129.88
428.514	140.88
428.736	111.88
428.958	134.88
429.181	129.88
429.403	99.88
429.625	78.88
429.847	126.88
430.069	163.88
430.292	180.88
430.514	161.88
430.736	120.88
430.958	133.88
431.18	96.88
431.402	88.88
431.624	91.88
431.846	120.88
432.068	130.88
432.29	96.88
432.512	98.88
432.734	72.88
432.956	74.88
433.178	88.88
433.4	93.88
433.622	84.88
433.844	91.88
434.066	80.88
434.287	82.88
434.509	85.88
434.731	90.88
434.953	98.88
435.175	103.88
435.397	92.88
435.618	88.88
435.84	98.88
436.062	82.88
436.284	76.88
436.505	80.88
436.727	84.88
436.949	82.88
437.17	72.88
437.392	76.88
437.614	62.88
437.835	81.88
438.057	80.88
438.278	90.88
438.5	71.88
438.721	75.88
438.943	88.88
439.165	79.88
439.386	94.88
439.608	84.88
439.829	80.88
440.05	75.88
440.272	95.88
440.493	84.88
440.715	98.88
440.936	80.88
441.158	82.88
441.379	83.88
441.6	90.88
441.822	91.88
442.043	92.88
442.264	98.88
442.486	119.88
442.707	160.88
442.928	116.88
443.149	95.88
443.371	151.88
443.592	235.88
443.813	210.88
444.034	112.88
444.255	96.88
444.476	86.88
444.698	80.88
444.919	74.88
445.14	147.88
445.361	168.88
445.582	281.88
445.803	240.88
446.024	111.88
446.245	83.88
446.466	72.88
446.687	72.88
446.908	85.88
447.129	82.88
447.35	78.88
447.571	84.88
447.792	85.88
448.013	84.88
448.234	72.88
448.455	81.88
448.675	70.88
448.896	74.88
449.117	75.88
449.338	78.88
449.559	92.88
449.779	72.88
450	80.88
450.221	74.88
450.442	83.88
450.662	87.88
450.883	73.88
451.104	86.88
451.324	76.88
451.545	81.88
451.766	81.88
451.986	88.88
452.207	79.88
452.428	85.88
452.648	87.88
452.869	100.88
453.089	79.88
453.31	77.88
453.53	79.88
453.751	91.88
453.971	83.88
454.192	88.88
454.412	90.88
454.633	76.88
454.853	80.88
455.073	65.88
455.294	83.88
455.514	80.88
455.734	84.88
455.955	78.88
456.175	76.88
456.395	74.88
456.616	71.88
456.836	80.88
457.056	87.88
457.276	72.88
457.497	72.88
457.717	75.88
457.937	102.88
458.157	99.88
458.377	110.88
458.598	102.88
458.818	115.88
459.038	79.88
459.258	90.88
459.478	95.88
459.698	87.88
459.918	90.88
460.138	77.88
460.358	86.88
460.578	99.88
460.798	134.88
461.018	125.88
461.238	90.88
461.458	78.88
461.678	81.88
461.898	87.88
462.118	89.88
462.338	80.88
462.558	85.88
462.777	76.88
462.997	88.88
463.217	81.88
463.437	84.88
463.657	77.88
463.876	82.88
464.096	87.88
464.316	86.88
464.536	66.88
464.755	92.88
464.975	80.88
465.195	68.88
465.414	79.88
465.634	66.88
465.854	78.88
466.073	76.88
466.293	78.88
466.512	68.88
466.732	78.88
466.951	73.88
467.171	80.88
467.391	80.88
467.61	78.88
467.829	80.88
468.049	80.88
468.268	91.88
468.488	86.88
468.707	94.88
468.927	75.88
469.146	75.88
469.365	76.88
469.585	95.88
469.804	80.88
470.023	73.88
470.243	77.88
470.462	85.88
470.681	95.88
470.901	70.88
471.12	88.88
471.339	79.88
471.558	85.88
471.777	81.88
471.997	84.88
472.216	80.88
472.435	77.88
472.654	73.88
472.873	80.88
473.092	72.88
473.311	85.88
473.53	82.88
473.749	92.88
473.968	95.88
474.187	80.88
474.406	84.88
474.625	74.88
474.844	90.88
475.063	82.88
475.282	87.88
475.501	89.88
475.72	80.88
475.939	78.88
476.158	76.88
476.377	75.88
476.596	81.88
476.814	66.88
477.033	72.88
477.252	81.88
477.471	91.88
477.69	94.88
477.908	81.88
478.127	93.88
478.346	84.88
478.564	78.88
478.783	84.88
479.002	77.88
479.22	76.88
479.439	84.88
479.658	86.88
479.876	89.88
480.095	75.88
480.313	93.88
480.532	101.88
480.751	86.88
480.969	80.88
481.188	77.88
481.406	90.88
481.624	73.88
481.843	74.88
482.061	92.88
482.28	92.88
482.498	80.88
482.717	78.88
482.935	84.88
483.153	78.88
483.372	79.88
483.59	89.88
483.808	88.88
484.027	82.88
484.245	63.88
484.463	82.88
484.681	85.88
484.9	84.88
485.118	82.88
485.336	91.88
485.554	75.88
485.772	84.88
485.99	83.88
486.209	83.88
486.427	81.88
486.645	93.88
486.863	101.88
487.081	80.88
487.299	98.88
487.517	101.88
487.735	108.88
487.953	157.88
488.171	127.88
488.389	90.88
488.607	84.88
488.825	90.88
489.043	83.88
489.261	84.88
489.479	84.88
489.696	93.88
489.914	95.88
490.132	91.88
490.35	98.88
490.568	80.88
490.786	84.88
491.003	81.88
491.221	69.88
491.439	87.88
491.657	82.88
491.874	86.88
492.092	87.88
492.31	96.88
492.527	80.88
492.745	92.88
492.963	75.88
493.18	83.88
493.398	87.88
493.615	75.88
493.833	95.88
494.05	66.88
494.268	87.88
494.485	74.88
494.703	95.88
494.92	78.88
495.138	83.88
495.355	80.88
495.573	84.88
495.79	84.88
496.008	88.88
496.225	92.88
496.442	97.88
496.66	78.88
496.877	66.88
497.094	93.88
497.312	73.88
497.529	78.88
497.746	95.88
497.963	82.88
498.181	83.88
498.398	94.88
498.615	93.88
498.832	82.88
499.049	78.88
499.267	97.88
499.484	85.88
499.701	103.88
499.918	97.88
500.135	92.88
500.352	91.88
500.569	83.88
500.786	80.88
501.003	80.88
501.22	89.88
501.437	95.88
501.654	84.88
501.871	88.88
502.088	88.88
502.305	92.88
502.522	90.88
502.739	81.88
502.956	83.88
503.172	86.88
503.389	87.88
503.606	84.88
503.823	90.88
504.04	87.88
504.256	136.88
504.473	102.88
504.69	78.88
504.907	97.88
505.123	93.88
505.34	82.88
505.557	76.88
505.773	78.88
505.99	77.88
506.207	81.88
506.423	76.88
506.64	89.88
506.856	103.88
507.073	82.88
507.289	81.88
507.506	84.88
507.722	75.88
507.939	92.88
508.155	84.88
508.372	94.88
508.588	78.88
508.805	76.88
509.021	85.88
509.238	77.88
509.454	79.88
509.67	76.88
509.887	71.88
510.103	84.88
510.319	71.88
510.536	72.88
510.752	78.88
510.968	84.88
511.184	80.88
511.401	85.88
511.617	86.88
511.833	77.88
512.049	75.88
512.265	80.88
512.481	81.88
512.698	78.88
512.914	79.88
513.13	84.88
513.346	78.88
513.562	86.88
513.778	78.88
513.994	84.88
514.21	88.88
514.426	85.88
514.642	85.88
514.858	93.88
515.074	92.88
515.29	86.88
515.506	80.88
515.721	93.88
515.937	85.88
516.153	69.88
516.369	75.88
516.585	78.88
516.801	95.88
517.016	91.88
517.232	78.88
517.448	99.88
517.664	94.88
517.879	83.88
518.095	76.88
518.311	92.88
518.527	96.88
518.742	114.88
