Data from 17600_3_HRD10591_00018.txt Node
Date: Mon Jan 19 14:09:32 EST 2026
User: Yrep
Spectrometer: HR+D1059
Trigger mode: 1
Integration Time (sec): 1.000000E-1
Scans to average: 1
Electric dark correction enabled: true
Nonlinearity correction enabled: false
Boxcar width: 0
XAxis mode: Wavelengths
Number of Pixels in Spectrum: 2048
>>>>>Begin Spectral Data<<<<<
223.165	-20.94
223.4	-20.94
223.635	-20.94
223.869	-27.94
224.104	-25.94
224.338	-11.94
224.573	-3.94
224.808	-8.94
225.042	-13.94
225.277	-8.94
225.511	-1.94
225.746	-2.94
225.98	19.06
226.215	16.06
226.449	18.06
226.683	21.06
226.918	19.06
227.152	34.06
227.387	53.06
227.621	43.06
227.856	52.06
228.09	47.06
228.324	49.06
228.559	44.06
228.793	56.06
229.027	60.06
229.262	72.06
229.496	65.06
229.73	72.06
229.964	73.06
230.199	75.06
230.433	78.06
230.667	69.06
230.901	80.06
231.136	67.06
231.37	83.06
231.604	90.06
231.838	76.06
232.072	81.06
232.306	85.06
232.541	72.06
232.775	88.06
233.009	79.06
233.243	85.06
233.477	81.06
233.711	85.06
233.945	86.06
234.179	77.06
234.413	77.06
234.647	83.06
234.881	72.06
235.115	94.06
235.349	90.06
235.583	76.06
235.817	88.06
236.051	78.06
236.285	87.06
236.519	62.06
236.753	83.06
236.987	77.06
237.221	78.06
237.455	64.06
237.689	84.06
237.922	78.06
238.156	82.06
238.39	69.06
238.624	70.06
238.858	76.06
239.091	81.06
239.325	62.06
239.559	65.06
239.793	72.06
240.027	78.06
240.26	83.06
240.494	74.06
240.728	70.06
240.961	59.06
241.195	97.06
241.429	89.06
241.662	83.06
241.896	80.06
242.13	73.06
242.363	68.06
242.597	83.06
242.83	57.06
243.064	78.06
243.298	79.06
243.531	89.06
243.765	70.06
243.998	68.06
244.232	93.06
244.465	87.06
244.699	95.06
244.932	82.06
245.166	71.06
245.399	67.06
245.633	77.06
245.866	71.06
246.099	84.06
246.333	85.06
246.566	76.06
246.8	84.06
247.033	74.06
247.266	81.06
247.5	71.06
247.733	78.06
247.966	88.06
248.2	77.06
248.433	72.06
248.666	82.06
248.899	73.06
249.133	67.06
249.366	83.06
249.599	85.06
249.832	74.06
250.066	83.06
250.299	57.06
250.532	80.06
250.765	83.06
250.998	83.06
251.231	85.06
251.465	70.06
251.698	81.06
251.931	68.06
252.164	89.06
252.397	79.06
252.63	77.06
252.863	77.06
253.096	94.06
253.329	83.06
253.562	72.06
253.795	84.06
254.028	88.06
254.261	75.06
254.494	92.06
254.727	75.06
254.96	91.06
255.193	90.06
255.426	76.06
255.659	83.06
255.892	91.06
256.124	84.06
256.357	74.06
256.59	77.06
256.823	72.06
257.056	74.06
257.289	77.06
257.521	86.06
257.754	62.06
257.987	81.06
258.22	82.06
258.452	84.06
258.685	72.06
258.918	63.06
259.151	66.06
259.383	77.06
259.616	70.06
259.849	75.06
260.081	89.06
260.314	88.06
260.547	80.06
260.779	80.06
261.012	84.06
261.244	76.06
261.477	84.06
261.71	66.06
261.942	89.06
262.175	81.06
262.407	82.06
262.64	95.06
262.872	69.06
263.105	83.06
263.337	77.06
263.57	88.06
263.802	97.06
264.035	87.06
264.267	66.06
264.499	91.06
264.732	71.06
264.964	85.06
265.197	81.06
265.429	93.06
265.661	79.06
265.894	81.06
266.126	93.06
266.358	83.06
266.591	89.06
266.823	80.06
267.055	79.06
267.287	95.06
267.52	98.06
267.752	84.06
267.984	95.06
268.216	81.06
268.448	85.06
268.681	73.06
268.913	77.06
269.145	72.06
269.377	91.06
269.609	75.06
269.841	105.06
270.073	94.06
270.306	83.06
270.538	82.06
270.77	78.06
271.002	74.06
271.234	91.06
271.466	81.06
271.698	75.06
271.93	87.06
272.162	85.06
272.394	96.06
272.626	88.06
272.858	83.06
273.09	80.06
273.322	103.06
273.553	86.06
273.785	69.06
274.017	87.06
274.249	81.06
274.481	73.06
274.713	74.06
274.945	78.06
275.176	75.06
275.408	65.06
275.64	89.06
275.872	75.06
276.104	83.06
276.335	84.06
276.567	84.06
276.799	81.06
277.031	95.06
277.262	85.06
277.494	77.06
277.726	87.06
277.957	75.06
278.189	90.06
278.421	88.06
278.652	74.06
278.884	89.06
279.115	84.06
279.347	80.06
279.579	96.06
279.81	91.06
280.042	87.06
280.273	85.06
280.505	76.06
280.736	85.06
280.968	96.06
281.199	101.06
281.431	83.06
281.662	81.06
281.894	70.06
282.125	89.06
282.356	80.06
282.588	96.06
282.819	79.06
283.051	84.06
283.282	88.06
283.513	83.06
283.745	75.06
283.976	86.06
284.207	92.06
284.439	91.06
284.67	85.06
284.901	95.06
285.132	84.06
285.364	75.06
285.595	85.06
285.826	77.06
286.057	69.06
286.288	81.06
286.52	69.06
286.751	76.06
286.982	95.06
287.213	94.06
287.444	83.06
287.675	77.06
287.906	85.06
288.138	92.06
288.369	80.06
288.6	87.06
288.831	93.06
289.062	84.06
289.293	75.06
289.524	89.06
289.755	91.06
289.986	96.06
290.217	90.06
290.448	80.06
290.679	91.06
290.91	79.06
291.141	90.06
291.371	85.06
291.602	71.06
291.833	75.06
292.064	86.06
292.295	84.06
292.526	78.06
292.757	69.06
292.987	80.06
293.218	87.06
293.449	88.06
293.68	83.06
293.91	77.06
294.141	86.06
294.372	79.06
294.603	92.06
294.833	75.06
295.064	81.06
295.295	82.06
295.525	87.06
295.756	84.06
295.987	77.06
296.217	87.06
296.448	88.06
296.679	93.06
296.909	94.06
297.14	83.06
297.37	80.06
297.601	84.06
297.831	88.06
298.062	81.06
298.292	92.06
298.523	85.06
298.753	95.06
298.984	79.06
299.214	91.06
299.445	81.06
299.675	87.06
299.905	85.06
300.136	76.06
300.366	87.06
300.597	80.06
300.827	95.06
301.057	91.06
301.288	89.06
301.518	80.06
301.748	93.06
301.979	77.06
302.209	79.06
302.439	86.06
302.669	90.06
302.9	97.06
303.13	85.06
303.36	95.06
303.59	105.06
303.82	77.06
304.051	86.06
304.281	85.06
304.511	79.06
304.741	75.06
304.971	90.06
305.201	101.06
305.431	83.06
305.661	74.06
305.891	87.06
306.121	76.06
306.352	85.06
306.582	73.06
306.812	81.06
307.042	78.06
307.272	83.06
307.502	77.06
307.731	79.06
307.961	81.06
308.191	81.06
308.421	74.06
308.651	93.06
308.881	81.06
309.111	93.06
309.341	68.06
309.571	102.06
309.8	80.06
310.03	95.06
310.26	83.06
310.49	87.06
310.72	85.06
310.949	82.06
311.179	93.06
311.409	76.06
311.639	87.06
311.868	76.06
312.098	95.06
312.328	81.06
312.557	72.06
312.787	92.06
313.017	91.06
313.246	89.06
313.476	84.06
313.706	84.06
313.935	87.06
314.165	93.06
314.394	91.06
314.624	76.06
314.853	91.06
315.083	81.06
315.312	92.06
315.542	100.06
315.771	81.06
316.001	91.06
316.23	91.06
316.46	78.06
316.689	90.06
316.919	91.06
317.148	83.06
317.377	82.06
317.607	95.06
317.836	87.06
318.065	83.06
318.295	81.06
318.524	93.06
318.753	93.06
318.983	89.06
319.212	78.06
319.441	89.06
319.67	85.06
319.9	95.06
320.129	86.06
320.358	93.06
320.587	82.06
320.816	75.06
321.046	95.06
321.275	81.06
321.504	89.06
321.733	84.06
321.962	87.06
322.191	69.06
322.42	90.06
322.649	90.06
322.878	91.06
323.108	77.06
323.337	91.06
323.566	66.06
323.795	93.06
324.024	81.06
324.253	87.06
324.482	87.06
324.71	82.06
324.939	83.06
325.168	79.06
325.397	78.06
325.626	85.06
325.855	81.06
326.084	82.06
326.313	81.06
326.542	83.06
326.77	86.06
326.999	77.06
327.228	83.06
327.457	82.06
327.686	76.06
327.914	71.06
328.143	90.06
328.372	75.06
328.6	86.06
328.829	89.06
329.058	84.06
329.287	82.06
329.515	92.06
329.744	84.06
329.972	88.06
330.201	89.06
330.43	82.06
330.658	94.06
330.887	83.06
331.115	93.06
331.344	92.06
331.572	84.06
331.801	92.06
332.03	92.06
332.258	91.06
332.486	88.06
332.715	96.06
332.943	95.06
333.172	96.06
333.4	79.06
333.629	91.06
333.857	87.06
334.085	81.06
334.314	84.06
334.542	87.06
334.771	77.06
334.999	77.06
335.227	80.06
335.455	94.06
335.684	89.06
335.912	75.06
336.14	91.06
336.369	84.06
336.597	93.06
336.825	86.06
337.053	85.06
337.281	84.06
337.51	94.06
337.738	87.06
337.966	77.06
338.194	78.06
338.422	87.06
338.65	91.06
338.878	69.06
339.106	71.06
339.334	90.06
339.562	76.06
339.79	73.06
340.018	76.06
340.246	97.06
340.474	75.06
340.702	96.06
340.93	89.06
341.158	83.06
341.386	82.06
341.614	91.06
341.842	92.06
342.07	83.06
342.298	90.06
342.526	76.06
342.754	82.06
342.981	79.06
343.209	83.06
343.437	99.06
343.665	80.06
343.893	76.06
344.12	93.06
344.348	93.06
344.576	90.06
344.804	93.06
345.031	101.06
345.259	91.06
345.487	102.06
345.714	80.06
345.942	96.06
346.17	82.06
346.397	85.06
346.625	75.06
346.853	85.06
347.08	105.06
347.308	95.06
347.535	75.06
347.763	78.06
347.99	91.06
348.218	85.06
348.445	91.06
348.673	80.06
348.9	100.06
349.128	85.06
349.355	86.06
349.583	103.06
349.81	80.06
350.037	85.06
350.265	80.06
350.492	74.06
350.72	71.06
350.947	90.06
351.174	71.06
351.402	91.06
351.629	90.06
351.856	76.06
352.083	64.06
352.311	87.06
352.538	80.06
352.765	101.06
352.992	89.06
353.22	77.06
353.447	84.06
353.674	76.06
353.901	93.06
354.128	100.06
354.355	80.06
354.583	80.06
354.81	74.06
355.037	78.06
355.264	73.06
355.491	73.06
355.718	88.06
355.945	81.06
356.172	75.06
356.399	83.06
356.626	82.06
356.853	74.06
357.08	86.06
357.307	88.06
357.534	66.06
357.761	83.06
357.988	93.06
358.215	78.06
358.441	80.06
358.668	86.06
358.895	89.06
359.122	93.06
359.349	80.06
359.576	94.06
359.802	87.06
360.029	91.06
360.256	88.06
360.483	91.06
360.709	94.06
360.936	93.06
361.163	79.06
361.39	92.06
361.616	90.06
361.843	87.06
362.07	100.06
362.296	89.06
362.523	75.06
362.749	88.06
362.976	80.06
363.203	88.06
363.429	84.06
363.656	71.06
363.882	77.06
364.109	95.06
364.335	90.06
364.562	95.06
364.788	87.06
365.015	85.06
365.241	93.06
365.468	87.06
365.694	83.06
365.92	84.06
366.147	83.06
366.373	88.06
366.599	81.06
366.826	103.06
367.052	83.06
367.278	83.06
367.505	83.06
367.731	88.06
367.957	65.06
368.184	92.06
368.41	84.06
368.636	79.06
368.862	85.06
369.089	83.06
369.315	77.06
369.541	87.06
369.767	87.06
369.993	95.06
370.219	95.06
370.445	95.06
370.672	92.06
370.898	77.06
371.124	89.06
371.35	91.06
371.576	77.06
371.802	96.06
372.028	92.06
372.254	73.06
372.48	83.06
372.706	87.06
372.932	104.06
373.158	83.06
373.384	83.06
373.61	86.06
373.835	89.06
374.061	87.06
374.287	93.06
374.513	86.06
374.739	87.06
374.965	75.06
375.191	84.06
375.416	85.06
375.642	102.06
375.868	86.06
376.094	80.06
376.319	92.06
376.545	81.06
376.771	85.06
376.997	94.06
377.222	88.06
377.448	84.06
377.674	77.06
377.899	71.06
378.125	93.06
378.35	77.06
378.576	108.06
378.802	72.06
379.027	89.06
379.253	77.06
379.478	84.06
379.704	81.06
379.929	92.06
380.155	79.06
380.38	70.06
380.606	81.06
380.831	80.06
381.057	82.06
381.282	98.06
381.507	87.06
381.733	85.06
381.958	79.06
382.184	84.06
382.409	82.06
382.634	88.06
382.86	80.06
383.085	99.06
383.31	83.06
383.535	96.06
383.761	86.06
383.986	90.06
384.211	89.06
384.436	98.06
384.662	92.06
384.887	85.06
385.112	84.06
385.337	100.06
385.562	87.06
385.787	91.06
386.013	102.06
386.238	88.06
386.463	97.06
386.688	96.06
386.913	76.06
387.138	90.06
387.363	85.06
387.588	77.06
387.813	71.06
388.038	87.06
388.263	86.06
388.488	94.06
388.713	84.06
388.938	76.06
389.163	84.06
389.387	91.06
389.612	94.06
389.837	105.06
390.062	96.06
390.287	97.06
390.512	90.06
390.736	91.06
390.961	84.06
391.186	84.06
391.411	86.06
391.636	87.06
391.86	72.06
392.085	86.06
392.31	63.06
392.534	94.06
392.759	82.06
392.984	97.06
393.208	124.06
393.433	164.06
393.658	135.06
393.882	95.06
394.107	82.06
394.331	87.06
394.556	86.06
394.78	104.06
395.005	88.06
395.229	87.06
395.454	88.06
395.678	87.06
395.903	83.06
396.127	91.06
396.352	102.06
396.576	103.06
396.801	129.06
397.025	127.06
397.249	97.06
397.474	91.06
397.698	71.06
397.922	88.06
398.147	89.06
398.371	95.06
398.595	87.06
398.82	81.06
399.044	84.06
399.268	82.06
399.492	88.06
399.717	93.06
399.941	88.06
400.165	87.06
400.389	89.06
400.613	90.06
400.837	89.06
401.062	83.06
401.286	84.06
401.51	97.06
401.734	95.06
401.958	75.06
402.182	90.06
402.406	88.06
402.63	81.06
402.854	91.06
403.078	80.06
403.302	81.06
403.526	83.06
403.75	84.06
403.974	65.06
404.198	92.06
404.422	83.06
404.645	82.06
404.869	94.06
405.093	88.06
405.317	89.06
405.541	74.06
405.765	84.06
405.988	76.06
406.212	80.06
406.436	71.06
406.66	91.06
406.883	92.06
407.107	93.06
407.331	84.06
407.555	89.06
407.778	84.06
408.002	87.06
408.226	71.06
408.449	78.06
408.673	82.06
408.896	79.06
409.12	81.06
409.344	91.06
409.567	88.06
409.791	73.06
410.014	72.06
410.238	80.06
410.461	87.06
410.685	73.06
410.908	77.06
411.132	87.06
411.355	86.06
411.578	75.06
411.802	77.06
412.025	83.06
412.249	86.06
412.472	76.06
412.695	83.06
412.919	77.06
413.142	89.06
413.365	86.06
413.589	85.06
413.812	77.06
414.035	90.06
414.258	91.06
414.482	90.06
414.705	90.06
414.928	83.06
415.151	74.06
415.374	74.06
415.597	82.06
415.821	84.06
416.044	76.06
416.267	92.06
416.49	83.06
416.713	83.06
416.936	96.06
417.159	93.06
417.382	76.06
417.605	91.06
417.828	80.06
418.051	91.06
418.274	71.06
418.497	77.06
418.72	94.06
418.943	77.06
419.166	91.06
419.389	85.06
419.611	85.06
419.834	73.06
420.057	83.06
420.28	79.06
420.503	74.06
420.726	81.06
420.948	91.06
421.171	91.06
421.394	92.06
421.617	90.06
421.839	77.06
422.062	97.06
422.285	92.06
422.507	124.06
422.73	168.06
422.953	149.06
423.175	112.06
423.398	83.06
423.621	98.06
423.843	82.06
424.066	69.06
424.288	89.06
424.511	84.06
424.733	88.06
424.956	80.06
425.178	82.06
425.401	95.06
425.623	84.06
425.846	85.06
426.068	90.06
426.291	85.06
426.513	85.06
426.735	84.06
426.958	81.06
427.18	74.06
427.402	90.06
427.625	79.06
427.847	76.06
428.069	94.06
428.292	95.06
428.514	100.06
428.736	97.06
428.958	84.06
429.181	85.06
429.403	82.06
429.625	74.06
429.847	78.06
430.069	120.06
430.292	113.06
430.514	103.06
430.736	99.06
430.958	95.06
431.18	93.06
431.402	92.06
431.624	89.06
431.846	83.06
432.068	100.06
432.29	80.06
432.512	99.06
432.734	85.06
432.956	80.06
433.178	95.06
433.4	88.06
433.622	91.06
433.844	95.06
434.066	92.06
434.287	71.06
434.509	81.06
434.731	76.06
434.953	75.06
435.175	84.06
435.397	81.06
435.618	89.06
435.84	85.06
436.062	99.06
436.284	80.06
436.505	81.06
436.727	83.06
436.949	87.06
437.17	79.06
437.392	80.06
437.614	82.06
437.835	99.06
438.057	87.06
438.278	77.06
438.5	78.06
438.721	95.06
438.943	88.06
439.165	84.06
439.386	87.06
439.608	83.06
439.829	88.06
440.05	98.06
440.272	73.06
440.493	83.06
440.715	88.06
440.936	90.06
441.158	86.06
441.379	88.06
441.6	91.06
441.822	94.06
442.043	87.06
442.264	92.06
442.486	84.06
442.707	99.06
442.928	88.06
443.149	95.06
443.371	98.06
443.592	118.06
443.813	106.06
444.034	95.06
444.255	77.06
444.476	88.06
444.698	89.06
444.919	77.06
445.14	172.06
445.361	132.06
445.582	137.06
445.803	104.06
446.024	87.06
446.245	84.06
446.466	85.06
446.687	85.06
446.908	76.06
447.129	93.06
447.35	106.06
447.571	97.06
447.792	96.06
448.013	72.06
448.234	81.06
448.455	83.06
448.675	73.06
448.896	79.06
449.117	86.06
449.338	90.06
449.559	89.06
449.779	79.06
450	82.06
450.221	78.06
450.442	86.06
450.662	76.06
450.883	70.06
451.104	82.06
451.324	77.06
451.545	85.06
451.766	80.06
451.986	87.06
452.207	81.06
452.428	81.06
452.648	87.06
452.869	76.06
453.089	81.06
453.31	97.06
453.53	89.06
453.751	84.06
453.971	83.06
454.192	74.06
454.412	89.06
454.633	77.06
454.853	87.06
455.073	78.06
455.294	91.06
455.514	87.06
455.734	81.06
455.955	83.06
456.175	76.06
456.395	75.06
456.616	85.06
456.836	81.06
457.056	83.06
457.276	89.06
457.497	96.06
457.717	88.06
457.937	84.06
458.157	83.06
458.377	84.06
458.598	84.06
458.818	84.06
459.038	77.06
459.258	96.06
459.478	83.06
459.698	83.06
459.918	88.06
460.138	89.06
460.358	89.06
460.578	85.06
460.798	86.06
461.018	99.06
461.238	96.06
461.458	75.06
461.678	88.06
461.898	93.06
462.118	73.06
462.338	93.06
462.558	81.06
462.777	80.06
462.997	87.06
463.217	81.06
463.437	86.06
463.657	84.06
463.876	78.06
464.096	74.06
464.316	80.06
464.536	76.06
464.755	91.06
464.975	83.06
465.195	84.06
465.414	77.06
465.634	95.06
465.854	95.06
466.073	92.06
466.293	91.06
466.512	81.06
466.732	85.06
466.951	83.06
467.171	78.06
467.391	89.06
467.61	94.06
467.829	75.06
468.049	73.06
468.268	76.06
468.488	83.06
468.707	86.06
468.927	86.06
469.146	85.06
469.365	82.06
469.585	103.06
469.804	79.06
470.023	91.06
470.243	84.06
470.462	69.06
470.681	77.06
470.901	85.06
471.12	77.06
471.339	98.06
471.558	82.06
471.777	78.06
471.997	82.06
472.216	77.06
472.435	98.06
472.654	81.06
472.873	89.06
473.092	82.06
473.311	87.06
473.53	90.06
473.749	78.06
473.968	98.06
474.187	82.06
474.406	84.06
474.625	88.06
474.844	84.06
475.063	84.06
475.282	93.06
475.501	67.06
475.72	67.06
475.939	93.06
476.158	89.06
476.377	65.06
476.596	79.06
476.814	72.06
477.033	71.06
477.252	93.06
477.471	78.06
477.69	77.06
477.908	93.06
478.127	91.06
478.346	86.06
478.564	69.06
478.783	92.06
479.002	83.06
479.22	81.06
479.439	76.06
479.658	77.06
479.876	76.06
480.095	88.06
480.313	86.06
480.532	84.06
480.751	79.06
480.969	84.06
481.188	92.06
481.406	73.06
481.624	67.06
481.843	97.06
482.061	90.06
482.28	73.06
482.498	81.06
482.717	89.06
482.935	91.06
483.153	93.06
483.372	86.06
483.59	84.06
483.808	71.06
484.027	74.06
484.245	93.06
484.463	79.06
484.681	99.06
484.9	82.06
485.118	76.06
485.336	83.06
485.554	83.06
485.772	89.06
485.99	90.06
486.209	84.06
486.427	71.06
486.645	76.06
486.863	86.06
487.081	72.06
487.299	82.06
487.517	91.06
487.735	88.06
487.953	107.06
488.171	81.06
488.389	88.06
488.607	91.06
488.825	95.06
489.043	97.06
489.261	95.06
489.479	98.06
489.696	94.06
489.914	98.06
490.132	87.06
490.35	81.06
490.568	85.06
490.786	85.06
491.003	95.06
491.221	86.06
491.439	73.06
491.657	92.06
491.874	84.06
492.092	98.06
492.31	80.06
492.527	86.06
492.745	98.06
492.963	78.06
493.18	73.06
493.398	72.06
493.615	84.06
493.833	92.06
494.05	77.06
494.268	91.06
494.485	81.06
494.703	80.06
494.92	87.06
495.138	79.06
495.355	89.06
495.573	92.06
495.79	89.06
496.008	76.06
496.225	78.06
496.442	82.06
496.66	83.06
496.877	94.06
497.094	97.06
497.312	81.06
497.529	69.06
497.746	87.06
497.963	89.06
498.181	80.06
498.398	88.06
498.615	94.06
498.832	91.06
499.049	81.06
499.267	86.06
499.484	91.06
499.701	90.06
499.918	69.06
500.135	86.06
500.352	80.06
500.569	82.06
500.786	88.06
501.003	80.06
501.22	92.06
501.437	98.06
501.654	83.06
501.871	95.06
502.088	78.06
502.305	84.06
502.522	75.06
502.739	89.06
502.956	91.06
503.172	87.06
503.389	87.06
503.606	77.06
503.823	83.06
504.04	92.06
504.256	96.06
504.473	92.06
504.69	79.06
504.907	99.06
505.123	90.06
505.34	81.06
505.557	87.06
505.773	90.06
505.99	74.06
506.207	77.06
506.423	81.06
506.64	89.06
506.856	74.06
507.073	93.06
507.289	87.06
507.506	89.06
507.722	89.06
507.939	80.06
508.155	83.06
508.372	86.06
508.588	91.06
508.805	77.06
509.021	76.06
509.238	90.06
509.454	84.06
509.67	73.06
509.887	95.06
510.103	91.06
510.319	86.06
510.536	87.06
510.752	83.06
510.968	82.06
511.184	92.06
511.401	82.06
511.617	88.06
511.833	81.06
512.049	77.06
512.265	86.06
512.481	89.06
512.698	82.06
512.914	85.06
513.13	91.06
513.346	88.06
513.562	97.06
513.778	81.06
513.994	85.06
514.21	95.06
514.426	71.06
514.642	77.06
514.858	102.06
515.074	94.06
515.29	74.06
515.506	80.06
515.721	94.06
515.937	96.06
516.153	96.06
516.369	94.06
516.585	91.06
516.801	79.06
517.016	83.06
517.232	75.06
517.448	85.06
517.664	78.06
517.879	86.06
518.095	80.06
518.311	83.06
518.527	83.06
518.742	100.06
518.958	102.06
519.173	108.06
519.389	90.06
519.605	92.06
