Data from 17600_3_HRD10591_00015.txt Node
Date: Mon Jan 19 14:09:31 EST 2026
User: Yrep
Spectrometer: HR+D1059
Trigger mode: 1
Integration Time (sec): 1.000000E-1
Scans to average: 1
Electric dark correction enabled: true
Nonlinearity correction enabled: false
Boxcar width: 0
XAxis mode: Wavelengths
Number of Pixels in Spectrum: 2048
>>>>>Begin Spectral Data<<<<<
223.165	6.88
223.4	6.88
223.635	6.88
223.869	-16.12
224.104	-19.12
224.338	-24.12
224.573	-16.12
224.808	-16.12
225.042	5.88
225.277	-15.12
225.511	-3.12
225.746	-3.12
225.98	10.88
226.215	24.88
226.449	3.88
226.683	14.88
226.918	7.88
227.152	37.88
227.387	37.88
227.621	30.88
227.856	41.88
228.09	37.88
228.324	40.88
228.559	69.88
228.793	48.88
229.027	56.88
229.262	70.88
229.496	62.88
229.73	53.88
229.964	63.88
230.199	56.88
230.433	64.88
230.667	87.88
230.901	78.88
231.136	72.88
231.37	71.88
231.604	80.88
231.838	61.88
232.072	79.88
232.306	71.88
232.541	88.88
232.775	72.88
233.009	92.88
233.243	77.88
233.477	77.88
233.711	68.88
233.945	72.88
234.179	94.88
234.413	85.88
234.647	75.88
234.881	77.88
235.115	75.88
235.349	81.88
235.583	73.88
235.817	83.88
236.051	66.88
236.285	80.88
236.519	74.88
236.753	83.88
236.987	80.88
237.221	57.88
237.455	81.88
237.689	72.88
237.922	79.88
238.156	59.88
238.39	71.88
238.624	79.88
238.858	65.88
239.091	78.88
239.325	77.88
239.559	64.88
239.793	51.88
240.027	77.88
240.26	79.88
240.494	75.88
240.728	71.88
240.961	71.88
241.195	73.88
241.429	55.88
241.662	65.88
241.896	67.88
242.13	64.88
242.363	72.88
242.597	82.88
242.83	68.88
243.064	74.88
243.298	71.88
243.531	67.88
243.765	67.88
243.998	78.88
244.232	75.88
244.465	83.88
244.699	70.88
244.932	73.88
245.166	71.88
245.399	79.88
245.633	74.88
245.866	70.88
246.099	77.88
246.333	75.88
246.566	72.88
246.8	79.88
247.033	64.88
247.266	66.88
247.5	74.88
247.733	82.88
247.966	68.88
248.2	83.88
248.433	79.88
248.666	59.88
248.899	77.88
249.133	75.88
249.366	83.88
249.599	95.88
249.832	79.88
250.066	70.88
250.299	83.88
250.532	65.88
250.765	68.88
250.998	59.88
251.231	70.88
251.465	80.88
251.698	74.88
251.931	80.88
252.164	82.88
252.397	74.88
252.63	75.88
252.863	78.88
253.096	94.88
253.329	73.88
253.562	68.88
253.795	81.88
254.028	74.88
254.261	79.88
254.494	74.88
254.727	87.88
254.96	78.88
255.193	69.88
255.426	63.88
255.659	81.88
255.892	82.88
256.124	66.88
256.357	86.88
256.59	79.88
256.823	64.88
257.056	83.88
257.289	63.88
257.521	66.88
257.754	77.88
257.987	78.88
258.22	68.88
258.452	75.88
258.685	76.88
258.918	86.88
259.151	70.88
259.383	74.88
259.616	91.88
259.849	84.88
260.081	86.88
260.314	85.88
260.547	79.88
260.779	73.88
261.012	65.88
261.244	77.88
261.477	84.88
261.71	87.88
261.942	86.88
262.175	74.88
262.407	74.88
262.64	65.88
262.872	77.88
263.105	75.88
263.337	91.88
263.57	71.88
263.802	69.88
264.035	68.88
264.267	69.88
264.499	72.88
264.732	76.88
264.964	70.88
265.197	95.88
265.429	74.88
265.661	88.88
265.894	74.88
266.126	107.88
266.358	88.88
266.591	77.88
266.823	75.88
267.055	85.88
267.287	72.88
267.52	68.88
267.752	72.88
267.984	88.88
268.216	90.88
268.448	93.88
268.681	91.88
268.913	73.88
269.145	74.88
269.377	73.88
269.609	70.88
269.841	63.88
270.073	77.88
270.306	71.88
270.538	89.88
270.77	77.88
271.002	71.88
271.234	84.88
271.466	71.88
271.698	79.88
271.93	76.88
272.162	70.88
272.394	95.88
272.626	79.88
272.858	76.88
273.09	76.88
273.322	97.88
273.553	80.88
273.785	77.88
274.017	63.88
274.249	91.88
274.481	80.88
274.713	73.88
274.945	83.88
275.176	73.88
275.408	82.88
275.64	83.88
275.872	85.88
276.104	89.88
276.335	89.88
276.567	83.88
276.799	93.88
277.031	83.88
277.262	79.88
277.494	84.88
277.726	69.88
277.957	72.88
278.189	83.88
278.421	94.88
278.652	85.88
278.884	77.88
279.115	84.88
279.347	83.88
279.579	100.88
279.81	99.88
280.042	92.88
280.273	83.88
280.505	87.88
280.736	81.88
280.968	86.88
281.199	67.88
281.431	83.88
281.662	86.88
281.894	91.88
282.125	77.88
282.356	81.88
282.588	84.88
282.819	92.88
283.051	78.88
283.282	78.88
283.513	92.88
283.745	77.88
283.976	90.88
284.207	72.88
284.439	68.88
284.67	84.88
284.901	91.88
285.132	88.88
285.364	93.88
285.595	105.88
285.826	89.88
286.057	84.88
286.288	86.88
286.52	84.88
286.751	85.88
286.982	85.88
287.213	66.88
287.444	94.88
287.675	103.88
287.906	83.88
288.138	103.88
288.369	110.88
288.6	93.88
288.831	87.88
289.062	84.88
289.293	83.88
289.524	80.88
289.755	78.88
289.986	86.88
290.217	87.88
290.448	87.88
290.679	83.88
290.91	83.88
291.141	86.88
291.371	78.88
291.602	96.88
291.833	88.88
292.064	88.88
292.295	74.88
292.526	85.88
292.757	72.88
292.987	83.88
293.218	90.88
293.449	83.88
293.68	89.88
293.91	91.88
294.141	79.88
294.372	97.88
294.603	77.88
294.833	86.88
295.064	90.88
295.295	83.88
295.525	91.88
295.756	97.88
295.987	77.88
296.217	86.88
296.448	99.88
296.679	83.88
296.909	93.88
297.14	99.88
297.37	84.88
297.601	94.88
297.831	86.88
298.062	91.88
298.292	73.88
298.523	83.88
298.753	77.88
298.984	96.88
299.214	81.88
299.445	76.88
299.675	83.88
299.905	95.88
300.136	99.88
300.366	86.88
300.597	97.88
300.827	90.88
301.057	98.88
301.288	92.88
301.518	87.88
301.748	92.88
301.979	108.88
302.209	99.88
302.439	77.88
302.669	83.88
302.9	85.88
303.13	88.88
303.36	73.88
303.59	82.88
303.82	86.88
304.051	81.88
304.281	86.88
304.511	79.88
304.741	84.88
304.971	95.88
305.201	86.88
305.431	89.88
305.661	86.88
305.891	85.88
306.121	82.88
306.352	89.88
306.582	74.88
306.812	87.88
307.042	93.88
307.272	87.88
307.502	91.88
307.731	99.88
307.961	95.88
308.191	99.88
308.421	96.88
308.651	97.88
308.881	93.88
309.111	111.88
309.341	109.88
309.571	113.88
309.8	92.88
310.03	87.88
310.26	95.88
310.49	85.88
310.72	76.88
310.949	79.88
311.179	79.88
311.409	90.88
311.639	77.88
311.868	80.88
312.098	93.88
312.328	83.88
312.557	101.88
312.787	95.88
313.017	92.88
313.246	78.88
313.476	88.88
313.706	88.88
313.935	78.88
314.165	98.88
314.394	87.88
314.624	83.88
314.853	93.88
315.083	88.88
315.312	87.88
315.542	107.88
315.771	111.88
316.001	113.88
316.23	104.88
316.46	93.88
316.689	88.88
316.919	100.88
317.148	82.88
317.377	83.88
317.607	94.88
317.836	112.88
318.065	125.88
318.295	117.88
318.524	85.88
318.753	89.88
318.983	83.88
319.212	87.88
319.441	73.88
319.67	92.88
319.9	80.88
320.129	87.88
320.358	96.88
320.587	81.88
320.816	95.88
321.046	88.88
321.275	90.88
321.504	84.88
321.733	79.88
321.962	86.88
322.191	95.88
322.42	89.88
322.649	95.88
322.878	86.88
323.108	95.88
323.337	89.88
323.566	88.88
323.795	93.88
324.024	82.88
324.253	68.88
324.482	74.88
324.71	81.88
324.939	98.88
325.168	81.88
325.397	78.88
325.626	88.88
325.855	83.88
326.084	94.88
326.313	88.88
326.542	79.88
326.77	85.88
326.999	99.88
327.228	90.88
327.457	95.88
327.686	92.88
327.914	76.88
328.143	86.88
328.372	79.88
328.6	84.88
328.829	85.88
329.058	95.88
329.287	83.88
329.515	71.88
329.744	78.88
329.972	86.88
330.201	80.88
330.43	104.88
330.658	80.88
330.887	83.88
331.115	96.88
331.344	93.88
331.572	84.88
331.801	87.88
332.03	81.88
332.258	91.88
332.486	95.88
332.715	92.88
332.943	92.88
333.172	84.88
333.4	87.88
333.629	104.88
333.857	89.88
334.085	94.88
334.314	99.88
334.542	88.88
334.771	98.88
334.999	107.88
335.227	108.88
335.455	96.88
335.684	111.88
335.912	113.88
336.14	107.88
336.369	114.88
336.597	89.88
336.825	93.88
337.053	85.88
337.281	87.88
337.51	77.88
337.738	101.88
337.966	99.88
338.194	94.88
338.422	96.88
338.65	101.88
338.878	97.88
339.106	94.88
339.334	101.88
339.562	91.88
339.79	73.88
340.018	82.88
340.246	79.88
340.474	87.88
340.702	83.88
340.93	103.88
341.158	87.88
341.386	94.88
341.614	96.88
341.842	96.88
342.07	84.88
342.298	87.88
342.526	95.88
342.754	103.88
342.981	75.88
343.209	91.88
343.437	91.88
343.665	96.88
343.893	92.88
344.12	95.88
344.348	95.88
344.576	98.88
344.804	83.88
345.031	80.88
345.259	82.88
345.487	83.88
345.714	75.88
345.942	79.88
346.17	100.88
346.397	90.88
346.625	81.88
346.853	86.88
347.08	95.88
347.308	85.88
347.535	94.88
347.763	95.88
347.99	96.88
348.218	90.88
348.445	83.88
348.673	85.88
348.9	88.88
349.128	90.88
349.355	86.88
349.583	93.88
349.81	96.88
350.037	79.88
350.265	102.88
350.492	86.88
350.72	80.88
350.947	72.88
351.174	88.88
351.402	91.88
351.629	93.88
351.856	85.88
352.083	80.88
352.311	91.88
352.538	101.88
352.765	99.88
352.992	94.88
353.22	83.88
353.447	91.88
353.674	89.88
353.901	85.88
354.128	89.88
354.355	82.88
354.583	85.88
354.81	89.88
355.037	90.88
355.264	82.88
355.491	85.88
355.718	83.88
355.945	85.88
356.172	87.88
356.399	91.88
356.626	90.88
356.853	101.88
357.08	93.88
357.307	94.88
357.534	95.88
357.761	100.88
357.988	113.88
358.215	115.88
358.441	109.88
358.668	100.88
358.895	87.88
359.122	88.88
359.349	89.88
359.576	87.88
359.802	75.88
360.029	78.88
360.256	81.88
360.483	84.88
360.709	102.88
360.936	98.88
361.163	93.88
361.39	97.88
361.616	85.88
361.843	103.88
362.07	111.88
362.296	99.88
362.523	137.88
362.749	127.88
362.976	143.88
363.203	150.88
363.429	113.88
363.656	98.88
363.882	101.88
364.109	128.88
364.335	195.88
364.562	174.88
364.788	144.88
365.015	109.88
365.241	93.88
365.468	101.88
365.694	89.88
365.92	107.88
366.147	95.88
366.373	84.88
366.599	95.88
366.826	79.88
367.052	89.88
367.278	89.88
367.505	88.88
367.731	95.88
367.957	93.88
368.184	89.88
368.41	87.88
368.636	89.88
368.862	104.88
369.089	92.88
369.315	86.88
369.541	89.88
369.767	69.88
369.993	93.88
370.219	91.88
370.445	100.88
370.672	117.88
370.898	133.88
371.124	94.88
371.35	92.88
371.576	92.88
371.802	93.88
372.028	96.88
372.254	101.88
372.48	97.88
372.706	104.88
372.932	92.88
373.158	102.88
373.384	127.88
373.61	136.88
373.835	143.88
374.061	123.88
374.287	88.88
374.513	109.88
374.739	112.88
374.965	95.88
375.191	118.88
375.416	109.88
375.642	101.88
375.868	92.88
376.094	99.88
376.319	89.88
376.545	84.88
376.771	77.88
376.997	92.88
377.222	89.88
377.448	84.88
377.674	79.88
377.899	94.88
378.125	88.88
378.35	75.88
378.576	82.88
378.802	87.88
379.027	95.88
379.253	79.88
379.478	100.88
379.704	99.88
379.929	92.88
380.155	88.88
380.38	97.88
380.606	103.88
380.831	80.88
381.057	100.88
381.282	97.88
381.507	109.88
381.733	99.88
381.958	109.88
382.184	119.88
382.409	97.88
382.634	103.88
382.86	112.88
383.085	111.88
383.31	103.88
383.535	107.88
383.761	114.88
383.986	132.88
384.211	104.88
384.436	95.88
384.662	95.88
384.887	117.88
385.112	96.88
385.337	109.88
385.562	128.88
385.787	116.88
386.013	104.88
386.238	108.88
386.463	105.88
386.688	120.88
386.913	107.88
387.138	120.88
387.363	119.88
387.588	119.88
387.813	109.88
388.038	113.88
388.263	127.88
388.488	110.88
388.713	92.88
388.938	94.88
389.163	87.88
389.387	85.88
389.612	88.88
389.837	91.88
390.062	99.88
390.287	93.88
390.512	88.88
390.736	87.88
390.961	110.88
391.186	95.88
391.411	94.88
391.636	97.88
391.86	95.88
392.085	121.88
392.31	115.88
392.534	141.88
392.759	163.88
392.984	272.88
393.208	525.88
393.433	792.88
393.658	593.88
393.882	240.88
394.107	151.88
394.331	161.88
394.556	173.88
394.78	143.88
395.005	127.88
395.229	109.88
395.454	105.88
395.678	129.88
395.903	167.88
396.127	220.88
396.352	266.88
396.576	312.88
396.801	539.88
397.025	604.88
397.249	279.88
397.474	168.88
397.698	134.88
397.922	111.88
398.147	103.88
398.371	94.88
398.595	94.88
398.82	93.88
399.044	101.88
399.268	86.88
399.492	95.88
399.717	110.88
399.941	96.88
400.165	95.88
400.389	96.88
400.613	93.88
400.837	100.88
401.062	83.88
401.286	91.88
401.51	91.88
401.734	98.88
401.958	83.88
402.182	91.88
402.406	96.88
402.63	90.88
402.854	101.88
403.078	110.88
403.302	107.88
403.526	114.88
403.75	104.88
403.974	102.88
404.198	97.88
404.422	105.88
404.645	116.88
404.869	104.88
405.093	83.88
405.317	88.88
405.541	93.88
405.765	94.88
405.988	92.88
406.212	92.88
406.436	97.88
406.66	93.88
406.883	100.88
407.107	87.88
407.331	92.88
407.555	117.88
407.778	189.88
408.002	173.88
408.226	117.88
408.449	95.88
408.673	83.88
408.896	95.88
409.12	104.88
409.344	116.88
409.567	109.88
409.791	131.88
410.014	128.88
410.238	109.88
410.461	97.88
410.685	100.88
410.908	92.88
411.132	96.88
411.355	85.88
411.578	95.88
411.802	87.88
412.025	86.88
412.249	72.88
412.472	104.88
412.695	103.88
412.919	81.88
413.142	99.88
413.365	97.88
413.589	84.88
413.812	77.88
414.035	90.88
414.258	78.88
414.482	89.88
414.705	91.88
414.928	88.88
415.151	79.88
415.374	76.88
415.597	84.88
415.821	95.88
416.044	75.88
416.267	84.88
416.49	91.88
416.713	92.88
416.936	96.88
417.159	68.88
417.382	89.88
417.605	99.88
417.828	96.88
418.051	94.88
418.274	99.88
418.497	81.88
418.72	94.88
418.943	85.88
419.166	91.88
419.389	81.88
419.611	87.88
419.834	93.88
420.057	95.88
420.28	97.88
420.503	92.88
420.726	100.88
420.948	109.88
421.171	115.88
421.394	138.88
421.617	195.88
421.839	205.88
422.062	187.88
422.285	280.88
422.507	498.88
422.73	796.88
422.953	717.88
423.175	373.88
423.398	231.88
423.621	147.88
423.843	131.88
424.066	126.88
424.288	121.88
424.511	107.88
424.733	98.88
424.956	102.88
425.178	96.88
425.401	94.88
425.623	87.88
425.846	98.88
426.068	100.88
426.291	104.88
426.513	95.88
426.735	86.88
426.958	96.88
427.18	100.88
427.402	101.88
427.625	90.88
427.847	104.88
428.069	116.88
428.292	173.88
428.514	221.88
428.736	149.88
428.958	181.88
429.181	191.88
429.403	117.88
429.625	118.88
429.847	178.88
430.069	249.88
430.292	304.88
430.514	286.88
430.736	205.88
430.958	212.88
431.18	117.88
431.402	92.88
431.624	123.88
431.846	168.88
432.068	207.88
432.29	120.88
432.512	91.88
432.734	99.88
432.956	92.88
433.178	78.88
433.4	69.88
433.622	97.88
433.844	84.88
434.066	99.88
434.287	91.88
434.509	88.88
434.731	84.88
434.953	80.88
435.175	92.88
435.397	108.88
435.618	97.88
435.84	108.88
436.062	113.88
436.284	75.88
436.505	93.88
436.727	87.88
436.949	102.88
437.17	84.88
437.392	73.88
437.614	100.88
437.835	99.88
438.057	95.88
438.278	86.88
438.5	106.88
438.721	100.88
438.943	86.88
439.165	89.88
439.386	98.88
439.608	74.88
439.829	91.88
440.05	86.88
440.272	80.88
440.493	103.88
440.715	91.88
440.936	85.88
441.158	67.88
441.379	99.88
441.6	93.88
441.822	87.88
442.043	118.88
442.264	110.88
442.486	177.88
442.707	275.88
442.928	192.88
443.149	157.88
443.371	240.88
443.592	440.88
443.813	388.88
444.034	131.88
444.255	87.88
444.476	107.88
444.698	105.88
444.919	108.88
445.14	216.88
445.361	315.88
445.582	522.88
445.803	464.88
446.024	166.88
446.245	107.88
446.466	88.88
446.687	94.88
446.908	86.88
447.129	89.88
447.35	88.88
447.571	77.88
447.792	85.88
448.013	79.88
448.234	88.88
448.455	74.88
448.675	91.88
448.896	85.88
449.117	92.88
449.338	86.88
449.559	105.88
449.779	82.88
450	91.88
450.221	97.88
450.442	83.88
450.662	92.88
450.883	89.88
451.104	84.88
451.324	72.88
451.545	81.88
451.766	88.88
451.986	84.88
452.207	76.88
452.428	100.88
452.648	108.88
452.869	130.88
453.089	102.88
453.31	94.88
453.53	93.88
453.751	109.88
453.971	76.88
454.192	71.88
454.412	83.88
454.633	86.88
454.853	103.88
455.073	79.88
455.294	91.88
455.514	105.88
455.734	91.88
455.955	90.88
456.175	79.88
456.395	77.88
456.616	88.88
456.836	110.88
457.056	86.88
457.276	88.88
457.497	109.88
457.717	106.88
457.937	142.88
458.157	172.88
458.377	162.88
458.598	189.88
458.818	182.88
459.038	123.88
459.258	88.88
459.478	86.88
459.698	102.88
459.918	98.88
460.138	89.88
460.358	100.88
460.578	116.88
460.798	189.88
461.018	157.88
461.238	105.88
461.458	83.88
461.678	85.88
461.898	99.88
462.118	89.88
462.338	103.88
462.558	92.88
462.777	78.88
462.997	78.88
463.217	80.88
463.437	65.88
463.657	80.88
463.876	82.88
464.096	90.88
464.316	88.88
464.536	73.88
464.755	83.88
464.975	95.88
465.195	99.88
465.414	94.88
465.634	81.88
465.854	77.88
466.073	62.88
466.293	84.88
466.512	83.88
466.732	85.88
466.951	100.88
467.171	99.88
467.391	83.88
467.61	88.88
467.829	81.88
468.049	90.88
468.268	74.88
468.488	82.88
468.707	95.88
468.927	104.88
469.146	78.88
469.365	87.88
469.585	92.88
469.804	91.88
470.023	92.88
470.243	80.88
470.462	88.88
470.681	87.88
470.901	98.88
471.12	84.88
471.339	74.88
471.558	84.88
471.777	88.88
471.997	80.88
472.216	86.88
472.435	76.88
472.654	88.88
472.873	93.88
473.092	83.88
473.311	87.88
473.53	93.88
473.749	88.88
473.968	91.88
474.187	81.88
474.406	89.88
474.625	96.88
474.844	84.88
475.063	95.88
475.282	87.88
475.501	78.88
475.72	87.88
475.939	87.88
476.158	96.88
476.377	81.88
476.596	88.88
476.814	77.88
477.033	94.88
477.252	87.88
477.471	91.88
477.69	93.88
477.908	82.88
478.127	83.88
478.346	88.88
478.564	97.88
478.783	94.88
479.002	91.88
479.22	81.88
479.439	99.88
479.658	75.88
479.876	96.88
480.095	81.88
480.313	76.88
480.532	102.88
480.751	89.88
480.969	94.88
481.188	104.88
481.406	122.88
481.624	95.88
481.843	84.88
482.061	83.88
482.28	99.88
482.498	84.88
482.717	91.88
482.935	95.88
483.153	86.88
483.372	98.88
483.59	92.88
483.808	93.88
484.027	96.88
484.245	98.88
484.463	94.88
484.681	108.88
484.9	109.88
485.118	107.88
485.336	104.88
485.554	85.88
485.772	77.88
485.99	97.88
486.209	83.88
486.427	91.88
486.645	89.88
486.863	91.88
487.081	101.88
487.299	109.88
487.517	127.88
487.735	166.88
487.953	279.88
488.171	219.88
488.389	113.88
488.607	104.88
488.825	97.88
489.043	102.88
489.261	93.88
489.479	87.88
489.696	93.88
489.914	98.88
490.132	100.88
490.35	88.88
490.568	98.88
490.786	87.88
491.003	74.88
491.221	89.88
491.439	87.88
491.657	91.88
491.874	79.88
492.092	94.88
492.31	97.88
492.527	82.88
492.745	91.88
492.963	107.88
493.18	84.88
493.398	92.88
493.615	99.88
493.833	79.88
494.05	101.88
494.268	91.88
494.485	75.88
494.703	96.88
494.92	97.88
495.138	105.88
495.355	104.88
495.573	103.88
495.79	89.88
496.008	84.88
496.225	101.88
496.442	112.88
496.66	111.88
496.877	91.88
497.094	93.88
497.312	91.88
497.529	94.88
497.746	90.88
497.963	88.88
498.181	109.88
498.398	111.88
498.615	99.88
498.832	97.88
499.049	101.88
499.267	98.88
499.484	103.88
499.701	94.88
499.918	91.88
500.135	102.88
500.352	93.88
500.569	89.88
500.786	99.88
501.003	96.88
501.22	93.88
501.437	86.88
501.654	98.88
501.871	100.88
502.088	88.88
502.305	100.88
502.522	95.88
502.739	90.88
502.956	86.88
503.172	93.88
503.389	101.88
503.606	95.88
503.823	101.88
504.04	118.88
504.256	187.88
504.473	221.88
504.69	121.88
504.907	96.88
505.123	79.88
505.34	81.88
505.557	98.88
505.773	113.88
505.99	87.88
506.207	94.88
506.423	83.88
506.64	95.88
506.856	100.88
507.073	94.88
507.289	94.88
507.506	85.88
507.722	93.88
507.939	87.88
508.155	110.88
508.372	92.88
508.588	83.88
508.805	88.88
509.021	82.88
509.238	87.88
509.454	84.88
509.67	100.88
509.887	97.88
510.103	104.88
510.319	73.88
510.536	98.88
510.752	103.88
510.968	85.88
511.184	83.88
511.401	94.88
511.617	97.88
511.833	88.88
512.049	93.88
512.265	83.88
512.481	94.88
512.698	71.88
512.914	96.88
513.13	95.88
513.346	91.88
513.562	91.88
513.778	94.88
513.994	95.88
514.21	93.88
514.426	88.88
514.642	95.88
514.858	104.88
515.074	94.88
515.29	94.88
515.506	81.88
515.721	88.88
515.937	97.88
516.153	109.88
