Data from 17600_3_HRD10591_00039.txt Node
Date: Mon Jan 19 14:09:43 EST 2026
User: Yrep
Spectrometer: HR+D1059
Trigger mode: 1
Integration Time (sec): 1.000000E-1
Scans to average: 1
Electric dark correction enabled: true
Nonlinearity correction enabled: false
Boxcar width: 0
XAxis mode: Wavelengths
Number of Pixels in Spectrum: 2048
>>>>>Begin Spectral Data<<<<<
223.165	-15.81
223.4	-15.81
223.635	-15.81
223.869	-26.81
224.104	-19.81
224.338	-21.81
224.573	-10.81
224.808	-26.81
225.042	3.19
225.277	-9.81
225.511	3.19
225.746	-10.81
225.98	7.19
226.215	15.19
226.449	28.19
226.683	37.19
226.918	29.19
227.152	19.19
227.387	43.19
227.621	32.19
227.856	32.19
228.09	39.19
228.324	57.19
228.559	44.19
228.793	67.19
229.027	64.19
229.262	64.19
229.496	48.19
229.73	59.19
229.964	67.19
230.199	70.19
230.433	70.19
230.667	85.19
230.901	71.19
231.136	81.19
231.37	78.19
231.604	102.19
231.838	76.19
232.072	84.19
232.306	80.19
232.541	79.19
232.775	62.19
233.009	68.19
233.243	77.19
233.477	89.19
233.711	86.19
233.945	79.19
234.179	69.19
234.413	71.19
234.647	75.19
234.881	73.19
235.115	71.19
235.349	71.19
235.583	84.19
235.817	70.19
236.051	69.19
236.285	70.19
236.519	76.19
236.753	73.19
236.987	75.19
237.221	77.19
237.455	72.19
237.689	77.19
237.922	70.19
238.156	58.19
238.39	75.19
238.624	71.19
238.858	74.19
239.091	85.19
239.325	67.19
239.559	79.19
239.793	76.19
240.027	81.19
240.26	71.19
240.494	83.19
240.728	67.19
240.961	74.19
241.195	78.19
241.429	65.19
241.662	67.19
241.896	76.19
242.13	48.19
242.363	76.19
242.597	79.19
242.83	79.19
243.064	61.19
243.298	73.19
243.531	56.19
243.765	70.19
243.998	94.19
244.232	74.19
244.465	70.19
244.699	74.19
244.932	62.19
245.166	68.19
245.399	64.19
245.633	70.19
245.866	76.19
246.099	71.19
246.333	70.19
246.566	67.19
246.8	76.19
247.033	71.19
247.266	72.19
247.5	61.19
247.733	66.19
247.966	76.19
248.2	62.19
248.433	78.19
248.666	80.19
248.899	85.19
249.133	60.19
249.366	68.19
249.599	87.19
249.832	68.19
250.066	96.19
250.299	84.19
250.532	76.19
250.765	96.19
250.998	83.19
251.231	73.19
251.465	87.19
251.698	84.19
251.931	70.19
252.164	83.19
252.397	74.19
252.63	83.19
252.863	90.19
253.096	75.19
253.329	82.19
253.562	71.19
253.795	86.19
254.028	87.19
254.261	77.19
254.494	88.19
254.727	87.19
254.96	73.19
255.193	80.19
255.426	68.19
255.659	72.19
255.892	70.19
256.124	66.19
256.357	86.19
256.59	82.19
256.823	67.19
257.056	68.19
257.289	84.19
257.521	79.19
257.754	84.19
257.987	74.19
258.22	90.19
258.452	84.19
258.685	66.19
258.918	62.19
259.151	86.19
259.383	90.19
259.616	72.19
259.849	68.19
260.081	76.19
260.314	87.19
260.547	84.19
260.779	83.19
261.012	71.19
261.244	72.19
261.477	67.19
261.71	77.19
261.942	80.19
262.175	76.19
262.407	87.19
262.64	62.19
262.872	75.19
263.105	87.19
263.337	87.19
263.57	79.19
263.802	85.19
264.035	73.19
264.267	78.19
264.499	75.19
264.732	84.19
264.964	76.19
265.197	85.19
265.429	88.19
265.661	83.19
265.894	79.19
266.126	93.19
266.358	77.19
266.591	77.19
266.823	88.19
267.055	78.19
267.287	70.19
267.52	80.19
267.752	86.19
267.984	85.19
268.216	84.19
268.448	92.19
268.681	72.19
268.913	74.19
269.145	65.19
269.377	78.19
269.609	84.19
269.841	71.19
270.073	66.19
270.306	83.19
270.538	90.19
270.77	84.19
271.002	92.19
271.234	80.19
271.466	84.19
271.698	83.19
271.93	87.19
272.162	82.19
272.394	86.19
272.626	72.19
272.858	72.19
273.09	78.19
273.322	82.19
273.553	84.19
273.785	89.19
274.017	79.19
274.249	71.19
274.481	82.19
274.713	85.19
274.945	82.19
275.176	79.19
275.408	75.19
275.64	73.19
275.872	96.19
276.104	82.19
276.335	73.19
276.567	76.19
276.799	72.19
277.031	70.19
277.262	89.19
277.494	81.19
277.726	76.19
277.957	81.19
278.189	65.19
278.421	75.19
278.652	82.19
278.884	96.19
279.115	72.19
279.347	74.19
279.579	78.19
279.81	72.19
280.042	87.19
280.273	95.19
280.505	92.19
280.736	80.19
280.968	65.19
281.199	71.19
281.431	73.19
281.662	75.19
281.894	74.19
282.125	88.19
282.356	69.19
282.588	82.19
282.819	90.19
283.051	82.19
283.282	84.19
283.513	90.19
283.745	90.19
283.976	89.19
284.207	79.19
284.439	96.19
284.67	76.19
284.901	69.19
285.132	71.19
285.364	85.19
285.595	79.19
285.826	100.19
286.057	80.19
286.288	85.19
286.52	78.19
286.751	85.19
286.982	91.19
287.213	88.19
287.444	87.19
287.675	87.19
287.906	82.19
288.138	95.19
288.369	76.19
288.6	72.19
288.831	94.19
289.062	82.19
289.293	73.19
289.524	78.19
289.755	88.19
289.986	83.19
290.217	71.19
290.448	76.19
290.679	79.19
290.91	77.19
291.141	71.19
291.371	84.19
291.602	80.19
291.833	75.19
292.064	84.19
292.295	84.19
292.526	87.19
292.757	87.19
292.987	73.19
293.218	87.19
293.449	90.19
293.68	94.19
293.91	85.19
294.141	66.19
294.372	82.19
294.603	86.19
294.833	82.19
295.064	85.19
295.295	77.19
295.525	79.19
295.756	67.19
295.987	95.19
296.217	67.19
296.448	82.19
296.679	86.19
296.909	88.19
297.14	92.19
297.37	86.19
297.601	88.19
297.831	75.19
298.062	82.19
298.292	92.19
298.523	84.19
298.753	79.19
298.984	91.19
299.214	92.19
299.445	86.19
299.675	94.19
299.905	73.19
300.136	90.19
300.366	80.19
300.597	85.19
300.827	74.19
301.057	88.19
301.288	81.19
301.518	85.19
301.748	102.19
301.979	83.19
302.209	87.19
302.439	78.19
302.669	76.19
302.9	87.19
303.13	77.19
303.36	78.19
303.59	73.19
303.82	87.19
304.051	80.19
304.281	88.19
304.511	83.19
304.741	64.19
304.971	80.19
305.201	91.19
305.431	81.19
305.661	90.19
305.891	76.19
306.121	94.19
306.352	88.19
306.582	91.19
306.812	80.19
307.042	88.19
307.272	76.19
307.502	78.19
307.731	83.19
307.961	94.19
308.191	91.19
308.421	76.19
308.651	90.19
308.881	87.19
309.111	88.19
309.341	104.19
309.571	94.19
309.8	73.19
310.03	81.19
310.26	87.19
310.49	79.19
310.72	73.19
310.949	76.19
311.179	69.19
311.409	84.19
311.639	81.19
311.868	86.19
312.098	106.19
312.328	75.19
312.557	80.19
312.787	84.19
313.017	75.19
313.246	96.19
313.476	80.19
313.706	74.19
313.935	84.19
314.165	83.19
314.394	85.19
314.624	83.19
314.853	64.19
315.083	88.19
315.312	86.19
315.542	95.19
315.771	92.19
316.001	87.19
316.23	97.19
316.46	92.19
316.689	86.19
316.919	93.19
317.148	90.19
317.377	83.19
317.607	86.19
317.836	82.19
318.065	108.19
318.295	90.19
318.524	76.19
318.753	87.19
318.983	78.19
319.212	72.19
319.441	80.19
319.67	83.19
319.9	82.19
320.129	99.19
320.358	76.19
320.587	81.19
320.816	72.19
321.046	80.19
321.275	92.19
321.504	106.19
321.733	96.19
321.962	85.19
322.191	100.19
322.42	85.19
322.649	94.19
322.878	89.19
323.108	94.19
323.337	78.19
323.566	90.19
323.795	85.19
324.024	87.19
324.253	66.19
324.482	89.19
324.71	85.19
324.939	80.19
325.168	96.19
325.397	88.19
325.626	80.19
325.855	68.19
326.084	94.19
326.313	79.19
326.542	79.19
326.77	85.19
326.999	74.19
327.228	88.19
327.457	76.19
327.686	90.19
327.914	80.19
328.143	92.19
328.372	84.19
328.6	82.19
328.829	82.19
329.058	71.19
329.287	78.19
329.515	69.19
329.744	74.19
329.972	78.19
330.201	70.19
330.43	80.19
330.658	94.19
330.887	92.19
331.115	73.19
331.344	81.19
331.572	71.19
331.801	78.19
332.03	88.19
332.258	85.19
332.486	89.19
332.715	96.19
332.943	78.19
333.172	90.19
333.4	83.19
333.629	95.19
333.857	83.19
334.085	78.19
334.314	93.19
334.542	96.19
334.771	98.19
334.999	86.19
335.227	88.19
335.455	98.19
335.684	86.19
335.912	104.19
336.14	91.19
336.369	102.19
336.597	101.19
336.825	81.19
337.053	79.19
337.281	92.19
337.51	76.19
337.738	80.19
337.966	84.19
338.194	75.19
338.422	63.19
338.65	77.19
338.878	86.19
339.106	86.19
339.334	80.19
339.562	83.19
339.79	87.19
340.018	70.19
340.246	95.19
340.474	88.19
340.702	106.19
340.93	88.19
341.158	72.19
341.386	83.19
341.614	84.19
341.842	92.19
342.07	88.19
342.298	90.19
342.526	80.19
342.754	83.19
342.981	85.19
343.209	93.19
343.437	97.19
343.665	95.19
343.893	85.19
344.12	97.19
344.348	79.19
344.576	106.19
344.804	84.19
345.031	93.19
345.259	84.19
345.487	71.19
345.714	71.19
345.942	80.19
346.17	89.19
346.397	84.19
346.625	79.19
346.853	86.19
347.08	93.19
347.308	90.19
347.535	91.19
347.763	79.19
347.99	85.19
348.218	72.19
348.445	82.19
348.673	85.19
348.9	92.19
349.128	99.19
349.355	82.19
349.583	78.19
349.81	87.19
350.037	72.19
350.265	90.19
350.492	87.19
350.72	95.19
350.947	86.19
351.174	84.19
351.402	95.19
351.629	87.19
351.856	77.19
352.083	85.19
352.311	91.19
352.538	81.19
352.765	87.19
352.992	71.19
353.22	82.19
353.447	90.19
353.674	90.19
353.901	79.19
354.128	82.19
354.355	86.19
354.583	83.19
354.81	95.19
355.037	82.19
355.264	94.19
355.491	90.19
355.718	80.19
355.945	89.19
356.172	82.19
356.399	104.19
356.626	74.19
356.853	86.19
357.08	90.19
357.307	98.19
357.534	89.19
357.761	84.19
357.988	91.19
358.215	81.19
358.441	92.19
358.668	86.19
358.895	87.19
359.122	94.19
359.349	87.19
359.576	85.19
359.802	86.19
360.029	92.19
360.256	85.19
360.483	84.19
360.709	87.19
360.936	84.19
361.163	79.19
361.39	82.19
361.616	86.19
361.843	93.19
362.07	112.19
362.296	94.19
362.523	122.19
362.749	114.19
362.976	120.19
363.203	159.19
363.429	105.19
363.656	91.19
363.882	109.19
364.109	116.19
364.335	146.19
364.562	158.19
364.788	116.19
365.015	95.19
365.241	82.19
365.468	96.19
365.694	97.19
365.92	87.19
366.147	87.19
366.373	91.19
366.599	84.19
366.826	76.19
367.052	83.19
367.278	90.19
367.505	91.19
367.731	83.19
367.957	78.19
368.184	84.19
368.41	88.19
368.636	83.19
368.862	85.19
369.089	93.19
369.315	87.19
369.541	87.19
369.767	68.19
369.993	88.19
370.219	88.19
370.445	81.19
370.672	96.19
370.898	113.19
371.124	86.19
371.35	81.19
371.576	103.19
371.802	97.19
372.028	90.19
372.254	86.19
372.48	96.19
372.706	92.19
372.932	83.19
373.158	94.19
373.384	114.19
373.61	115.19
373.835	130.19
374.061	119.19
374.287	96.19
374.513	103.19
374.739	106.19
374.965	102.19
375.191	105.19
375.416	72.19
375.642	81.19
375.868	96.19
376.094	89.19
376.319	79.19
376.545	95.19
376.771	112.19
376.997	100.19
377.222	80.19
377.448	82.19
377.674	84.19
377.899	76.19
378.125	82.19
378.35	92.19
378.576	96.19
378.802	89.19
379.027	87.19
379.253	89.19
379.478	82.19
379.704	90.19
379.929	97.19
380.155	81.19
380.38	69.19
380.606	87.19
380.831	79.19
381.057	85.19
381.282	87.19
381.507	104.19
381.733	98.19
381.958	111.19
382.184	110.19
382.409	99.19
382.634	115.19
382.86	95.19
383.085	88.19
383.31	103.19
383.535	108.19
383.761	109.19
383.986	102.19
384.211	99.19
384.436	92.19
384.662	80.19
384.887	84.19
385.112	99.19
385.337	83.19
385.562	97.19
385.787	100.19
386.013	112.19
386.238	91.19
386.463	94.19
386.688	112.19
386.913	94.19
387.138	98.19
387.363	97.19
387.588	114.19
387.813	110.19
388.038	86.19
388.263	99.19
388.488	79.19
388.713	107.19
388.938	91.19
389.163	99.19
389.387	95.19
389.612	95.19
389.837	96.19
390.062	108.19
390.287	90.19
390.512	96.19
390.736	85.19
390.961	90.19
391.186	97.19
391.411	93.19
391.636	97.19
391.86	94.19
392.085	109.19
392.31	105.19
392.534	114.19
392.759	131.19
392.984	207.19
393.208	362.19
393.433	528.19
393.658	400.19
393.882	170.19
394.107	128.19
394.331	114.19
394.556	146.19
394.78	121.19
395.005	109.19
395.229	98.19
395.454	111.19
395.678	102.19
395.903	138.19
396.127	178.19
396.352	194.19
396.576	215.19
396.801	367.19
397.025	426.19
397.249	232.19
397.474	139.19
397.698	112.19
397.922	108.19
398.147	98.19
398.371	104.19
398.595	93.19
398.82	90.19
399.044	89.19
399.268	87.19
399.492	86.19
399.717	93.19
399.941	93.19
400.165	94.19
400.389	82.19
400.613	92.19
400.837	95.19
401.062	89.19
401.286	84.19
401.51	90.19
401.734	101.19
401.958	77.19
402.182	83.19
402.406	94.19
402.63	83.19
402.854	94.19
403.078	90.19
403.302	99.19
403.526	89.19
403.75	81.19
403.974	84.19
404.198	91.19
404.422	99.19
404.645	108.19
404.869	98.19
405.093	87.19
405.317	90.19
405.541	88.19
405.765	91.19
405.988	88.19
406.212	78.19
406.436	88.19
406.66	90.19
406.883	92.19
407.107	72.19
407.331	91.19
407.555	108.19
407.778	142.19
408.002	149.19
408.226	100.19
408.449	78.19
408.673	83.19
408.896	80.19
409.12	97.19
409.344	110.19
409.567	112.19
409.791	118.19
410.014	111.19
410.238	92.19
410.461	99.19
410.685	94.19
410.908	85.19
411.132	93.19
411.355	92.19
411.578	83.19
411.802	86.19
412.025	91.19
412.249	96.19
412.472	92.19
412.695	100.19
412.919	92.19
413.142	87.19
413.365	92.19
413.589	81.19
413.812	78.19
414.035	82.19
414.258	80.19
414.482	107.19
414.705	70.19
414.928	83.19
415.151	91.19
415.374	75.19
415.597	95.19
415.821	94.19
416.044	79.19
416.267	78.19
416.49	89.19
416.713	82.19
416.936	87.19
417.159	92.19
417.382	90.19
417.605	97.19
417.828	87.19
418.051	76.19
418.274	95.19
418.497	84.19
418.72	88.19
418.943	86.19
419.166	103.19
419.389	103.19
419.611	81.19
419.834	80.19
420.057	88.19
420.28	93.19
420.503	93.19
420.726	93.19
420.948	87.19
421.171	100.19
421.394	119.19
421.617	170.19
421.839	154.19
422.062	154.19
422.285	228.19
422.507	412.19
422.73	665.19
422.953	608.19
423.175	288.19
423.398	168.19
423.621	124.19
423.843	104.19
424.066	114.19
424.288	89.19
424.511	94.19
424.733	101.19
424.956	99.19
425.178	109.19
425.401	97.19
425.623	101.19
425.846	102.19
426.068	96.19
426.291	86.19
426.513	87.19
426.735	82.19
426.958	84.19
427.18	92.19
427.402	86.19
427.625	105.19
427.847	89.19
428.069	116.19
428.292	164.19
428.514	181.19
428.736	136.19
428.958	152.19
429.181	164.19
429.403	103.19
429.625	102.19
429.847	140.19
430.069	211.19
430.292	236.19
430.514	216.19
430.736	187.19
430.958	165.19
431.18	103.19
431.402	105.19
431.624	106.19
431.846	135.19
432.068	143.19
432.29	104.19
432.512	89.19
432.734	84.19
432.956	83.19
433.178	91.19
433.4	80.19
433.622	73.19
433.844	91.19
434.066	86.19
434.287	82.19
434.509	80.19
434.731	92.19
434.953	87.19
435.175	97.19
435.397	98.19
435.618	98.19
435.84	83.19
436.062	85.19
436.284	78.19
436.505	94.19
436.727	97.19
436.949	96.19
437.17	90.19
437.392	69.19
437.614	83.19
437.835	84.19
438.057	71.19
438.278	88.19
438.5	91.19
438.721	85.19
438.943	94.19
439.165	68.19
439.386	98.19
439.608	98.19
439.829	83.19
440.05	86.19
440.272	72.19
440.493	93.19
440.715	90.19
440.936	86.19
441.158	92.19
441.379	82.19
441.6	101.19
441.822	94.19
442.043	96.19
442.264	104.19
442.486	167.19
442.707	221.19
442.928	144.19
443.149	137.19
443.371	188.19
443.592	346.19
443.813	285.19
444.034	110.19
444.255	88.19
444.476	101.19
444.698	94.19
444.919	86.19
445.14	191.19
445.361	245.19
445.582	419.19
445.803	353.19
446.024	147.19
446.245	101.19
446.466	93.19
446.687	91.19
446.908	95.19
447.129	78.19
447.35	90.19
447.571	87.19
447.792	78.19
448.013	83.19
448.234	70.19
448.455	94.19
448.675	92.19
448.896	87.19
449.117	90.19
449.338	95.19
449.559	96.19
449.779	82.19
450	73.19
450.221	79.19
450.442	88.19
450.662	100.19
450.883	95.19
451.104	92.19
451.324	87.19
451.545	96.19
451.766	80.19
451.986	81.19
452.207	87.19
452.428	91.19
452.648	87.19
452.869	120.19
453.089	100.19
453.31	97.19
453.53	99.19
453.751	89.19
453.971	88.19
454.192	80.19
454.412	88.19
454.633	97.19
454.853	80.19
455.073	94.19
455.294	94.19
455.514	86.19
455.734	101.19
455.955	75.19
456.175	98.19
456.395	84.19
456.616	90.19
456.836	87.19
457.056	82.19
457.276	69.19
457.497	84.19
457.717	91.19
457.937	122.19
458.157	139.19
458.377	154.19
458.598	124.19
458.818	146.19
459.038	94.19
459.258	95.19
459.478	93.19
459.698	88.19
459.918	85.19
460.138	84.19
460.358	97.19
460.578	103.19
460.798	183.19
461.018	157.19
461.238	82.19
461.458	78.19
461.678	84.19
461.898	84.19
462.118	92.19
462.338	98.19
462.558	78.19
462.777	82.19
462.997	91.19
463.217	75.19
463.437	85.19
463.657	76.19
463.876	86.19
464.096	84.19
464.316	87.19
464.536	82.19
464.755	83.19
464.975	72.19
465.195	76.19
465.414	73.19
465.634	80.19
465.854	80.19
466.073	79.19
466.293	85.19
466.512	84.19
466.732	82.19
466.951	78.19
467.171	83.19
467.391	80.19
467.61	89.19
467.829	99.19
468.049	94.19
468.268	80.19
468.488	107.19
468.707	91.19
468.927	96.19
469.146	89.19
469.365	92.19
469.585	96.19
469.804	99.19
470.023	78.19
470.243	74.19
470.462	92.19
470.681	86.19
470.901	80.19
471.12	86.19
471.339	94.19
471.558	87.19
471.777	85.19
471.997	74.19
472.216	82.19
472.435	95.19
472.654	85.19
472.873	84.19
473.092	87.19
473.311	79.19
473.53	89.19
473.749	82.19
473.968	93.19
474.187	87.19
474.406	83.19
474.625	86.19
474.844	101.19
475.063	92.19
475.282	94.19
475.501	89.19
475.72	87.19
475.939	88.19
476.158	83.19
476.377	87.19
476.596	73.19
476.814	83.19
477.033	97.19
477.252	92.19
477.471	96.19
477.69	94.19
477.908	86.19
478.127	93.19
478.346	76.19
478.564	94.19
478.783	82.19
479.002	94.19
479.22	80.19
479.439	90.19
479.658	93.19
479.876	82.19
480.095	93.19
480.313	92.19
480.532	96.19
480.751	70.19
480.969	89.19
481.188	90.19
481.406	112.19
481.624	83.19
481.843	81.19
482.061	80.19
482.28	89.19
482.498	84.19
482.717	80.19
482.935	106.19
483.153	99.19
483.372	100.19
483.59	102.19
483.808	99.19
484.027	98.19
484.245	91.19
484.463	109.19
484.681	89.19
484.9	83.19
485.118	113.19
485.336	79.19
485.554	77.19
485.772	80.19
485.99	79.19
486.209	86.19
486.427	96.19
486.645	79.19
486.863	98.19
487.081	99.19
487.299	99.19
487.517	116.19
487.735	135.19
487.953	246.19
488.171	179.19
488.389	111.19
488.607	95.19
488.825	97.19
489.043	98.19
489.261	93.19
489.479	102.19
489.696	92.19
489.914	90.19
490.132	80.19
490.35	88.19
490.568	74.19
490.786	93.19
491.003	98.19
491.221	97.19
491.439	82.19
491.657	87.19
491.874	85.19
492.092	86.19
492.31	93.19
492.527	78.19
492.745	85.19
492.963	86.19
493.18	92.19
493.398	122.19
493.615	93.19
493.833	85.19
494.05	90.19
494.268	89.19
494.485	86.19
494.703	89.19
494.92	81.19
495.138	87.19
495.355	88.19
495.573	84.19
495.79	90.19
496.008	92.19
496.225	90.19
496.442	99.19
496.66	102.19
496.877	99.19
497.094	91.19
497.312	90.19
497.529	82.19
497.746	83.19
497.963	102.19
498.181	103.19
498.398	87.19
498.615	89.19
498.832	84.19
499.049	104.19
499.267	94.19
499.484	87.19
499.701	76.19
499.918	98.19
500.135	83.19
500.352	95.19
500.569	75.19
500.786	95.19
501.003	87.19
501.22	109.19
501.437	96.19
501.654	87.19
501.871	100.19
502.088	89.19
502.305	85.19
502.522	94.19
502.739	91.19
502.956	94.19
503.172	91.19
503.389	101.19
503.606	92.19
503.823	103.19
504.04	110.19
504.256	135.19
504.473	172.19
504.69	95.19
504.907	106.19
505.123	90.19
505.34	87.19
505.557	90.19
505.773	93.19
505.99	84.19
506.207	90.19
506.423	83.19
506.64	90.19
506.856	83.19
507.073	84.19
507.289	85.19
507.506	84.19
507.722	76.19
507.939	75.19
508.155	80.19
508.372	80.19
508.588	93.19
508.805	86.19
509.021	90.19
509.238	78.19
509.454	81.19
509.67	88.19
509.887	93.19
510.103	90.19
510.319	86.19
510.536	99.19
510.752	72.19
510.968	86.19
511.184	80.19
511.401	82.19
511.617	90.19
511.833	81.19
512.049	87.19
512.265	88.19
512.481	99.19
512.698	86.19
512.914	110.19
513.13	78.19
513.346	82.19
513.562	91.19
513.778	88.19
513.994	94.19
514.21	91.19
514.426	103.19
514.642	83.19
514.858	103.19
515.074	88.19
515.29	99.19
515.506	82.19
515.721	95.19
515.937	91.19
516.153	98.19
516.369	83.19
516.585	78.19
516.801	73.19
517.016	99.19
517.232	94.19
517.448	111.19
