Data from 17600_3_HRD10591_00027.txt Node
Date: Mon Jan 19 14:09:37 EST 2026
User: Yrep
Spectrometer: HR+D1059
Trigger mode: 1
Integration Time (sec): 1.000000E-1
Scans to average: 1
Electric dark correction enabled: true
Nonlinearity correction enabled: false
Boxcar width: 0
XAxis mode: Wavelengths
Number of Pixels in Spectrum: 2048
>>>>>Begin Spectral Data<<<<<
223.165	-20
223.4	-20
223.635	-20
223.869	-19
224.104	-13
224.338	-15
224.573	-16
224.808	-8
225.042	-16
225.277	0
225.511	-3
225.746	-1
225.98	16
226.215	10
226.449	15
226.683	15
226.918	26
227.152	29
227.387	18
227.621	29
227.856	51
228.09	45
228.324	50
228.559	59
228.793	35
229.027	58
229.262	63
229.496	73
229.73	75
229.964	70
230.199	83
230.433	72
230.667	67
230.901	61
231.136	68
231.37	89
231.604	63
231.838	75
232.072	77
232.306	71
232.541	87
232.775	71
233.009	74
233.243	72
233.477	65
233.711	77
233.945	83
234.179	79
234.413	80
234.647	79
234.881	73
235.115	74
235.349	72
235.583	74
235.817	74
236.051	64
236.285	76
236.519	66
236.753	78
236.987	70
237.221	75
237.455	69
237.689	79
237.922	75
238.156	79
238.39	85
238.624	72
238.858	76
239.091	67
239.325	83
239.559	77
239.793	80
240.027	62
240.26	83
240.494	64
240.728	63
240.961	78
241.195	76
241.429	71
241.662	93
241.896	69
242.13	67
242.363	66
242.597	71
242.83	75
243.064	71
243.298	81
243.531	74
243.765	69
243.998	70
244.232	84
244.465	57
244.699	60
244.932	73
245.166	82
245.399	69
245.633	61
245.866	70
246.099	75
246.333	93
246.566	76
246.8	84
247.033	87
247.266	71
247.5	81
247.733	76
247.966	77
248.2	67
248.433	80
248.666	78
248.899	71
249.133	72
249.366	77
249.599	83
249.832	80
250.066	81
250.299	73
250.532	74
250.765	76
250.998	83
251.231	88
251.465	84
251.698	91
251.931	80
252.164	69
252.397	74
252.63	69
252.863	81
253.096	71
253.329	73
253.562	68
253.795	64
254.028	82
254.261	77
254.494	77
254.727	88
254.96	69
255.193	65
255.426	71
255.659	69
255.892	79
256.124	81
256.357	86
256.59	85
256.823	73
257.056	79
257.289	77
257.521	70
257.754	81
257.987	83
258.22	83
258.452	80
258.685	70
258.918	91
259.151	93
259.383	77
259.616	84
259.849	63
260.081	77
260.314	76
260.547	82
260.779	80
261.012	80
261.244	74
261.477	88
261.71	78
261.942	88
262.175	83
262.407	91
262.64	76
262.872	82
263.105	65
263.337	77
263.57	87
263.802	77
264.035	81
264.267	95
264.499	81
264.732	88
264.964	74
265.197	73
265.429	77
265.661	71
265.894	72
266.126	84
266.358	70
266.591	80
266.823	70
267.055	72
267.287	81
267.52	73
267.752	91
267.984	81
268.216	68
268.448	93
268.681	78
268.913	71
269.145	79
269.377	80
269.609	76
269.841	86
270.073	81
270.306	61
270.538	68
270.77	71
271.002	66
271.234	89
271.466	71
271.698	79
271.93	87
272.162	71
272.394	73
272.626	85
272.858	77
273.09	85
273.322	76
273.553	92
273.785	86
274.017	92
274.249	83
274.481	84
274.713	89
274.945	83
275.176	85
275.408	87
275.64	87
275.872	72
276.104	85
276.335	85
276.567	85
276.799	87
277.031	84
277.262	71
277.494	78
277.726	83
277.957	73
278.189	81
278.421	74
278.652	75
278.884	68
279.115	75
279.347	83
279.579	106
279.81	102
280.042	69
280.273	76
280.505	83
280.736	80
280.968	68
281.199	78
281.431	80
281.662	88
281.894	84
282.125	95
282.356	73
282.588	81
282.819	73
283.051	89
283.282	81
283.513	69
283.745	91
283.976	77
284.207	77
284.439	89
284.67	103
284.901	99
285.132	99
285.364	91
285.595	89
285.826	95
286.057	69
286.288	91
286.52	73
286.751	87
286.982	67
287.213	71
287.444	78
287.675	72
287.906	94
288.138	94
288.369	87
288.6	98
288.831	88
289.062	79
289.293	77
289.524	84
289.755	88
289.986	63
290.217	80
290.448	96
290.679	93
290.91	88
291.141	87
291.371	76
291.602	81
291.833	88
292.064	82
292.295	79
292.526	88
292.757	89
292.987	86
293.218	88
293.449	81
293.68	88
293.91	83
294.141	95
294.372	90
294.603	88
294.833	76
295.064	79
295.295	86
295.525	86
295.756	77
295.987	85
296.217	91
296.448	80
296.679	79
296.909	80
297.14	81
297.37	83
297.601	76
297.831	93
298.062	91
298.292	93
298.523	80
298.753	94
298.984	77
299.214	76
299.445	92
299.675	81
299.905	95
300.136	101
300.366	94
300.597	91
300.827	91
301.057	79
301.288	104
301.518	77
301.748	93
301.979	96
302.209	86
302.439	95
302.669	79
302.9	70
303.13	93
303.36	88
303.59	82
303.82	76
304.051	82
304.281	92
304.511	84
304.741	82
304.971	80
305.201	77
305.431	76
305.661	80
305.891	74
306.121	84
306.352	83
306.582	78
306.812	77
307.042	81
307.272	75
307.502	78
307.731	85
307.961	83
308.191	88
308.421	100
308.651	95
308.881	103
309.111	109
309.341	115
309.571	118
309.8	92
310.03	98
310.26	97
310.49	86
310.72	89
310.949	76
311.179	79
311.409	72
311.639	75
311.868	85
312.098	78
312.328	83
312.557	81
312.787	81
313.017	84
313.246	78
313.476	80
313.706	93
313.935	95
314.165	96
314.394	84
314.624	89
314.853	103
315.083	83
315.312	91
315.542	93
315.771	110
316.001	111
316.23	111
316.46	95
316.689	88
316.919	86
317.148	94
317.377	109
317.607	105
317.836	125
318.065	136
318.295	118
318.524	87
318.753	91
318.983	73
319.212	91
319.441	82
319.67	91
319.9	67
320.129	96
320.358	85
320.587	81
320.816	84
321.046	87
321.275	101
321.504	99
321.733	81
321.962	96
322.191	98
322.42	98
322.649	74
322.878	104
323.108	88
323.337	92
323.566	93
323.795	99
324.024	93
324.253	94
324.482	78
324.71	84
324.939	99
325.168	97
325.397	91
325.626	77
325.855	81
326.084	89
326.313	77
326.542	89
326.77	74
326.999	71
327.228	84
327.457	71
327.686	77
327.914	85
328.143	83
328.372	93
328.6	104
328.829	93
329.058	86
329.287	75
329.515	78
329.744	85
329.972	87
330.201	102
330.43	85
330.658	77
330.887	83
331.115	91
331.344	87
331.572	89
331.801	92
332.03	80
332.258	88
332.486	84
332.715	95
332.943	83
333.172	73
333.4	83
333.629	86
333.857	94
334.085	99
334.314	104
334.542	95
334.771	113
334.999	109
335.227	115
335.455	105
335.684	109
335.912	109
336.14	117
336.369	114
336.597	103
336.825	71
337.053	81
337.281	110
337.51	86
337.738	89
337.966	88
338.194	99
338.422	87
338.65	83
338.878	96
339.106	90
339.334	99
339.562	76
339.79	79
340.018	85
340.246	84
340.474	76
340.702	87
340.93	93
341.158	76
341.386	87
341.614	71
341.842	80
342.07	87
342.298	93
342.526	64
342.754	97
342.981	75
343.209	79
343.437	101
343.665	84
343.893	100
344.12	83
344.348	102
344.576	81
344.804	75
345.031	97
345.259	76
345.487	89
345.714	99
345.942	84
346.17	88
346.397	93
346.625	93
346.853	82
347.08	95
347.308	92
347.535	95
347.763	84
347.99	99
348.218	71
348.445	92
348.673	93
348.9	90
349.128	99
349.355	95
349.583	104
349.81	98
350.037	88
350.265	87
350.492	95
350.72	91
350.947	80
351.174	91
351.402	85
351.629	93
351.856	78
352.083	85
352.311	87
352.538	74
352.765	80
352.992	92
353.22	85
353.447	77
353.674	86
353.901	94
354.128	106
354.355	85
354.583	77
354.81	101
355.037	96
355.264	87
355.491	97
355.718	103
355.945	102
356.172	92
356.399	97
356.626	116
356.853	99
357.08	106
357.307	103
357.534	91
357.761	92
357.988	101
358.215	108
358.441	108
358.668	99
358.895	91
359.122	94
359.349	91
359.576	79
359.802	82
360.029	86
360.256	86
360.483	91
360.709	105
360.936	109
361.163	95
361.39	104
361.616	93
361.843	80
362.07	112
362.296	105
362.523	137
362.749	153
362.976	156
363.203	179
363.429	137
363.656	122
363.882	119
364.109	144
364.335	197
364.562	219
364.788	154
365.015	120
365.241	113
365.468	105
365.694	92
365.92	79
366.147	92
366.373	87
366.599	82
366.826	96
367.052	94
367.278	85
367.505	91
367.731	94
367.957	91
368.184	89
368.41	90
368.636	83
368.862	93
369.089	82
369.315	103
369.541	87
369.767	93
369.993	92
370.219	89
370.445	117
370.672	129
370.898	121
371.124	97
371.35	88
371.576	84
371.802	100
372.028	100
372.254	123
372.48	107
372.706	111
372.932	105
373.158	93
373.384	142
373.61	173
373.835	197
374.061	129
374.287	109
374.513	118
374.739	118
374.965	130
375.191	117
375.416	110
375.642	107
375.868	125
376.094	105
376.319	106
376.545	111
376.771	83
376.997	83
377.222	98
377.448	84
377.674	86
377.899	92
378.125	89
378.35	79
378.576	87
378.802	93
379.027	109
379.253	93
379.478	101
379.704	108
379.929	96
380.155	93
380.38	92
380.606	93
380.831	98
381.057	79
381.282	97
381.507	118
381.733	104
381.958	112
382.184	109
382.409	109
382.634	127
382.86	136
383.085	128
383.31	126
383.535	120
383.761	123
383.986	136
384.211	129
384.436	93
384.662	110
384.887	109
385.112	100
385.337	101
385.562	116
385.787	124
386.013	140
386.238	111
386.463	123
386.688	128
386.913	130
387.138	118
387.363	126
387.588	105
387.813	130
388.038	133
388.263	127
388.488	114
388.713	111
388.938	110
389.163	100
389.387	100
389.612	108
389.837	92
390.062	108
390.287	116
390.512	113
390.736	102
390.961	90
391.186	97
391.411	92
391.636	111
391.86	95
392.085	121
392.31	126
392.534	160
392.759	201
392.984	329
393.208	655
393.433	1008
393.658	721
393.882	285
394.107	174
394.331	172
394.556	226
394.78	167
395.005	129
395.229	112
395.454	131
395.678	151
395.903	195
396.127	267
396.352	304
396.576	381
396.801	624
397.025	750
397.249	370
397.474	201
397.698	143
397.922	106
398.147	101
398.371	111
398.595	108
398.82	97
399.044	95
399.268	94
399.492	85
399.717	96
399.941	110
400.165	96
400.389	103
400.613	101
400.837	95
401.062	93
401.286	97
401.51	97
401.734	89
401.958	85
402.182	87
402.406	90
402.63	91
402.854	111
403.078	105
403.302	125
403.526	102
403.75	99
403.974	103
404.198	95
404.422	111
404.645	123
404.869	118
405.093	103
405.317	87
405.541	78
405.765	99
405.988	95
406.212	98
406.436	106
406.66	95
406.883	98
407.107	98
407.331	112
407.555	131
407.778	207
408.002	181
408.226	115
408.449	97
408.673	109
408.896	93
409.12	89
409.344	116
409.567	112
409.791	130
410.014	145
410.238	115
410.461	97
410.685	103
410.908	97
411.132	103
411.355	93
411.578	90
411.802	96
412.025	104
412.249	88
412.472	91
412.695	97
412.919	93
413.142	93
413.365	97
413.589	96
413.812	98
414.035	95
414.258	95
414.482	82
414.705	102
414.928	93
415.151	82
415.374	87
415.597	82
415.821	68
416.044	100
416.267	93
416.49	90
416.713	79
416.936	89
417.159	79
417.382	97
417.605	93
417.828	95
418.051	92
418.274	84
418.497	82
418.72	101
418.943	86
419.166	86
419.389	94
419.611	101
419.834	92
420.057	98
420.28	99
420.503	99
420.726	112
420.948	107
421.171	116
421.394	149
421.617	222
421.839	212
422.062	212
422.285	305
422.507	609
422.73	960
422.953	872
423.175	440
423.398	216
423.621	142
423.843	135
424.066	129
424.288	113
424.511	102
424.733	107
424.956	103
425.178	99
425.401	95
425.623	99
425.846	87
426.068	95
426.291	105
426.513	81
426.735	92
426.958	99
427.18	104
427.402	106
427.625	95
427.847	108
428.069	124
428.292	207
428.514	245
428.736	162
428.958	196
429.181	220
429.403	141
429.625	140
429.847	190
430.069	296
430.292	342
430.514	325
430.736	230
430.958	244
431.18	141
431.402	95
431.624	113
431.846	182
432.068	237
432.29	126
432.512	91
432.734	109
432.956	77
433.178	94
433.4	97
433.622	84
433.844	103
434.066	98
434.287	91
434.509	97
434.731	96
434.953	85
435.175	85
435.397	108
435.618	112
435.84	110
436.062	97
436.284	94
436.505	89
436.727	92
436.949	97
437.17	87
437.392	86
437.614	81
437.835	81
438.057	79
438.278	93
438.5	109
438.721	89
438.943	86
439.165	87
439.386	101
439.608	80
439.829	69
440.05	92
440.272	85
440.493	98
440.715	108
440.936	82
441.158	89
441.379	84
441.6	96
441.822	100
442.043	94
442.264	120
442.486	207
442.707	321
442.928	201
443.149	171
443.371	265
443.592	518
443.813	451
444.034	158
444.255	109
444.476	110
444.698	115
444.919	131
445.14	224
445.361	342
445.582	641
445.803	539
446.024	177
446.245	121
446.466	104
446.687	87
446.908	108
447.129	94
447.35	92
447.571	86
447.792	87
448.013	85
448.234	90
448.455	84
448.675	85
448.896	77
449.117	97
449.338	88
449.559	92
449.779	87
450	97
450.221	84
450.442	83
450.662	79
450.883	86
451.104	97
451.324	101
451.545	93
451.766	79
451.986	97
452.207	100
452.428	110
452.648	112
452.869	140
453.089	127
453.31	105
453.53	127
453.751	119
453.971	103
454.192	91
454.412	108
454.633	88
454.853	103
455.073	113
455.294	101
455.514	120
455.734	91
455.955	92
456.175	82
456.395	90
456.616	82
456.836	81
457.056	88
457.276	95
457.497	85
457.717	104
457.937	161
458.157	179
458.377	190
458.598	179
458.818	212
459.038	121
459.258	103
459.478	87
459.698	88
459.918	82
460.138	87
460.358	88
460.578	123
460.798	222
461.018	195
461.238	114
461.458	91
461.678	90
461.898	71
462.118	101
462.338	86
462.558	80
462.777	84
462.997	82
463.217	83
463.437	85
463.657	82
463.876	79
464.096	99
464.316	93
464.536	80
464.755	104
464.975	97
465.195	77
465.414	91
465.634	100
465.854	103
466.073	88
466.293	80
466.512	94
466.732	91
466.951	100
467.171	80
467.391	87
467.61	80
467.829	75
468.049	89
468.268	92
468.488	87
468.707	94
468.927	86
469.146	72
469.365	68
469.585	89
469.804	83
470.023	65
470.243	76
470.462	81
470.681	99
470.901	76
471.12	81
471.339	84
471.558	73
471.777	95
471.997	91
472.216	84
472.435	89
472.654	94
472.873	91
473.092	86
473.311	104
473.53	94
473.749	77
473.968	92
474.187	89
474.406	99
474.625	92
474.844	89
475.063	85
475.282	95
475.501	98
475.72	93
475.939	88
476.158	95
476.377	92
476.596	91
476.814	104
477.033	89
477.252	85
477.471	96
477.69	91
477.908	90
478.127	96
478.346	82
478.564	85
478.783	81
479.002	82
479.22	96
479.439	100
479.658	78
479.876	89
480.095	88
480.313	91
480.532	92
480.751	99
480.969	101
481.188	102
481.406	116
481.624	90
481.843	88
482.061	91
482.28	95
482.498	89
482.717	101
482.935	91
483.153	101
483.372	100
483.59	98
483.808	92
484.027	89
484.245	98
484.463	121
484.681	111
484.9	84
485.118	104
485.336	86
485.554	82
485.772	85
485.99	95
486.209	99
486.427	93
486.645	96
486.863	90
487.081	121
487.299	123
487.517	124
487.735	173
487.953	348
488.171	245
488.389	123
488.607	98
488.825	89
489.043	85
489.261	88
489.479	104
489.696	99
489.914	84
490.132	100
490.35	83
490.568	82
490.786	89
491.003	92
491.221	99
491.439	100
491.657	99
491.874	71
492.092	84
492.31	99
492.527	105
492.745	68
492.963	94
493.18	95
493.398	98
493.615	103
493.833	89
494.05	87
494.268	93
494.485	91
494.703	95
494.92	94
495.138	82
495.355	105
495.573	98
495.79	93
496.008	95
496.225	96
496.442	99
496.66	110
496.877	99
497.094	86
497.312	91
497.529	96
497.746	112
497.963	93
498.181	111
498.398	139
498.615	105
498.832	94
499.049	96
499.267	132
499.484	111
499.701	79
499.918	114
500.135	119
500.352	111
500.569	95
500.786	100
501.003	92
501.22	104
501.437	95
501.654	115
501.871	113
502.088	108
502.305	93
502.522	107
502.739	107
502.956	93
503.172	92
503.389	116
503.606	100
503.823	124
504.04	147
504.256	234
504.473	236
504.69	127
504.907	102
505.123	109
505.34	96
505.557	92
505.773	97
505.99	88
506.207	89
506.423	92
506.64	104
506.856	96
507.073	80
507.289	83
507.506	89
507.722	95
507.939	98
508.155	102
508.372	93
508.588	88
508.805	94
509.021	89
509.238	79
509.454	103
509.67	99
509.887	86
510.103	76
510.319	93
510.536	91
510.752	93
510.968	92
511.184	86
511.401	97
511.617	95
511.833	84
512.049	110
512.265	116
512.481	99
512.698	85
512.914	101
513.13	87
513.346	87
513.562	88
513.778	111
513.994	86
514.21	96
514.426	109
514.642	95
514.858	107
515.074	80
515.29	94
515.506	91
515.721	99
515.937	99
516.153	86
516.369	85
516.585	100
516.801	104
517.016	100
517.232	101
517.448	127
517.664	99
517.879	92
518.095	100
518.311	124
518.527	149
518.742	163
518.958	282
519.173	325
519.389	141
519.605	129
519.82	103
520.036	95
520.251	99
520.467	80
520.682	105
520.898	102
521.113	102
521.329	107
521.544	74
521.76	71
521.975	82
522.19	99
522.406	111
522.621	89
522.836	101
523.052	100
523.267	100
523.482	105
523.698	83
523.913	99
524.128	108
524.343	113
524.559	92
524.774	89
524.989	93
525.204	103
525.419	98
525.634	126
525.849	127
526.064	171
526.28	435
526.495	669
526.71	753
526.925	460
527.14	602
527.355	521
527.57	175
527.785	111
527.999	102
528.214	99
528.429	100
528.644	123
528.859	101
529.074	101
529.289	83
529.503	101
529.718	99
529.933	105
530.148	105
530.363	110
530.577	103
530.792	98
531.007	107
531.221	109
531.436	103
531.651	101
531.865	111
532.08	102
532.295	121
532.509	112
532.724	110
532.938	126
533.153	111
533.367	119
533.582	115
533.796	124
534.011	123
534.225	122
534.44	120
534.654	132
534.868	143
535.083	291
535.297	241
535.511	144
535.726	133
535.94	124
536.154	128
536.369	117
536.583	117
536.797	103
537.011	117
537.225	110
537.44	113
537.654	117
537.868	120
538.082	109
538.296	127
538.51	116
538.724	134
538.938	129
539.153	125
539.367	105
539.581	121
539.795	122
540.009	123
540.222	117
540.436	126
540.65	122
540.864	136
541.078	121
541.292	104
541.506	119
541.72	119
541.934	122
542.147	119
542.361	132
542.575	119
542.789	116
543.002	117
543.216	124
543.43	122
543.644	124
543.857	128
544.071	118
544.285	117
544.498	132
544.712	134
544.925	140
545.139	135
545.352	144
545.566	139
545.779	123
545.993	150
546.206	141
546.42	127
546.633	139
546.847	156
547.06	173
547.274	213
547.487	251
547.7	288
547.914	287
548.127	291
548.34	306
548.554	317
548.767	313
548.98	332
549.193	305
549.407	323
549.62	340
549.833	361
550.046	414
550.259	434
550.473	413
550.686	467
550.899	500
551.112	565
551.325	587
551.538	655
551.751	586
551.964	535
552.177	524
552.39	511
552.603	506
552.816	520
553.029	512
553.242	508
553.455	524
553.667	543
553.88	569
554.093	609
554.306	570
554.519	577
554.732	581
554.944	597
555.157	543
555.37	539
555.583	534
555.795	493
556.008	433
556.221	419
556.433	407
556.646	397
556.859	351
557.071	363
557.284	326
557.496	307
557.709	300
557.921	292
558.134	280
558.346	404
558.559	355
558.771	323
558.984	660
559.196	837
559.409	428
559.621	650
559.833	487
560.046	611
560.258	502
560.47	487
560.683	266
560.895	165
561.107	166
561.32	163
561.532	163
561.744	158
561.956	149
562.168	158
562.381	150
562.593	143
562.805	130
563.017	135
563.229	131
563.441	136
563.653	144
563.865	117
564.077	133
564.289	117
564.501	121
564.713	121
564.925	128
565.137	112
565.349	141
565.561	134
565.773	127
565.985	113
566.197	108
566.408	120
566.62	119
566.832	117
567.044	117
567.255	117
567.467	123
567.679	126
567.891	139
568.102	116
568.314	139
568.526	130
568.737	129
568.949	126
569.161	144
569.372	155
569.584	126
569.795	124
570.007	122
570.218	113
570.43	128
570.641	124
570.853	132
571.064	128
571.276	116
571.487	119
571.698	124
571.91	117
572.121	135
572.333	118
572.544	116
572.755	119
572.966	114
573.178	108
573.389	121
573.6	107
573.811	122
574.023	125
574.234	124
574.445	123
574.656	116
574.867	114
575.078	99
575.289	98
575.501	116
575.712	112
575.923	116
576.134	113
576.345	112
576.556	125
576.767	115
576.978	111
577.188	117
577.399	100
577.61	109
577.821	113
578.032	106
578.243	107
578.454	112
578.665	99
578.875	107
579.086	107
579.297	117
579.508	115
579.718	110
