Data from 17600_3_HRD10591_00034.txt Node
Date: Mon Jan 19 14:09:40 EST 2026
User: Yrep
Spectrometer: HR+D1059
Trigger mode: 1
Integration Time (sec): 1.000000E-1
Scans to average: 1
Electric dark correction enabled: true
Nonlinearity correction enabled: false
Boxcar width: 0
XAxis mode: Wavelengths
Number of Pixels in Spectrum: 2048
>>>>>Begin Spectral Data<<<<<
223.165	-12.56
223.4	-12.56
223.635	-12.56
223.869	-16.56
224.104	-13.56
224.338	-8.56
224.573	-11.56
224.808	1.44
225.042	-7.56
225.277	-4.56
225.511	-1.56
225.746	15.44
225.98	5.44
226.215	-11.56
226.449	19.44
226.683	4.44
226.918	15.44
227.152	26.44
227.387	38.44
227.621	53.44
227.856	42.44
228.09	43.44
228.324	51.44
228.559	51.44
228.793	64.44
229.027	65.44
229.262	59.44
229.496	65.44
229.73	79.44
229.964	75.44
230.199	85.44
230.433	75.44
230.667	79.44
230.901	77.44
231.136	75.44
231.37	81.44
231.604	90.44
231.838	84.44
232.072	85.44
232.306	78.44
232.541	81.44
232.775	81.44
233.009	74.44
233.243	77.44
233.477	68.44
233.711	75.44
233.945	69.44
234.179	84.44
234.413	86.44
234.647	91.44
234.881	74.44
235.115	83.44
235.349	79.44
235.583	78.44
235.817	89.44
236.051	83.44
236.285	67.44
236.519	83.44
236.753	85.44
236.987	73.44
237.221	82.44
237.455	88.44
237.689	92.44
237.922	86.44
238.156	84.44
238.39	78.44
238.624	78.44
238.858	72.44
239.091	66.44
239.325	86.44
239.559	65.44
239.793	74.44
240.027	97.44
240.26	82.44
240.494	83.44
240.728	70.44
240.961	92.44
241.195	93.44
241.429	81.44
241.662	84.44
241.896	61.44
242.13	67.44
242.363	65.44
242.597	75.44
242.83	80.44
243.064	63.44
243.298	71.44
243.531	80.44
243.765	80.44
243.998	75.44
244.232	92.44
244.465	72.44
244.699	85.44
244.932	77.44
245.166	81.44
245.399	77.44
245.633	81.44
245.866	70.44
246.099	73.44
246.333	73.44
246.566	81.44
246.8	93.44
247.033	93.44
247.266	70.44
247.5	69.44
247.733	63.44
247.966	86.44
248.2	81.44
248.433	81.44
248.666	70.44
248.899	63.44
249.133	78.44
249.366	88.44
249.599	82.44
249.832	72.44
250.066	96.44
250.299	73.44
250.532	83.44
250.765	83.44
250.998	80.44
251.231	84.44
251.465	71.44
251.698	70.44
251.931	75.44
252.164	68.44
252.397	71.44
252.63	91.44
252.863	88.44
253.096	79.44
253.329	71.44
253.562	79.44
253.795	77.44
254.028	75.44
254.261	71.44
254.494	69.44
254.727	76.44
254.96	89.44
255.193	75.44
255.426	85.44
255.659	73.44
255.892	70.44
256.124	76.44
256.357	65.44
256.59	92.44
256.823	89.44
257.056	78.44
257.289	72.44
257.521	91.44
257.754	83.44
257.987	81.44
258.22	82.44
258.452	79.44
258.685	81.44
258.918	85.44
259.151	85.44
259.383	77.44
259.616	88.44
259.849	77.44
260.081	77.44
260.314	86.44
260.547	82.44
260.779	78.44
261.012	71.44
261.244	74.44
261.477	82.44
261.71	74.44
261.942	77.44
262.175	98.44
262.407	78.44
262.64	95.44
262.872	81.44
263.105	93.44
263.337	77.44
263.57	80.44
263.802	93.44
264.035	80.44
264.267	81.44
264.499	94.44
264.732	77.44
264.964	84.44
265.197	82.44
265.429	80.44
265.661	74.44
265.894	84.44
266.126	85.44
266.358	85.44
266.591	84.44
266.823	80.44
267.055	83.44
267.287	86.44
267.52	89.44
267.752	89.44
267.984	85.44
268.216	84.44
268.448	85.44
268.681	69.44
268.913	84.44
269.145	61.44
269.377	83.44
269.609	75.44
269.841	79.44
270.073	74.44
270.306	72.44
270.538	88.44
270.77	76.44
271.002	87.44
271.234	67.44
271.466	81.44
271.698	66.44
271.93	73.44
272.162	74.44
272.394	75.44
272.626	83.44
272.858	84.44
273.09	74.44
273.322	96.44
273.553	97.44
273.785	87.44
274.017	66.44
274.249	87.44
274.481	85.44
274.713	86.44
274.945	79.44
275.176	80.44
275.408	86.44
275.64	71.44
275.872	86.44
276.104	85.44
276.335	89.44
276.567	80.44
276.799	85.44
277.031	86.44
277.262	101.44
277.494	92.44
277.726	92.44
277.957	87.44
278.189	81.44
278.421	87.44
278.652	81.44
278.884	85.44
279.115	97.44
279.347	94.44
279.579	87.44
279.81	87.44
280.042	66.44
280.273	73.44
280.505	88.44
280.736	67.44
280.968	94.44
281.199	96.44
281.431	88.44
281.662	78.44
281.894	84.44
282.125	87.44
282.356	91.44
282.588	79.44
282.819	80.44
283.051	81.44
283.282	94.44
283.513	93.44
283.745	81.44
283.976	93.44
284.207	75.44
284.439	83.44
284.67	77.44
284.901	94.44
285.132	89.44
285.364	99.44
285.595	99.44
285.826	97.44
286.057	92.44
286.288	88.44
286.52	87.44
286.751	80.44
286.982	85.44
287.213	88.44
287.444	79.44
287.675	92.44
287.906	83.44
288.138	97.44
288.369	83.44
288.6	83.44
288.831	81.44
289.062	85.44
289.293	87.44
289.524	81.44
289.755	91.44
289.986	86.44
290.217	70.44
290.448	83.44
290.679	96.44
290.91	89.44
291.141	95.44
291.371	83.44
291.602	81.44
291.833	80.44
292.064	82.44
292.295	87.44
292.526	88.44
292.757	83.44
292.987	77.44
293.218	88.44
293.449	74.44
293.68	88.44
293.91	90.44
294.141	95.44
294.372	81.44
294.603	102.44
294.833	80.44
295.064	91.44
295.295	94.44
295.525	81.44
295.756	94.44
295.987	75.44
296.217	83.44
296.448	87.44
296.679	73.44
296.909	87.44
297.14	72.44
297.37	89.44
297.601	69.44
297.831	89.44
298.062	91.44
298.292	89.44
298.523	95.44
298.753	87.44
298.984	73.44
299.214	94.44
299.445	91.44
299.675	91.44
299.905	100.44
300.136	104.44
300.366	101.44
300.597	93.44
300.827	108.44
301.057	86.44
301.288	87.44
301.518	89.44
301.748	83.44
301.979	88.44
302.209	94.44
302.439	90.44
302.669	97.44
302.9	89.44
303.13	73.44
303.36	96.44
303.59	89.44
303.82	101.44
304.051	90.44
304.281	88.44
304.511	90.44
304.741	75.44
304.971	85.44
305.201	87.44
305.431	80.44
305.661	86.44
305.891	78.44
306.121	82.44
306.352	85.44
306.582	84.44
306.812	97.44
307.042	95.44
307.272	83.44
307.502	94.44
307.731	90.44
307.961	99.44
308.191	96.44
308.421	105.44
308.651	109.44
308.881	85.44
309.111	92.44
309.341	97.44
309.571	98.44
309.8	82.44
310.03	75.44
310.26	89.44
310.49	93.44
310.72	73.44
310.949	84.44
311.179	93.44
311.409	72.44
311.639	73.44
311.868	73.44
312.098	84.44
312.328	86.44
312.557	84.44
312.787	86.44
313.017	78.44
313.246	89.44
313.476	88.44
313.706	87.44
313.935	97.44
314.165	90.44
314.394	80.44
314.624	102.44
314.853	87.44
315.083	87.44
315.312	85.44
315.542	91.44
315.771	99.44
316.001	95.44
316.23	104.44
316.46	76.44
316.689	94.44
316.919	92.44
317.148	76.44
317.377	98.44
317.607	105.44
317.836	109.44
318.065	117.44
318.295	99.44
318.524	91.44
318.753	94.44
318.983	90.44
319.212	85.44
319.441	99.44
319.67	78.44
319.9	75.44
320.129	89.44
320.358	81.44
320.587	83.44
320.816	74.44
321.046	77.44
321.275	88.44
321.504	107.44
321.733	97.44
321.962	102.44
322.191	79.44
322.42	98.44
322.649	101.44
322.878	88.44
323.108	98.44
323.337	75.44
323.566	90.44
323.795	90.44
324.024	84.44
324.253	100.44
324.482	82.44
324.71	82.44
324.939	76.44
325.168	99.44
325.397	86.44
325.626	81.44
325.855	80.44
326.084	70.44
326.313	89.44
326.542	85.44
326.77	82.44
326.999	83.44
327.228	91.44
327.457	92.44
327.686	84.44
327.914	91.44
328.143	91.44
328.372	85.44
328.6	81.44
328.829	84.44
329.058	97.44
329.287	84.44
329.515	93.44
329.744	87.44
329.972	98.44
330.201	81.44
330.43	90.44
330.658	84.44
330.887	92.44
331.115	98.44
331.344	78.44
331.572	90.44
331.801	91.44
332.03	90.44
332.258	87.44
332.486	75.44
332.715	80.44
332.943	86.44
333.172	79.44
333.4	90.44
333.629	90.44
333.857	82.44
334.085	94.44
334.314	97.44
334.542	103.44
334.771	94.44
334.999	90.44
335.227	88.44
335.455	86.44
335.684	88.44
335.912	102.44
336.14	102.44
336.369	89.44
336.597	98.44
336.825	88.44
337.053	82.44
337.281	84.44
337.51	93.44
337.738	97.44
337.966	95.44
338.194	82.44
338.422	93.44
338.65	92.44
338.878	97.44
339.106	99.44
339.334	90.44
339.562	88.44
339.79	99.44
340.018	101.44
340.246	89.44
340.474	83.44
340.702	78.44
340.93	80.44
341.158	89.44
341.386	92.44
341.614	74.44
341.842	93.44
342.07	92.44
342.298	86.44
342.526	95.44
342.754	86.44
342.981	86.44
343.209	85.44
343.437	99.44
343.665	85.44
343.893	107.44
344.12	115.44
344.348	94.44
344.576	89.44
344.804	91.44
345.031	97.44
345.259	92.44
345.487	77.44
345.714	82.44
345.942	97.44
346.17	91.44
346.397	89.44
346.625	97.44
346.853	92.44
347.08	98.44
347.308	82.44
347.535	93.44
347.763	92.44
347.99	101.44
348.218	99.44
348.445	84.44
348.673	85.44
348.9	96.44
349.128	91.44
349.355	86.44
349.583	95.44
349.81	71.44
350.037	86.44
350.265	94.44
350.492	96.44
350.72	96.44
350.947	82.44
351.174	77.44
351.402	83.44
351.629	72.44
351.856	89.44
352.083	81.44
352.311	81.44
352.538	88.44
352.765	85.44
352.992	93.44
353.22	79.44
353.447	90.44
353.674	87.44
353.901	97.44
354.128	77.44
354.355	90.44
354.583	93.44
354.81	87.44
355.037	96.44
355.264	80.44
355.491	84.44
355.718	80.44
355.945	81.44
356.172	92.44
356.399	78.44
356.626	98.44
356.853	97.44
357.08	108.44
357.307	105.44
357.534	105.44
357.761	94.44
357.988	93.44
358.215	99.44
358.441	88.44
358.668	89.44
358.895	98.44
359.122	93.44
359.349	94.44
359.576	81.44
359.802	87.44
360.029	85.44
360.256	93.44
360.483	90.44
360.709	95.44
360.936	102.44
361.163	91.44
361.39	95.44
361.616	102.44
361.843	88.44
362.07	91.44
362.296	110.44
362.523	110.44
362.749	120.44
362.976	137.44
363.203	153.44
363.429	120.44
363.656	104.44
363.882	101.44
364.109	128.44
364.335	138.44
364.562	181.44
364.788	125.44
365.015	105.44
365.241	91.44
365.468	100.44
365.694	96.44
365.92	82.44
366.147	93.44
366.373	89.44
366.599	93.44
366.826	95.44
367.052	79.44
367.278	76.44
367.505	91.44
367.731	88.44
367.957	79.44
368.184	92.44
368.41	79.44
368.636	95.44
368.862	103.44
369.089	82.44
369.315	91.44
369.541	103.44
369.767	90.44
369.993	96.44
370.219	90.44
370.445	103.44
370.672	96.44
370.898	99.44
371.124	104.44
371.35	85.44
371.576	85.44
371.802	94.44
372.028	93.44
372.254	97.44
372.48	89.44
372.706	83.44
372.932	94.44
373.158	95.44
373.384	104.44
373.61	145.44
373.835	128.44
374.061	102.44
374.287	104.44
374.513	94.44
374.739	114.44
374.965	102.44
375.191	109.44
375.416	103.44
375.642	95.44
375.868	105.44
376.094	88.44
376.319	98.44
376.545	102.44
376.771	95.44
376.997	93.44
377.222	79.44
377.448	78.44
377.674	100.44
377.899	85.44
378.125	101.44
378.35	100.44
378.576	84.44
378.802	91.44
379.027	113.44
379.253	90.44
379.478	102.44
379.704	92.44
379.929	89.44
380.155	109.44
380.38	98.44
380.606	89.44
380.831	104.44
381.057	104.44
381.282	95.44
381.507	99.44
381.733	92.44
381.958	108.44
382.184	113.44
382.409	118.44
382.634	111.44
382.86	117.44
383.085	125.44
383.31	106.44
383.535	121.44
383.761	99.44
383.986	122.44
384.211	110.44
384.436	101.44
384.662	107.44
384.887	88.44
385.112	83.44
385.337	102.44
385.562	105.44
385.787	108.44
386.013	116.44
386.238	109.44
386.463	86.44
386.688	111.44
386.913	103.44
387.138	107.44
387.363	113.44
387.588	117.44
387.813	121.44
388.038	109.44
388.263	121.44
388.488	109.44
388.713	115.44
388.938	89.44
389.163	90.44
389.387	85.44
389.612	98.44
389.837	97.44
390.062	109.44
390.287	84.44
390.512	92.44
390.736	104.44
390.961	90.44
391.186	88.44
391.411	98.44
391.636	98.44
391.86	105.44
392.085	104.44
392.31	112.44
392.534	115.44
392.759	167.44
392.984	214.44
393.208	455.44
393.433	662.44
393.658	512.44
393.882	203.44
394.107	139.44
394.331	161.44
394.556	169.44
394.78	136.44
395.005	121.44
395.229	101.44
395.454	109.44
395.678	111.44
395.903	153.44
396.127	194.44
396.352	231.44
396.576	257.44
396.801	426.44
397.025	526.44
397.249	253.44
397.474	169.44
397.698	127.44
397.922	98.44
398.147	98.44
398.371	98.44
398.595	97.44
398.82	83.44
399.044	99.44
399.268	82.44
399.492	89.44
399.717	95.44
399.941	93.44
400.165	97.44
400.389	104.44
400.613	87.44
400.837	88.44
401.062	101.44
401.286	74.44
401.51	83.44
401.734	99.44
401.958	93.44
402.182	95.44
402.406	88.44
402.63	70.44
402.854	79.44
403.078	117.44
403.302	118.44
403.526	102.44
403.75	103.44
403.974	105.44
404.198	90.44
404.422	107.44
404.645	106.44
404.869	93.44
405.093	91.44
405.317	79.44
405.541	84.44
405.765	77.44
405.988	96.44
406.212	94.44
406.436	98.44
406.66	95.44
406.883	77.44
407.107	85.44
407.331	97.44
407.555	113.44
407.778	169.44
408.002	164.44
408.226	98.44
408.449	109.44
408.673	99.44
408.896	88.44
409.12	100.44
409.344	103.44
409.567	122.44
409.791	113.44
410.014	109.44
410.238	90.44
410.461	89.44
410.685	83.44
410.908	95.44
411.132	97.44
411.355	89.44
411.578	81.44
411.802	101.44
412.025	97.44
412.249	89.44
412.472	86.44
412.695	84.44
412.919	89.44
413.142	97.44
413.365	78.44
413.589	88.44
413.812	76.44
414.035	90.44
414.258	91.44
414.482	107.44
414.705	88.44
414.928	91.44
415.151	90.44
415.374	91.44
415.597	87.44
415.821	94.44
416.044	95.44
416.267	102.44
416.49	86.44
416.713	80.44
416.936	102.44
417.159	93.44
417.382	95.44
417.605	84.44
417.828	97.44
418.051	95.44
418.274	75.44
418.497	89.44
418.72	86.44
418.943	99.44
419.166	100.44
419.389	82.44
419.611	89.44
419.834	99.44
420.057	99.44
420.28	89.44
420.503	91.44
420.726	86.44
420.948	99.44
421.171	101.44
421.394	131.44
421.617	165.44
421.839	174.44
422.062	168.44
422.285	259.44
422.507	446.44
422.73	686.44
422.953	649.44
423.175	301.44
423.398	178.44
423.621	127.44
423.843	119.44
424.066	113.44
424.288	105.44
424.511	97.44
424.733	101.44
424.956	91.44
425.178	85.44
425.401	88.44
425.623	107.44
425.846	88.44
426.068	98.44
426.291	88.44
426.513	96.44
426.735	102.44
426.958	75.44
427.18	97.44
427.402	97.44
427.625	104.44
427.847	109.44
428.069	113.44
428.292	156.44
428.514	195.44
428.736	135.44
428.958	166.44
429.181	166.44
429.403	115.44
429.625	118.44
429.847	143.44
430.069	219.44
430.292	277.44
430.514	231.44
430.736	175.44
430.958	193.44
431.18	118.44
431.402	104.44
431.624	117.44
431.846	151.44
432.068	150.44
432.29	117.44
432.512	91.44
432.734	96.44
432.956	80.44
433.178	82.44
433.4	94.44
433.622	84.44
433.844	99.44
434.066	94.44
434.287	86.44
434.509	80.44
434.731	80.44
434.953	95.44
435.175	85.44
435.397	99.44
435.618	98.44
435.84	122.44
436.062	93.44
436.284	97.44
436.505	85.44
436.727	85.44
436.949	89.44
437.17	75.44
437.392	92.44
437.614	90.44
437.835	87.44
438.057	91.44
438.278	98.44
438.5	99.44
438.721	76.44
438.943	82.44
439.165	88.44
439.386	85.44
439.608	103.44
439.829	94.44
440.05	109.44
440.272	95.44
440.493	95.44
440.715	98.44
440.936	98.44
441.158	84.44
441.379	92.44
441.6	95.44
441.822	98.44
442.043	103.44
442.264	119.44
442.486	159.44
442.707	227.44
442.928	152.44
443.149	107.44
443.371	195.44
443.592	362.44
443.813	320.44
444.034	129.44
444.255	103.44
444.476	109.44
444.698	97.44
444.919	89.44
445.14	195.44
445.361	249.44
445.582	445.44
445.803	377.44
446.024	166.44
446.245	98.44
446.466	95.44
446.687	96.44
446.908	88.44
447.129	72.44
447.35	81.44
447.571	96.44
447.792	90.44
448.013	90.44
448.234	90.44
448.455	88.44
448.675	102.44
448.896	81.44
449.117	87.44
449.338	81.44
449.559	71.44
449.779	99.44
450	81.44
450.221	77.44
450.442	87.44
450.662	83.44
450.883	91.44
451.104	93.44
451.324	102.44
451.545	98.44
451.766	96.44
451.986	87.44
452.207	83.44
452.428	90.44
452.648	113.44
452.869	121.44
453.089	81.44
453.31	88.44
453.53	102.44
453.751	95.44
453.971	71.44
454.192	92.44
454.412	87.44
454.633	74.44
454.853	92.44
455.073	81.44
455.294	96.44
455.514	116.44
455.734	110.44
455.955	97.44
456.175	95.44
456.395	99.44
456.616	95.44
456.836	103.44
457.056	87.44
457.276	78.44
457.497	85.44
457.717	109.44
457.937	130.44
458.157	159.44
458.377	164.44
458.598	148.44
458.818	171.44
459.038	98.44
459.258	76.44
459.478	87.44
459.698	91.44
459.918	94.44
460.138	86.44
460.358	94.44
460.578	118.44
460.798	164.44
461.018	170.44
461.238	96.44
461.458	82.44
461.678	89.44
461.898	93.44
462.118	83.44
462.338	91.44
462.558	88.44
462.777	83.44
462.997	82.44
463.217	95.44
463.437	96.44
463.657	74.44
463.876	81.44
464.096	89.44
464.316	91.44
464.536	94.44
464.755	87.44
464.975	81.44
465.195	91.44
465.414	77.44
465.634	97.44
465.854	95.44
466.073	85.44
466.293	84.44
466.512	82.44
466.732	83.44
466.951	84.44
467.171	92.44
467.391	77.44
467.61	84.44
467.829	84.44
468.049	84.44
468.268	97.44
468.488	114.44
468.707	83.44
468.927	82.44
469.146	91.44
469.365	89.44
469.585	90.44
469.804	90.44
470.023	81.44
470.243	97.44
470.462	96.44
470.681	100.44
470.901	97.44
471.12	81.44
471.339	68.44
471.558	91.44
471.777	94.44
471.997	98.44
472.216	102.44
472.435	97.44
472.654	73.44
472.873	85.44
473.092	91.44
473.311	88.44
473.53	85.44
473.749	99.44
473.968	96.44
474.187	90.44
474.406	97.44
474.625	81.44
474.844	88.44
475.063	80.44
475.282	83.44
475.501	79.44
475.72	95.44
475.939	108.44
476.158	97.44
476.377	97.44
476.596	89.44
476.814	81.44
477.033	82.44
477.252	86.44
477.471	99.44
477.69	86.44
477.908	89.44
478.127	77.44
478.346	89.44
478.564	91.44
478.783	93.44
479.002	86.44
479.22	108.44
479.439	83.44
479.658	90.44
479.876	91.44
480.095	105.44
480.313	84.44
480.532	78.44
480.751	100.44
480.969	81.44
481.188	93.44
481.406	109.44
481.624	93.44
481.843	92.44
482.061	102.44
482.28	98.44
482.498	92.44
482.717	94.44
482.935	88.44
483.153	103.44
483.372	98.44
483.59	104.44
483.808	87.44
484.027	85.44
484.245	99.44
484.463	116.44
484.681	94.44
484.9	109.44
485.118	115.44
485.336	101.44
485.554	91.44
485.772	86.44
485.99	102.44
486.209	97.44
486.427	93.44
486.645	91.44
486.863	103.44
487.081	87.44
487.299	91.44
487.517	110.44
487.735	128.44
487.953	239.44
488.171	201.44
488.389	106.44
488.607	100.44
488.825	95.44
489.043	95.44
489.261	90.44
489.479	99.44
489.696	65.44
489.914	87.44
490.132	85.44
490.35	102.44
490.568	95.44
490.786	81.44
491.003	88.44
491.221	89.44
491.439	89.44
491.657	87.44
491.874	95.44
492.092	89.44
492.31	99.44
492.527	102.44
492.745	83.44
492.963	89.44
493.18	82.44
493.398	84.44
493.615	93.44
493.833	93.44
494.05	79.44
494.268	77.44
494.485	78.44
494.703	99.44
494.92	76.44
495.138	89.44
495.355	92.44
495.573	93.44
495.79	78.44
496.008	79.44
496.225	102.44
496.442	99.44
496.66	94.44
496.877	103.44
497.094	92.44
497.312	93.44
497.529	66.44
497.746	94.44
497.963	88.44
498.181	99.44
498.398	103.44
498.615	113.44
498.832	109.44
499.049	97.44
499.267	113.44
499.484	106.44
499.701	87.44
499.918	83.44
500.135	88.44
500.352	101.44
500.569	115.44
500.786	96.44
501.003	97.44
501.22	88.44
501.437	93.44
501.654	103.44
501.871	89.44
502.088	99.44
502.305	88.44
502.522	91.44
502.739	91.44
502.956	99.44
503.172	93.44
503.389	99.44
503.606	112.44
503.823	111.44
504.04	104.44
504.256	175.44
504.473	172.44
504.69	101.44
504.907	95.44
505.123	101.44
505.34	90.44
505.557	82.44
505.773	86.44
505.99	77.44
506.207	90.44
506.423	99.44
506.64	96.44
506.856	91.44
507.073	99.44
507.289	103.44
507.506	83.44
507.722	86.44
507.939	89.44
508.155	81.44
508.372	97.44
508.588	69.44
508.805	89.44
509.021	95.44
509.238	91.44
509.454	96.44
509.67	107.44
509.887	94.44
510.103	89.44
510.319	76.44
510.536	83.44
510.752	83.44
510.968	79.44
511.184	70.44
511.401	78.44
511.617	88.44
511.833	97.44
512.049	95.44
512.265	82.44
512.481	78.44
512.698	84.44
512.914	82.44
513.13	93.44
513.346	79.44
513.562	87.44
513.778	90.44
513.994	89.44
514.21	85.44
514.426	89.44
514.642	83.44
514.858	90.44
515.074	86.44
515.29	97.44
515.506	82.44
515.721	93.44
515.937	99.44
516.153	89.44
516.369	86.44
516.585	90.44
