Data from 17600_3_HRD10591_00012.txt Node
Date: Mon Jan 19 14:09:29 EST 2026
User: Yrep
Spectrometer: HR+D1059
Trigger mode: 1
Integration Time (sec): 1.000000E-1
Scans to average: 1
Electric dark correction enabled: true
Nonlinearity correction enabled: false
Boxcar width: 0
XAxis mode: Wavelengths
Number of Pixels in Spectrum: 2048
>>>>>Begin Spectral Data<<<<<
223.165	-13.88
223.4	-13.88
223.635	-13.88
223.869	-9.88
224.104	-9.88
224.338	-17.88
224.573	-20.88
224.808	-33.88
225.042	-16.88
225.277	-3.88
225.511	-1.88
225.746	11.12
225.98	5.12
226.215	13.12
226.449	28.12
226.683	16.12
226.918	23.12
227.152	32.12
227.387	42.12
227.621	39.12
227.856	54.12
228.09	43.12
228.324	58.12
228.559	54.12
228.793	69.12
229.027	61.12
229.262	64.12
229.496	65.12
229.73	65.12
229.964	64.12
230.199	84.12
230.433	76.12
230.667	90.12
230.901	81.12
231.136	62.12
231.37	90.12
231.604	80.12
231.838	83.12
232.072	79.12
232.306	86.12
232.541	72.12
232.775	71.12
233.009	82.12
233.243	70.12
233.477	90.12
233.711	80.12
233.945	76.12
234.179	81.12
234.413	75.12
234.647	86.12
234.881	86.12
235.115	80.12
235.349	74.12
235.583	95.12
235.817	75.12
236.051	71.12
236.285	78.12
236.519	82.12
236.753	73.12
236.987	95.12
237.221	65.12
237.455	60.12
237.689	66.12
237.922	69.12
238.156	79.12
238.39	62.12
238.624	70.12
238.858	82.12
239.091	83.12
239.325	69.12
239.559	75.12
239.793	83.12
240.027	79.12
240.26	87.12
240.494	76.12
240.728	73.12
240.961	75.12
241.195	81.12
241.429	88.12
241.662	84.12
241.896	61.12
242.13	75.12
242.363	65.12
242.597	76.12
242.83	67.12
243.064	78.12
243.298	78.12
243.531	76.12
243.765	78.12
243.998	71.12
244.232	66.12
244.465	76.12
244.699	92.12
244.932	81.12
245.166	68.12
245.399	78.12
245.633	72.12
245.866	78.12
246.099	77.12
246.333	81.12
246.566	81.12
246.8	81.12
247.033	68.12
247.266	76.12
247.5	79.12
247.733	70.12
247.966	78.12
248.2	74.12
248.433	62.12
248.666	64.12
248.899	64.12
249.133	87.12
249.366	71.12
249.599	79.12
249.832	70.12
250.066	80.12
250.299	80.12
250.532	70.12
250.765	74.12
250.998	77.12
251.231	75.12
251.465	76.12
251.698	76.12
251.931	71.12
252.164	67.12
252.397	84.12
252.63	73.12
252.863	78.12
253.096	78.12
253.329	75.12
253.562	81.12
253.795	84.12
254.028	85.12
254.261	82.12
254.494	87.12
254.727	83.12
254.96	88.12
255.193	86.12
255.426	65.12
255.659	82.12
255.892	95.12
256.124	92.12
256.357	73.12
256.59	90.12
256.823	85.12
257.056	65.12
257.289	76.12
257.521	72.12
257.754	76.12
257.987	79.12
258.22	80.12
258.452	86.12
258.685	82.12
258.918	96.12
259.151	70.12
259.383	83.12
259.616	73.12
259.849	68.12
260.081	76.12
260.314	81.12
260.547	82.12
260.779	91.12
261.012	89.12
261.244	73.12
261.477	92.12
261.71	71.12
261.942	89.12
262.175	87.12
262.407	78.12
262.64	92.12
262.872	87.12
263.105	77.12
263.337	90.12
263.57	77.12
263.802	75.12
264.035	75.12
264.267	73.12
264.499	89.12
264.732	74.12
264.964	85.12
265.197	83.12
265.429	79.12
265.661	74.12
265.894	70.12
266.126	87.12
266.358	79.12
266.591	76.12
266.823	84.12
267.055	89.12
267.287	76.12
267.52	84.12
267.752	73.12
267.984	71.12
268.216	89.12
268.448	85.12
268.681	88.12
268.913	74.12
269.145	86.12
269.377	94.12
269.609	75.12
269.841	82.12
270.073	78.12
270.306	83.12
270.538	87.12
270.77	79.12
271.002	83.12
271.234	80.12
271.466	92.12
271.698	86.12
271.93	74.12
272.162	83.12
272.394	89.12
272.626	90.12
272.858	66.12
273.09	77.12
273.322	90.12
273.553	84.12
273.785	76.12
274.017	82.12
274.249	88.12
274.481	90.12
274.713	86.12
274.945	83.12
275.176	80.12
275.408	77.12
275.64	87.12
275.872	87.12
276.104	81.12
276.335	85.12
276.567	81.12
276.799	58.12
277.031	73.12
277.262	86.12
277.494	90.12
277.726	91.12
277.957	70.12
278.189	73.12
278.421	88.12
278.652	75.12
278.884	72.12
279.115	94.12
279.347	74.12
279.579	95.12
279.81	96.12
280.042	103.12
280.273	79.12
280.505	77.12
280.736	85.12
280.968	92.12
281.199	67.12
281.431	81.12
281.662	104.12
281.894	90.12
282.125	85.12
282.356	90.12
282.588	91.12
282.819	92.12
283.051	83.12
283.282	75.12
283.513	92.12
283.745	85.12
283.976	87.12
284.207	79.12
284.439	74.12
284.67	76.12
284.901	71.12
285.132	89.12
285.364	87.12
285.595	86.12
285.826	72.12
286.057	77.12
286.288	75.12
286.52	82.12
286.751	75.12
286.982	82.12
287.213	66.12
287.444	82.12
287.675	91.12
287.906	78.12
288.138	85.12
288.369	83.12
288.6	90.12
288.831	80.12
289.062	89.12
289.293	76.12
289.524	89.12
289.755	92.12
289.986	66.12
290.217	77.12
290.448	90.12
290.679	90.12
290.91	86.12
291.141	90.12
291.371	59.12
291.602	74.12
291.833	77.12
292.064	78.12
292.295	83.12
292.526	82.12
292.757	69.12
292.987	77.12
293.218	85.12
293.449	87.12
293.68	91.12
293.91	85.12
294.141	99.12
294.372	88.12
294.603	86.12
294.833	98.12
295.064	81.12
295.295	84.12
295.525	66.12
295.756	80.12
295.987	65.12
296.217	74.12
296.448	81.12
296.679	94.12
296.909	80.12
297.14	86.12
297.37	93.12
297.601	89.12
297.831	80.12
298.062	95.12
298.292	71.12
298.523	96.12
298.753	83.12
298.984	89.12
299.214	85.12
299.445	85.12
299.675	90.12
299.905	61.12
300.136	81.12
300.366	88.12
300.597	82.12
300.827	88.12
301.057	75.12
301.288	92.12
301.518	88.12
301.748	91.12
301.979	100.12
302.209	89.12
302.439	76.12
302.669	85.12
302.9	87.12
303.13	91.12
303.36	83.12
303.59	82.12
303.82	85.12
304.051	76.12
304.281	84.12
304.511	81.12
304.741	81.12
304.971	79.12
305.201	89.12
305.431	86.12
305.661	94.12
305.891	79.12
306.121	86.12
306.352	81.12
306.582	95.12
306.812	84.12
307.042	72.12
307.272	78.12
307.502	82.12
307.731	74.12
307.961	90.12
308.191	77.12
308.421	102.12
308.651	74.12
308.881	70.12
309.111	73.12
309.341	94.12
309.571	80.12
309.8	94.12
310.03	75.12
310.26	75.12
310.49	91.12
310.72	90.12
310.949	82.12
311.179	91.12
311.409	81.12
311.639	77.12
311.868	88.12
312.098	74.12
312.328	67.12
312.557	84.12
312.787	70.12
313.017	90.12
313.246	75.12
313.476	91.12
313.706	87.12
313.935	84.12
314.165	99.12
314.394	81.12
314.624	82.12
314.853	79.12
315.083	78.12
315.312	93.12
315.542	77.12
315.771	83.12
316.001	72.12
316.23	83.12
316.46	82.12
316.689	88.12
316.919	83.12
317.148	95.12
317.377	87.12
317.607	87.12
317.836	73.12
318.065	82.12
318.295	82.12
318.524	83.12
318.753	82.12
318.983	88.12
319.212	94.12
319.441	90.12
319.67	90.12
319.9	91.12
320.129	83.12
320.358	82.12
320.587	76.12
320.816	81.12
321.046	80.12
321.275	87.12
321.504	82.12
321.733	94.12
321.962	85.12
322.191	80.12
322.42	91.12
322.649	90.12
322.878	75.12
323.108	83.12
323.337	71.12
323.566	86.12
323.795	80.12
324.024	90.12
324.253	76.12
324.482	65.12
324.71	86.12
324.939	76.12
325.168	86.12
325.397	85.12
325.626	79.12
325.855	94.12
326.084	79.12
326.313	73.12
326.542	89.12
326.77	83.12
326.999	71.12
327.228	86.12
327.457	80.12
327.686	90.12
327.914	82.12
328.143	87.12
328.372	90.12
328.6	88.12
328.829	95.12
329.058	86.12
329.287	89.12
329.515	83.12
329.744	86.12
329.972	76.12
330.201	99.12
330.43	87.12
330.658	92.12
330.887	82.12
331.115	86.12
331.344	87.12
331.572	91.12
331.801	90.12
332.03	79.12
332.258	74.12
332.486	76.12
332.715	94.12
332.943	82.12
333.172	77.12
333.4	91.12
333.629	91.12
333.857	80.12
334.085	96.12
334.314	89.12
334.542	98.12
334.771	82.12
334.999	87.12
335.227	87.12
335.455	95.12
335.684	86.12
335.912	80.12
336.14	82.12
336.369	92.12
336.597	79.12
336.825	96.12
337.053	83.12
337.281	86.12
337.51	91.12
337.738	89.12
337.966	91.12
338.194	77.12
338.422	80.12
338.65	80.12
338.878	84.12
339.106	83.12
339.334	84.12
339.562	78.12
339.79	89.12
340.018	85.12
340.246	76.12
340.474	81.12
340.702	88.12
340.93	100.12
341.158	89.12
341.386	70.12
341.614	81.12
341.842	72.12
342.07	87.12
342.298	89.12
342.526	87.12
342.754	81.12
342.981	74.12
343.209	76.12
343.437	98.12
343.665	73.12
343.893	92.12
344.12	98.12
344.348	88.12
344.576	81.12
344.804	84.12
345.031	92.12
345.259	92.12
345.487	84.12
345.714	83.12
345.942	67.12
346.17	88.12
346.397	64.12
346.625	72.12
346.853	92.12
347.08	78.12
347.308	80.12
347.535	75.12
347.763	92.12
347.99	76.12
348.218	86.12
348.445	91.12
348.673	84.12
348.9	91.12
349.128	91.12
349.355	94.12
349.583	81.12
349.81	91.12
350.037	74.12
350.265	76.12
350.492	90.12
350.72	92.12
350.947	72.12
351.174	92.12
351.402	68.12
351.629	79.12
351.856	78.12
352.083	82.12
352.311	82.12
352.538	89.12
352.765	89.12
352.992	96.12
353.22	79.12
353.447	100.12
353.674	80.12
353.901	88.12
354.128	88.12
354.355	87.12
354.583	80.12
354.81	81.12
355.037	82.12
355.264	96.12
355.491	80.12
355.718	79.12
355.945	87.12
356.172	67.12
356.399	81.12
356.626	81.12
356.853	88.12
357.08	88.12
357.307	83.12
357.534	75.12
357.761	82.12
357.988	86.12
358.215	75.12
358.441	82.12
358.668	72.12
358.895	88.12
359.122	76.12
359.349	98.12
359.576	87.12
359.802	73.12
360.029	84.12
360.256	70.12
360.483	70.12
360.709	90.12
360.936	89.12
361.163	83.12
361.39	77.12
361.616	75.12
361.843	94.12
362.07	100.12
362.296	74.12
362.523	83.12
362.749	89.12
362.976	90.12
363.203	100.12
363.429	88.12
363.656	90.12
363.882	77.12
364.109	90.12
364.335	96.12
364.562	92.12
364.788	89.12
365.015	71.12
365.241	79.12
365.468	82.12
365.694	82.12
365.92	83.12
366.147	85.12
366.373	81.12
366.599	81.12
366.826	86.12
367.052	85.12
367.278	98.12
367.505	88.12
367.731	74.12
367.957	83.12
368.184	82.12
368.41	72.12
368.636	89.12
368.862	84.12
369.089	83.12
369.315	79.12
369.541	96.12
369.767	86.12
369.993	88.12
370.219	84.12
370.445	82.12
370.672	74.12
370.898	68.12
371.124	87.12
371.35	88.12
371.576	72.12
371.802	85.12
372.028	82.12
372.254	86.12
372.48	85.12
372.706	90.12
372.932	74.12
373.158	84.12
373.384	93.12
373.61	94.12
373.835	87.12
374.061	86.12
374.287	90.12
374.513	87.12
374.739	74.12
374.965	92.12
375.191	80.12
375.416	81.12
375.642	82.12
375.868	84.12
376.094	75.12
376.319	79.12
376.545	79.12
376.771	67.12
376.997	80.12
377.222	72.12
377.448	94.12
377.674	85.12
377.899	94.12
378.125	92.12
378.35	71.12
378.576	91.12
378.802	84.12
379.027	77.12
379.253	84.12
379.478	85.12
379.704	74.12
379.929	84.12
380.155	86.12
380.38	68.12
380.606	81.12
380.831	87.12
381.057	75.12
381.282	72.12
381.507	94.12
381.733	81.12
381.958	84.12
382.184	87.12
382.409	76.12
382.634	80.12
382.86	81.12
383.085	92.12
383.31	76.12
383.535	84.12
383.761	99.12
383.986	81.12
384.211	94.12
384.436	82.12
384.662	68.12
384.887	82.12
385.112	76.12
385.337	93.12
385.562	75.12
385.787	77.12
386.013	82.12
386.238	75.12
386.463	80.12
386.688	93.12
386.913	80.12
387.138	77.12
387.363	94.12
387.588	90.12
387.813	85.12
388.038	90.12
388.263	91.12
388.488	84.12
388.713	72.12
388.938	84.12
389.163	84.12
389.387	77.12
389.612	65.12
389.837	92.12
390.062	90.12
390.287	91.12
390.512	81.12
390.736	93.12
390.961	83.12
391.186	90.12
391.411	74.12
391.636	91.12
391.86	80.12
392.085	75.12
392.31	84.12
392.534	95.12
392.759	76.12
392.984	102.12
393.208	105.12
393.433	127.12
393.658	116.12
393.882	89.12
394.107	86.12
394.331	84.12
394.556	84.12
394.78	86.12
395.005	87.12
395.229	84.12
395.454	79.12
395.678	84.12
395.903	80.12
396.127	103.12
396.352	91.12
396.576	102.12
396.801	113.12
397.025	122.12
397.249	78.12
397.474	96.12
397.698	79.12
397.922	81.12
398.147	80.12
398.371	92.12
398.595	85.12
398.82	82.12
399.044	88.12
399.268	75.12
399.492	84.12
399.717	87.12
399.941	62.12
400.165	77.12
400.389	96.12
400.613	101.12
400.837	78.12
401.062	73.12
401.286	52.12
401.51	95.12
401.734	71.12
401.958	95.12
402.182	91.12
402.406	70.12
402.63	83.12
402.854	86.12
403.078	73.12
403.302	78.12
403.526	75.12
403.75	84.12
403.974	74.12
404.198	85.12
404.422	89.12
404.645	86.12
404.869	86.12
405.093	86.12
405.317	68.12
405.541	68.12
405.765	82.12
405.988	75.12
406.212	80.12
406.436	84.12
406.66	85.12
406.883	90.12
407.107	76.12
407.331	70.12
407.555	64.12
407.778	98.12
408.002	82.12
408.226	100.12
408.449	82.12
408.673	89.12
408.896	85.12
409.12	85.12
409.344	87.12
409.567	67.12
409.791	94.12
410.014	78.12
410.238	79.12
410.461	83.12
410.685	86.12
410.908	76.12
411.132	87.12
411.355	80.12
411.578	82.12
411.802	76.12
412.025	83.12
412.249	85.12
412.472	88.12
412.695	94.12
412.919	73.12
413.142	86.12
413.365	85.12
413.589	76.12
413.812	70.12
414.035	69.12
414.258	82.12
414.482	56.12
414.705	75.12
414.928	75.12
415.151	73.12
415.374	84.12
415.597	80.12
415.821	90.12
416.044	81.12
416.267	76.12
416.49	78.12
416.713	79.12
416.936	87.12
417.159	96.12
417.382	85.12
417.605	105.12
417.828	88.12
418.051	96.12
418.274	87.12
418.497	82.12
418.72	66.12
418.943	91.12
419.166	88.12
419.389	77.12
419.611	86.12
419.834	70.12
420.057	76.12
420.28	77.12
420.503	85.12
420.726	82.12
420.948	83.12
421.171	89.12
421.394	77.12
421.617	87.12
421.839	73.12
422.062	80.12
422.285	99.12
422.507	117.12
422.73	138.12
422.953	120.12
423.175	122.12
423.398	88.12
423.621	93.12
423.843	86.12
424.066	91.12
424.288	90.12
424.511	85.12
424.733	87.12
424.956	85.12
425.178	74.12
425.401	57.12
425.623	91.12
425.846	82.12
426.068	74.12
426.291	96.12
426.513	89.12
426.735	80.12
426.958	84.12
427.18	89.12
427.402	74.12
427.625	71.12
427.847	91.12
428.069	90.12
428.292	82.12
428.514	92.12
428.736	91.12
428.958	98.12
429.181	76.12
429.403	85.12
429.625	90.12
429.847	79.12
430.069	101.12
430.292	110.12
430.514	94.12
430.736	90.12
430.958	94.12
431.18	77.12
431.402	89.12
431.624	82.12
431.846	79.12
432.068	81.12
432.29	86.12
432.512	89.12
432.734	95.12
432.956	80.12
433.178	94.12
433.4	85.12
433.622	79.12
433.844	83.12
434.066	89.12
434.287	90.12
434.509	71.12
434.731	89.12
434.953	76.12
435.175	70.12
435.397	91.12
435.618	83.12
435.84	60.12
436.062	80.12
436.284	89.12
436.505	86.12
436.727	91.12
436.949	81.12
437.17	84.12
437.392	73.12
437.614	73.12
437.835	76.12
438.057	97.12
438.278	78.12
438.5	74.12
438.721	83.12
438.943	84.12
439.165	92.12
439.386	92.12
439.608	82.12
439.829	86.12
440.05	74.12
440.272	72.12
440.493	81.12
440.715	94.12
440.936	85.12
441.158	78.12
441.379	89.12
441.6	72.12
441.822	72.12
442.043	89.12
442.264	96.12
442.486	106.12
442.707	110.12
442.928	68.12
443.149	92.12
443.371	103.12
443.592	112.12
443.813	106.12
444.034	100.12
444.255	73.12
444.476	74.12
444.698	83.12
444.919	74.12
445.14	174.12
445.361	138.12
445.582	128.12
445.803	112.12
446.024	102.12
446.245	95.12
446.466	86.12
446.687	72.12
446.908	76.12
447.129	76.12
447.35	84.12
447.571	81.12
447.792	85.12
448.013	76.12
448.234	77.12
448.455	81.12
448.675	77.12
448.896	81.12
449.117	86.12
449.338	95.12
449.559	88.12
449.779	91.12
450	83.12
450.221	79.12
450.442	84.12
450.662	67.12
450.883	80.12
451.104	80.12
451.324	87.12
451.545	75.12
451.766	88.12
451.986	92.12
452.207	83.12
452.428	76.12
452.648	98.12
452.869	90.12
453.089	84.12
453.31	87.12
453.53	98.12
453.751	80.12
453.971	77.12
454.192	83.12
454.412	75.12
454.633	84.12
454.853	83.12
455.073	79.12
455.294	84.12
455.514	81.12
455.734	76.12
455.955	92.12
456.175	80.12
456.395	89.12
456.616	85.12
456.836	86.12
457.056	78.12
457.276	92.12
457.497	89.12
457.717	86.12
457.937	79.12
458.157	96.12
458.377	99.12
458.598	95.12
458.818	90.12
459.038	81.12
459.258	83.12
459.478	60.12
459.698	91.12
459.918	77.12
460.138	86.12
460.358	77.12
460.578	82.12
460.798	89.12
461.018	79.12
461.238	86.12
461.458	80.12
461.678	86.12
461.898	88.12
462.118	78.12
462.338	91.12
462.558	90.12
462.777	85.12
462.997	74.12
463.217	79.12
463.437	79.12
463.657	79.12
463.876	79.12
464.096	93.12
464.316	83.12
464.536	85.12
464.755	80.12
464.975	84.12
465.195	94.12
465.414	79.12
465.634	65.12
465.854	75.12
466.073	52.12
466.293	82.12
466.512	92.12
466.732	84.12
466.951	76.12
467.171	89.12
467.391	86.12
467.61	85.12
467.829	83.12
468.049	80.12
468.268	81.12
468.488	91.12
468.707	76.12
468.927	66.12
469.146	87.12
469.365	81.12
469.585	81.12
469.804	93.12
470.023	71.12
470.243	76.12
470.462	87.12
470.681	86.12
470.901	86.12
471.12	78.12
471.339	73.12
471.558	86.12
471.777	87.12
471.997	90.12
472.216	72.12
472.435	77.12
472.654	91.12
472.873	96.12
473.092	90.12
473.311	94.12
473.53	89.12
473.749	79.12
473.968	78.12
474.187	86.12
474.406	71.12
474.625	81.12
474.844	82.12
475.063	82.12
475.282	103.12
475.501	90.12
475.72	73.12
475.939	82.12
476.158	86.12
476.377	82.12
476.596	82.12
476.814	78.12
477.033	83.12
477.252	84.12
477.471	81.12
477.69	84.12
477.908	71.12
478.127	82.12
478.346	82.12
478.564	82.12
478.783	70.12
479.002	91.12
479.22	85.12
479.439	85.12
479.658	88.12
479.876	75.12
480.095	100.12
480.313	105.12
480.532	83.12
480.751	91.12
480.969	81.12
481.188	74.12
481.406	90.12
481.624	75.12
481.843	83.12
482.061	91.12
482.28	84.12
482.498	83.12
482.717	85.12
482.935	74.12
483.153	104.12
483.372	87.12
483.59	84.12
483.808	86.12
484.027	87.12
484.245	100.12
484.463	86.12
484.681	101.12
484.9	79.12
485.118	83.12
485.336	91.12
485.554	87.12
485.772	72.12
485.99	93.12
486.209	86.12
486.427	90.12
486.645	97.12
486.863	94.12
487.081	76.12
487.299	79.12
487.517	92.12
487.735	106.12
487.953	106.12
488.171	87.12
488.389	87.12
488.607	78.12
488.825	88.12
489.043	85.12
489.261	89.12
489.479	82.12
489.696	93.12
489.914	81.12
490.132	93.12
490.35	71.12
490.568	78.12
490.786	78.12
491.003	82.12
491.221	89.12
491.439	93.12
491.657	92.12
491.874	87.12
492.092	67.12
492.31	94.12
492.527	96.12
492.745	89.12
492.963	72.12
493.18	80.12
493.398	89.12
493.615	89.12
493.833	86.12
494.05	99.12
494.268	76.12
494.485	89.12
494.703	85.12
494.92	72.12
495.138	87.12
495.355	89.12
495.573	80.12
495.79	85.12
496.008	66.12
496.225	94.12
496.442	75.12
496.66	87.12
496.877	76.12
497.094	96.12
497.312	86.12
497.529	76.12
497.746	92.12
497.963	74.12
498.181	80.12
498.398	67.12
498.615	89.12
498.832	75.12
499.049	85.12
499.267	75.12
499.484	88.12
499.701	81.12
499.918	76.12
500.135	84.12
500.352	70.12
500.569	86.12
500.786	81.12
501.003	68.12
501.22	81.12
501.437	94.12
501.654	73.12
501.871	92.12
502.088	80.12
502.305	77.12
502.522	69.12
502.739	105.12
502.956	90.12
503.172	105.12
503.389	86.12
503.606	76.12
503.823	74.12
504.04	93.12
504.256	94.12
504.473	81.12
504.69	99.12
504.907	83.12
505.123	87.12
505.34	73.12
505.557	87.12
505.773	82.12
505.99	94.12
506.207	90.12
506.423	77.12
506.64	71.12
506.856	96.12
507.073	84.12
507.289	79.12
507.506	86.12
507.722	76.12
507.939	77.12
508.155	80.12
508.372	82.12
508.588	77.12
508.805	80.12
509.021	78.12
509.238	90.12
509.454	94.12
509.67	78.12
509.887	84.12
510.103	86.12
510.319	92.12
510.536	82.12
510.752	99.12
510.968	86.12
511.184	74.12
511.401	83.12
511.617	72.12
511.833	79.12
512.049	75.12
512.265	92.12
512.481	95.12
512.698	91.12
512.914	87.12
513.13	89.12
513.346	83.12
513.562	98.12
513.778	89.12
513.994	94.12
514.21	82.12
514.426	94.12
514.642	98.12
514.858	99.12
515.074	89.12
515.29	88.12
515.506	85.12
515.721	82.12
515.937	89.12
516.153	92.12
516.369	91.12
516.585	97.12
516.801	72.12
517.016	74.12
517.232	75.12
517.448	73.12
517.664	84.12
517.879	90.12
518.095	81.12
518.311	86.12
518.527	82.12
518.742	75.12
518.958	96.12
519.173	80.12
519.389	86.12
519.605	80.12
