Data from 17600_3_HRD10591_00003.txt Node
Date: Mon Jan 19 14:09:25 EST 2026
User: Yrep
Spectrometer: HR+D1059
Trigger mode: 1
Integration Time (sec): 1.000000E-1
Scans to average: 1
Electric dark correction enabled: true
Nonlinearity correction enabled: false
Boxcar width: 0
XAxis mode: Wavelengths
Number of Pixels in Spectrum: 2048
>>>>>Begin Spectral Data<<<<<
223.165	-18.69
223.4	-18.69
223.635	-18.69
223.869	-10.69
224.104	-25.69
224.338	-26.69
224.573	-13.69
224.808	-17.69
225.042	-17.69
225.277	12.31
225.511	-5.69
225.746	6.31
225.98	9.31
226.215	10.31
226.449	21.31
226.683	24.31
226.918	24.31
227.152	28.31
227.387	35.31
227.621	25.31
227.856	40.31
228.09	57.31
228.324	52.31
228.559	60.31
228.793	57.31
229.027	61.31
229.262	69.31
229.496	71.31
229.73	69.31
229.964	91.31
230.199	79.31
230.433	76.31
230.667	65.31
230.901	83.31
231.136	77.31
231.37	84.31
231.604	87.31
231.838	78.31
232.072	85.31
232.306	78.31
232.541	85.31
232.775	69.31
233.009	76.31
233.243	79.31
233.477	85.31
233.711	85.31
233.945	84.31
234.179	70.31
234.413	91.31
234.647	89.31
234.881	89.31
235.115	89.31
235.349	82.31
235.583	83.31
235.817	90.31
236.051	76.31
236.285	83.31
236.519	68.31
236.753	65.31
236.987	90.31
237.221	83.31
237.455	91.31
237.689	73.31
237.922	73.31
238.156	78.31
238.39	70.31
238.624	78.31
238.858	70.31
239.091	86.31
239.325	89.31
239.559	77.31
239.793	91.31
240.027	84.31
240.26	69.31
240.494	83.31
240.728	75.31
240.961	73.31
241.195	75.31
241.429	82.31
241.662	78.31
241.896	76.31
242.13	72.31
242.363	74.31
242.597	86.31
242.83	85.31
243.064	80.31
243.298	80.31
243.531	64.31
243.765	96.31
243.998	82.31
244.232	82.31
244.465	92.31
244.699	89.31
244.932	94.31
245.166	91.31
245.399	86.31
245.633	80.31
245.866	69.31
246.099	76.31
246.333	87.31
246.566	79.31
246.8	69.31
247.033	74.31
247.266	67.31
247.5	76.31
247.733	74.31
247.966	73.31
248.2	72.31
248.433	85.31
248.666	90.31
248.899	85.31
249.133	67.31
249.366	78.31
249.599	91.31
249.832	83.31
250.066	80.31
250.299	75.31
250.532	70.31
250.765	78.31
250.998	93.31
251.231	83.31
251.465	70.31
251.698	81.31
251.931	67.31
252.164	80.31
252.397	65.31
252.63	71.31
252.863	85.31
253.096	83.31
253.329	90.31
253.562	88.31
253.795	78.31
254.028	82.31
254.261	69.31
254.494	63.31
254.727	79.31
254.96	70.31
255.193	87.31
255.426	85.31
255.659	96.31
255.892	81.31
256.124	79.31
256.357	71.31
256.59	87.31
256.823	82.31
257.056	73.31
257.289	85.31
257.521	77.31
257.754	77.31
257.987	75.31
258.22	90.31
258.452	76.31
258.685	86.31
258.918	72.31
259.151	75.31
259.383	85.31
259.616	76.31
259.849	89.31
260.081	92.31
260.314	82.31
260.547	78.31
260.779	85.31
261.012	75.31
261.244	82.31
261.477	85.31
261.71	82.31
261.942	101.31
262.175	94.31
262.407	81.31
262.64	91.31
262.872	86.31
263.105	85.31
263.337	77.31
263.57	93.31
263.802	90.31
264.035	97.31
264.267	83.31
264.499	84.31
264.732	77.31
264.964	86.31
265.197	71.31
265.429	67.31
265.661	78.31
265.894	77.31
266.126	83.31
266.358	82.31
266.591	86.31
266.823	90.31
267.055	74.31
267.287	69.31
267.52	97.31
267.752	86.31
267.984	97.31
268.216	89.31
268.448	93.31
268.681	77.31
268.913	87.31
269.145	82.31
269.377	79.31
269.609	90.31
269.841	96.31
270.073	81.31
270.306	90.31
270.538	80.31
270.77	75.31
271.002	93.31
271.234	82.31
271.466	79.31
271.698	94.31
271.93	86.31
272.162	75.31
272.394	88.31
272.626	101.31
272.858	77.31
273.09	93.31
273.322	78.31
273.553	79.31
273.785	78.31
274.017	100.31
274.249	78.31
274.481	79.31
274.713	90.31
274.945	81.31
275.176	83.31
275.408	79.31
275.64	80.31
275.872	90.31
276.104	99.31
276.335	86.31
276.567	92.31
276.799	79.31
277.031	77.31
277.262	79.31
277.494	84.31
277.726	99.31
277.957	84.31
278.189	106.31
278.421	66.31
278.652	100.31
278.884	87.31
279.115	89.31
279.347	88.31
279.579	87.31
279.81	70.31
280.042	86.31
280.273	105.31
280.505	105.31
280.736	86.31
280.968	76.31
281.199	89.31
281.431	85.31
281.662	85.31
281.894	80.31
282.125	94.31
282.356	72.31
282.588	94.31
282.819	83.31
283.051	78.31
283.282	89.31
283.513	83.31
283.745	90.31
283.976	85.31
284.207	92.31
284.439	89.31
284.67	91.31
284.901	101.31
285.132	85.31
285.364	101.31
285.595	91.31
285.826	89.31
286.057	77.31
286.288	91.31
286.52	72.31
286.751	85.31
286.982	90.31
287.213	88.31
287.444	86.31
287.675	93.31
287.906	91.31
288.138	94.31
288.369	93.31
288.6	87.31
288.831	86.31
289.062	89.31
289.293	76.31
289.524	89.31
289.755	75.31
289.986	85.31
290.217	94.31
290.448	94.31
290.679	93.31
290.91	86.31
291.141	90.31
291.371	83.31
291.602	90.31
291.833	93.31
292.064	91.31
292.295	86.31
292.526	88.31
292.757	85.31
292.987	79.31
293.218	90.31
293.449	91.31
293.68	91.31
293.91	83.31
294.141	93.31
294.372	99.31
294.603	87.31
294.833	97.31
295.064	81.31
295.295	94.31
295.525	72.31
295.756	96.31
295.987	86.31
296.217	73.31
296.448	91.31
296.679	89.31
296.909	94.31
297.14	96.31
297.37	107.31
297.601	86.31
297.831	90.31
298.062	110.31
298.292	88.31
298.523	82.31
298.753	83.31
298.984	96.31
299.214	93.31
299.445	87.31
299.675	113.31
299.905	101.31
300.136	91.31
300.366	87.31
300.597	90.31
300.827	90.31
301.057	89.31
301.288	88.31
301.518	85.31
301.748	97.31
301.979	105.31
302.209	98.31
302.439	95.31
302.669	95.31
302.9	106.31
303.13	91.31
303.36	98.31
303.59	82.31
303.82	85.31
304.051	83.31
304.281	88.31
304.511	73.31
304.741	89.31
304.971	91.31
305.201	80.31
305.431	91.31
305.661	96.31
305.891	89.31
306.121	86.31
306.352	89.31
306.582	75.31
306.812	77.31
307.042	85.31
307.272	82.31
307.502	83.31
307.731	79.31
307.961	107.31
308.191	103.31
308.421	105.31
308.651	103.31
308.881	87.31
309.111	100.31
309.341	113.31
309.571	110.31
309.8	87.31
310.03	94.31
310.26	86.31
310.49	93.31
310.72	90.31
310.949	91.31
311.179	84.31
311.409	92.31
311.639	92.31
311.868	86.31
312.098	90.31
312.328	103.31
312.557	88.31
312.787	88.31
313.017	100.31
313.246	94.31
313.476	100.31
313.706	83.31
313.935	103.31
314.165	98.31
314.394	97.31
314.624	92.31
314.853	99.31
315.083	91.31
315.312	80.31
315.542	87.31
315.771	96.31
316.001	123.31
316.23	105.31
316.46	92.31
316.689	97.31
316.919	99.31
317.148	95.31
317.377	99.31
317.607	118.31
317.836	113.31
318.065	117.31
318.295	108.31
318.524	102.31
318.753	91.31
318.983	104.31
319.212	105.31
319.441	79.31
319.67	97.31
319.9	92.31
320.129	95.31
320.358	101.31
320.587	100.31
320.816	94.31
321.046	82.31
321.275	102.31
321.504	92.31
321.733	102.31
321.962	103.31
322.191	82.31
322.42	96.31
322.649	98.31
322.878	102.31
323.108	94.31
323.337	99.31
323.566	91.31
323.795	102.31
324.024	91.31
324.253	87.31
324.482	87.31
324.71	96.31
324.939	93.31
325.168	92.31
325.397	95.31
325.626	91.31
325.855	77.31
326.084	86.31
326.313	83.31
326.542	81.31
326.77	98.31
326.999	88.31
327.228	95.31
327.457	86.31
327.686	90.31
327.914	94.31
328.143	92.31
328.372	73.31
328.6	87.31
328.829	97.31
329.058	94.31
329.287	90.31
329.515	85.31
329.744	90.31
329.972	82.31
330.201	85.31
330.43	94.31
330.658	86.31
330.887	84.31
331.115	79.31
331.344	81.31
331.572	87.31
331.801	83.31
332.03	84.31
332.258	112.31
332.486	85.31
332.715	87.31
332.943	90.31
333.172	98.31
333.4	81.31
333.629	103.31
333.857	89.31
334.085	102.31
334.314	106.31
334.542	104.31
334.771	116.31
334.999	106.31
335.227	95.31
335.455	98.31
335.684	110.31
335.912	87.31
336.14	99.31
336.369	120.31
336.597	101.31
336.825	85.31
337.053	93.31
337.281	94.31
337.51	93.31
337.738	102.31
337.966	98.31
338.194	85.31
338.422	82.31
338.65	104.31
338.878	92.31
339.106	79.31
339.334	86.31
339.562	87.31
339.79	78.31
340.018	78.31
340.246	79.31
340.474	84.31
340.702	73.31
340.93	91.31
341.158	91.31
341.386	99.31
341.614	91.31
341.842	93.31
342.07	85.31
342.298	93.31
342.526	87.31
342.754	79.31
342.981	90.31
343.209	90.31
343.437	104.31
343.665	92.31
343.893	88.31
344.12	96.31
344.348	92.31
344.576	100.31
344.804	90.31
345.031	109.31
345.259	84.31
345.487	104.31
345.714	86.31
345.942	87.31
346.17	83.31
346.397	93.31
346.625	80.31
346.853	79.31
347.08	88.31
347.308	92.31
347.535	87.31
347.763	93.31
347.99	102.31
348.218	90.31
348.445	83.31
348.673	87.31
348.9	108.31
349.128	115.31
349.355	79.31
349.583	82.31
349.81	85.31
350.037	67.31
350.265	88.31
350.492	95.31
350.72	72.31
350.947	89.31
351.174	85.31
351.402	94.31
351.629	91.31
351.856	92.31
352.083	84.31
352.311	89.31
352.538	87.31
352.765	85.31
352.992	97.31
353.22	98.31
353.447	97.31
353.674	93.31
353.901	91.31
354.128	92.31
354.355	95.31
354.583	83.31
354.81	105.31
355.037	91.31
355.264	70.31
355.491	87.31
355.718	89.31
355.945	103.31
356.172	84.31
356.399	99.31
356.626	99.31
356.853	100.31
357.08	108.31
357.307	98.31
357.534	90.31
357.761	95.31
357.988	113.31
358.215	104.31
358.441	97.31
358.668	99.31
358.895	100.31
359.122	99.31
359.349	93.31
359.576	106.31
359.802	99.31
360.029	103.31
360.256	103.31
360.483	94.31
360.709	90.31
360.936	100.31
361.163	92.31
361.39	90.31
361.616	98.31
361.843	90.31
362.07	116.31
362.296	114.31
362.523	116.31
362.749	124.31
362.976	125.31
363.203	167.31
363.429	132.31
363.656	110.31
363.882	117.31
364.109	123.31
364.335	157.31
364.562	170.31
364.788	140.31
365.015	101.31
365.241	92.31
365.468	95.31
365.694	108.31
365.92	92.31
366.147	90.31
366.373	88.31
366.599	88.31
366.826	96.31
367.052	85.31
367.278	94.31
367.505	95.31
367.731	103.31
367.957	101.31
368.184	85.31
368.41	78.31
368.636	96.31
368.862	91.31
369.089	87.31
369.315	89.31
369.541	99.31
369.767	109.31
369.993	93.31
370.219	95.31
370.445	107.31
370.672	100.31
370.898	115.31
371.124	89.31
371.35	97.31
371.576	88.31
371.802	101.31
372.028	117.31
372.254	104.31
372.48	73.31
372.706	83.31
372.932	95.31
373.158	89.31
373.384	129.31
373.61	144.31
373.835	133.31
374.061	121.31
374.287	107.31
374.513	105.31
374.739	108.31
374.965	114.31
375.191	107.31
375.416	93.31
375.642	95.31
375.868	118.31
376.094	101.31
376.319	113.31
376.545	89.31
376.771	103.31
376.997	102.31
377.222	93.31
377.448	98.31
377.674	93.31
377.899	92.31
378.125	111.31
378.35	99.31
378.576	91.31
378.802	98.31
379.027	93.31
379.253	76.31
379.478	90.31
379.704	108.31
379.929	94.31
380.155	100.31
380.38	88.31
380.606	97.31
380.831	93.31
381.057	100.31
381.282	88.31
381.507	110.31
381.733	107.31
381.958	107.31
382.184	103.31
382.409	114.31
382.634	124.31
382.86	135.31
383.085	121.31
383.31	105.31
383.535	117.31
383.761	107.31
383.986	116.31
384.211	103.31
384.436	90.31
384.662	92.31
384.887	101.31
385.112	123.31
385.337	106.31
385.562	114.31
385.787	117.31
386.013	108.31
386.238	98.31
386.463	106.31
386.688	113.31
386.913	94.31
387.138	101.31
387.363	106.31
387.588	117.31
387.813	107.31
388.038	119.31
388.263	110.31
388.488	120.31
388.713	97.31
388.938	107.31
389.163	95.31
389.387	94.31
389.612	101.31
389.837	101.31
390.062	95.31
390.287	102.31
390.512	96.31
390.736	94.31
390.961	101.31
391.186	92.31
391.411	97.31
391.636	99.31
391.86	102.31
392.085	108.31
392.31	120.31
392.534	131.31
392.759	156.31
392.984	222.31
393.208	395.31
393.433	591.31
393.658	440.31
393.882	201.31
394.107	134.31
394.331	135.31
394.556	158.31
394.78	116.31
395.005	122.31
395.229	117.31
395.454	111.31
395.678	118.31
395.903	138.31
396.127	181.31
396.352	249.31
396.576	257.31
396.801	409.31
397.025	476.31
397.249	257.31
397.474	169.31
397.698	134.31
397.922	114.31
398.147	114.31
398.371	96.31
398.595	94.31
398.82	102.31
399.044	86.31
399.268	98.31
399.492	87.31
399.717	111.31
399.941	94.31
400.165	95.31
400.389	84.31
400.613	86.31
400.837	89.31
401.062	105.31
401.286	108.31
401.51	104.31
401.734	76.31
401.958	68.31
402.182	90.31
402.406	104.31
402.63	87.31
402.854	83.31
403.078	110.31
403.302	88.31
403.526	97.31
403.75	78.31
403.974	72.31
404.198	105.31
404.422	108.31
404.645	101.31
404.869	105.31
405.093	90.31
405.317	85.31
405.541	98.31
405.765	83.31
405.988	91.31
406.212	94.31
406.436	97.31
406.66	98.31
406.883	97.31
407.107	107.31
407.331	91.31
407.555	119.31
407.778	145.31
408.002	142.31
408.226	97.31
408.449	96.31
408.673	98.31
408.896	98.31
409.12	96.31
409.344	99.31
409.567	123.31
409.791	125.31
410.014	130.31
410.238	107.31
410.461	97.31
410.685	88.31
410.908	79.31
411.132	103.31
411.355	91.31
411.578	97.31
411.802	95.31
412.025	75.31
412.249	84.31
412.472	85.31
412.695	97.31
412.919	97.31
413.142	91.31
413.365	92.31
413.589	96.31
413.812	95.31
414.035	101.31
414.258	94.31
414.482	86.31
414.705	93.31
414.928	106.31
415.151	81.31
415.374	85.31
415.597	96.31
415.821	90.31
416.044	83.31
416.267	95.31
416.49	89.31
416.713	82.31
416.936	107.31
417.159	99.31
417.382	98.31
417.605	92.31
417.828	85.31
418.051	87.31
418.274	86.31
418.497	85.31
418.72	108.31
418.943	94.31
419.166	93.31
419.389	93.31
419.611	93.31
419.834	105.31
420.057	93.31
420.28	84.31
420.503	103.31
420.726	97.31
420.948	104.31
421.171	105.31
421.394	135.31
421.617	178.31
421.839	159.31
422.062	153.31
422.285	228.31
422.507	366.31
422.73	493.31
422.953	461.31
423.175	285.31
423.398	184.31
423.621	147.31
423.843	110.31
424.066	109.31
424.288	117.31
424.511	101.31
424.733	77.31
424.956	93.31
425.178	118.31
425.401	99.31
425.623	106.31
425.846	91.31
426.068	103.31
426.291	99.31
426.513	96.31
426.735	101.31
426.958	78.31
427.18	106.31
427.402	103.31
427.625	101.31
427.847	88.31
428.069	102.31
428.292	136.31
428.514	173.31
428.736	124.31
428.958	147.31
429.181	156.31
429.403	116.31
429.625	114.31
429.847	134.31
430.069	230.31
430.292	258.31
430.514	230.31
430.736	174.31
430.958	188.31
431.18	116.31
431.402	105.31
431.624	125.31
431.846	150.31
432.068	164.31
432.29	106.31
432.512	89.31
432.734	101.31
432.956	101.31
433.178	90.31
433.4	85.31
433.622	89.31
433.844	93.31
434.066	94.31
434.287	88.31
434.509	94.31
434.731	92.31
434.953	86.31
435.175	100.31
435.397	102.31
435.618	100.31
435.84	108.31
436.062	102.31
436.284	88.31
436.505	93.31
436.727	83.31
436.949	87.31
437.17	82.31
437.392	98.31
437.614	94.31
437.835	90.31
438.057	79.31
438.278	94.31
438.5	117.31
438.721	103.31
438.943	91.31
439.165	100.31
439.386	94.31
439.608	98.31
439.829	91.31
440.05	98.31
440.272	85.31
440.493	85.31
440.715	96.31
440.936	89.31
441.158	87.31
441.379	93.31
441.6	100.31
441.822	97.31
442.043	101.31
442.264	114.31
442.486	168.31
442.707	216.31
442.928	162.31
443.149	134.31
443.371	191.31
443.592	351.31
443.813	305.31
444.034	145.31
444.255	106.31
444.476	83.31
444.698	103.31
444.919	109.31
445.14	235.31
445.361	257.31
445.582	404.31
445.803	361.31
446.024	165.31
446.245	110.31
446.466	98.31
446.687	77.31
446.908	85.31
447.129	88.31
447.35	97.31
447.571	84.31
447.792	90.31
448.013	82.31
448.234	83.31
448.455	85.31
448.675	95.31
448.896	74.31
449.117	84.31
449.338	77.31
449.559	97.31
449.779	78.31
450	78.31
450.221	87.31
450.442	91.31
450.662	98.31
450.883	97.31
451.104	92.31
451.324	97.31
451.545	101.31
451.766	95.31
451.986	78.31
452.207	101.31
452.428	96.31
452.648	97.31
452.869	122.31
453.089	117.31
453.31	95.31
453.53	93.31
453.751	83.31
453.971	87.31
454.192	96.31
454.412	92.31
454.633	84.31
454.853	87.31
455.073	79.31
455.294	96.31
455.514	107.31
455.734	97.31
455.955	95.31
456.175	103.31
456.395	97.31
456.616	100.31
456.836	92.31
457.056	94.31
457.276	89.31
457.497	86.31
457.717	101.31
457.937	141.31
458.157	177.31
458.377	166.31
458.598	158.31
458.818	193.31
459.038	103.31
459.258	80.31
459.478	82.31
459.698	91.31
459.918	102.31
460.138	104.31
460.358	103.31
460.578	117.31
460.798	160.31
461.018	140.31
461.238	102.31
461.458	84.31
461.678	97.31
461.898	101.31
462.118	94.31
462.338	96.31
462.558	78.31
462.777	82.31
462.997	96.31
463.217	87.31
463.437	87.31
463.657	97.31
463.876	89.31
464.096	89.31
464.316	93.31
464.536	100.31
464.755	83.31
464.975	79.31
465.195	100.31
465.414	91.31
465.634	85.31
465.854	90.31
466.073	97.31
466.293	68.31
466.512	97.31
466.732	88.31
466.951	85.31
467.171	91.31
467.391	87.31
467.61	78.31
467.829	97.31
468.049	84.31
468.268	92.31
468.488	116.31
468.707	97.31
468.927	85.31
469.146	89.31
469.365	87.31
469.585	91.31
469.804	93.31
470.023	86.31
470.243	94.31
470.462	84.31
470.681	91.31
470.901	94.31
471.12	80.31
471.339	84.31
471.558	102.31
471.777	87.31
471.997	97.31
472.216	97.31
472.435	83.31
472.654	86.31
472.873	69.31
473.092	97.31
473.311	90.31
473.53	94.31
473.749	93.31
473.968	88.31
474.187	96.31
474.406	98.31
474.625	80.31
474.844	91.31
475.063	97.31
475.282	91.31
475.501	86.31
475.72	85.31
475.939	78.31
476.158	104.31
476.377	86.31
476.596	98.31
476.814	102.31
477.033	76.31
477.252	96.31
477.471	98.31
477.69	87.31
477.908	80.31
478.127	94.31
478.346	85.31
478.564	92.31
478.783	97.31
479.002	81.31
479.22	98.31
479.439	84.31
479.658	95.31
479.876	89.31
480.095	101.31
480.313	84.31
480.532	94.31
480.751	92.31
480.969	97.31
481.188	108.31
481.406	94.31
481.624	89.31
481.843	81.31
482.061	86.31
482.28	92.31
482.498	101.31
482.717	91.31
482.935	83.31
483.153	90.31
483.372	110.31
483.59	96.31
483.808	91.31
484.027	102.31
484.245	86.31
484.463	79.31
484.681	98.31
484.9	87.31
485.118	98.31
485.336	84.31
485.554	101.31
485.772	94.31
485.99	95.31
486.209	81.31
486.427	103.31
486.645	88.31
486.863	97.31
487.081	89.31
487.299	111.31
487.517	134.31
487.735	147.31
487.953	275.31
488.171	212.31
488.389	115.31
488.607	93.31
488.825	88.31
489.043	97.31
489.261	100.31
489.479	88.31
489.696	110.31
489.914	126.31
490.132	107.31
490.35	99.31
490.568	99.31
490.786	88.31
491.003	85.31
491.221	85.31
491.439	102.31
491.657	85.31
491.874	97.31
492.092	97.31
492.31	86.31
492.527	87.31
492.745	71.31
492.963	95.31
493.18	97.31
493.398	94.31
493.615	93.31
493.833	83.31
494.05	103.31
494.268	96.31
494.485	104.31
494.703	103.31
494.92	96.31
495.138	98.31
495.355	87.31
495.573	97.31
495.79	98.31
496.008	106.31
496.225	105.31
496.442	114.31
496.66	111.31
496.877	103.31
497.094	84.31
497.312	95.31
497.529	93.31
497.746	96.31
497.963	106.31
498.181	106.31
498.398	116.31
498.615	103.31
498.832	87.31
499.049	104.31
499.267	107.31
499.484	110.31
499.701	88.31
499.918	95.31
500.135	113.31
500.352	98.31
500.569	86.31
500.786	108.31
501.003	104.31
501.22	89.31
501.437	102.31
501.654	93.31
501.871	85.31
502.088	97.31
502.305	98.31
502.522	86.31
502.739	101.31
502.956	99.31
503.172	89.31
503.389	96.31
503.606	93.31
503.823	108.31
504.04	130.31
504.256	207.31
504.473	195.31
504.69	114.31
504.907	106.31
505.123	85.31
505.34	108.31
505.557	105.31
505.773	85.31
505.99	105.31
506.207	86.31
506.423	89.31
506.64	108.31
506.856	94.31
507.073	90.31
507.289	104.31
507.506	92.31
507.722	85.31
507.939	87.31
508.155	94.31
508.372	98.31
508.588	105.31
508.805	99.31
509.021	96.31
509.238	97.31
509.454	87.31
509.67	89.31
509.887	68.31
510.103	95.31
510.319	103.31
510.536	106.31
510.752	95.31
510.968	91.31
511.184	94.31
511.401	73.31
511.617	99.31
511.833	98.31
512.049	110.31
512.265	81.31
512.481	90.31
512.698	90.31
512.914	98.31
513.13	90.31
513.346	91.31
513.562	88.31
513.778	93.31
513.994	103.31
514.21	92.31
514.426	90.31
514.642	101.31
514.858	100.31
515.074	87.31
