Data from 17600_3_HRD10591_00002.txt Node
Date: Mon Jan 19 14:09:24 EST 2026
User: Yrep
Spectrometer: HR+D1059
Trigger mode: 1
Integration Time (sec): 1.000000E-1
Scans to average: 1
Electric dark correction enabled: true
Nonlinearity correction enabled: false
Boxcar width: 0
XAxis mode: Wavelengths
Number of Pixels in Spectrum: 2048
>>>>>Begin Spectral Data<<<<<
223.165	-23.31
223.4	-23.31
223.635	-23.31
223.869	-23.31
224.104	-10.31
224.338	-20.31
224.573	-24.31
224.808	-27.31
225.042	-13.31
225.277	0.69
225.511	3.69
225.746	7.69
225.98	8.69
226.215	15.69
226.449	18.69
226.683	22.69
226.918	33.69
227.152	30.69
227.387	39.69
227.621	41.69
227.856	48.69
228.09	50.69
228.324	50.69
228.559	47.69
228.793	74.69
229.027	62.69
229.262	74.69
229.496	78.69
229.73	69.69
229.964	81.69
230.199	64.69
230.433	72.69
230.667	75.69
230.901	84.69
231.136	81.69
231.37	82.69
231.604	95.69
231.838	76.69
232.072	74.69
232.306	72.69
232.541	83.69
232.775	83.69
233.009	92.69
233.243	74.69
233.477	87.69
233.711	82.69
233.945	78.69
234.179	79.69
234.413	88.69
234.647	71.69
234.881	87.69
235.115	75.69
235.349	79.69
235.583	81.69
235.817	79.69
236.051	73.69
236.285	78.69
236.519	71.69
236.753	86.69
236.987	94.69
237.221	77.69
237.455	84.69
237.689	89.69
237.922	89.69
238.156	60.69
238.39	76.69
238.624	73.69
238.858	88.69
239.091	72.69
239.325	79.69
239.559	68.69
239.793	72.69
240.027	78.69
240.26	74.69
240.494	80.69
240.728	59.69
240.961	73.69
241.195	79.69
241.429	76.69
241.662	84.69
241.896	59.69
242.13	77.69
242.363	86.69
242.597	70.69
242.83	82.69
243.064	69.69
243.298	56.69
243.531	71.69
243.765	82.69
243.998	86.69
244.232	80.69
244.465	77.69
244.699	76.69
244.932	74.69
245.166	64.69
245.399	78.69
245.633	81.69
245.866	71.69
246.099	90.69
246.333	66.69
246.566	73.69
246.8	77.69
247.033	82.69
247.266	74.69
247.5	69.69
247.733	80.69
247.966	84.69
248.2	81.69
248.433	67.69
248.666	90.69
248.899	78.69
249.133	77.69
249.366	95.69
249.599	81.69
249.832	85.69
250.066	90.69
250.299	72.69
250.532	68.69
250.765	90.69
250.998	76.69
251.231	75.69
251.465	83.69
251.698	86.69
251.931	88.69
252.164	88.69
252.397	87.69
252.63	88.69
252.863	83.69
253.096	80.69
253.329	77.69
253.562	69.69
253.795	84.69
254.028	78.69
254.261	73.69
254.494	76.69
254.727	86.69
254.96	66.69
255.193	79.69
255.426	86.69
255.659	86.69
255.892	69.69
256.124	74.69
256.357	84.69
256.59	86.69
256.823	82.69
257.056	86.69
257.289	75.69
257.521	64.69
257.754	77.69
257.987	74.69
258.22	87.69
258.452	93.69
258.685	74.69
258.918	71.69
259.151	83.69
259.383	78.69
259.616	74.69
259.849	77.69
260.081	78.69
260.314	79.69
260.547	91.69
260.779	91.69
261.012	84.69
261.244	86.69
261.477	80.69
261.71	79.69
261.942	83.69
262.175	95.69
262.407	69.69
262.64	73.69
262.872	97.69
263.105	93.69
263.337	93.69
263.57	75.69
263.802	89.69
264.035	85.69
264.267	80.69
264.499	85.69
264.732	94.69
264.964	78.69
265.197	92.69
265.429	83.69
265.661	91.69
265.894	70.69
266.126	73.69
266.358	81.69
266.591	82.69
266.823	98.69
267.055	75.69
267.287	78.69
267.52	75.69
267.752	82.69
267.984	89.69
268.216	76.69
268.448	75.69
268.681	80.69
268.913	91.69
269.145	83.69
269.377	85.69
269.609	84.69
269.841	85.69
270.073	99.69
270.306	77.69
270.538	62.69
270.77	87.69
271.002	70.69
271.234	76.69
271.466	90.69
271.698	73.69
271.93	80.69
272.162	84.69
272.394	89.69
272.626	100.69
272.858	100.69
273.09	86.69
273.322	81.69
273.553	82.69
273.785	83.69
274.017	87.69
274.249	75.69
274.481	83.69
274.713	73.69
274.945	84.69
275.176	72.69
275.408	78.69
275.64	90.69
275.872	94.69
276.104	86.69
276.335	66.69
276.567	96.69
276.799	88.69
277.031	90.69
277.262	81.69
277.494	76.69
277.726	82.69
277.957	75.69
278.189	82.69
278.421	71.69
278.652	74.69
278.884	86.69
279.115	82.69
279.347	93.69
279.579	96.69
279.81	82.69
280.042	87.69
280.273	81.69
280.505	81.69
280.736	97.69
280.968	81.69
281.199	75.69
281.431	75.69
281.662	85.69
281.894	88.69
282.125	89.69
282.356	85.69
282.588	88.69
282.819	76.69
283.051	67.69
283.282	70.69
283.513	94.69
283.745	91.69
283.976	82.69
284.207	82.69
284.439	73.69
284.67	88.69
284.901	89.69
285.132	82.69
285.364	92.69
285.595	92.69
285.826	77.69
286.057	72.69
286.288	90.69
286.52	83.69
286.751	81.69
286.982	84.69
287.213	77.69
287.444	90.69
287.675	88.69
287.906	82.69
288.138	74.69
288.369	89.69
288.6	77.69
288.831	74.69
289.062	91.69
289.293	86.69
289.524	88.69
289.755	89.69
289.986	91.69
290.217	82.69
290.448	83.69
290.679	97.69
290.91	89.69
291.141	75.69
291.371	80.69
291.602	87.69
291.833	79.69
292.064	80.69
292.295	77.69
292.526	69.69
292.757	95.69
292.987	81.69
293.218	79.69
293.449	91.69
293.68	88.69
293.91	91.69
294.141	97.69
294.372	77.69
294.603	82.69
294.833	90.69
295.064	75.69
295.295	92.69
295.525	85.69
295.756	98.69
295.987	91.69
296.217	77.69
296.448	85.69
296.679	89.69
296.909	79.69
297.14	83.69
297.37	75.69
297.601	74.69
297.831	94.69
298.062	76.69
298.292	72.69
298.523	97.69
298.753	84.69
298.984	81.69
299.214	84.69
299.445	82.69
299.675	81.69
299.905	83.69
300.136	86.69
300.366	90.69
300.597	98.69
300.827	80.69
301.057	87.69
301.288	96.69
301.518	80.69
301.748	94.69
301.979	109.69
302.209	74.69
302.439	84.69
302.669	72.69
302.9	105.69
303.13	91.69
303.36	93.69
303.59	91.69
303.82	81.69
304.051	91.69
304.281	75.69
304.511	92.69
304.741	83.69
304.971	76.69
305.201	82.69
305.431	82.69
305.661	82.69
305.891	88.69
306.121	74.69
306.352	74.69
306.582	84.69
306.812	80.69
307.042	82.69
307.272	83.69
307.502	88.69
307.731	108.69
307.961	101.69
308.191	86.69
308.421	86.69
308.651	75.69
308.881	97.69
309.111	87.69
309.341	107.69
309.571	102.69
309.8	85.69
310.03	85.69
310.26	84.69
310.49	95.69
310.72	96.69
310.949	76.69
311.179	84.69
311.409	76.69
311.639	81.69
311.868	87.69
312.098	92.69
312.328	91.69
312.557	100.69
312.787	79.69
313.017	92.69
313.246	79.69
313.476	87.69
313.706	90.69
313.935	90.69
314.165	89.69
314.394	80.69
314.624	94.69
314.853	96.69
315.083	77.69
315.312	96.69
315.542	101.69
315.771	90.69
316.001	91.69
316.23	89.69
316.46	68.69
316.689	85.69
316.919	94.69
317.148	87.69
317.377	102.69
317.607	96.69
317.836	111.69
318.065	114.69
318.295	107.69
318.524	97.69
318.753	89.69
318.983	92.69
319.212	77.69
319.441	70.69
319.67	86.69
319.9	89.69
320.129	92.69
320.358	83.69
320.587	84.69
320.816	85.69
321.046	87.69
321.275	71.69
321.504	84.69
321.733	101.69
321.962	80.69
322.191	89.69
322.42	95.69
322.649	106.69
322.878	80.69
323.108	94.69
323.337	90.69
323.566	84.69
323.795	74.69
324.024	87.69
324.253	85.69
324.482	77.69
324.71	92.69
324.939	86.69
325.168	82.69
325.397	87.69
325.626	82.69
325.855	87.69
326.084	96.69
326.313	102.69
326.542	88.69
326.77	90.69
326.999	85.69
327.228	73.69
327.457	86.69
327.686	88.69
327.914	80.69
328.143	88.69
328.372	82.69
328.6	81.69
328.829	90.69
329.058	91.69
329.287	83.69
329.515	78.69
329.744	94.69
329.972	98.69
330.201	79.69
330.43	91.69
330.658	81.69
330.887	91.69
331.115	81.69
331.344	84.69
331.572	82.69
331.801	84.69
332.03	104.69
332.258	89.69
332.486	96.69
332.715	95.69
332.943	76.69
333.172	77.69
333.4	86.69
333.629	83.69
333.857	74.69
334.085	90.69
334.314	98.69
334.542	103.69
334.771	88.69
334.999	101.69
335.227	90.69
335.455	100.69
335.684	84.69
335.912	86.69
336.14	94.69
336.369	94.69
336.597	97.69
336.825	107.69
337.053	91.69
337.281	87.69
337.51	76.69
337.738	71.69
337.966	85.69
338.194	87.69
338.422	85.69
338.65	92.69
338.878	94.69
339.106	91.69
339.334	102.69
339.562	90.69
339.79	98.69
340.018	81.69
340.246	94.69
340.474	82.69
340.702	76.69
340.93	77.69
341.158	89.69
341.386	83.69
341.614	99.69
341.842	82.69
342.07	82.69
342.298	77.69
342.526	88.69
342.754	74.69
342.981	89.69
343.209	90.69
343.437	98.69
343.665	84.69
343.893	94.69
344.12	98.69
344.348	85.69
344.576	86.69
344.804	104.69
345.031	105.69
345.259	81.69
345.487	80.69
345.714	77.69
345.942	75.69
346.17	92.69
346.397	88.69
346.625	101.69
346.853	80.69
347.08	102.69
347.308	86.69
347.535	95.69
347.763	81.69
347.99	88.69
348.218	86.69
348.445	84.69
348.673	89.69
348.9	96.69
349.128	103.69
349.355	95.69
349.583	79.69
349.81	78.69
350.037	88.69
350.265	91.69
350.492	83.69
350.72	84.69
350.947	75.69
351.174	88.69
351.402	85.69
351.629	84.69
351.856	75.69
352.083	82.69
352.311	81.69
352.538	79.69
352.765	91.69
352.992	99.69
353.22	79.69
353.447	76.69
353.674	82.69
353.901	91.69
354.128	84.69
354.355	96.69
354.583	80.69
354.81	95.69
355.037	95.69
355.264	90.69
355.491	90.69
355.718	82.69
355.945	85.69
356.172	77.69
356.399	92.69
356.626	94.69
356.853	96.69
357.08	92.69
357.307	99.69
357.534	93.69
357.761	86.69
357.988	99.69
358.215	102.69
358.441	119.69
358.668	94.69
358.895	110.69
359.122	91.69
359.349	82.69
359.576	92.69
359.802	91.69
360.029	84.69
360.256	82.69
360.483	86.69
360.709	87.69
360.936	85.69
361.163	87.69
361.39	84.69
361.616	79.69
361.843	84.69
362.07	104.69
362.296	111.69
362.523	112.69
362.749	104.69
362.976	122.69
363.203	147.69
363.429	110.69
363.656	108.69
363.882	96.69
364.109	122.69
364.335	120.69
364.562	136.69
364.788	123.69
365.015	98.69
365.241	92.69
365.468	90.69
365.694	84.69
365.92	95.69
366.147	90.69
366.373	98.69
366.599	84.69
366.826	84.69
367.052	79.69
367.278	98.69
367.505	86.69
367.731	94.69
367.957	76.69
368.184	78.69
368.41	79.69
368.636	74.69
368.862	100.69
369.089	84.69
369.315	93.69
369.541	107.69
369.767	91.69
369.993	85.69
370.219	93.69
370.445	88.69
370.672	106.69
370.898	101.69
371.124	81.69
371.35	88.69
371.576	98.69
371.802	81.69
372.028	94.69
372.254	91.69
372.48	102.69
372.706	90.69
372.932	90.69
373.158	112.69
373.384	108.69
373.61	134.69
373.835	132.69
374.061	103.69
374.287	88.69
374.513	100.69
374.739	99.69
374.965	94.69
375.191	90.69
375.416	97.69
375.642	99.69
375.868	124.69
376.094	94.69
376.319	94.69
376.545	91.69
376.771	92.69
376.997	75.69
377.222	94.69
377.448	88.69
377.674	85.69
377.899	82.69
378.125	86.69
378.35	107.69
378.576	87.69
378.802	84.69
379.027	99.69
379.253	96.69
379.478	104.69
379.704	102.69
379.929	100.69
380.155	89.69
380.38	93.69
380.606	84.69
380.831	94.69
381.057	82.69
381.282	95.69
381.507	107.69
381.733	98.69
381.958	104.69
382.184	112.69
382.409	102.69
382.634	121.69
382.86	115.69
383.085	107.69
383.31	86.69
383.535	108.69
383.761	108.69
383.986	126.69
384.211	107.69
384.436	90.69
384.662	104.69
384.887	105.69
385.112	85.69
385.337	101.69
385.562	89.69
385.787	96.69
386.013	106.69
386.238	108.69
386.463	97.69
386.688	101.69
386.913	101.69
387.138	99.69
387.363	110.69
387.588	100.69
387.813	97.69
388.038	97.69
388.263	115.69
388.488	88.69
388.713	91.69
388.938	96.69
389.163	96.69
389.387	90.69
389.612	96.69
389.837	96.69
390.062	84.69
390.287	80.69
390.512	86.69
390.736	88.69
390.961	98.69
391.186	107.69
391.411	90.69
391.636	82.69
391.86	99.69
392.085	97.69
392.31	103.69
392.534	112.69
392.759	152.69
392.984	198.69
393.208	346.69
393.433	506.69
393.658	386.69
393.882	185.69
394.107	136.69
394.331	128.69
394.556	136.69
394.78	113.69
395.005	99.69
395.229	103.69
395.454	105.69
395.678	133.69
395.903	136.69
396.127	150.69
396.352	190.69
396.576	231.69
396.801	342.69
397.025	394.69
397.249	238.69
397.474	134.69
397.698	118.69
397.922	96.69
398.147	97.69
398.371	98.69
398.595	86.69
398.82	88.69
399.044	82.69
399.268	75.69
399.492	76.69
399.717	86.69
399.941	86.69
400.165	87.69
400.389	88.69
400.613	75.69
400.837	104.69
401.062	84.69
401.286	86.69
401.51	103.69
401.734	85.69
401.958	98.69
402.182	83.69
402.406	93.69
402.63	82.69
402.854	91.69
403.078	87.69
403.302	93.69
403.526	92.69
403.75	85.69
403.974	99.69
404.198	92.69
404.422	106.69
404.645	105.69
404.869	92.69
405.093	81.69
405.317	88.69
405.541	90.69
405.765	88.69
405.988	87.69
406.212	86.69
406.436	82.69
406.66	81.69
406.883	96.69
407.107	92.69
407.331	95.69
407.555	98.69
407.778	130.69
408.002	144.69
408.226	94.69
408.449	94.69
408.673	79.69
408.896	112.69
409.12	89.69
409.344	107.69
409.567	118.69
409.791	103.69
410.014	110.69
410.238	92.69
410.461	94.69
410.685	94.69
410.908	101.69
411.132	103.69
411.355	88.69
411.578	91.69
411.802	83.69
412.025	89.69
412.249	82.69
412.472	91.69
412.695	87.69
412.919	92.69
413.142	92.69
413.365	88.69
413.589	85.69
413.812	91.69
414.035	81.69
414.258	96.69
414.482	92.69
414.705	100.69
414.928	88.69
415.151	86.69
415.374	92.69
415.597	98.69
415.821	97.69
416.044	90.69
416.267	97.69
416.49	74.69
416.713	90.69
416.936	87.69
417.159	88.69
417.382	85.69
417.605	80.69
417.828	77.69
418.051	82.69
418.274	81.69
418.497	91.69
418.72	81.69
418.943	82.69
419.166	71.69
419.389	80.69
419.611	87.69
419.834	91.69
420.057	92.69
420.28	103.69
420.503	94.69
420.726	100.69
420.948	95.69
421.171	99.69
421.394	138.69
421.617	151.69
421.839	134.69
422.062	135.69
422.285	171.69
422.507	276.69
422.73	385.69
422.953	344.69
423.175	216.69
423.398	179.69
423.621	123.69
423.843	95.69
424.066	106.69
424.288	98.69
424.511	90.69
424.733	85.69
424.956	98.69
425.178	87.69
425.401	82.69
425.623	78.69
425.846	87.69
426.068	90.69
426.291	91.69
426.513	94.69
426.735	88.69
426.958	82.69
427.18	88.69
427.402	100.69
427.625	92.69
427.847	99.69
428.069	112.69
428.292	124.69
428.514	158.69
428.736	114.69
428.958	130.69
429.181	133.69
429.403	103.69
429.625	106.69
429.847	130.69
430.069	186.69
430.292	188.69
430.514	190.69
430.736	152.69
430.958	135.69
431.18	105.69
431.402	97.69
431.624	91.69
431.846	126.69
432.068	141.69
432.29	112.69
432.512	99.69
432.734	94.69
432.956	86.69
433.178	78.69
433.4	83.69
433.622	88.69
433.844	82.69
434.066	89.69
434.287	76.69
434.509	90.69
434.731	95.69
434.953	96.69
435.175	96.69
435.397	88.69
435.618	89.69
435.84	98.69
436.062	102.69
436.284	82.69
436.505	95.69
436.727	66.69
436.949	94.69
437.17	103.69
437.392	85.69
437.614	91.69
437.835	77.69
438.057	86.69
438.278	94.69
438.5	96.69
438.721	91.69
438.943	93.69
439.165	83.69
439.386	86.69
439.608	82.69
439.829	82.69
440.05	93.69
440.272	87.69
440.493	95.69
440.715	89.69
440.936	88.69
441.158	73.69
441.379	102.69
441.6	94.69
441.822	88.69
442.043	92.69
442.264	91.69
442.486	148.69
442.707	182.69
442.928	134.69
443.149	118.69
443.371	185.69
443.592	263.69
443.813	246.69
444.034	131.69
444.255	106.69
444.476	105.69
444.698	100.69
444.919	99.69
445.14	189.69
445.361	216.69
445.582	329.69
445.803	274.69
446.024	120.69
446.245	103.69
446.466	98.69
446.687	86.69
446.908	88.69
447.129	90.69
447.35	99.69
447.571	87.69
447.792	98.69
448.013	84.69
448.234	84.69
448.455	89.69
448.675	100.69
448.896	94.69
449.117	75.69
449.338	81.69
449.559	92.69
449.779	91.69
450	82.69
450.221	88.69
450.442	94.69
450.662	67.69
450.883	79.69
451.104	91.69
451.324	85.69
451.545	89.69
451.766	95.69
451.986	92.69
452.207	90.69
452.428	86.69
452.648	96.69
452.869	105.69
453.089	99.69
453.31	90.69
453.53	107.69
453.751	110.69
453.971	81.69
454.192	80.69
454.412	86.69
454.633	85.69
454.853	88.69
455.073	75.69
455.294	86.69
455.514	89.69
455.734	95.69
455.955	99.69
456.175	80.69
456.395	83.69
456.616	98.69
456.836	90.69
457.056	76.69
457.276	80.69
457.497	87.69
457.717	101.69
457.937	109.69
458.157	161.69
458.377	150.69
458.598	136.69
458.818	152.69
459.038	94.69
459.258	91.69
459.478	88.69
459.698	87.69
459.918	94.69
460.138	102.69
460.358	98.69
460.578	99.69
460.798	129.69
461.018	122.69
461.238	100.69
461.458	84.69
461.678	97.69
461.898	85.69
462.118	72.69
462.338	85.69
462.558	92.69
462.777	74.69
462.997	89.69
463.217	79.69
463.437	76.69
463.657	96.69
463.876	92.69
464.096	79.69
464.316	87.69
464.536	94.69
464.755	87.69
464.975	88.69
465.195	95.69
465.414	84.69
465.634	84.69
465.854	95.69
466.073	89.69
466.293	80.69
466.512	95.69
466.732	90.69
466.951	91.69
467.171	90.69
467.391	85.69
467.61	80.69
467.829	78.69
468.049	77.69
468.268	86.69
468.488	87.69
468.707	90.69
468.927	83.69
469.146	79.69
469.365	92.69
469.585	78.69
469.804	87.69
470.023	88.69
470.243	89.69
470.462	82.69
470.681	97.69
470.901	89.69
471.12	80.69
471.339	80.69
471.558	91.69
471.777	92.69
471.997	81.69
472.216	84.69
472.435	79.69
472.654	86.69
472.873	91.69
473.092	97.69
473.311	99.69
473.53	84.69
473.749	86.69
473.968	89.69
474.187	84.69
474.406	95.69
474.625	82.69
474.844	81.69
475.063	86.69
475.282	90.69
475.501	75.69
475.72	82.69
475.939	78.69
476.158	90.69
476.377	93.69
476.596	97.69
476.814	90.69
477.033	99.69
477.252	74.69
477.471	82.69
477.69	82.69
477.908	75.69
478.127	88.69
478.346	78.69
478.564	74.69
478.783	98.69
479.002	94.69
479.22	94.69
479.439	93.69
479.658	95.69
479.876	84.69
480.095	82.69
480.313	99.69
480.532	101.69
480.751	101.69
480.969	106.69
481.188	98.69
481.406	103.69
481.624	87.69
481.843	85.69
482.061	101.69
482.28	95.69
482.498	90.69
482.717	104.69
482.935	69.69
483.153	99.69
483.372	95.69
483.59	108.69
483.808	86.69
484.027	89.69
484.245	92.69
484.463	89.69
484.681	97.69
484.9	94.69
485.118	99.69
485.336	92.69
485.554	96.69
485.772	85.69
485.99	97.69
486.209	100.69
486.427	81.69
486.645	90.69
486.863	94.69
487.081	88.69
487.299	102.69
487.517	98.69
487.735	129.69
487.953	224.69
488.171	169.69
488.389	104.69
488.607	87.69
488.825	94.69
489.043	99.69
489.261	88.69
489.479	88.69
489.696	95.69
489.914	81.69
490.132	90.69
490.35	95.69
490.568	86.69
490.786	90.69
491.003	88.69
491.221	89.69
491.439	90.69
491.657	97.69
491.874	89.69
492.092	101.69
492.31	106.69
492.527	94.69
492.745	99.69
492.963	90.69
493.18	83.69
493.398	92.69
493.615	90.69
493.833	88.69
494.05	97.69
494.268	82.69
494.485	80.69
494.703	79.69
494.92	86.69
495.138	96.69
495.355	111.69
495.573	100.69
495.79	82.69
496.008	100.69
496.225	91.69
496.442	93.69
496.66	106.69
496.877	93.69
497.094	96.69
497.312	88.69
497.529	98.69
497.746	76.69
497.963	92.69
498.181	99.69
498.398	83.69
498.615	93.69
498.832	106.69
499.049	94.69
499.267	100.69
499.484	90.69
499.701	77.69
499.918	89.69
500.135	94.69
500.352	92.69
500.569	82.69
500.786	104.69
501.003	87.69
501.22	92.69
501.437	83.69
501.654	82.69
501.871	84.69
502.088	91.69
502.305	88.69
502.522	94.69
502.739	98.69
502.956	91.69
503.172	96.69
503.389	100.69
503.606	101.69
503.823	108.69
504.04	123.69
504.256	159.69
504.473	150.69
504.69	102.69
504.907	107.69
505.123	87.69
505.34	96.69
505.557	96.69
505.773	84.69
505.99	100.69
506.207	82.69
506.423	85.69
506.64	94.69
506.856	98.69
507.073	105.69
507.289	82.69
507.506	92.69
507.722	81.69
507.939	88.69
508.155	101.69
508.372	94.69
508.588	83.69
508.805	104.69
509.021	79.69
509.238	92.69
509.454	84.69
509.67	89.69
509.887	83.69
510.103	91.69
510.319	94.69
510.536	84.69
510.752	94.69
510.968	105.69
511.184	80.69
511.401	102.69
511.617	87.69
511.833	79.69
512.049	83.69
512.265	93.69
512.481	99.69
512.698	95.69
512.914	89.69
513.13	82.69
513.346	87.69
513.562	87.69
513.778	92.69
513.994	103.69
514.21	86.69
514.426	86.69
514.642	107.69
514.858	82.69
515.074	62.69
515.29	89.69
515.506	84.69
515.721	85.69
515.937	105.69
516.153	99.69
516.369	86.69
516.585	97.69
516.801	86.69
517.016	104.69
