Data from 17600_3_HRD10591_00013.txt Node
Date: Mon Jan 19 14:09:30 EST 2026
User: Yrep
Spectrometer: HR+D1059
Trigger mode: 1
Integration Time (sec): 1.000000E-1
Scans to average: 1
Electric dark correction enabled: true
Nonlinearity correction enabled: false
Boxcar width: 0
XAxis mode: Wavelengths
Number of Pixels in Spectrum: 2048
>>>>>Begin Spectral Data<<<<<
223.165	-18.94
223.4	-18.94
223.635	-18.94
223.869	-24.94
224.104	-18.94
224.338	-10.94
224.573	-18.94
224.808	-19.94
225.042	-5.94
225.277	-11.94
225.511	1.06
225.746	1.06
225.98	9.06
226.215	21.06
226.449	19.06
226.683	14.06
226.918	36.06
227.152	29.06
227.387	27.06
227.621	32.06
227.856	55.06
228.09	51.06
228.324	50.06
228.559	57.06
228.793	61.06
229.027	69.06
229.262	51.06
229.496	55.06
229.73	74.06
229.964	84.06
230.199	68.06
230.433	81.06
230.667	73.06
230.901	76.06
231.136	73.06
231.37	67.06
231.604	82.06
231.838	84.06
232.072	82.06
232.306	73.06
232.541	83.06
232.775	79.06
233.009	66.06
233.243	81.06
233.477	83.06
233.711	75.06
233.945	81.06
234.179	77.06
234.413	71.06
234.647	83.06
234.881	84.06
235.115	92.06
235.349	87.06
235.583	83.06
235.817	80.06
236.051	79.06
236.285	81.06
236.519	81.06
236.753	71.06
236.987	85.06
237.221	64.06
237.455	82.06
237.689	89.06
237.922	86.06
238.156	81.06
238.39	61.06
238.624	83.06
238.858	75.06
239.091	69.06
239.325	82.06
239.559	76.06
239.793	50.06
240.027	85.06
240.26	66.06
240.494	57.06
240.728	87.06
240.961	85.06
241.195	82.06
241.429	63.06
241.662	60.06
241.896	74.06
242.13	59.06
242.363	73.06
242.597	85.06
242.83	79.06
243.064	75.06
243.298	78.06
243.531	83.06
243.765	70.06
243.998	65.06
244.232	77.06
244.465	70.06
244.699	81.06
244.932	83.06
245.166	83.06
245.399	75.06
245.633	75.06
245.866	78.06
246.099	65.06
246.333	83.06
246.566	79.06
246.8	81.06
247.033	88.06
247.266	79.06
247.5	96.06
247.733	73.06
247.966	97.06
248.2	79.06
248.433	75.06
248.666	77.06
248.899	83.06
249.133	81.06
249.366	99.06
249.599	77.06
249.832	83.06
250.066	78.06
250.299	78.06
250.532	81.06
250.765	81.06
250.998	86.06
251.231	88.06
251.465	83.06
251.698	64.06
251.931	91.06
252.164	79.06
252.397	79.06
252.63	78.06
252.863	88.06
253.096	81.06
253.329	72.06
253.562	88.06
253.795	82.06
254.028	86.06
254.261	66.06
254.494	83.06
254.727	75.06
254.96	93.06
255.193	89.06
255.426	92.06
255.659	93.06
255.892	81.06
256.124	66.06
256.357	89.06
256.59	85.06
256.823	95.06
257.056	82.06
257.289	73.06
257.521	89.06
257.754	86.06
257.987	78.06
258.22	84.06
258.452	66.06
258.685	82.06
258.918	92.06
259.151	81.06
259.383	79.06
259.616	81.06
259.849	69.06
260.081	87.06
260.314	82.06
260.547	77.06
260.779	75.06
261.012	92.06
261.244	79.06
261.477	85.06
261.71	80.06
261.942	78.06
262.175	93.06
262.407	83.06
262.64	77.06
262.872	80.06
263.105	84.06
263.337	88.06
263.57	76.06
263.802	91.06
264.035	77.06
264.267	79.06
264.499	85.06
264.732	75.06
264.964	87.06
265.197	88.06
265.429	75.06
265.661	96.06
265.894	83.06
266.126	92.06
266.358	77.06
266.591	74.06
266.823	85.06
267.055	77.06
267.287	75.06
267.52	77.06
267.752	79.06
267.984	81.06
268.216	89.06
268.448	82.06
268.681	64.06
268.913	93.06
269.145	87.06
269.377	85.06
269.609	84.06
269.841	79.06
270.073	88.06
270.306	85.06
270.538	79.06
270.77	71.06
271.002	62.06
271.234	91.06
271.466	87.06
271.698	77.06
271.93	70.06
272.162	67.06
272.394	91.06
272.626	78.06
272.858	84.06
273.09	94.06
273.322	65.06
273.553	98.06
273.785	89.06
274.017	84.06
274.249	77.06
274.481	85.06
274.713	73.06
274.945	91.06
275.176	93.06
275.408	91.06
275.64	95.06
275.872	69.06
276.104	69.06
276.335	69.06
276.567	86.06
276.799	75.06
277.031	80.06
277.262	83.06
277.494	81.06
277.726	100.06
277.957	81.06
278.189	77.06
278.421	77.06
278.652	86.06
278.884	88.06
279.115	81.06
279.347	93.06
279.579	101.06
279.81	90.06
280.042	89.06
280.273	82.06
280.505	72.06
280.736	89.06
280.968	77.06
281.199	79.06
281.431	74.06
281.662	81.06
281.894	76.06
282.125	82.06
282.356	96.06
282.588	84.06
282.819	79.06
283.051	72.06
283.282	89.06
283.513	90.06
283.745	94.06
283.976	84.06
284.207	88.06
284.439	102.06
284.67	88.06
284.901	92.06
285.132	87.06
285.364	113.06
285.595	83.06
285.826	87.06
286.057	80.06
286.288	98.06
286.52	81.06
286.751	95.06
286.982	90.06
287.213	97.06
287.444	83.06
287.675	93.06
287.906	87.06
288.138	84.06
288.369	90.06
288.6	75.06
288.831	74.06
289.062	99.06
289.293	84.06
289.524	70.06
289.755	88.06
289.986	73.06
290.217	89.06
290.448	73.06
290.679	89.06
290.91	81.06
291.141	65.06
291.371	85.06
291.602	81.06
291.833	88.06
292.064	95.06
292.295	88.06
292.526	83.06
292.757	81.06
292.987	91.06
293.218	89.06
293.449	85.06
293.68	95.06
293.91	78.06
294.141	89.06
294.372	96.06
294.603	98.06
294.833	87.06
295.064	75.06
295.295	91.06
295.525	89.06
295.756	104.06
295.987	84.06
296.217	82.06
296.448	102.06
296.679	85.06
296.909	97.06
297.14	77.06
297.37	90.06
297.601	77.06
297.831	85.06
298.062	81.06
298.292	91.06
298.523	83.06
298.753	102.06
298.984	75.06
299.214	81.06
299.445	91.06
299.675	106.06
299.905	109.06
300.136	90.06
300.366	109.06
300.597	105.06
300.827	96.06
301.057	105.06
301.288	88.06
301.518	93.06
301.748	101.06
301.979	101.06
302.209	94.06
302.439	91.06
302.669	78.06
302.9	94.06
303.13	108.06
303.36	82.06
303.59	79.06
303.82	83.06
304.051	86.06
304.281	89.06
304.511	95.06
304.741	92.06
304.971	91.06
305.201	81.06
305.431	72.06
305.661	76.06
305.891	85.06
306.121	98.06
306.352	93.06
306.582	88.06
306.812	109.06
307.042	104.06
307.272	87.06
307.502	76.06
307.731	100.06
307.961	98.06
308.191	114.06
308.421	109.06
308.651	85.06
308.881	109.06
309.111	113.06
309.341	125.06
309.571	104.06
309.8	89.06
310.03	90.06
310.26	97.06
310.49	82.06
310.72	91.06
310.949	85.06
311.179	81.06
311.409	88.06
311.639	93.06
311.868	86.06
312.098	85.06
312.328	91.06
312.557	97.06
312.787	88.06
313.017	89.06
313.246	86.06
313.476	85.06
313.706	88.06
313.935	81.06
314.165	101.06
314.394	101.06
314.624	95.06
314.853	100.06
315.083	96.06
315.312	113.06
315.542	114.06
315.771	87.06
316.001	111.06
316.23	107.06
316.46	94.06
316.689	92.06
316.919	107.06
317.148	92.06
317.377	102.06
317.607	99.06
317.836	111.06
318.065	126.06
318.295	102.06
318.524	102.06
318.753	99.06
318.983	78.06
319.212	97.06
319.441	90.06
319.67	91.06
319.9	79.06
320.129	97.06
320.358	83.06
320.587	87.06
320.816	100.06
321.046	98.06
321.275	90.06
321.504	95.06
321.733	82.06
321.962	104.06
322.191	106.06
322.42	94.06
322.649	105.06
322.878	98.06
323.108	107.06
323.337	101.06
323.566	90.06
323.795	94.06
324.024	99.06
324.253	101.06
324.482	90.06
324.71	88.06
324.939	81.06
325.168	91.06
325.397	91.06
325.626	82.06
325.855	95.06
326.084	86.06
326.313	87.06
326.542	94.06
326.77	97.06
326.999	97.06
327.228	102.06
327.457	84.06
327.686	93.06
327.914	79.06
328.143	87.06
328.372	91.06
328.6	90.06
328.829	97.06
329.058	98.06
329.287	83.06
329.515	81.06
329.744	79.06
329.972	81.06
330.201	101.06
330.43	87.06
330.658	102.06
330.887	81.06
331.115	88.06
331.344	93.06
331.572	93.06
331.801	95.06
332.03	90.06
332.258	79.06
332.486	85.06
332.715	88.06
332.943	97.06
333.172	79.06
333.4	83.06
333.629	81.06
333.857	91.06
334.085	106.06
334.314	111.06
334.542	105.06
334.771	120.06
334.999	113.06
335.227	106.06
335.455	95.06
335.684	119.06
335.912	125.06
336.14	130.06
336.369	122.06
336.597	103.06
336.825	87.06
337.053	97.06
337.281	119.06
337.51	90.06
337.738	100.06
337.966	90.06
338.194	103.06
338.422	81.06
338.65	109.06
338.878	88.06
339.106	84.06
339.334	85.06
339.562	77.06
339.79	91.06
340.018	91.06
340.246	96.06
340.474	97.06
340.702	99.06
340.93	77.06
341.158	85.06
341.386	86.06
341.614	88.06
341.842	81.06
342.07	96.06
342.298	94.06
342.526	95.06
342.754	90.06
342.981	79.06
343.209	93.06
343.437	95.06
343.665	93.06
343.893	97.06
344.12	97.06
344.348	93.06
344.576	91.06
344.804	96.06
345.031	97.06
345.259	86.06
345.487	90.06
345.714	99.06
345.942	95.06
346.17	94.06
346.397	88.06
346.625	96.06
346.853	82.06
347.08	83.06
347.308	94.06
347.535	103.06
347.763	109.06
347.99	95.06
348.218	98.06
348.445	96.06
348.673	94.06
348.9	102.06
349.128	111.06
349.355	77.06
349.583	91.06
349.81	90.06
350.037	102.06
350.265	86.06
350.492	95.06
350.72	92.06
350.947	89.06
351.174	93.06
351.402	91.06
351.629	100.06
351.856	82.06
352.083	87.06
352.311	85.06
352.538	93.06
352.765	103.06
352.992	67.06
353.22	75.06
353.447	87.06
353.674	86.06
353.901	85.06
354.128	87.06
354.355	101.06
354.583	94.06
354.81	93.06
355.037	79.06
355.264	105.06
355.491	93.06
355.718	94.06
355.945	99.06
356.172	88.06
356.399	102.06
356.626	111.06
356.853	109.06
357.08	95.06
357.307	106.06
357.534	111.06
357.761	100.06
357.988	94.06
358.215	121.06
358.441	98.06
358.668	110.06
358.895	101.06
359.122	100.06
359.349	96.06
359.576	82.06
359.802	93.06
360.029	103.06
360.256	89.06
360.483	88.06
360.709	100.06
360.936	123.06
361.163	98.06
361.39	96.06
361.616	107.06
361.843	94.06
362.07	132.06
362.296	135.06
362.523	161.06
362.749	156.06
362.976	185.06
363.203	205.06
363.429	164.06
363.656	141.06
363.882	125.06
364.109	170.06
364.335	227.06
364.562	255.06
364.788	183.06
365.015	118.06
365.241	113.06
365.468	93.06
365.694	92.06
365.92	103.06
366.147	107.06
366.373	106.06
366.599	90.06
366.826	103.06
367.052	82.06
367.278	100.06
367.505	101.06
367.731	114.06
367.957	125.06
368.184	87.06
368.41	106.06
368.636	97.06
368.862	91.06
369.089	85.06
369.315	86.06
369.541	101.06
369.767	98.06
369.993	98.06
370.219	103.06
370.445	99.06
370.672	118.06
370.898	116.06
371.124	116.06
371.35	88.06
371.576	81.06
371.802	97.06
372.028	115.06
372.254	105.06
372.48	102.06
372.706	109.06
372.932	106.06
373.158	115.06
373.384	127.06
373.61	167.06
373.835	168.06
374.061	120.06
374.287	122.06
374.513	106.06
374.739	123.06
374.965	149.06
375.191	107.06
375.416	118.06
375.642	116.06
375.868	125.06
376.094	116.06
376.319	106.06
376.545	96.06
376.771	95.06
376.997	90.06
377.222	107.06
377.448	99.06
377.674	85.06
377.899	87.06
378.125	94.06
378.35	113.06
378.576	98.06
378.802	101.06
379.027	92.06
379.253	102.06
379.478	94.06
379.704	100.06
379.929	104.06
380.155	90.06
380.38	102.06
380.606	98.06
380.831	107.06
381.057	119.06
381.282	112.06
381.507	113.06
381.733	119.06
381.958	125.06
382.184	117.06
382.409	118.06
382.634	145.06
382.86	127.06
383.085	135.06
383.31	137.06
383.535	139.06
383.761	132.06
383.986	131.06
384.211	129.06
384.436	101.06
384.662	121.06
384.887	97.06
385.112	106.06
385.337	127.06
385.562	125.06
385.787	125.06
386.013	126.06
386.238	111.06
386.463	123.06
386.688	128.06
386.913	126.06
387.138	120.06
387.363	123.06
387.588	125.06
387.813	145.06
388.038	139.06
388.263	128.06
388.488	117.06
388.713	125.06
388.938	116.06
389.163	106.06
389.387	107.06
389.612	111.06
389.837	97.06
390.062	115.06
390.287	97.06
390.512	98.06
390.736	108.06
390.961	102.06
391.186	97.06
391.411	102.06
391.636	101.06
391.86	121.06
392.085	121.06
392.31	135.06
392.534	163.06
392.759	193.06
392.984	297.06
393.208	531.06
393.433	756.06
393.658	568.06
393.882	278.06
394.107	193.06
394.331	183.06
394.556	210.06
394.78	144.06
395.005	136.06
395.229	125.06
395.454	129.06
395.678	180.06
395.903	219.06
396.127	265.06
396.352	292.06
396.576	339.06
396.801	516.06
397.025	616.06
397.249	321.06
397.474	213.06
397.698	158.06
397.922	124.06
398.147	107.06
398.371	111.06
398.595	104.06
398.82	85.06
399.044	99.06
399.268	97.06
399.492	79.06
399.717	100.06
399.941	113.06
400.165	95.06
400.389	110.06
400.613	100.06
400.837	97.06
401.062	106.06
401.286	86.06
401.51	109.06
401.734	99.06
401.958	102.06
402.182	92.06
402.406	102.06
402.63	97.06
402.854	106.06
403.078	96.06
403.302	130.06
403.526	118.06
403.75	123.06
403.974	99.06
404.198	106.06
404.422	120.06
404.645	128.06
404.869	110.06
405.093	95.06
405.317	84.06
405.541	91.06
405.765	107.06
405.988	98.06
406.212	82.06
406.436	106.06
406.66	121.06
406.883	101.06
407.107	103.06
407.331	114.06
407.555	137.06
407.778	178.06
408.002	181.06
408.226	114.06
408.449	109.06
408.673	105.06
408.896	96.06
409.12	112.06
409.344	121.06
409.567	140.06
409.791	146.06
410.014	146.06
410.238	119.06
410.461	113.06
410.685	109.06
410.908	100.06
411.132	97.06
411.355	109.06
411.578	89.06
411.802	106.06
412.025	97.06
412.249	99.06
412.472	112.06
412.695	97.06
412.919	97.06
413.142	97.06
413.365	93.06
413.589	91.06
413.812	97.06
414.035	102.06
414.258	99.06
414.482	103.06
414.705	106.06
414.928	86.06
415.151	93.06
415.374	91.06
415.597	109.06
415.821	109.06
416.044	88.06
416.267	94.06
416.49	92.06
416.713	100.06
416.936	94.06
417.159	93.06
417.382	102.06
417.605	95.06
417.828	101.06
418.051	97.06
418.274	96.06
418.497	110.06
418.72	104.06
418.943	94.06
419.166	75.06
419.389	112.06
419.611	93.06
419.834	101.06
420.057	106.06
420.28	102.06
420.503	106.06
420.726	119.06
420.948	114.06
421.171	132.06
421.394	137.06
421.617	231.06
421.839	237.06
422.062	230.06
422.285	353.06
422.507	605.06
422.73	880.06
422.953	804.06
423.175	493.06
423.398	274.06
423.621	184.06
423.843	149.06
424.066	146.06
424.288	131.06
424.511	127.06
424.733	113.06
424.956	105.06
425.178	117.06
425.401	121.06
425.623	107.06
425.846	103.06
426.068	111.06
426.291	113.06
426.513	104.06
426.735	94.06
426.958	106.06
427.18	109.06
427.402	104.06
427.625	117.06
427.847	113.06
428.069	135.06
428.292	213.06
428.514	248.06
428.736	175.06
428.958	202.06
429.181	227.06
429.403	133.06
429.625	129.06
429.847	200.06
430.069	310.06
430.292	343.06
430.514	332.06
430.736	256.06
430.958	253.06
431.18	139.06
431.402	115.06
431.624	121.06
431.846	188.06
432.068	228.06
432.29	137.06
432.512	119.06
432.734	102.06
432.956	89.06
433.178	104.06
433.4	97.06
433.622	98.06
433.844	102.06
434.066	110.06
434.287	111.06
434.509	95.06
434.731	115.06
434.953	100.06
435.175	100.06
435.397	102.06
435.618	114.06
435.84	118.06
436.062	101.06
436.284	97.06
436.505	94.06
436.727	84.06
436.949	104.06
437.17	102.06
437.392	105.06
437.614	94.06
437.835	93.06
438.057	101.06
438.278	103.06
438.5	114.06
438.721	105.06
438.943	97.06
439.165	109.06
439.386	103.06
439.608	96.06
439.829	83.06
440.05	101.06
440.272	101.06
440.493	115.06
440.715	110.06
440.936	97.06
441.158	98.06
441.379	103.06
441.6	106.06
441.822	104.06
442.043	107.06
442.264	125.06
442.486	245.06
442.707	342.06
442.928	226.06
443.149	164.06
443.371	305.06
443.592	534.06
443.813	488.06
444.034	207.06
444.255	131.06
444.476	110.06
444.698	118.06
444.919	133.06
445.14	265.06
445.361	370.06
445.582	673.06
445.803	587.06
446.024	218.06
446.245	129.06
446.466	102.06
446.687	102.06
446.908	108.06
447.129	93.06
447.35	102.06
447.571	97.06
447.792	90.06
448.013	90.06
448.234	88.06
448.455	89.06
448.675	82.06
448.896	84.06
449.117	91.06
449.338	77.06
449.559	89.06
449.779	96.06
450	87.06
450.221	83.06
450.442	86.06
450.662	79.06
450.883	98.06
451.104	101.06
451.324	90.06
451.545	102.06
451.766	113.06
451.986	95.06
452.207	92.06
452.428	103.06
452.648	122.06
452.869	142.06
453.089	133.06
453.31	101.06
453.53	120.06
453.751	119.06
453.971	109.06
454.192	91.06
454.412	98.06
454.633	72.06
454.853	84.06
455.073	94.06
455.294	86.06
455.514	108.06
455.734	93.06
455.955	97.06
456.175	82.06
456.395	96.06
456.616	89.06
456.836	100.06
457.056	95.06
457.276	98.06
457.497	88.06
457.717	119.06
457.937	164.06
458.157	230.06
458.377	253.06
458.598	229.06
458.818	251.06
459.038	148.06
459.258	113.06
459.478	105.06
459.698	101.06
459.918	89.06
460.138	86.06
460.358	109.06
460.578	119.06
460.798	213.06
461.018	210.06
461.238	99.06
461.458	103.06
461.678	87.06
461.898	84.06
462.118	90.06
462.338	84.06
462.558	98.06
462.777	71.06
462.997	105.06
463.217	93.06
463.437	103.06
463.657	85.06
463.876	89.06
464.096	81.06
464.316	92.06
464.536	75.06
464.755	104.06
464.975	95.06
465.195	109.06
465.414	102.06
465.634	91.06
465.854	89.06
466.073	88.06
466.293	81.06
466.512	96.06
466.732	91.06
466.951	81.06
467.171	84.06
467.391	104.06
467.61	88.06
467.829	111.06
468.049	90.06
468.268	99.06
468.488	104.06
468.707	104.06
468.927	94.06
469.146	99.06
469.365	94.06
469.585	93.06
469.804	95.06
470.023	89.06
470.243	90.06
470.462	84.06
470.681	89.06
470.901	86.06
471.12	90.06
471.339	87.06
471.558	77.06
471.777	94.06
471.997	90.06
472.216	95.06
472.435	100.06
472.654	86.06
472.873	95.06
473.092	80.06
473.311	93.06
473.53	83.06
473.749	95.06
473.968	110.06
474.187	97.06
474.406	95.06
474.625	97.06
474.844	111.06
475.063	86.06
475.282	91.06
475.501	83.06
475.72	104.06
475.939	93.06
476.158	97.06
476.377	90.06
476.596	86.06
476.814	96.06
477.033	95.06
477.252	91.06
477.471	79.06
477.69	105.06
477.908	99.06
478.127	112.06
478.346	73.06
478.564	97.06
478.783	96.06
479.002	94.06
479.22	94.06
479.439	102.06
479.658	96.06
479.876	82.06
480.095	100.06
480.313	98.06
480.532	97.06
480.751	96.06
480.969	104.06
481.188	104.06
481.406	111.06
481.624	99.06
481.843	95.06
482.061	98.06
482.28	106.06
482.498	102.06
482.717	103.06
482.935	101.06
483.153	94.06
483.372	123.06
483.59	104.06
483.808	109.06
484.027	97.06
484.245	121.06
484.463	122.06
484.681	98.06
484.9	116.06
485.118	100.06
485.336	110.06
485.554	97.06
485.772	103.06
485.99	98.06
486.209	101.06
486.427	106.06
486.645	99.06
486.863	101.06
487.081	114.06
487.299	117.06
487.517	141.06
487.735	215.06
487.953	400.06
488.171	329.06
488.389	133.06
488.607	89.06
488.825	106.06
489.043	97.06
489.261	101.06
489.479	110.06
489.696	102.06
489.914	91.06
490.132	106.06
490.35	103.06
490.568	100.06
490.786	101.06
491.003	106.06
491.221	98.06
491.439	103.06
491.657	100.06
491.874	97.06
492.092	105.06
492.31	98.06
492.527	100.06
492.745	107.06
492.963	98.06
493.18	102.06
493.398	93.06
493.615	109.06
493.833	111.06
494.05	98.06
494.268	96.06
494.485	110.06
494.703	88.06
494.92	109.06
495.138	99.06
495.355	91.06
495.573	106.06
495.79	99.06
496.008	106.06
496.225	101.06
496.442	123.06
496.66	106.06
496.877	98.06
497.094	107.06
497.312	102.06
497.529	105.06
497.746	89.06
497.963	110.06
498.181	118.06
498.398	132.06
498.615	97.06
498.832	104.06
499.049	88.06
499.267	125.06
499.484	99.06
499.701	105.06
499.918	111.06
500.135	119.06
500.352	114.06
500.569	98.06
500.786	111.06
501.003	102.06
501.22	93.06
501.437	106.06
501.654	114.06
501.871	103.06
502.088	111.06
502.305	112.06
502.522	102.06
502.739	104.06
502.956	99.06
503.172	92.06
503.389	97.06
503.606	97.06
503.823	128.06
504.04	152.06
504.256	261.06
504.473	276.06
504.69	136.06
504.907	109.06
505.123	100.06
505.34	104.06
505.557	107.06
505.773	97.06
505.99	105.06
506.207	83.06
506.423	114.06
506.64	104.06
506.856	105.06
507.073	94.06
507.289	102.06
507.506	99.06
507.722	99.06
507.939	90.06
508.155	104.06
508.372	94.06
508.588	95.06
508.805	100.06
509.021	96.06
509.238	96.06
509.454	101.06
509.67	106.06
509.887	95.06
510.103	107.06
510.319	109.06
510.536	102.06
510.752	88.06
510.968	102.06
511.184	78.06
511.401	88.06
511.617	91.06
511.833	98.06
512.049	109.06
512.265	91.06
512.481	85.06
512.698	95.06
512.914	100.06
