Data from 17600_3_HRD10591_00041.txt Node
Date: Mon Jan 19 14:09:44 EST 2026
User: Yrep
Spectrometer: HR+D1059
Trigger mode: 1
Integration Time (sec): 1.000000E-1
Scans to average: 1
Electric dark correction enabled: true
Nonlinearity correction enabled: false
Boxcar width: 0
XAxis mode: Wavelengths
Number of Pixels in Spectrum: 2048
>>>>>Begin Spectral Data<<<<<
223.165	-11.75
223.4	-11.75
223.635	-11.75
223.869	-14.75
224.104	-27.75
224.338	-11.75
224.573	-18.75
224.808	-4.75
225.042	-6.75
225.277	-17.75
225.511	4.25
225.746	10.25
225.98	6.25
226.215	-4.75
226.449	12.25
226.683	9.25
226.918	38.25
227.152	38.25
227.387	21.25
227.621	35.25
227.856	53.25
228.09	39.25
228.324	43.25
228.559	39.25
228.793	55.25
229.027	43.25
229.262	64.25
229.496	58.25
229.73	53.25
229.964	78.25
230.199	70.25
230.433	69.25
230.667	75.25
230.901	71.25
231.136	75.25
231.37	78.25
231.604	80.25
231.838	72.25
232.072	83.25
232.306	63.25
232.541	79.25
232.775	74.25
233.009	64.25
233.243	86.25
233.477	75.25
233.711	78.25
233.945	89.25
234.179	76.25
234.413	68.25
234.647	76.25
234.881	73.25
235.115	83.25
235.349	81.25
235.583	86.25
235.817	71.25
236.051	69.25
236.285	83.25
236.519	55.25
236.753	66.25
236.987	74.25
237.221	71.25
237.455	78.25
237.689	79.25
237.922	72.25
238.156	70.25
238.39	69.25
238.624	67.25
238.858	66.25
239.091	78.25
239.325	69.25
239.559	71.25
239.793	73.25
240.027	72.25
240.26	79.25
240.494	69.25
240.728	74.25
240.961	82.25
241.195	76.25
241.429	68.25
241.662	79.25
241.896	88.25
242.13	74.25
242.363	67.25
242.597	88.25
242.83	68.25
243.064	80.25
243.298	76.25
243.531	71.25
243.765	79.25
243.998	91.25
244.232	85.25
244.465	77.25
244.699	71.25
244.932	75.25
245.166	83.25
245.399	75.25
245.633	67.25
245.866	63.25
246.099	63.25
246.333	60.25
246.566	73.25
246.8	74.25
247.033	72.25
247.266	73.25
247.5	84.25
247.733	80.25
247.966	85.25
248.2	67.25
248.433	82.25
248.666	82.25
248.899	76.25
249.133	74.25
249.366	76.25
249.599	81.25
249.832	54.25
250.066	82.25
250.299	82.25
250.532	69.25
250.765	82.25
250.998	64.25
251.231	57.25
251.465	89.25
251.698	89.25
251.931	74.25
252.164	79.25
252.397	79.25
252.63	75.25
252.863	76.25
253.096	81.25
253.329	85.25
253.562	72.25
253.795	75.25
254.028	71.25
254.261	66.25
254.494	74.25
254.727	77.25
254.96	84.25
255.193	81.25
255.426	64.25
255.659	76.25
255.892	84.25
256.124	67.25
256.357	82.25
256.59	76.25
256.823	84.25
257.056	81.25
257.289	68.25
257.521	83.25
257.754	80.25
257.987	86.25
258.22	73.25
258.452	82.25
258.685	92.25
258.918	69.25
259.151	77.25
259.383	65.25
259.616	71.25
259.849	72.25
260.081	78.25
260.314	77.25
260.547	82.25
260.779	79.25
261.012	95.25
261.244	80.25
261.477	91.25
261.71	81.25
261.942	68.25
262.175	63.25
262.407	72.25
262.64	85.25
262.872	77.25
263.105	93.25
263.337	85.25
263.57	77.25
263.802	81.25
264.035	86.25
264.267	70.25
264.499	92.25
264.732	81.25
264.964	81.25
265.197	84.25
265.429	71.25
265.661	75.25
265.894	74.25
266.126	85.25
266.358	78.25
266.591	85.25
266.823	81.25
267.055	63.25
267.287	73.25
267.52	83.25
267.752	77.25
267.984	81.25
268.216	96.25
268.448	77.25
268.681	65.25
268.913	77.25
269.145	77.25
269.377	79.25
269.609	73.25
269.841	82.25
270.073	85.25
270.306	83.25
270.538	76.25
270.77	90.25
271.002	81.25
271.234	75.25
271.466	75.25
271.698	76.25
271.93	75.25
272.162	80.25
272.394	79.25
272.626	67.25
272.858	69.25
273.09	79.25
273.322	76.25
273.553	96.25
273.785	78.25
274.017	87.25
274.249	61.25
274.481	89.25
274.713	86.25
274.945	86.25
275.176	74.25
275.408	82.25
275.64	83.25
275.872	81.25
276.104	77.25
276.335	87.25
276.567	78.25
276.799	68.25
277.031	81.25
277.262	85.25
277.494	66.25
277.726	87.25
277.957	75.25
278.189	94.25
278.421	81.25
278.652	80.25
278.884	69.25
279.115	63.25
279.347	88.25
279.579	83.25
279.81	75.25
280.042	79.25
280.273	76.25
280.505	89.25
280.736	81.25
280.968	80.25
281.199	99.25
281.431	100.25
281.662	83.25
281.894	78.25
282.125	94.25
282.356	91.25
282.588	69.25
282.819	64.25
283.051	76.25
283.282	69.25
283.513	79.25
283.745	81.25
283.976	81.25
284.207	82.25
284.439	88.25
284.67	86.25
284.901	95.25
285.132	77.25
285.364	83.25
285.595	71.25
285.826	76.25
286.057	82.25
286.288	84.25
286.52	93.25
286.751	83.25
286.982	70.25
287.213	70.25
287.444	89.25
287.675	93.25
287.906	84.25
288.138	79.25
288.369	93.25
288.6	87.25
288.831	75.25
289.062	70.25
289.293	67.25
289.524	80.25
289.755	85.25
289.986	79.25
290.217	83.25
290.448	88.25
290.679	86.25
290.91	83.25
291.141	85.25
291.371	92.25
291.602	93.25
291.833	80.25
292.064	68.25
292.295	83.25
292.526	87.25
292.757	82.25
292.987	91.25
293.218	67.25
293.449	79.25
293.68	83.25
293.91	81.25
294.141	102.25
294.372	73.25
294.603	68.25
294.833	96.25
295.064	83.25
295.295	87.25
295.525	93.25
295.756	83.25
295.987	67.25
296.217	89.25
296.448	79.25
296.679	81.25
296.909	88.25
297.14	80.25
297.37	97.25
297.601	84.25
297.831	84.25
298.062	72.25
298.292	74.25
298.523	70.25
298.753	67.25
298.984	79.25
299.214	86.25
299.445	92.25
299.675	91.25
299.905	77.25
300.136	87.25
300.366	84.25
300.597	85.25
300.827	91.25
301.057	77.25
301.288	83.25
301.518	68.25
301.748	93.25
301.979	94.25
302.209	97.25
302.439	68.25
302.669	83.25
302.9	79.25
303.13	90.25
303.36	76.25
303.59	88.25
303.82	79.25
304.051	66.25
304.281	87.25
304.511	77.25
304.741	104.25
304.971	72.25
305.201	83.25
305.431	72.25
305.661	79.25
305.891	83.25
306.121	77.25
306.352	82.25
306.582	85.25
306.812	82.25
307.042	83.25
307.272	71.25
307.502	76.25
307.731	75.25
307.961	83.25
308.191	91.25
308.421	85.25
308.651	88.25
308.881	68.25
309.111	65.25
309.341	74.25
309.571	82.25
309.8	80.25
310.03	87.25
310.26	82.25
310.49	73.25
310.72	88.25
310.949	79.25
311.179	87.25
311.409	80.25
311.639	80.25
311.868	79.25
312.098	80.25
312.328	76.25
312.557	78.25
312.787	68.25
313.017	74.25
313.246	55.25
313.476	77.25
313.706	79.25
313.935	78.25
314.165	73.25
314.394	81.25
314.624	84.25
314.853	84.25
315.083	81.25
315.312	81.25
315.542	104.25
315.771	82.25
316.001	100.25
316.23	91.25
316.46	76.25
316.689	77.25
316.919	80.25
317.148	91.25
317.377	98.25
317.607	81.25
317.836	96.25
318.065	109.25
318.295	103.25
318.524	93.25
318.753	83.25
318.983	88.25
319.212	90.25
319.441	69.25
319.67	81.25
319.9	85.25
320.129	84.25
320.358	81.25
320.587	88.25
320.816	76.25
321.046	84.25
321.275	95.25
321.504	94.25
321.733	86.25
321.962	77.25
322.191	82.25
322.42	81.25
322.649	78.25
322.878	84.25
323.108	88.25
323.337	81.25
323.566	83.25
323.795	87.25
324.024	84.25
324.253	78.25
324.482	63.25
324.71	81.25
324.939	88.25
325.168	72.25
325.397	96.25
325.626	85.25
325.855	65.25
326.084	86.25
326.313	80.25
326.542	79.25
326.77	91.25
326.999	87.25
327.228	81.25
327.457	77.25
327.686	72.25
327.914	87.25
328.143	81.25
328.372	77.25
328.6	81.25
328.829	86.25
329.058	79.25
329.287	84.25
329.515	87.25
329.744	85.25
329.972	85.25
330.201	73.25
330.43	86.25
330.658	91.25
330.887	101.25
331.115	87.25
331.344	84.25
331.572	91.25
331.801	96.25
332.03	85.25
332.258	77.25
332.486	78.25
332.715	84.25
332.943	74.25
333.172	71.25
333.4	88.25
333.629	72.25
333.857	87.25
334.085	85.25
334.314	78.25
334.542	90.25
334.771	88.25
334.999	77.25
335.227	84.25
335.455	85.25
335.684	91.25
335.912	79.25
336.14	95.25
336.369	88.25
336.597	81.25
336.825	89.25
337.053	91.25
337.281	80.25
337.51	77.25
337.738	79.25
337.966	70.25
338.194	71.25
338.422	85.25
338.65	84.25
338.878	72.25
339.106	81.25
339.334	80.25
339.562	76.25
339.79	72.25
340.018	81.25
340.246	74.25
340.474	83.25
340.702	90.25
340.93	72.25
341.158	84.25
341.386	84.25
341.614	85.25
341.842	83.25
342.07	91.25
342.298	88.25
342.526	86.25
342.754	83.25
342.981	87.25
343.209	83.25
343.437	95.25
343.665	81.25
343.893	93.25
344.12	77.25
344.348	71.25
344.576	79.25
344.804	82.25
345.031	95.25
345.259	73.25
345.487	78.25
345.714	75.25
345.942	85.25
346.17	82.25
346.397	83.25
346.625	79.25
346.853	67.25
347.08	86.25
347.308	86.25
347.535	78.25
347.763	78.25
347.99	96.25
348.218	88.25
348.445	87.25
348.673	73.25
348.9	76.25
349.128	83.25
349.355	99.25
349.583	85.25
349.81	86.25
350.037	79.25
350.265	81.25
350.492	86.25
350.72	76.25
350.947	77.25
351.174	79.25
351.402	79.25
351.629	86.25
351.856	87.25
352.083	93.25
352.311	85.25
352.538	80.25
352.765	71.25
352.992	99.25
353.22	78.25
353.447	71.25
353.674	83.25
353.901	84.25
354.128	77.25
354.355	84.25
354.583	71.25
354.81	88.25
355.037	87.25
355.264	76.25
355.491	76.25
355.718	67.25
355.945	75.25
356.172	72.25
356.399	87.25
356.626	86.25
356.853	80.25
357.08	77.25
357.307	79.25
357.534	77.25
357.761	86.25
357.988	93.25
358.215	96.25
358.441	92.25
358.668	88.25
358.895	91.25
359.122	67.25
359.349	90.25
359.576	95.25
359.802	79.25
360.029	77.25
360.256	93.25
360.483	87.25
360.709	82.25
360.936	80.25
361.163	91.25
361.39	91.25
361.616	87.25
361.843	80.25
362.07	76.25
362.296	81.25
362.523	99.25
362.749	97.25
362.976	94.25
363.203	98.25
363.429	94.25
363.656	70.25
363.882	88.25
364.109	81.25
364.335	87.25
364.562	107.25
364.788	89.25
365.015	77.25
365.241	81.25
365.468	92.25
365.694	88.25
365.92	76.25
366.147	69.25
366.373	86.25
366.599	75.25
366.826	93.25
367.052	73.25
367.278	86.25
367.505	94.25
367.731	86.25
367.957	79.25
368.184	75.25
368.41	80.25
368.636	83.25
368.862	75.25
369.089	79.25
369.315	74.25
369.541	73.25
369.767	87.25
369.993	91.25
370.219	75.25
370.445	87.25
370.672	103.25
370.898	88.25
371.124	80.25
371.35	73.25
371.576	81.25
371.802	88.25
372.028	88.25
372.254	93.25
372.48	75.25
372.706	89.25
372.932	71.25
373.158	72.25
373.384	101.25
373.61	106.25
373.835	100.25
374.061	92.25
374.287	88.25
374.513	70.25
374.739	81.25
374.965	88.25
375.191	78.25
375.416	91.25
375.642	85.25
375.868	99.25
376.094	83.25
376.319	94.25
376.545	73.25
376.771	70.25
376.997	78.25
377.222	95.25
377.448	81.25
377.674	63.25
377.899	77.25
378.125	70.25
378.35	81.25
378.576	87.25
378.802	86.25
379.027	73.25
379.253	77.25
379.478	90.25
379.704	70.25
379.929	77.25
380.155	86.25
380.38	77.25
380.606	92.25
380.831	94.25
381.057	80.25
381.282	85.25
381.507	84.25
381.733	86.25
381.958	89.25
382.184	79.25
382.409	73.25
382.634	93.25
382.86	94.25
383.085	102.25
383.31	85.25
383.535	79.25
383.761	88.25
383.986	85.25
384.211	81.25
384.436	91.25
384.662	83.25
384.887	84.25
385.112	84.25
385.337	97.25
385.562	92.25
385.787	84.25
386.013	86.25
386.238	91.25
386.463	78.25
386.688	92.25
386.913	82.25
387.138	80.25
387.363	74.25
387.588	84.25
387.813	63.25
388.038	100.25
388.263	90.25
388.488	92.25
388.713	86.25
388.938	79.25
389.163	79.25
389.387	80.25
389.612	93.25
389.837	85.25
390.062	87.25
390.287	84.25
390.512	70.25
390.736	74.25
390.961	88.25
391.186	77.25
391.411	92.25
391.636	79.25
391.86	85.25
392.085	82.25
392.31	79.25
392.534	100.25
392.759	100.25
392.984	148.25
393.208	273.25
393.433	402.25
393.658	307.25
393.882	140.25
394.107	114.25
394.331	101.25
394.556	97.25
394.78	93.25
395.005	83.25
395.229	87.25
395.454	79.25
395.678	98.25
395.903	106.25
396.127	114.25
396.352	128.25
396.576	173.25
396.801	258.25
397.025	329.25
397.249	173.25
397.474	102.25
397.698	101.25
397.922	85.25
398.147	89.25
398.371	92.25
398.595	81.25
398.82	95.25
399.044	78.25
399.268	77.25
399.492	82.25
399.717	77.25
399.941	81.25
400.165	78.25
400.389	73.25
400.613	91.25
400.837	83.25
401.062	79.25
401.286	77.25
401.51	79.25
401.734	72.25
401.958	87.25
402.182	79.25
402.406	83.25
402.63	67.25
402.854	72.25
403.078	81.25
403.302	74.25
403.526	79.25
403.75	87.25
403.974	76.25
404.198	68.25
404.422	71.25
404.645	78.25
404.869	77.25
405.093	71.25
405.317	82.25
405.541	67.25
405.765	80.25
405.988	86.25
406.212	85.25
406.436	76.25
406.66	74.25
406.883	85.25
407.107	81.25
407.331	75.25
407.555	102.25
407.778	122.25
408.002	129.25
408.226	92.25
408.449	80.25
408.673	92.25
408.896	87.25
409.12	66.25
409.344	87.25
409.567	85.25
409.791	83.25
410.014	87.25
410.238	74.25
410.461	78.25
410.685	88.25
410.908	90.25
411.132	72.25
411.355	81.25
411.578	82.25
411.802	72.25
412.025	82.25
412.249	71.25
412.472	85.25
412.695	85.25
412.919	81.25
413.142	79.25
413.365	77.25
413.589	85.25
413.812	82.25
414.035	78.25
414.258	77.25
414.482	72.25
414.705	70.25
414.928	76.25
415.151	92.25
415.374	81.25
415.597	88.25
415.821	77.25
416.044	75.25
416.267	82.25
416.49	87.25
416.713	66.25
416.936	93.25
417.159	81.25
417.382	84.25
417.605	74.25
417.828	73.25
418.051	81.25
418.274	71.25
418.497	73.25
418.72	90.25
418.943	87.25
419.166	85.25
419.389	77.25
419.611	72.25
419.834	76.25
420.057	85.25
420.28	92.25
420.503	83.25
420.726	83.25
420.948	80.25
421.171	84.25
421.394	92.25
421.617	112.25
421.839	116.25
422.062	95.25
422.285	118.25
422.507	171.25
422.73	298.25
422.953	254.25
423.175	148.25
423.398	107.25
423.621	88.25
423.843	91.25
424.066	87.25
424.288	95.25
424.511	85.25
424.733	79.25
424.956	71.25
425.178	81.25
425.401	75.25
425.623	76.25
425.846	86.25
426.068	85.25
426.291	81.25
426.513	79.25
426.735	81.25
426.958	75.25
427.18	84.25
427.402	89.25
427.625	76.25
427.847	84.25
428.069	88.25
428.292	104.25
428.514	118.25
428.736	99.25
428.958	98.25
429.181	108.25
429.403	88.25
429.625	79.25
429.847	103.25
430.069	128.25
430.292	152.25
430.514	132.25
430.736	104.25
430.958	108.25
431.18	83.25
431.402	87.25
431.624	86.25
431.846	97.25
432.068	126.25
432.29	82.25
432.512	79.25
432.734	77.25
432.956	76.25
433.178	77.25
433.4	93.25
433.622	88.25
433.844	85.25
434.066	92.25
434.287	83.25
434.509	72.25
434.731	81.25
434.953	71.25
435.175	71.25
435.397	83.25
435.618	95.25
435.84	87.25
436.062	69.25
436.284	83.25
436.505	77.25
436.727	76.25
436.949	71.25
437.17	81.25
437.392	83.25
437.614	77.25
437.835	89.25
438.057	77.25
438.278	84.25
438.5	82.25
438.721	84.25
438.943	66.25
439.165	82.25
439.386	65.25
439.608	80.25
439.829	75.25
440.05	87.25
440.272	77.25
440.493	71.25
440.715	87.25
440.936	83.25
441.158	87.25
441.379	72.25
441.6	65.25
441.822	84.25
442.043	66.25
442.264	93.25
442.486	100.25
442.707	120.25
442.928	99.25
443.149	100.25
443.371	113.25
443.592	172.25
443.813	156.25
444.034	85.25
444.255	97.25
444.476	80.25
444.698	82.25
444.919	78.25
445.14	164.25
445.361	155.25
445.582	215.25
445.803	180.25
446.024	104.25
446.245	71.25
446.466	78.25
446.687	80.25
446.908	79.25
447.129	86.25
447.35	68.25
447.571	83.25
447.792	75.25
448.013	69.25
448.234	77.25
448.455	85.25
448.675	87.25
448.896	84.25
449.117	61.25
449.338	82.25
449.559	82.25
449.779	80.25
450	72.25
450.221	81.25
450.442	77.25
450.662	70.25
450.883	72.25
451.104	75.25
451.324	93.25
451.545	67.25
451.766	71.25
451.986	83.25
452.207	78.25
452.428	76.25
452.648	87.25
452.869	81.25
453.089	74.25
453.31	88.25
453.53	78.25
453.751	84.25
453.971	78.25
454.192	78.25
454.412	80.25
454.633	88.25
454.853	84.25
455.073	68.25
455.294	79.25
455.514	94.25
455.734	77.25
455.955	70.25
456.175	63.25
456.395	87.25
456.616	77.25
456.836	65.25
457.056	78.25
457.276	81.25
457.497	78.25
457.717	85.25
457.937	82.25
458.157	112.25
458.377	99.25
458.598	91.25
458.818	94.25
459.038	82.25
459.258	85.25
459.478	70.25
459.698	72.25
459.918	87.25
460.138	84.25
460.358	77.25
460.578	92.25
460.798	120.25
461.018	103.25
461.238	89.25
461.458	87.25
461.678	89.25
461.898	77.25
462.118	85.25
462.338	94.25
462.558	83.25
462.777	72.25
462.997	73.25
463.217	85.25
463.437	81.25
463.657	75.25
463.876	84.25
464.096	80.25
464.316	77.25
464.536	79.25
464.755	72.25
464.975	79.25
465.195	87.25
465.414	95.25
465.634	84.25
465.854	65.25
466.073	63.25
466.293	88.25
466.512	80.25
466.732	80.25
466.951	82.25
467.171	81.25
467.391	84.25
467.61	78.25
467.829	81.25
468.049	93.25
468.268	81.25
468.488	77.25
468.707	72.25
468.927	75.25
469.146	72.25
469.365	77.25
469.585	71.25
469.804	81.25
470.023	87.25
470.243	81.25
470.462	88.25
470.681	74.25
470.901	80.25
471.12	78.25
471.339	79.25
471.558	81.25
471.777	68.25
471.997	88.25
472.216	87.25
472.435	80.25
472.654	64.25
472.873	72.25
473.092	81.25
473.311	79.25
473.53	84.25
473.749	91.25
473.968	80.25
474.187	82.25
474.406	91.25
474.625	83.25
474.844	85.25
475.063	88.25
475.282	84.25
475.501	72.25
475.72	102.25
475.939	84.25
476.158	95.25
476.377	70.25
476.596	90.25
476.814	96.25
477.033	78.25
477.252	71.25
477.471	82.25
477.69	81.25
477.908	80.25
478.127	74.25
478.346	85.25
478.564	81.25
478.783	75.25
479.002	88.25
479.22	79.25
479.439	84.25
479.658	81.25
479.876	73.25
480.095	70.25
480.313	73.25
480.532	74.25
480.751	73.25
480.969	69.25
481.188	86.25
481.406	89.25
481.624	88.25
481.843	85.25
482.061	82.25
482.28	95.25
482.498	75.25
482.717	85.25
482.935	97.25
483.153	83.25
483.372	68.25
483.59	81.25
483.808	80.25
484.027	85.25
484.245	67.25
484.463	89.25
484.681	89.25
484.9	76.25
485.118	81.25
485.336	71.25
485.554	74.25
485.772	84.25
485.99	81.25
486.209	86.25
486.427	75.25
486.645	86.25
486.863	73.25
487.081	77.25
487.299	79.25
487.517	84.25
487.735	100.25
487.953	134.25
488.171	103.25
488.389	87.25
488.607	79.25
488.825	71.25
489.043	79.25
489.261	83.25
489.479	69.25
489.696	88.25
489.914	74.25
490.132	77.25
490.35	76.25
490.568	76.25
490.786	74.25
491.003	79.25
491.221	87.25
491.439	88.25
491.657	85.25
491.874	96.25
492.092	74.25
492.31	81.25
492.527	91.25
492.745	70.25
492.963	82.25
493.18	93.25
493.398	87.25
493.615	79.25
493.833	86.25
494.05	81.25
494.268	84.25
494.485	78.25
494.703	61.25
494.92	71.25
495.138	83.25
495.355	79.25
495.573	73.25
495.79	90.25
496.008	80.25
496.225	90.25
496.442	97.25
496.66	91.25
496.877	78.25
497.094	86.25
497.312	89.25
497.529	84.25
497.746	70.25
497.963	104.25
498.181	80.25
498.398	87.25
498.615	95.25
498.832	74.25
499.049	80.25
499.267	78.25
499.484	67.25
499.701	79.25
499.918	89.25
500.135	80.25
500.352	74.25
500.569	82.25
500.786	88.25
501.003	84.25
501.22	68.25
501.437	85.25
501.654	81.25
501.871	72.25
502.088	71.25
502.305	86.25
502.522	86.25
502.739	82.25
502.956	66.25
503.172	86.25
503.389	92.25
503.606	87.25
503.823	87.25
504.04	80.25
504.256	111.25
504.473	99.25
504.69	81.25
504.907	87.25
505.123	63.25
505.34	79.25
505.557	93.25
505.773	84.25
505.99	92.25
506.207	79.25
506.423	75.25
506.64	86.25
506.856	79.25
507.073	81.25
507.289	80.25
507.506	85.25
507.722	80.25
507.939	83.25
508.155	95.25
508.372	76.25
508.588	82.25
508.805	82.25
509.021	92.25
509.238	78.25
509.454	74.25
509.67	90.25
509.887	74.25
510.103	77.25
510.319	97.25
510.536	91.25
510.752	80.25
510.968	92.25
511.184	79.25
511.401	79.25
511.617	69.25
511.833	71.25
512.049	81.25
512.265	88.25
512.481	68.25
512.698	89.25
512.914	85.25
513.13	79.25
513.346	74.25
513.562	79.25
513.778	83.25
513.994	71.25
514.21	81.25
514.426	79.25
514.642	83.25
514.858	89.25
515.074	82.25
515.29	108.25
515.506	80.25
515.721	70.25
515.937	87.25
516.153	81.25
516.369	99.25
516.585	80.25
516.801	89.25
517.016	80.25
517.232	79.25
517.448	90.25
517.664	87.25
517.879	81.25
518.095	86.25
518.311	85.25
518.527	89.25
518.742	85.25
518.958	107.25
519.173	133.25
