Data from 17600_3_HRD10591_00030.txt Node
Date: Mon Jan 19 14:09:38 EST 2026
User: Yrep
Spectrometer: HR+D1059
Trigger mode: 1
Integration Time (sec): 1.000000E-1
Scans to average: 1
Electric dark correction enabled: true
Nonlinearity correction enabled: false
Boxcar width: 0
XAxis mode: Wavelengths
Number of Pixels in Spectrum: 2048
>>>>>Begin Spectral Data<<<<<
223.165	-3.44
223.4	-3.44
223.635	-3.44
223.869	-21.44
224.104	-17.44
224.338	-11.44
224.573	-24.44
224.808	-19.44
225.042	-6.44
225.277	-8.44
225.511	2.56
225.746	0.56
225.98	10.56
226.215	13.56
226.449	11.56
226.683	12.56
226.918	22.56
227.152	38.56
227.387	26.56
227.621	48.56
227.856	61.56
228.09	50.56
228.324	38.56
228.559	50.56
228.793	50.56
229.027	81.56
229.262	64.56
229.496	67.56
229.73	64.56
229.964	81.56
230.199	89.56
230.433	85.56
230.667	70.56
230.901	70.56
231.136	90.56
231.37	97.56
231.604	78.56
231.838	81.56
232.072	90.56
232.306	86.56
232.541	72.56
232.775	90.56
233.009	80.56
233.243	78.56
233.477	82.56
233.711	71.56
233.945	82.56
234.179	80.56
234.413	88.56
234.647	80.56
234.881	81.56
235.115	86.56
235.349	81.56
235.583	87.56
235.817	78.56
236.051	85.56
236.285	71.56
236.519	77.56
236.753	73.56
236.987	74.56
237.221	80.56
237.455	76.56
237.689	72.56
237.922	76.56
238.156	73.56
238.39	68.56
238.624	72.56
238.858	73.56
239.091	82.56
239.325	63.56
239.559	83.56
239.793	53.56
240.027	64.56
240.26	82.56
240.494	85.56
240.728	82.56
240.961	66.56
241.195	79.56
241.429	66.56
241.662	69.56
241.896	62.56
242.13	69.56
242.363	75.56
242.597	71.56
242.83	72.56
243.064	74.56
243.298	75.56
243.531	82.56
243.765	84.56
243.998	83.56
244.232	80.56
244.465	73.56
244.699	88.56
244.932	74.56
245.166	86.56
245.399	95.56
245.633	74.56
245.866	76.56
246.099	70.56
246.333	77.56
246.566	76.56
246.8	90.56
247.033	72.56
247.266	76.56
247.5	89.56
247.733	91.56
247.966	70.56
248.2	79.56
248.433	78.56
248.666	82.56
248.899	89.56
249.133	79.56
249.366	89.56
249.599	74.56
249.832	81.56
250.066	81.56
250.299	87.56
250.532	73.56
250.765	82.56
250.998	87.56
251.231	78.56
251.465	74.56
251.698	92.56
251.931	73.56
252.164	89.56
252.397	86.56
252.63	83.56
252.863	76.56
253.096	76.56
253.329	96.56
253.562	82.56
253.795	73.56
254.028	59.56
254.261	93.56
254.494	82.56
254.727	78.56
254.96	88.56
255.193	94.56
255.426	76.56
255.659	74.56
255.892	91.56
256.124	74.56
256.357	83.56
256.59	84.56
256.823	87.56
257.056	87.56
257.289	81.56
257.521	82.56
257.754	81.56
257.987	83.56
258.22	73.56
258.452	81.56
258.685	88.56
258.918	82.56
259.151	74.56
259.383	86.56
259.616	88.56
259.849	67.56
260.081	86.56
260.314	68.56
260.547	83.56
260.779	87.56
261.012	71.56
261.244	78.56
261.477	80.56
261.71	69.56
261.942	84.56
262.175	82.56
262.407	83.56
262.64	91.56
262.872	86.56
263.105	75.56
263.337	90.56
263.57	90.56
263.802	81.56
264.035	80.56
264.267	90.56
264.499	87.56
264.732	86.56
264.964	69.56
265.197	77.56
265.429	90.56
265.661	76.56
265.894	86.56
266.126	82.56
266.358	91.56
266.591	84.56
266.823	84.56
267.055	81.56
267.287	90.56
267.52	82.56
267.752	83.56
267.984	86.56
268.216	76.56
268.448	81.56
268.681	82.56
268.913	72.56
269.145	82.56
269.377	90.56
269.609	84.56
269.841	100.56
270.073	79.56
270.306	89.56
270.538	81.56
270.77	80.56
271.002	86.56
271.234	90.56
271.466	82.56
271.698	88.56
271.93	88.56
272.162	92.56
272.394	80.56
272.626	86.56
272.858	94.56
273.09	94.56
273.322	94.56
273.553	76.56
273.785	87.56
274.017	92.56
274.249	79.56
274.481	76.56
274.713	84.56
274.945	87.56
275.176	62.56
275.408	96.56
275.64	78.56
275.872	84.56
276.104	82.56
276.335	85.56
276.567	80.56
276.799	66.56
277.031	75.56
277.262	88.56
277.494	96.56
277.726	77.56
277.957	82.56
278.189	75.56
278.421	82.56
278.652	82.56
278.884	72.56
279.115	76.56
279.347	87.56
279.579	86.56
279.81	74.56
280.042	81.56
280.273	84.56
280.505	78.56
280.736	79.56
280.968	92.56
281.199	96.56
281.431	88.56
281.662	103.56
281.894	91.56
282.125	91.56
282.356	80.56
282.588	73.56
282.819	86.56
283.051	84.56
283.282	87.56
283.513	92.56
283.745	80.56
283.976	80.56
284.207	91.56
284.439	89.56
284.67	82.56
284.901	75.56
285.132	102.56
285.364	92.56
285.595	92.56
285.826	93.56
286.057	82.56
286.288	74.56
286.52	80.56
286.751	90.56
286.982	71.56
287.213	92.56
287.444	83.56
287.675	90.56
287.906	97.56
288.138	84.56
288.369	95.56
288.6	78.56
288.831	77.56
289.062	82.56
289.293	100.56
289.524	89.56
289.755	75.56
289.986	67.56
290.217	83.56
290.448	85.56
290.679	70.56
290.91	81.56
291.141	94.56
291.371	89.56
291.602	83.56
291.833	71.56
292.064	83.56
292.295	75.56
292.526	80.56
292.757	74.56
292.987	84.56
293.218	77.56
293.449	90.56
293.68	82.56
293.91	77.56
294.141	77.56
294.372	72.56
294.603	92.56
294.833	86.56
295.064	104.56
295.295	91.56
295.525	72.56
295.756	70.56
295.987	88.56
296.217	87.56
296.448	85.56
296.679	76.56
296.909	90.56
297.14	85.56
297.37	89.56
297.601	84.56
297.831	96.56
298.062	72.56
298.292	84.56
298.523	91.56
298.753	91.56
298.984	88.56
299.214	73.56
299.445	88.56
299.675	88.56
299.905	79.56
300.136	88.56
300.366	95.56
300.597	84.56
300.827	88.56
301.057	85.56
301.288	85.56
301.518	92.56
301.748	91.56
301.979	121.56
302.209	92.56
302.439	82.56
302.669	92.56
302.9	82.56
303.13	85.56
303.36	89.56
303.59	86.56
303.82	98.56
304.051	82.56
304.281	87.56
304.511	102.56
304.741	86.56
304.971	81.56
305.201	87.56
305.431	94.56
305.661	86.56
305.891	88.56
306.121	88.56
306.352	90.56
306.582	98.56
306.812	81.56
307.042	79.56
307.272	84.56
307.502	87.56
307.731	76.56
307.961	97.56
308.191	76.56
308.421	95.56
308.651	94.56
308.881	98.56
309.111	90.56
309.341	78.56
309.571	82.56
309.8	88.56
310.03	84.56
310.26	70.56
310.49	85.56
310.72	80.56
310.949	67.56
311.179	95.56
311.409	82.56
311.639	91.56
311.868	87.56
312.098	87.56
312.328	86.56
312.557	88.56
312.787	67.56
313.017	80.56
313.246	101.56
313.476	82.56
313.706	86.56
313.935	75.56
314.165	86.56
314.394	90.56
314.624	81.56
314.853	93.56
315.083	83.56
315.312	80.56
315.542	91.56
315.771	92.56
316.001	88.56
316.23	102.56
316.46	95.56
316.689	88.56
316.919	91.56
317.148	99.56
317.377	94.56
317.607	100.56
317.836	97.56
318.065	90.56
318.295	80.56
318.524	86.56
318.753	97.56
318.983	77.56
319.212	85.56
319.441	79.56
319.67	74.56
319.9	88.56
320.129	82.56
320.358	76.56
320.587	88.56
320.816	94.56
321.046	84.56
321.275	87.56
321.504	91.56
321.733	89.56
321.962	86.56
322.191	84.56
322.42	100.56
322.649	92.56
322.878	98.56
323.108	88.56
323.337	81.56
323.566	84.56
323.795	86.56
324.024	87.56
324.253	92.56
324.482	92.56
324.71	91.56
324.939	92.56
325.168	84.56
325.397	92.56
325.626	100.56
325.855	90.56
326.084	89.56
326.313	91.56
326.542	92.56
326.77	79.56
326.999	82.56
327.228	84.56
327.457	92.56
327.686	100.56
327.914	105.56
328.143	97.56
328.372	82.56
328.6	89.56
328.829	88.56
329.058	87.56
329.287	100.56
329.515	93.56
329.744	74.56
329.972	86.56
330.201	97.56
330.43	82.56
330.658	99.56
330.887	78.56
331.115	89.56
331.344	89.56
331.572	96.56
331.801	88.56
332.03	97.56
332.258	86.56
332.486	87.56
332.715	77.56
332.943	77.56
333.172	87.56
333.4	88.56
333.629	81.56
333.857	84.56
334.085	72.56
334.314	97.56
334.542	97.56
334.771	84.56
334.999	90.56
335.227	98.56
335.455	93.56
335.684	107.56
335.912	104.56
336.14	103.56
336.369	92.56
336.597	84.56
336.825	85.56
337.053	88.56
337.281	83.56
337.51	94.56
337.738	92.56
337.966	84.56
338.194	108.56
338.422	84.56
338.65	81.56
338.878	80.56
339.106	101.56
339.334	86.56
339.562	85.56
339.79	81.56
340.018	84.56
340.246	77.56
340.474	94.56
340.702	78.56
340.93	82.56
341.158	100.56
341.386	87.56
341.614	94.56
341.842	85.56
342.07	81.56
342.298	84.56
342.526	79.56
342.754	73.56
342.981	74.56
343.209	95.56
343.437	102.56
343.665	87.56
343.893	102.56
344.12	92.56
344.348	87.56
344.576	93.56
344.804	82.56
345.031	82.56
345.259	89.56
345.487	96.56
345.714	84.56
345.942	101.56
346.17	86.56
346.397	97.56
346.625	78.56
346.853	95.56
347.08	77.56
347.308	85.56
347.535	78.56
347.763	80.56
347.99	91.56
348.218	94.56
348.445	82.56
348.673	80.56
348.9	97.56
349.128	94.56
349.355	82.56
349.583	92.56
349.81	86.56
350.037	82.56
350.265	83.56
350.492	91.56
350.72	85.56
350.947	90.56
351.174	83.56
351.402	94.56
351.629	86.56
351.856	90.56
352.083	78.56
352.311	89.56
352.538	100.56
352.765	81.56
352.992	101.56
353.22	73.56
353.447	87.56
353.674	79.56
353.901	89.56
354.128	95.56
354.355	91.56
354.583	94.56
354.81	95.56
355.037	67.56
355.264	85.56
355.491	84.56
355.718	97.56
355.945	78.56
356.172	94.56
356.399	98.56
356.626	92.56
356.853	70.56
357.08	100.56
357.307	99.56
357.534	79.56
357.761	85.56
357.988	96.56
358.215	95.56
358.441	95.56
358.668	91.56
358.895	95.56
359.122	96.56
359.349	102.56
359.576	84.56
359.802	80.56
360.029	86.56
360.256	91.56
360.483	98.56
360.709	99.56
360.936	90.56
361.163	94.56
361.39	75.56
361.616	91.56
361.843	79.56
362.07	104.56
362.296	91.56
362.523	100.56
362.749	100.56
362.976	118.56
363.203	144.56
363.429	112.56
363.656	87.56
363.882	102.56
364.109	124.56
364.335	130.56
364.562	130.56
364.788	122.56
365.015	86.56
365.241	91.56
365.468	84.56
365.694	70.56
365.92	84.56
366.147	85.56
366.373	72.56
366.599	82.56
366.826	81.56
367.052	77.56
367.278	95.56
367.505	92.56
367.731	89.56
367.957	87.56
368.184	87.56
368.41	97.56
368.636	81.56
368.862	83.56
369.089	97.56
369.315	95.56
369.541	80.56
369.767	91.56
369.993	100.56
370.219	79.56
370.445	81.56
370.672	91.56
370.898	94.56
371.124	88.56
371.35	88.56
371.576	89.56
371.802	93.56
372.028	94.56
372.254	91.56
372.48	97.56
372.706	95.56
372.932	74.56
373.158	86.56
373.384	110.56
373.61	121.56
373.835	120.56
374.061	91.56
374.287	95.56
374.513	112.56
374.739	99.56
374.965	82.56
375.191	82.56
375.416	106.56
375.642	108.56
375.868	96.56
376.094	84.56
376.319	98.56
376.545	96.56
376.771	96.56
376.997	86.56
377.222	77.56
377.448	87.56
377.674	77.56
377.899	75.56
378.125	106.56
378.35	75.56
378.576	100.56
378.802	70.56
379.027	96.56
379.253	100.56
379.478	90.56
379.704	98.56
379.929	79.56
380.155	90.56
380.38	80.56
380.606	89.56
380.831	92.56
381.057	90.56
381.282	78.56
381.507	78.56
381.733	92.56
381.958	104.56
382.184	99.56
382.409	86.56
382.634	86.56
382.86	103.56
383.085	87.56
383.31	96.56
383.535	103.56
383.761	101.56
383.986	83.56
384.211	100.56
384.436	87.56
384.662	97.56
384.887	106.56
385.112	103.56
385.337	90.56
385.562	105.56
385.787	88.56
386.013	101.56
386.238	89.56
386.463	96.56
386.688	103.56
386.913	94.56
387.138	105.56
387.363	103.56
387.588	100.56
387.813	111.56
388.038	83.56
388.263	96.56
388.488	96.56
388.713	109.56
388.938	86.56
389.163	92.56
389.387	90.56
389.612	89.56
389.837	98.56
390.062	106.56
390.287	97.56
390.512	97.56
390.736	89.56
390.961	75.56
391.186	88.56
391.411	80.56
391.636	90.56
391.86	92.56
392.085	102.56
392.31	95.56
392.534	99.56
392.759	122.56
392.984	155.56
393.208	243.56
393.433	357.56
393.658	272.56
393.882	120.56
394.107	116.56
394.331	124.56
394.556	108.56
394.78	95.56
395.005	94.56
395.229	86.56
395.454	93.56
395.678	99.56
395.903	127.56
396.127	143.56
396.352	177.56
396.576	171.56
396.801	244.56
397.025	284.56
397.249	161.56
397.474	126.56
397.698	104.56
397.922	95.56
398.147	86.56
398.371	98.56
398.595	88.56
398.82	82.56
399.044	95.56
399.268	88.56
399.492	95.56
399.717	91.56
399.941	87.56
400.165	92.56
400.389	77.56
400.613	93.56
400.837	88.56
401.062	88.56
401.286	79.56
401.51	72.56
401.734	90.56
401.958	93.56
402.182	78.56
402.406	91.56
402.63	86.56
402.854	87.56
403.078	92.56
403.302	99.56
403.526	96.56
403.75	93.56
403.974	88.56
404.198	82.56
404.422	88.56
404.645	96.56
404.869	90.56
405.093	96.56
405.317	87.56
405.541	91.56
405.765	94.56
405.988	95.56
406.212	87.56
406.436	101.56
406.66	82.56
406.883	88.56
407.107	88.56
407.331	88.56
407.555	100.56
407.778	100.56
408.002	112.56
408.226	86.56
408.449	73.56
408.673	74.56
408.896	77.56
409.12	100.56
409.344	94.56
409.567	103.56
409.791	94.56
410.014	110.56
410.238	94.56
410.461	92.56
410.685	70.56
410.908	84.56
411.132	93.56
411.355	98.56
411.578	88.56
411.802	73.56
412.025	80.56
412.249	84.56
412.472	77.56
412.695	68.56
412.919	82.56
413.142	97.56
413.365	95.56
413.589	82.56
413.812	88.56
414.035	84.56
414.258	80.56
414.482	79.56
414.705	68.56
414.928	85.56
415.151	83.56
415.374	90.56
415.597	85.56
415.821	82.56
416.044	73.56
416.267	82.56
416.49	92.56
416.713	80.56
416.936	90.56
417.159	83.56
417.382	84.56
417.605	95.56
417.828	100.56
418.051	101.56
418.274	86.56
418.497	88.56
418.72	87.56
418.943	79.56
419.166	72.56
419.389	86.56
419.611	79.56
419.834	93.56
420.057	98.56
420.28	84.56
420.503	96.56
420.726	95.56
420.948	99.56
421.171	90.56
421.394	114.56
421.617	130.56
421.839	139.56
422.062	115.56
422.285	169.56
422.507	256.56
422.73	377.56
422.953	324.56
423.175	190.56
423.398	125.56
423.621	98.56
423.843	116.56
424.066	106.56
424.288	85.56
424.511	104.56
424.733	96.56
424.956	76.56
425.178	83.56
425.401	89.56
425.623	72.56
425.846	81.56
426.068	84.56
426.291	97.56
426.513	82.56
426.735	87.56
426.958	96.56
427.18	86.56
427.402	87.56
427.625	96.56
427.847	88.56
428.069	93.56
428.292	114.56
428.514	133.56
428.736	100.56
428.958	115.56
429.181	117.56
429.403	88.56
429.625	99.56
429.847	105.56
430.069	144.56
430.292	177.56
430.514	146.56
430.736	124.56
430.958	128.56
431.18	85.56
431.402	99.56
431.624	92.56
431.846	120.56
432.068	125.56
432.29	111.56
432.512	89.56
432.734	98.56
432.956	80.56
433.178	98.56
433.4	78.56
433.622	84.56
433.844	76.56
434.066	85.56
434.287	98.56
434.509	91.56
434.731	86.56
434.953	96.56
435.175	85.56
435.397	89.56
435.618	106.56
435.84	82.56
436.062	102.56
436.284	101.56
436.505	77.56
436.727	77.56
436.949	85.56
437.17	87.56
437.392	76.56
437.614	91.56
437.835	76.56
438.057	87.56
438.278	78.56
438.5	90.56
438.721	97.56
438.943	84.56
439.165	93.56
439.386	95.56
439.608	89.56
439.829	86.56
440.05	92.56
440.272	88.56
440.493	80.56
440.715	94.56
440.936	87.56
441.158	80.56
441.379	94.56
441.6	91.56
441.822	94.56
442.043	93.56
442.264	95.56
442.486	127.56
442.707	154.56
442.928	118.56
443.149	96.56
443.371	149.56
443.592	238.56
443.813	201.56
444.034	114.56
444.255	107.56
444.476	110.56
444.698	90.56
444.919	86.56
445.14	158.56
445.361	202.56
445.582	270.56
445.803	226.56
446.024	122.56
446.245	101.56
446.466	97.56
446.687	91.56
446.908	103.56
447.129	92.56
447.35	84.56
447.571	79.56
447.792	81.56
448.013	97.56
448.234	84.56
448.455	84.56
448.675	90.56
448.896	83.56
449.117	88.56
449.338	82.56
449.559	88.56
449.779	92.56
450	89.56
450.221	84.56
450.442	91.56
450.662	76.56
450.883	75.56
451.104	90.56
451.324	89.56
451.545	83.56
451.766	85.56
451.986	91.56
452.207	74.56
452.428	91.56
452.648	92.56
452.869	107.56
453.089	107.56
453.31	93.56
453.53	82.56
453.751	85.56
453.971	79.56
454.192	87.56
454.412	90.56
454.633	81.56
454.853	78.56
455.073	82.56
455.294	71.56
455.514	74.56
455.734	87.56
455.955	81.56
456.175	70.56
456.395	88.56
456.616	86.56
456.836	82.56
457.056	74.56
457.276	80.56
457.497	83.56
457.717	97.56
457.937	111.56
458.157	139.56
458.377	130.56
458.598	123.56
458.818	125.56
459.038	104.56
459.258	86.56
459.478	83.56
459.698	82.56
459.918	86.56
460.138	92.56
460.358	95.56
460.578	96.56
460.798	132.56
461.018	130.56
461.238	86.56
461.458	92.56
461.678	94.56
461.898	93.56
462.118	89.56
462.338	92.56
462.558	87.56
462.777	91.56
462.997	98.56
463.217	96.56
463.437	91.56
463.657	87.56
463.876	88.56
464.096	95.56
464.316	73.56
464.536	88.56
464.755	94.56
464.975	84.56
465.195	76.56
465.414	86.56
465.634	76.56
465.854	81.56
466.073	86.56
466.293	85.56
466.512	87.56
466.732	76.56
466.951	79.56
467.171	86.56
467.391	72.56
467.61	92.56
467.829	87.56
468.049	76.56
468.268	86.56
468.488	80.56
468.707	99.56
468.927	94.56
469.146	84.56
469.365	90.56
469.585	84.56
469.804	84.56
470.023	89.56
470.243	80.56
470.462	82.56
470.681	91.56
470.901	85.56
471.12	98.56
471.339	76.56
471.558	83.56
471.777	82.56
471.997	87.56
472.216	98.56
472.435	82.56
472.654	76.56
472.873	81.56
473.092	90.56
473.311	89.56
473.53	88.56
473.749	90.56
473.968	105.56
474.187	101.56
474.406	105.56
474.625	90.56
474.844	95.56
475.063	83.56
475.282	86.56
475.501	76.56
475.72	84.56
475.939	84.56
476.158	98.56
476.377	88.56
476.596	86.56
476.814	87.56
477.033	90.56
477.252	97.56
477.471	90.56
477.69	68.56
477.908	90.56
478.127	80.56
478.346	88.56
478.564	90.56
478.783	86.56
479.002	86.56
479.22	71.56
479.439	60.56
479.658	95.56
479.876	82.56
480.095	91.56
480.313	86.56
480.532	76.56
480.751	83.56
480.969	96.56
481.188	97.56
481.406	108.56
481.624	90.56
481.843	86.56
482.061	89.56
482.28	74.56
482.498	84.56
482.717	86.56
482.935	86.56
483.153	81.56
483.372	99.56
483.59	86.56
483.808	76.56
484.027	96.56
484.245	87.56
484.463	92.56
484.681	86.56
484.9	92.56
485.118	98.56
485.336	73.56
485.554	90.56
485.772	98.56
485.99	80.56
486.209	81.56
486.427	96.56
486.645	72.56
486.863	79.56
487.081	84.56
487.299	93.56
487.517	87.56
487.735	125.56
487.953	155.56
488.171	143.56
488.389	88.56
488.607	101.56
488.825	88.56
489.043	86.56
489.261	89.56
489.479	89.56
489.696	97.56
489.914	80.56
490.132	90.56
490.35	107.56
490.568	78.56
490.786	72.56
491.003	77.56
491.221	96.56
491.439	83.56
491.657	90.56
491.874	86.56
492.092	75.56
492.31	84.56
492.527	97.56
492.745	88.56
492.963	94.56
493.18	93.56
493.398	98.56
493.615	86.56
493.833	97.56
494.05	96.56
494.268	92.56
494.485	102.56
494.703	80.56
494.92	92.56
495.138	81.56
495.355	85.56
495.573	95.56
495.79	96.56
496.008	103.56
496.225	80.56
496.442	86.56
496.66	94.56
496.877	81.56
497.094	92.56
497.312	82.56
497.529	100.56
497.746	81.56
497.963	97.56
498.181	91.56
498.398	104.56
498.615	95.56
498.832	78.56
499.049	96.56
499.267	103.56
499.484	89.56
499.701	74.56
499.918	87.56
500.135	90.56
500.352	92.56
500.569	85.56
500.786	92.56
501.003	91.56
501.22	83.56
501.437	100.56
501.654	98.56
501.871	84.56
502.088	85.56
502.305	85.56
502.522	65.56
502.739	78.56
502.956	88.56
503.172	94.56
503.389	95.56
503.606	93.56
503.823	97.56
504.04	107.56
504.256	139.56
504.473	148.56
504.69	99.56
504.907	102.56
505.123	81.56
505.34	81.56
505.557	89.56
505.773	92.56
505.99	80.56
506.207	104.56
506.423	91.56
506.64	86.56
506.856	96.56
507.073	95.56
507.289	71.56
507.506	94.56
507.722	83.56
507.939	93.56
508.155	86.56
508.372	91.56
508.588	98.56
508.805	88.56
509.021	86.56
509.238	77.56
509.454	94.56
509.67	80.56
509.887	86.56
510.103	90.56
510.319	84.56
510.536	90.56
510.752	87.56
510.968	74.56
511.184	81.56
511.401	90.56
511.617	89.56
511.833	96.56
512.049	94.56
512.265	87.56
512.481	94.56
512.698	91.56
512.914	77.56
513.13	86.56
513.346	84.56
513.562	85.56
513.778	90.56
513.994	103.56
514.21	85.56
514.426	100.56
514.642	91.56
514.858	80.56
515.074	102.56
515.29	91.56
515.506	106.56
515.721	86.56
515.937	91.56
516.153	91.56
516.369	91.56
516.585	93.56
516.801	88.56
517.016	88.56
517.232	82.56
517.448	99.56
517.664	85.56
517.879	79.56
