Data from 17600_3_HRD10591_00033.txt Node
Date: Mon Jan 19 14:09:40 EST 2026
User: Yrep
Spectrometer: HR+D1059
Trigger mode: 1
Integration Time (sec): 1.000000E-1
Scans to average: 1
Electric dark correction enabled: true
Nonlinearity correction enabled: false
Boxcar width: 0
XAxis mode: Wavelengths
Number of Pixels in Spectrum: 2048
>>>>>Begin Spectral Data<<<<<
223.165	-20.25
223.4	-20.25
223.635	-20.25
223.869	-12.25
224.104	-15.25
224.338	-8.25
224.573	-10.25
224.808	-16.25
225.042	-11.25
225.277	-8.25
225.511	-5.25
225.746	-8.25
225.98	19.75
226.215	4.75
226.449	21.75
226.683	18.75
226.918	20.75
227.152	29.75
227.387	37.75
227.621	30.75
227.856	37.75
228.09	50.75
228.324	33.75
228.559	44.75
228.793	54.75
229.027	63.75
229.262	65.75
229.496	53.75
229.73	45.75
229.964	60.75
230.199	69.75
230.433	59.75
230.667	70.75
230.901	75.75
231.136	77.75
231.37	63.75
231.604	75.75
231.838	71.75
232.072	88.75
232.306	71.75
232.541	75.75
232.775	60.75
233.009	80.75
233.243	69.75
233.477	83.75
233.711	78.75
233.945	82.75
234.179	62.75
234.413	79.75
234.647	59.75
234.881	83.75
235.115	55.75
235.349	78.75
235.583	97.75
235.817	72.75
236.051	80.75
236.285	65.75
236.519	73.75
236.753	73.75
236.987	66.75
237.221	71.75
237.455	76.75
237.689	59.75
237.922	75.75
238.156	68.75
238.39	85.75
238.624	83.75
238.858	75.75
239.091	83.75
239.325	68.75
239.559	60.75
239.793	92.75
240.027	81.75
240.26	68.75
240.494	55.75
240.728	64.75
240.961	63.75
241.195	79.75
241.429	84.75
241.662	69.75
241.896	72.75
242.13	77.75
242.363	69.75
242.597	71.75
242.83	67.75
243.064	79.75
243.298	80.75
243.531	68.75
243.765	84.75
243.998	68.75
244.232	89.75
244.465	65.75
244.699	64.75
244.932	77.75
245.166	71.75
245.399	79.75
245.633	77.75
245.866	63.75
246.099	69.75
246.333	73.75
246.566	62.75
246.8	80.75
247.033	73.75
247.266	76.75
247.5	79.75
247.733	85.75
247.966	77.75
248.2	78.75
248.433	80.75
248.666	82.75
248.899	77.75
249.133	80.75
249.366	64.75
249.599	67.75
249.832	70.75
250.066	75.75
250.299	63.75
250.532	72.75
250.765	72.75
250.998	75.75
251.231	67.75
251.465	70.75
251.698	79.75
251.931	76.75
252.164	79.75
252.397	78.75
252.63	77.75
252.863	74.75
253.096	79.75
253.329	84.75
253.562	83.75
253.795	85.75
254.028	76.75
254.261	80.75
254.494	73.75
254.727	72.75
254.96	70.75
255.193	75.75
255.426	73.75
255.659	81.75
255.892	71.75
256.124	75.75
256.357	69.75
256.59	79.75
256.823	70.75
257.056	71.75
257.289	80.75
257.521	78.75
257.754	74.75
257.987	88.75
258.22	76.75
258.452	83.75
258.685	81.75
258.918	66.75
259.151	61.75
259.383	75.75
259.616	77.75
259.849	70.75
260.081	79.75
260.314	65.75
260.547	71.75
260.779	70.75
261.012	75.75
261.244	67.75
261.477	79.75
261.71	63.75
261.942	79.75
262.175	87.75
262.407	77.75
262.64	79.75
262.872	78.75
263.105	64.75
263.337	93.75
263.57	72.75
263.802	67.75
264.035	69.75
264.267	70.75
264.499	73.75
264.732	68.75
264.964	89.75
265.197	71.75
265.429	70.75
265.661	66.75
265.894	68.75
266.126	68.75
266.358	63.75
266.591	77.75
266.823	77.75
267.055	87.75
267.287	79.75
267.52	71.75
267.752	81.75
267.984	83.75
268.216	73.75
268.448	83.75
268.681	65.75
268.913	78.75
269.145	67.75
269.377	84.75
269.609	73.75
269.841	83.75
270.073	66.75
270.306	66.75
270.538	75.75
270.77	90.75
271.002	79.75
271.234	76.75
271.466	69.75
271.698	69.75
271.93	86.75
272.162	69.75
272.394	75.75
272.626	69.75
272.858	70.75
273.09	80.75
273.322	76.75
273.553	88.75
273.785	72.75
274.017	79.75
274.249	71.75
274.481	81.75
274.713	73.75
274.945	71.75
275.176	86.75
275.408	73.75
275.64	74.75
275.872	67.75
276.104	67.75
276.335	90.75
276.567	87.75
276.799	77.75
277.031	66.75
277.262	82.75
277.494	86.75
277.726	72.75
277.957	75.75
278.189	61.75
278.421	80.75
278.652	79.75
278.884	79.75
279.115	86.75
279.347	71.75
279.579	79.75
279.81	82.75
280.042	75.75
280.273	70.75
280.505	89.75
280.736	78.75
280.968	90.75
281.199	74.75
281.431	69.75
281.662	84.75
281.894	87.75
282.125	63.75
282.356	88.75
282.588	77.75
282.819	81.75
283.051	89.75
283.282	85.75
283.513	84.75
283.745	62.75
283.976	72.75
284.207	69.75
284.439	79.75
284.67	79.75
284.901	82.75
285.132	72.75
285.364	83.75
285.595	78.75
285.826	71.75
286.057	91.75
286.288	76.75
286.52	91.75
286.751	84.75
286.982	87.75
287.213	64.75
287.444	89.75
287.675	81.75
287.906	74.75
288.138	84.75
288.369	72.75
288.6	71.75
288.831	76.75
289.062	77.75
289.293	61.75
289.524	85.75
289.755	82.75
289.986	89.75
290.217	91.75
290.448	91.75
290.679	90.75
290.91	83.75
291.141	83.75
291.371	78.75
291.602	76.75
291.833	81.75
292.064	88.75
292.295	93.75
292.526	87.75
292.757	84.75
292.987	91.75
293.218	73.75
293.449	74.75
293.68	74.75
293.91	79.75
294.141	76.75
294.372	89.75
294.603	88.75
294.833	72.75
295.064	79.75
295.295	78.75
295.525	82.75
295.756	80.75
295.987	80.75
296.217	77.75
296.448	87.75
296.679	80.75
296.909	84.75
297.14	87.75
297.37	79.75
297.601	88.75
297.831	88.75
298.062	70.75
298.292	100.75
298.523	86.75
298.753	79.75
298.984	79.75
299.214	81.75
299.445	89.75
299.675	85.75
299.905	85.75
300.136	72.75
300.366	85.75
300.597	83.75
300.827	81.75
301.057	79.75
301.288	88.75
301.518	82.75
301.748	80.75
301.979	82.75
302.209	88.75
302.439	79.75
302.669	79.75
302.9	73.75
303.13	78.75
303.36	85.75
303.59	82.75
303.82	81.75
304.051	75.75
304.281	73.75
304.511	84.75
304.741	70.75
304.971	84.75
305.201	93.75
305.431	85.75
305.661	87.75
305.891	84.75
306.121	81.75
306.352	68.75
306.582	84.75
306.812	88.75
307.042	62.75
307.272	69.75
307.502	87.75
307.731	86.75
307.961	95.75
308.191	82.75
308.421	96.75
308.651	99.75
308.881	77.75
309.111	75.75
309.341	71.75
309.571	78.75
309.8	59.75
310.03	55.75
310.26	74.75
310.49	85.75
310.72	67.75
310.949	89.75
311.179	77.75
311.409	74.75
311.639	85.75
311.868	87.75
312.098	87.75
312.328	68.75
312.557	68.75
312.787	82.75
313.017	82.75
313.246	90.75
313.476	81.75
313.706	76.75
313.935	92.75
314.165	82.75
314.394	77.75
314.624	79.75
314.853	70.75
315.083	79.75
315.312	87.75
315.542	80.75
315.771	94.75
316.001	81.75
316.23	84.75
316.46	81.75
316.689	78.75
316.919	66.75
317.148	86.75
317.377	93.75
317.607	82.75
317.836	83.75
318.065	81.75
318.295	71.75
318.524	73.75
318.753	88.75
318.983	84.75
319.212	77.75
319.441	81.75
319.67	94.75
319.9	67.75
320.129	83.75
320.358	77.75
320.587	86.75
320.816	76.75
321.046	85.75
321.275	92.75
321.504	84.75
321.733	85.75
321.962	89.75
322.191	81.75
322.42	82.75
322.649	85.75
322.878	79.75
323.108	86.75
323.337	86.75
323.566	86.75
323.795	88.75
324.024	77.75
324.253	73.75
324.482	79.75
324.71	88.75
324.939	85.75
325.168	75.75
325.397	81.75
325.626	83.75
325.855	71.75
326.084	78.75
326.313	81.75
326.542	87.75
326.77	75.75
326.999	79.75
327.228	83.75
327.457	86.75
327.686	68.75
327.914	65.75
328.143	80.75
328.372	79.75
328.6	80.75
328.829	81.75
329.058	84.75
329.287	77.75
329.515	78.75
329.744	86.75
329.972	82.75
330.201	73.75
330.43	81.75
330.658	80.75
330.887	83.75
331.115	104.75
331.344	75.75
331.572	95.75
331.801	68.75
332.03	77.75
332.258	70.75
332.486	77.75
332.715	80.75
332.943	84.75
333.172	74.75
333.4	78.75
333.629	81.75
333.857	77.75
334.085	78.75
334.314	85.75
334.542	70.75
334.771	78.75
334.999	81.75
335.227	74.75
335.455	65.75
335.684	77.75
335.912	91.75
336.14	93.75
336.369	89.75
336.597	88.75
336.825	99.75
337.053	87.75
337.281	77.75
337.51	73.75
337.738	81.75
337.966	72.75
338.194	73.75
338.422	79.75
338.65	78.75
338.878	74.75
339.106	89.75
339.334	92.75
339.562	76.75
339.79	75.75
340.018	81.75
340.246	73.75
340.474	83.75
340.702	79.75
340.93	73.75
341.158	81.75
341.386	91.75
341.614	85.75
341.842	80.75
342.07	78.75
342.298	83.75
342.526	85.75
342.754	92.75
342.981	78.75
343.209	94.75
343.437	90.75
343.665	85.75
343.893	84.75
344.12	77.75
344.348	74.75
344.576	80.75
344.804	82.75
345.031	79.75
345.259	79.75
345.487	81.75
345.714	84.75
345.942	78.75
346.17	83.75
346.397	74.75
346.625	72.75
346.853	93.75
347.08	85.75
347.308	93.75
347.535	77.75
347.763	71.75
347.99	76.75
348.218	82.75
348.445	88.75
348.673	77.75
348.9	76.75
349.128	81.75
349.355	77.75
349.583	80.75
349.81	88.75
350.037	84.75
350.265	85.75
350.492	83.75
350.72	86.75
350.947	83.75
351.174	84.75
351.402	65.75
351.629	89.75
351.856	81.75
352.083	69.75
352.311	71.75
352.538	84.75
352.765	75.75
352.992	89.75
353.22	96.75
353.447	79.75
353.674	83.75
353.901	94.75
354.128	71.75
354.355	65.75
354.583	60.75
354.81	90.75
355.037	57.75
355.264	85.75
355.491	98.75
355.718	83.75
355.945	77.75
356.172	65.75
356.399	56.75
356.626	77.75
356.853	79.75
357.08	74.75
357.307	92.75
357.534	92.75
357.761	84.75
357.988	80.75
358.215	85.75
358.441	82.75
358.668	89.75
358.895	80.75
359.122	77.75
359.349	80.75
359.576	85.75
359.802	67.75
360.029	91.75
360.256	83.75
360.483	64.75
360.709	82.75
360.936	87.75
361.163	83.75
361.39	87.75
361.616	82.75
361.843	69.75
362.07	87.75
362.296	89.75
362.523	80.75
362.749	87.75
362.976	87.75
363.203	76.75
363.429	77.75
363.656	88.75
363.882	86.75
364.109	77.75
364.335	89.75
364.562	82.75
364.788	73.75
365.015	85.75
365.241	78.75
365.468	83.75
365.694	81.75
365.92	93.75
366.147	83.75
366.373	80.75
366.599	79.75
366.826	86.75
367.052	83.75
367.278	82.75
367.505	92.75
367.731	93.75
367.957	79.75
368.184	80.75
368.41	76.75
368.636	60.75
368.862	88.75
369.089	74.75
369.315	77.75
369.541	84.75
369.767	83.75
369.993	73.75
370.219	73.75
370.445	78.75
370.672	75.75
370.898	79.75
371.124	82.75
371.35	53.75
371.576	71.75
371.802	66.75
372.028	79.75
372.254	79.75
372.48	80.75
372.706	100.75
372.932	83.75
373.158	83.75
373.384	89.75
373.61	77.75
373.835	74.75
374.061	83.75
374.287	72.75
374.513	85.75
374.739	77.75
374.965	85.75
375.191	78.75
375.416	96.75
375.642	71.75
375.868	84.75
376.094	102.75
376.319	79.75
376.545	65.75
376.771	73.75
376.997	80.75
377.222	82.75
377.448	86.75
377.674	84.75
377.899	87.75
378.125	76.75
378.35	71.75
378.576	79.75
378.802	75.75
379.027	69.75
379.253	74.75
379.478	67.75
379.704	73.75
379.929	75.75
380.155	80.75
380.38	83.75
380.606	73.75
380.831	86.75
381.057	89.75
381.282	93.75
381.507	84.75
381.733	88.75
381.958	69.75
382.184	81.75
382.409	72.75
382.634	92.75
382.86	91.75
383.085	85.75
383.31	86.75
383.535	73.75
383.761	84.75
383.986	88.75
384.211	76.75
384.436	88.75
384.662	83.75
384.887	94.75
385.112	89.75
385.337	76.75
385.562	77.75
385.787	88.75
386.013	63.75
386.238	101.75
386.463	81.75
386.688	103.75
386.913	99.75
387.138	87.75
387.363	72.75
387.588	84.75
387.813	95.75
388.038	91.75
388.263	85.75
388.488	84.75
388.713	65.75
388.938	88.75
389.163	79.75
389.387	67.75
389.612	85.75
389.837	71.75
390.062	81.75
390.287	70.75
390.512	75.75
390.736	103.75
390.961	88.75
391.186	82.75
391.411	69.75
391.636	91.75
391.86	85.75
392.085	71.75
392.31	75.75
392.534	97.75
392.759	93.75
392.984	91.75
393.208	114.75
393.433	131.75
393.658	122.75
393.882	84.75
394.107	79.75
394.331	81.75
394.556	66.75
394.78	83.75
395.005	73.75
395.229	71.75
395.454	62.75
395.678	77.75
395.903	71.75
396.127	82.75
396.352	81.75
396.576	87.75
396.801	89.75
397.025	123.75
397.249	91.75
397.474	90.75
397.698	84.75
397.922	86.75
398.147	78.75
398.371	80.75
398.595	77.75
398.82	77.75
399.044	86.75
399.268	75.75
399.492	73.75
399.717	85.75
399.941	72.75
400.165	93.75
400.389	68.75
400.613	85.75
400.837	92.75
401.062	81.75
401.286	65.75
401.51	67.75
401.734	85.75
401.958	71.75
402.182	86.75
402.406	83.75
402.63	84.75
402.854	85.75
403.078	80.75
403.302	67.75
403.526	77.75
403.75	80.75
403.974	79.75
404.198	82.75
404.422	79.75
404.645	67.75
404.869	76.75
405.093	73.75
405.317	87.75
405.541	75.75
405.765	83.75
405.988	60.75
406.212	81.75
406.436	70.75
406.66	70.75
406.883	81.75
407.107	93.75
407.331	82.75
407.555	91.75
407.778	80.75
408.002	91.75
408.226	78.75
408.449	87.75
408.673	81.75
408.896	82.75
409.12	79.75
409.344	79.75
409.567	101.75
409.791	78.75
410.014	66.75
410.238	85.75
410.461	85.75
410.685	81.75
410.908	60.75
411.132	73.75
411.355	86.75
411.578	77.75
411.802	79.75
412.025	89.75
412.249	80.75
412.472	77.75
412.695	77.75
412.919	73.75
413.142	79.75
413.365	72.75
413.589	89.75
413.812	80.75
414.035	79.75
414.258	70.75
414.482	86.75
414.705	72.75
414.928	87.75
415.151	79.75
415.374	78.75
415.597	81.75
415.821	80.75
416.044	88.75
416.267	79.75
416.49	80.75
416.713	73.75
416.936	95.75
417.159	77.75
417.382	62.75
417.605	77.75
417.828	80.75
418.051	78.75
418.274	67.75
418.497	69.75
418.72	71.75
418.943	79.75
419.166	71.75
419.389	77.75
419.611	75.75
419.834	80.75
420.057	93.75
420.28	83.75
420.503	72.75
420.726	88.75
420.948	78.75
421.171	65.75
421.394	78.75
421.617	89.75
421.839	79.75
422.062	84.75
422.285	68.75
422.507	86.75
422.73	117.75
422.953	117.75
423.175	77.75
423.398	66.75
423.621	88.75
423.843	83.75
424.066	80.75
424.288	71.75
424.511	88.75
424.733	86.75
424.956	91.75
425.178	76.75
425.401	83.75
425.623	79.75
425.846	70.75
426.068	77.75
426.291	62.75
426.513	77.75
426.735	77.75
426.958	94.75
427.18	77.75
427.402	89.75
427.625	91.75
427.847	88.75
428.069	77.75
428.292	86.75
428.514	88.75
428.736	88.75
428.958	76.75
429.181	80.75
429.403	85.75
429.625	83.75
429.847	91.75
430.069	86.75
430.292	79.75
430.514	93.75
430.736	83.75
430.958	87.75
431.18	63.75
431.402	84.75
431.624	80.75
431.846	89.75
432.068	92.75
432.29	78.75
432.512	73.75
432.734	86.75
432.956	78.75
433.178	70.75
433.4	73.75
433.622	82.75
433.844	79.75
434.066	92.75
434.287	83.75
434.509	89.75
434.731	84.75
434.953	85.75
435.175	66.75
435.397	97.75
435.618	78.75
435.84	85.75
436.062	88.75
436.284	77.75
436.505	64.75
436.727	69.75
436.949	78.75
437.17	72.75
437.392	73.75
437.614	82.75
437.835	64.75
438.057	75.75
438.278	89.75
438.5	79.75
438.721	78.75
438.943	76.75
439.165	84.75
439.386	70.75
439.608	80.75
439.829	85.75
440.05	85.75
440.272	85.75
440.493	78.75
440.715	79.75
440.936	73.75
441.158	72.75
441.379	82.75
441.6	83.75
441.822	73.75
442.043	83.75
442.264	84.75
442.486	89.75
442.707	95.75
442.928	89.75
443.149	67.75
443.371	95.75
443.592	102.75
443.813	95.75
444.034	77.75
444.255	85.75
444.476	68.75
444.698	80.75
444.919	88.75
445.14	144.75
445.361	117.75
445.582	100.75
445.803	86.75
446.024	79.75
446.245	88.75
446.466	78.75
446.687	71.75
446.908	80.75
447.129	80.75
447.35	92.75
447.571	87.75
447.792	89.75
448.013	81.75
448.234	83.75
448.455	75.75
448.675	88.75
448.896	84.75
449.117	85.75
449.338	74.75
449.559	89.75
449.779	73.75
450	85.75
450.221	78.75
450.442	77.75
450.662	83.75
450.883	91.75
451.104	72.75
451.324	77.75
451.545	72.75
451.766	82.75
451.986	72.75
452.207	63.75
452.428	77.75
452.648	77.75
452.869	79.75
453.089	76.75
453.31	81.75
453.53	96.75
453.751	79.75
453.971	71.75
454.192	79.75
454.412	71.75
454.633	85.75
454.853	70.75
455.073	77.75
455.294	63.75
455.514	85.75
455.734	93.75
455.955	63.75
456.175	90.75
456.395	80.75
456.616	92.75
456.836	78.75
457.056	94.75
457.276	79.75
457.497	85.75
457.717	78.75
457.937	69.75
458.157	73.75
458.377	68.75
458.598	80.75
458.818	65.75
459.038	86.75
459.258	95.75
459.478	82.75
459.698	83.75
459.918	92.75
460.138	77.75
460.358	85.75
460.578	82.75
460.798	88.75
461.018	86.75
461.238	76.75
461.458	81.75
461.678	81.75
461.898	84.75
462.118	80.75
462.338	74.75
462.558	84.75
462.777	77.75
462.997	77.75
463.217	85.75
463.437	73.75
463.657	67.75
463.876	86.75
464.096	77.75
464.316	83.75
464.536	89.75
464.755	88.75
464.975	86.75
465.195	69.75
465.414	72.75
465.634	88.75
465.854	75.75
466.073	77.75
466.293	63.75
466.512	79.75
466.732	62.75
466.951	77.75
467.171	75.75
467.391	76.75
467.61	89.75
467.829	79.75
468.049	73.75
468.268	68.75
468.488	100.75
468.707	70.75
468.927	81.75
469.146	79.75
469.365	77.75
469.585	82.75
469.804	77.75
470.023	87.75
470.243	96.75
470.462	93.75
470.681	74.75
470.901	60.75
471.12	87.75
471.339	72.75
471.558	73.75
471.777	88.75
471.997	69.75
472.216	82.75
472.435	86.75
472.654	95.75
472.873	85.75
473.092	104.75
473.311	82.75
473.53	68.75
473.749	78.75
473.968	92.75
474.187	75.75
474.406	92.75
474.625	64.75
474.844	78.75
475.063	79.75
475.282	66.75
475.501	86.75
475.72	88.75
475.939	77.75
476.158	68.75
476.377	75.75
476.596	87.75
476.814	87.75
477.033	81.75
477.252	81.75
477.471	74.75
477.69	83.75
477.908	76.75
478.127	78.75
478.346	85.75
478.564	77.75
478.783	73.75
479.002	75.75
479.22	80.75
479.439	83.75
479.658	80.75
479.876	73.75
480.095	76.75
480.313	71.75
480.532	77.75
480.751	67.75
480.969	82.75
481.188	81.75
481.406	97.75
481.624	83.75
481.843	81.75
482.061	77.75
482.28	66.75
482.498	71.75
482.717	76.75
482.935	81.75
483.153	73.75
483.372	71.75
483.59	89.75
483.808	88.75
484.027	80.75
484.245	81.75
484.463	78.75
484.681	74.75
484.9	81.75
485.118	89.75
485.336	94.75
485.554	77.75
485.772	81.75
485.99	93.75
486.209	74.75
486.427	72.75
486.645	69.75
486.863	72.75
487.081	65.75
487.299	66.75
487.517	85.75
487.735	69.75
487.953	89.75
488.171	96.75
488.389	86.75
488.607	88.75
488.825	82.75
489.043	71.75
489.261	63.75
489.479	77.75
489.696	78.75
489.914	80.75
490.132	77.75
490.35	70.75
490.568	88.75
490.786	78.75
491.003	81.75
491.221	83.75
491.439	86.75
491.657	84.75
491.874	87.75
492.092	81.75
492.31	81.75
492.527	79.75
492.745	81.75
492.963	84.75
493.18	71.75
493.398	88.75
493.615	66.75
493.833	71.75
494.05	71.75
494.268	77.75
494.485	77.75
494.703	79.75
494.92	76.75
495.138	67.75
495.355	83.75
495.573	91.75
495.79	93.75
496.008	77.75
496.225	83.75
496.442	91.75
496.66	91.75
496.877	80.75
497.094	83.75
497.312	73.75
497.529	84.75
497.746	83.75
497.963	81.75
498.181	81.75
498.398	95.75
498.615	82.75
498.832	80.75
499.049	84.75
499.267	89.75
499.484	67.75
499.701	81.75
499.918	73.75
500.135	72.75
500.352	87.75
500.569	66.75
500.786	83.75
501.003	80.75
501.22	97.75
501.437	80.75
501.654	83.75
501.871	90.75
502.088	93.75
502.305	81.75
502.522	82.75
502.739	80.75
502.956	79.75
503.172	80.75
503.389	63.75
503.606	81.75
503.823	96.75
504.04	99.75
504.256	76.75
504.473	61.75
504.69	72.75
504.907	75.75
505.123	76.75
505.34	80.75
505.557	91.75
505.773	74.75
505.99	89.75
506.207	77.75
506.423	83.75
506.64	81.75
506.856	71.75
507.073	85.75
507.289	87.75
507.506	77.75
507.722	63.75
507.939	78.75
508.155	86.75
508.372	74.75
508.588	73.75
508.805	78.75
509.021	80.75
509.238	83.75
509.454	85.75
509.67	79.75
509.887	85.75
510.103	72.75
510.319	73.75
510.536	83.75
510.752	76.75
510.968	79.75
511.184	83.75
511.401	72.75
511.617	83.75
511.833	89.75
512.049	85.75
512.265	85.75
512.481	83.75
512.698	78.75
512.914	87.75
513.13	80.75
513.346	88.75
513.562	78.75
513.778	87.75
513.994	72.75
514.21	83.75
514.426	93.75
514.642	81.75
514.858	79.75
515.074	84.75
515.29	83.75
515.506	83.75
515.721	84.75
515.937	81.75
516.153	70.75
516.369	82.75
516.585	58.75
516.801	81.75
517.016	69.75
517.232	63.75
517.448	77.75
517.664	80.75
517.879	94.75
518.095	83.75
518.311	84.75
518.527	86.75
518.742	93.75
518.958	95.75
519.173	88.75
519.389	85.75
519.605	88.75
519.82	80.75
520.036	80.75
