Data from 17600_3_HRD10591_00011.txt Node
Date: Mon Jan 19 14:09:29 EST 2026
User: Yrep
Spectrometer: HR+D1059
Trigger mode: 1
Integration Time (sec): 1.000000E-1
Scans to average: 1
Electric dark correction enabled: true
Nonlinearity correction enabled: false
Boxcar width: 0
XAxis mode: Wavelengths
Number of Pixels in Spectrum: 2048
>>>>>Begin Spectral Data<<<<<
223.165	-11.88
223.4	-11.88
223.635	-11.88
223.869	-24.88
224.104	-18.88
224.338	-21.88
224.573	-11.88
224.808	-11.88
225.042	-20.88
225.277	-6.88
225.511	-0.88
225.746	10.12
225.98	3.12
226.215	9.12
226.449	23.12
226.683	10.12
226.918	37.12
227.152	37.12
227.387	39.12
227.621	34.12
227.856	50.12
228.09	51.12
228.324	51.12
228.559	61.12
228.793	55.12
229.027	61.12
229.262	44.12
229.496	67.12
229.73	70.12
229.964	73.12
230.199	89.12
230.433	85.12
230.667	96.12
230.901	68.12
231.136	84.12
231.37	73.12
231.604	73.12
231.838	67.12
232.072	80.12
232.306	83.12
232.541	85.12
232.775	74.12
233.009	71.12
233.243	90.12
233.477	89.12
233.711	72.12
233.945	77.12
234.179	68.12
234.413	83.12
234.647	83.12
234.881	86.12
235.115	80.12
235.349	87.12
235.583	83.12
235.817	71.12
236.051	63.12
236.285	69.12
236.519	79.12
236.753	95.12
236.987	76.12
237.221	87.12
237.455	79.12
237.689	72.12
237.922	75.12
238.156	82.12
238.39	68.12
238.624	69.12
238.858	73.12
239.091	75.12
239.325	78.12
239.559	79.12
239.793	81.12
240.027	78.12
240.26	72.12
240.494	80.12
240.728	64.12
240.961	77.12
241.195	64.12
241.429	95.12
241.662	67.12
241.896	74.12
242.13	82.12
242.363	88.12
242.597	74.12
242.83	69.12
243.064	75.12
243.298	81.12
243.531	70.12
243.765	73.12
243.998	82.12
244.232	83.12
244.465	76.12
244.699	71.12
244.932	79.12
245.166	57.12
245.399	75.12
245.633	74.12
245.866	88.12
246.099	77.12
246.333	71.12
246.566	89.12
246.8	81.12
247.033	75.12
247.266	72.12
247.5	74.12
247.733	76.12
247.966	86.12
248.2	86.12
248.433	79.12
248.666	82.12
248.899	81.12
249.133	90.12
249.366	81.12
249.599	80.12
249.832	87.12
250.066	83.12
250.299	79.12
250.532	75.12
250.765	78.12
250.998	77.12
251.231	66.12
251.465	70.12
251.698	82.12
251.931	76.12
252.164	83.12
252.397	70.12
252.63	83.12
252.863	81.12
253.096	80.12
253.329	84.12
253.562	66.12
253.795	88.12
254.028	87.12
254.261	86.12
254.494	80.12
254.727	77.12
254.96	94.12
255.193	81.12
255.426	83.12
255.659	71.12
255.892	71.12
256.124	78.12
256.357	82.12
256.59	74.12
256.823	78.12
257.056	73.12
257.289	89.12
257.521	81.12
257.754	71.12
257.987	90.12
258.22	79.12
258.452	70.12
258.685	77.12
258.918	82.12
259.151	88.12
259.383	83.12
259.616	98.12
259.849	72.12
260.081	77.12
260.314	82.12
260.547	91.12
260.779	76.12
261.012	88.12
261.244	77.12
261.477	97.12
261.71	87.12
261.942	87.12
262.175	68.12
262.407	82.12
262.64	93.12
262.872	84.12
263.105	99.12
263.337	76.12
263.57	86.12
263.802	77.12
264.035	83.12
264.267	71.12
264.499	69.12
264.732	70.12
264.964	91.12
265.197	92.12
265.429	80.12
265.661	75.12
265.894	99.12
266.126	85.12
266.358	88.12
266.591	62.12
266.823	84.12
267.055	82.12
267.287	79.12
267.52	73.12
267.752	90.12
267.984	77.12
268.216	77.12
268.448	91.12
268.681	87.12
268.913	72.12
269.145	84.12
269.377	77.12
269.609	71.12
269.841	98.12
270.073	81.12
270.306	71.12
270.538	99.12
270.77	73.12
271.002	83.12
271.234	70.12
271.466	91.12
271.698	83.12
271.93	96.12
272.162	91.12
272.394	85.12
272.626	83.12
272.858	87.12
273.09	91.12
273.322	89.12
273.553	90.12
273.785	91.12
274.017	84.12
274.249	94.12
274.481	80.12
274.713	78.12
274.945	84.12
275.176	86.12
275.408	93.12
275.64	83.12
275.872	86.12
276.104	97.12
276.335	89.12
276.567	73.12
276.799	75.12
277.031	70.12
277.262	92.12
277.494	81.12
277.726	79.12
277.957	78.12
278.189	86.12
278.421	80.12
278.652	98.12
278.884	89.12
279.115	68.12
279.347	78.12
279.579	89.12
279.81	81.12
280.042	83.12
280.273	85.12
280.505	88.12
280.736	89.12
280.968	87.12
281.199	88.12
281.431	84.12
281.662	75.12
281.894	83.12
282.125	86.12
282.356	75.12
282.588	89.12
282.819	86.12
283.051	80.12
283.282	84.12
283.513	104.12
283.745	94.12
283.976	71.12
284.207	76.12
284.439	86.12
284.67	71.12
284.901	71.12
285.132	80.12
285.364	85.12
285.595	91.12
285.826	103.12
286.057	84.12
286.288	87.12
286.52	95.12
286.751	84.12
286.982	80.12
287.213	82.12
287.444	83.12
287.675	93.12
287.906	76.12
288.138	92.12
288.369	86.12
288.6	80.12
288.831	77.12
289.062	87.12
289.293	76.12
289.524	89.12
289.755	77.12
289.986	82.12
290.217	95.12
290.448	99.12
290.679	65.12
290.91	84.12
291.141	81.12
291.371	84.12
291.602	85.12
291.833	87.12
292.064	89.12
292.295	95.12
292.526	87.12
292.757	103.12
292.987	70.12
293.218	93.12
293.449	71.12
293.68	89.12
293.91	89.12
294.141	77.12
294.372	95.12
294.603	87.12
294.833	83.12
295.064	87.12
295.295	85.12
295.525	81.12
295.756	80.12
295.987	89.12
296.217	89.12
296.448	76.12
296.679	84.12
296.909	97.12
297.14	91.12
297.37	97.12
297.601	81.12
297.831	83.12
298.062	77.12
298.292	79.12
298.523	83.12
298.753	68.12
298.984	97.12
299.214	78.12
299.445	86.12
299.675	106.12
299.905	88.12
300.136	90.12
300.366	78.12
300.597	96.12
300.827	90.12
301.057	72.12
301.288	77.12
301.518	84.12
301.748	90.12
301.979	91.12
302.209	87.12
302.439	82.12
302.669	85.12
302.9	81.12
303.13	71.12
303.36	109.12
303.59	89.12
303.82	77.12
304.051	89.12
304.281	87.12
304.511	87.12
304.741	85.12
304.971	79.12
305.201	80.12
305.431	88.12
305.661	84.12
305.891	97.12
306.121	79.12
306.352	95.12
306.582	92.12
306.812	97.12
307.042	80.12
307.272	103.12
307.502	89.12
307.731	71.12
307.961	80.12
308.191	99.12
308.421	95.12
308.651	83.12
308.881	98.12
309.111	90.12
309.341	89.12
309.571	104.12
309.8	93.12
310.03	78.12
310.26	96.12
310.49	81.12
310.72	90.12
310.949	96.12
311.179	88.12
311.409	90.12
311.639	81.12
311.868	106.12
312.098	85.12
312.328	80.12
312.557	81.12
312.787	87.12
313.017	92.12
313.246	83.12
313.476	80.12
313.706	96.12
313.935	79.12
314.165	100.12
314.394	93.12
314.624	75.12
314.853	77.12
315.083	83.12
315.312	91.12
315.542	81.12
315.771	97.12
316.001	92.12
316.23	63.12
316.46	83.12
316.689	88.12
316.919	83.12
317.148	89.12
317.377	79.12
317.607	95.12
317.836	91.12
318.065	82.12
318.295	73.12
318.524	87.12
318.753	91.12
318.983	86.12
319.212	82.12
319.441	69.12
319.67	83.12
319.9	77.12
320.129	77.12
320.358	84.12
320.587	87.12
320.816	81.12
321.046	81.12
321.275	75.12
321.504	92.12
321.733	81.12
321.962	98.12
322.191	81.12
322.42	88.12
322.649	94.12
322.878	83.12
323.108	67.12
323.337	87.12
323.566	87.12
323.795	91.12
324.024	91.12
324.253	88.12
324.482	82.12
324.71	88.12
324.939	80.12
325.168	88.12
325.397	97.12
325.626	79.12
325.855	79.12
326.084	101.12
326.313	89.12
326.542	82.12
326.77	83.12
326.999	95.12
327.228	91.12
327.457	77.12
327.686	87.12
327.914	88.12
328.143	90.12
328.372	81.12
328.6	92.12
328.829	76.12
329.058	81.12
329.287	89.12
329.515	93.12
329.744	105.12
329.972	84.12
330.201	101.12
330.43	81.12
330.658	84.12
330.887	95.12
331.115	82.12
331.344	88.12
331.572	88.12
331.801	93.12
332.03	95.12
332.258	95.12
332.486	98.12
332.715	106.12
332.943	86.12
333.172	83.12
333.4	89.12
333.629	84.12
333.857	86.12
334.085	93.12
334.314	86.12
334.542	89.12
334.771	90.12
334.999	79.12
335.227	85.12
335.455	82.12
335.684	77.12
335.912	85.12
336.14	92.12
336.369	101.12
336.597	93.12
336.825	82.12
337.053	84.12
337.281	78.12
337.51	88.12
337.738	88.12
337.966	69.12
338.194	83.12
338.422	80.12
338.65	87.12
338.878	76.12
339.106	86.12
339.334	79.12
339.562	70.12
339.79	91.12
340.018	84.12
340.246	73.12
340.474	85.12
340.702	76.12
340.93	83.12
341.158	85.12
341.386	86.12
341.614	85.12
341.842	92.12
342.07	85.12
342.298	79.12
342.526	86.12
342.754	86.12
342.981	88.12
343.209	83.12
343.437	97.12
343.665	85.12
343.893	81.12
344.12	86.12
344.348	93.12
344.576	86.12
344.804	92.12
345.031	89.12
345.259	80.12
345.487	105.12
345.714	92.12
345.942	83.12
346.17	87.12
346.397	99.12
346.625	88.12
346.853	84.12
347.08	82.12
347.308	88.12
347.535	96.12
347.763	92.12
347.99	84.12
348.218	84.12
348.445	93.12
348.673	83.12
348.9	93.12
349.128	74.12
349.355	99.12
349.583	85.12
349.81	75.12
350.037	84.12
350.265	76.12
350.492	72.12
350.72	83.12
350.947	87.12
351.174	88.12
351.402	92.12
351.629	83.12
351.856	88.12
352.083	88.12
352.311	70.12
352.538	87.12
352.765	84.12
352.992	93.12
353.22	85.12
353.447	94.12
353.674	89.12
353.901	79.12
354.128	85.12
354.355	60.12
354.583	95.12
354.81	93.12
355.037	88.12
355.264	81.12
355.491	83.12
355.718	68.12
355.945	86.12
356.172	91.12
356.399	93.12
356.626	90.12
356.853	80.12
357.08	85.12
357.307	89.12
357.534	83.12
357.761	88.12
357.988	94.12
358.215	87.12
358.441	79.12
358.668	77.12
358.895	93.12
359.122	82.12
359.349	73.12
359.576	89.12
359.802	86.12
360.029	89.12
360.256	86.12
360.483	83.12
360.709	93.12
360.936	93.12
361.163	89.12
361.39	84.12
361.616	76.12
361.843	88.12
362.07	97.12
362.296	91.12
362.523	68.12
362.749	86.12
362.976	89.12
363.203	85.12
363.429	86.12
363.656	84.12
363.882	83.12
364.109	92.12
364.335	107.12
364.562	97.12
364.788	90.12
365.015	84.12
365.241	91.12
365.468	94.12
365.694	92.12
365.92	100.12
366.147	87.12
366.373	89.12
366.599	86.12
366.826	63.12
367.052	91.12
367.278	98.12
367.505	73.12
367.731	91.12
367.957	78.12
368.184	91.12
368.41	99.12
368.636	98.12
368.862	89.12
369.089	68.12
369.315	75.12
369.541	94.12
369.767	95.12
369.993	89.12
370.219	89.12
370.445	92.12
370.672	83.12
370.898	85.12
371.124	91.12
371.35	92.12
371.576	98.12
371.802	66.12
372.028	86.12
372.254	85.12
372.48	72.12
372.706	64.12
372.932	96.12
373.158	85.12
373.384	105.12
373.61	83.12
373.835	89.12
374.061	77.12
374.287	85.12
374.513	87.12
374.739	88.12
374.965	94.12
375.191	87.12
375.416	88.12
375.642	82.12
375.868	95.12
376.094	78.12
376.319	91.12
376.545	89.12
376.771	85.12
376.997	91.12
377.222	81.12
377.448	92.12
377.674	87.12
377.899	85.12
378.125	97.12
378.35	88.12
378.576	78.12
378.802	75.12
379.027	80.12
379.253	99.12
379.478	86.12
379.704	82.12
379.929	87.12
380.155	79.12
380.38	83.12
380.606	90.12
380.831	73.12
381.057	81.12
381.282	79.12
381.507	93.12
381.733	77.12
381.958	71.12
382.184	89.12
382.409	86.12
382.634	91.12
382.86	83.12
383.085	89.12
383.31	93.12
383.535	92.12
383.761	87.12
383.986	78.12
384.211	87.12
384.436	83.12
384.662	81.12
384.887	83.12
385.112	91.12
385.337	89.12
385.562	88.12
385.787	73.12
386.013	97.12
386.238	101.12
386.463	96.12
386.688	84.12
386.913	85.12
387.138	89.12
387.363	90.12
387.588	94.12
387.813	89.12
388.038	79.12
388.263	88.12
388.488	87.12
388.713	102.12
388.938	83.12
389.163	93.12
389.387	72.12
389.612	77.12
389.837	94.12
390.062	100.12
390.287	90.12
390.512	84.12
390.736	83.12
390.961	85.12
391.186	92.12
391.411	77.12
391.636	74.12
391.86	86.12
392.085	81.12
392.31	82.12
392.534	92.12
392.759	87.12
392.984	112.12
393.208	117.12
393.433	123.12
393.658	114.12
393.882	92.12
394.107	90.12
394.331	104.12
394.556	93.12
394.78	91.12
395.005	85.12
395.229	75.12
395.454	81.12
395.678	80.12
395.903	92.12
396.127	97.12
396.352	107.12
396.576	107.12
396.801	106.12
397.025	115.12
397.249	104.12
397.474	90.12
397.698	89.12
397.922	80.12
398.147	74.12
398.371	83.12
398.595	86.12
398.82	84.12
399.044	78.12
399.268	83.12
399.492	84.12
399.717	80.12
399.941	94.12
400.165	85.12
400.389	101.12
400.613	100.12
400.837	90.12
401.062	90.12
401.286	81.12
401.51	63.12
401.734	68.12
401.958	86.12
402.182	84.12
402.406	89.12
402.63	77.12
402.854	88.12
403.078	92.12
403.302	91.12
403.526	86.12
403.75	84.12
403.974	92.12
404.198	80.12
404.422	101.12
404.645	85.12
404.869	74.12
405.093	81.12
405.317	69.12
405.541	74.12
405.765	91.12
405.988	88.12
406.212	83.12
406.436	83.12
406.66	70.12
406.883	85.12
407.107	95.12
407.331	84.12
407.555	77.12
407.778	85.12
408.002	97.12
408.226	97.12
408.449	88.12
408.673	74.12
408.896	84.12
409.12	89.12
409.344	81.12
409.567	82.12
409.791	85.12
410.014	76.12
410.238	88.12
410.461	75.12
410.685	86.12
410.908	76.12
411.132	89.12
411.355	83.12
411.578	85.12
411.802	81.12
412.025	85.12
412.249	83.12
412.472	94.12
412.695	95.12
412.919	94.12
413.142	85.12
413.365	80.12
413.589	84.12
413.812	87.12
414.035	93.12
414.258	87.12
414.482	80.12
414.705	95.12
414.928	69.12
415.151	85.12
415.374	76.12
415.597	92.12
415.821	90.12
416.044	92.12
416.267	83.12
416.49	83.12
416.713	92.12
416.936	91.12
417.159	89.12
417.382	80.12
417.605	87.12
417.828	71.12
418.051	98.12
418.274	86.12
418.497	97.12
418.72	95.12
418.943	92.12
419.166	99.12
419.389	88.12
419.611	75.12
419.834	81.12
420.057	77.12
420.28	89.12
420.503	76.12
420.726	92.12
420.948	85.12
421.171	85.12
421.394	90.12
421.617	89.12
421.839	96.12
422.062	95.12
422.285	109.12
422.507	128.12
422.73	187.12
422.953	171.12
423.175	128.12
423.398	107.12
423.621	93.12
423.843	95.12
424.066	81.12
424.288	87.12
424.511	91.12
424.733	92.12
424.956	89.12
425.178	91.12
425.401	86.12
425.623	94.12
425.846	93.12
426.068	82.12
426.291	99.12
426.513	96.12
426.735	109.12
426.958	105.12
427.18	94.12
427.402	93.12
427.625	82.12
427.847	83.12
428.069	75.12
428.292	98.12
428.514	93.12
428.736	88.12
428.958	102.12
429.181	102.12
429.403	95.12
429.625	79.12
429.847	84.12
430.069	105.12
430.292	121.12
430.514	117.12
430.736	95.12
430.958	94.12
431.18	86.12
431.402	84.12
431.624	98.12
431.846	99.12
432.068	84.12
432.29	80.12
432.512	88.12
432.734	82.12
432.956	91.12
433.178	80.12
433.4	84.12
433.622	89.12
433.844	89.12
434.066	96.12
434.287	88.12
434.509	71.12
434.731	95.12
434.953	91.12
435.175	103.12
435.397	87.12
435.618	79.12
435.84	93.12
436.062	89.12
436.284	76.12
436.505	64.12
436.727	92.12
436.949	58.12
437.17	81.12
437.392	77.12
437.614	87.12
437.835	68.12
438.057	85.12
438.278	84.12
438.5	92.12
438.721	99.12
438.943	103.12
439.165	89.12
439.386	87.12
439.608	76.12
439.829	76.12
440.05	87.12
440.272	86.12
440.493	75.12
440.715	73.12
440.936	78.12
441.158	91.12
441.379	70.12
441.6	84.12
441.822	81.12
442.043	75.12
442.264	84.12
442.486	90.12
442.707	103.12
442.928	104.12
443.149	92.12
443.371	102.12
443.592	131.12
443.813	102.12
444.034	87.12
444.255	76.12
444.476	83.12
444.698	85.12
444.919	87.12
445.14	168.12
445.361	142.12
445.582	134.12
445.803	130.12
446.024	83.12
446.245	87.12
446.466	98.12
446.687	80.12
446.908	89.12
447.129	84.12
447.35	87.12
447.571	92.12
447.792	86.12
448.013	76.12
448.234	85.12
448.455	93.12
448.675	80.12
448.896	87.12
449.117	88.12
449.338	82.12
449.559	87.12
449.779	94.12
450	77.12
450.221	84.12
450.442	90.12
450.662	76.12
450.883	76.12
451.104	72.12
451.324	95.12
451.545	87.12
451.766	86.12
451.986	80.12
452.207	79.12
452.428	78.12
452.648	80.12
452.869	86.12
453.089	82.12
453.31	88.12
453.53	79.12
453.751	95.12
453.971	89.12
454.192	95.12
454.412	83.12
454.633	85.12
454.853	74.12
455.073	75.12
455.294	85.12
455.514	81.12
455.734	78.12
455.955	80.12
456.175	84.12
456.395	79.12
456.616	91.12
456.836	79.12
457.056	74.12
457.276	84.12
457.497	77.12
457.717	78.12
457.937	99.12
458.157	90.12
458.377	101.12
458.598	92.12
458.818	91.12
459.038	97.12
459.258	90.12
459.478	93.12
459.698	76.12
459.918	83.12
460.138	92.12
460.358	84.12
460.578	79.12
460.798	83.12
461.018	87.12
461.238	93.12
461.458	99.12
461.678	87.12
461.898	82.12
462.118	87.12
462.338	83.12
462.558	71.12
462.777	91.12
462.997	83.12
463.217	82.12
463.437	86.12
463.657	75.12
463.876	99.12
464.096	90.12
464.316	83.12
464.536	77.12
464.755	84.12
464.975	88.12
465.195	106.12
465.414	86.12
465.634	88.12
465.854	97.12
466.073	76.12
466.293	83.12
466.512	91.12
466.732	75.12
466.951	81.12
467.171	82.12
467.391	87.12
467.61	85.12
467.829	89.12
468.049	88.12
468.268	90.12
468.488	81.12
468.707	90.12
468.927	85.12
469.146	86.12
469.365	83.12
469.585	70.12
469.804	103.12
470.023	86.12
470.243	82.12
470.462	96.12
470.681	81.12
470.901	86.12
471.12	87.12
471.339	87.12
471.558	81.12
471.777	87.12
471.997	81.12
472.216	95.12
472.435	99.12
472.654	90.12
472.873	81.12
473.092	85.12
473.311	87.12
473.53	89.12
473.749	97.12
473.968	91.12
474.187	81.12
474.406	83.12
474.625	84.12
474.844	91.12
475.063	87.12
475.282	77.12
475.501	74.12
475.72	95.12
475.939	85.12
476.158	69.12
476.377	87.12
476.596	78.12
476.814	82.12
477.033	83.12
477.252	95.12
477.471	100.12
477.69	85.12
477.908	77.12
478.127	81.12
478.346	89.12
478.564	89.12
478.783	83.12
479.002	80.12
479.22	77.12
479.439	87.12
479.658	75.12
479.876	75.12
480.095	90.12
480.313	91.12
480.532	76.12
480.751	78.12
480.969	87.12
481.188	74.12
481.406	89.12
481.624	91.12
481.843	75.12
482.061	94.12
482.28	79.12
482.498	79.12
482.717	93.12
482.935	82.12
483.153	83.12
483.372	72.12
483.59	87.12
483.808	81.12
484.027	99.12
484.245	98.12
484.463	80.12
484.681	97.12
484.9	91.12
485.118	87.12
485.336	87.12
485.554	75.12
485.772	91.12
485.99	89.12
486.209	96.12
486.427	84.12
486.645	66.12
486.863	77.12
487.081	86.12
487.299	81.12
487.517	100.12
487.735	93.12
487.953	107.12
488.171	95.12
488.389	89.12
488.607	76.12
488.825	83.12
489.043	90.12
489.261	84.12
489.479	83.12
489.696	91.12
489.914	84.12
490.132	85.12
490.35	88.12
490.568	84.12
490.786	95.12
491.003	87.12
491.221	71.12
491.439	90.12
491.657	83.12
491.874	76.12
492.092	83.12
492.31	73.12
492.527	69.12
492.745	82.12
492.963	89.12
493.18	84.12
493.398	93.12
493.615	78.12
493.833	90.12
494.05	93.12
494.268	64.12
494.485	84.12
494.703	99.12
494.92	83.12
495.138	107.12
495.355	94.12
495.573	95.12
495.79	82.12
496.008	87.12
496.225	79.12
496.442	84.12
496.66	91.12
496.877	89.12
497.094	85.12
497.312	82.12
497.529	91.12
497.746	85.12
497.963	92.12
498.181	83.12
498.398	84.12
498.615	79.12
498.832	73.12
499.049	83.12
499.267	92.12
499.484	85.12
499.701	95.12
499.918	71.12
500.135	79.12
500.352	77.12
500.569	74.12
500.786	84.12
501.003	80.12
501.22	83.12
501.437	83.12
501.654	80.12
501.871	102.12
502.088	91.12
502.305	84.12
502.522	83.12
502.739	85.12
502.956	86.12
503.172	87.12
503.389	80.12
503.606	88.12
503.823	87.12
504.04	91.12
504.256	99.12
504.473	83.12
504.69	93.12
504.907	100.12
505.123	84.12
505.34	96.12
505.557	96.12
505.773	76.12
505.99	82.12
506.207	88.12
506.423	82.12
506.64	81.12
506.856	92.12
507.073	82.12
507.289	92.12
507.506	96.12
507.722	89.12
507.939	91.12
508.155	76.12
508.372	76.12
508.588	83.12
508.805	90.12
509.021	92.12
509.238	77.12
509.454	84.12
509.67	75.12
509.887	92.12
510.103	97.12
510.319	75.12
510.536	82.12
510.752	83.12
510.968	84.12
511.184	85.12
511.401	91.12
511.617	85.12
511.833	87.12
512.049	89.12
512.265	72.12
512.481	83.12
512.698	85.12
512.914	90.12
513.13	87.12
513.346	101.12
513.562	91.12
513.778	87.12
513.994	75.12
514.21	89.12
514.426	85.12
514.642	89.12
514.858	96.12
515.074	90.12
515.29	85.12
515.506	91.12
515.721	88.12
515.937	92.12
516.153	81.12
516.369	81.12
516.585	89.12
516.801	85.12
517.016	105.12
517.232	97.12
517.448	85.12
517.664	87.12
517.879	85.12
518.095	82.12
518.311	89.12
518.527	105.12
518.742	96.12
518.958	99.12
519.173	102.12
