Data from 17600_3_HRD10591_00009.txt Node
Date: Mon Jan 19 14:09:28 EST 2026
User: Yrep
Spectrometer: HR+D1059
Trigger mode: 1
Integration Time (sec): 1.000000E-1
Scans to average: 1
Electric dark correction enabled: true
Nonlinearity correction enabled: false
Boxcar width: 0
XAxis mode: Wavelengths
Number of Pixels in Spectrum: 2048
>>>>>Begin Spectral Data<<<<<
223.165	-26.88
223.4	-26.88
223.635	-26.88
223.869	-15.88
224.104	-5.88
224.338	-16.88
224.573	-20.88
224.808	-9.88
225.042	-21.88
225.277	-6.88
225.511	-6.88
225.746	-1.88
225.98	3.12
226.215	20.12
226.449	22.12
226.683	21.12
226.918	31.12
227.152	36.12
227.387	27.12
227.621	29.12
227.856	43.12
228.09	54.12
228.324	52.12
228.559	45.12
228.793	67.12
229.027	72.12
229.262	51.12
229.496	58.12
229.73	73.12
229.964	81.12
230.199	63.12
230.433	73.12
230.667	80.12
230.901	83.12
231.136	73.12
231.37	81.12
231.604	91.12
231.838	89.12
232.072	90.12
232.306	87.12
232.541	72.12
232.775	74.12
233.009	86.12
233.243	76.12
233.477	85.12
233.711	81.12
233.945	74.12
234.179	86.12
234.413	81.12
234.647	75.12
234.881	82.12
235.115	81.12
235.349	78.12
235.583	82.12
235.817	73.12
236.051	75.12
236.285	66.12
236.519	79.12
236.753	74.12
236.987	74.12
237.221	70.12
237.455	75.12
237.689	67.12
237.922	79.12
238.156	62.12
238.39	78.12
238.624	71.12
238.858	63.12
239.091	83.12
239.325	70.12
239.559	70.12
239.793	84.12
240.027	75.12
240.26	76.12
240.494	79.12
240.728	87.12
240.961	80.12
241.195	63.12
241.429	74.12
241.662	71.12
241.896	88.12
242.13	71.12
242.363	71.12
242.597	81.12
242.83	84.12
243.064	73.12
243.298	82.12
243.531	70.12
243.765	75.12
243.998	70.12
244.232	72.12
244.465	75.12
244.699	77.12
244.932	69.12
245.166	71.12
245.399	90.12
245.633	71.12
245.866	69.12
246.099	68.12
246.333	77.12
246.566	80.12
246.8	67.12
247.033	70.12
247.266	67.12
247.5	62.12
247.733	74.12
247.966	85.12
248.2	83.12
248.433	82.12
248.666	80.12
248.899	76.12
249.133	83.12
249.366	72.12
249.599	87.12
249.832	84.12
250.066	63.12
250.299	81.12
250.532	66.12
250.765	62.12
250.998	84.12
251.231	94.12
251.465	89.12
251.698	106.12
251.931	83.12
252.164	83.12
252.397	95.12
252.63	88.12
252.863	71.12
253.096	77.12
253.329	85.12
253.562	68.12
253.795	76.12
254.028	76.12
254.261	63.12
254.494	81.12
254.727	76.12
254.96	85.12
255.193	74.12
255.426	103.12
255.659	86.12
255.892	87.12
256.124	64.12
256.357	80.12
256.59	85.12
256.823	79.12
257.056	67.12
257.289	82.12
257.521	84.12
257.754	83.12
257.987	92.12
258.22	77.12
258.452	73.12
258.685	85.12
258.918	82.12
259.151	83.12
259.383	75.12
259.616	78.12
259.849	82.12
260.081	69.12
260.314	67.12
260.547	83.12
260.779	81.12
261.012	83.12
261.244	76.12
261.477	73.12
261.71	88.12
261.942	78.12
262.175	84.12
262.407	75.12
262.64	70.12
262.872	85.12
263.105	78.12
263.337	83.12
263.57	78.12
263.802	75.12
264.035	69.12
264.267	79.12
264.499	65.12
264.732	67.12
264.964	92.12
265.197	75.12
265.429	64.12
265.661	87.12
265.894	79.12
266.126	91.12
266.358	75.12
266.591	64.12
266.823	85.12
267.055	81.12
267.287	80.12
267.52	70.12
267.752	76.12
267.984	79.12
268.216	81.12
268.448	78.12
268.681	71.12
268.913	90.12
269.145	70.12
269.377	92.12
269.609	82.12
269.841	85.12
270.073	87.12
270.306	79.12
270.538	68.12
270.77	89.12
271.002	86.12
271.234	77.12
271.466	103.12
271.698	75.12
271.93	67.12
272.162	73.12
272.394	89.12
272.626	97.12
272.858	84.12
273.09	71.12
273.322	72.12
273.553	86.12
273.785	79.12
274.017	83.12
274.249	93.12
274.481	87.12
274.713	79.12
274.945	85.12
275.176	74.12
275.408	85.12
275.64	95.12
275.872	79.12
276.104	82.12
276.335	78.12
276.567	85.12
276.799	74.12
277.031	81.12
277.262	73.12
277.494	78.12
277.726	77.12
277.957	100.12
278.189	74.12
278.421	102.12
278.652	82.12
278.884	81.12
279.115	67.12
279.347	61.12
279.579	79.12
279.81	89.12
280.042	83.12
280.273	90.12
280.505	67.12
280.736	92.12
280.968	75.12
281.199	69.12
281.431	82.12
281.662	87.12
281.894	73.12
282.125	88.12
282.356	87.12
282.588	89.12
282.819	75.12
283.051	79.12
283.282	82.12
283.513	71.12
283.745	95.12
283.976	86.12
284.207	83.12
284.439	81.12
284.67	90.12
284.901	96.12
285.132	101.12
285.364	101.12
285.595	90.12
285.826	95.12
286.057	90.12
286.288	79.12
286.52	85.12
286.751	89.12
286.982	83.12
287.213	85.12
287.444	83.12
287.675	74.12
287.906	71.12
288.138	86.12
288.369	94.12
288.6	78.12
288.831	74.12
289.062	94.12
289.293	69.12
289.524	87.12
289.755	99.12
289.986	89.12
290.217	78.12
290.448	88.12
290.679	75.12
290.91	78.12
291.141	83.12
291.371	97.12
291.602	86.12
291.833	87.12
292.064	90.12
292.295	76.12
292.526	84.12
292.757	77.12
292.987	78.12
293.218	96.12
293.449	88.12
293.68	85.12
293.91	90.12
294.141	85.12
294.372	84.12
294.603	96.12
294.833	80.12
295.064	89.12
295.295	99.12
295.525	94.12
295.756	103.12
295.987	93.12
296.217	90.12
296.448	81.12
296.679	87.12
296.909	89.12
297.14	87.12
297.37	81.12
297.601	97.12
297.831	87.12
298.062	89.12
298.292	75.12
298.523	90.12
298.753	92.12
298.984	96.12
299.214	99.12
299.445	76.12
299.675	102.12
299.905	92.12
300.136	95.12
300.366	91.12
300.597	74.12
300.827	101.12
301.057	95.12
301.288	81.12
301.518	76.12
301.748	90.12
301.979	97.12
302.209	87.12
302.439	97.12
302.669	73.12
302.9	79.12
303.13	76.12
303.36	83.12
303.59	101.12
303.82	101.12
304.051	80.12
304.281	95.12
304.511	75.12
304.741	95.12
304.971	109.12
305.201	81.12
305.431	88.12
305.661	90.12
305.891	102.12
306.121	96.12
306.352	90.12
306.582	94.12
306.812	79.12
307.042	86.12
307.272	85.12
307.502	79.12
307.731	93.12
307.961	94.12
308.191	93.12
308.421	107.12
308.651	101.12
308.881	89.12
309.111	100.12
309.341	93.12
309.571	102.12
309.8	100.12
310.03	90.12
310.26	88.12
310.49	89.12
310.72	101.12
310.949	64.12
311.179	97.12
311.409	76.12
311.639	75.12
311.868	92.12
312.098	76.12
312.328	87.12
312.557	96.12
312.787	87.12
313.017	72.12
313.246	89.12
313.476	89.12
313.706	81.12
313.935	78.12
314.165	90.12
314.394	92.12
314.624	103.12
314.853	88.12
315.083	83.12
315.312	98.12
315.542	85.12
315.771	100.12
316.001	93.12
316.23	83.12
316.46	89.12
316.689	95.12
316.919	87.12
317.148	95.12
317.377	107.12
317.607	85.12
317.836	95.12
318.065	102.12
318.295	99.12
318.524	104.12
318.753	98.12
318.983	79.12
319.212	85.12
319.441	90.12
319.67	83.12
319.9	103.12
320.129	97.12
320.358	91.12
320.587	94.12
320.816	81.12
321.046	85.12
321.275	86.12
321.504	100.12
321.733	88.12
321.962	91.12
322.191	96.12
322.42	88.12
322.649	104.12
322.878	88.12
323.108	88.12
323.337	86.12
323.566	91.12
323.795	88.12
324.024	95.12
324.253	80.12
324.482	90.12
324.71	96.12
324.939	93.12
325.168	87.12
325.397	82.12
325.626	93.12
325.855	85.12
326.084	86.12
326.313	85.12
326.542	82.12
326.77	85.12
326.999	99.12
327.228	76.12
327.457	101.12
327.686	74.12
327.914	94.12
328.143	86.12
328.372	90.12
328.6	94.12
328.829	83.12
329.058	86.12
329.287	82.12
329.515	88.12
329.744	85.12
329.972	89.12
330.201	87.12
330.43	84.12
330.658	90.12
330.887	89.12
331.115	80.12
331.344	78.12
331.572	94.12
331.801	82.12
332.03	86.12
332.258	94.12
332.486	85.12
332.715	95.12
332.943	91.12
333.172	89.12
333.4	88.12
333.629	96.12
333.857	96.12
334.085	91.12
334.314	120.12
334.542	93.12
334.771	94.12
334.999	103.12
335.227	82.12
335.455	106.12
335.684	106.12
335.912	117.12
336.14	112.12
336.369	103.12
336.597	89.12
336.825	97.12
337.053	89.12
337.281	110.12
337.51	91.12
337.738	91.12
337.966	80.12
338.194	99.12
338.422	93.12
338.65	85.12
338.878	85.12
339.106	77.12
339.334	88.12
339.562	76.12
339.79	93.12
340.018	77.12
340.246	97.12
340.474	82.12
340.702	83.12
340.93	101.12
341.158	77.12
341.386	95.12
341.614	100.12
341.842	85.12
342.07	81.12
342.298	73.12
342.526	95.12
342.754	91.12
342.981	90.12
343.209	86.12
343.437	94.12
343.665	92.12
343.893	95.12
344.12	97.12
344.348	83.12
344.576	87.12
344.804	91.12
345.031	88.12
345.259	93.12
345.487	103.12
345.714	82.12
345.942	83.12
346.17	75.12
346.397	73.12
346.625	91.12
346.853	82.12
347.08	100.12
347.308	89.12
347.535	87.12
347.763	89.12
347.99	90.12
348.218	85.12
348.445	90.12
348.673	87.12
348.9	80.12
349.128	93.12
349.355	96.12
349.583	91.12
349.81	96.12
350.037	99.12
350.265	83.12
350.492	95.12
350.72	76.12
350.947	87.12
351.174	93.12
351.402	98.12
351.629	92.12
351.856	75.12
352.083	81.12
352.311	89.12
352.538	83.12
352.765	75.12
352.992	102.12
353.22	77.12
353.447	95.12
353.674	90.12
353.901	79.12
354.128	88.12
354.355	77.12
354.583	84.12
354.81	90.12
355.037	96.12
355.264	93.12
355.491	91.12
355.718	86.12
355.945	104.12
356.172	102.12
356.399	104.12
356.626	88.12
356.853	94.12
357.08	109.12
357.307	104.12
357.534	89.12
357.761	105.12
357.988	98.12
358.215	102.12
358.441	93.12
358.668	109.12
358.895	76.12
359.122	93.12
359.349	93.12
359.576	88.12
359.802	82.12
360.029	84.12
360.256	87.12
360.483	86.12
360.709	93.12
360.936	105.12
361.163	92.12
361.39	90.12
361.616	93.12
361.843	98.12
362.07	119.12
362.296	125.12
362.523	121.12
362.749	142.12
362.976	142.12
363.203	174.12
363.429	132.12
363.656	105.12
363.882	109.12
364.109	131.12
364.335	169.12
364.562	183.12
364.788	146.12
365.015	113.12
365.241	99.12
365.468	106.12
365.694	103.12
365.92	87.12
366.147	88.12
366.373	94.12
366.599	95.12
366.826	88.12
367.052	78.12
367.278	89.12
367.505	97.12
367.731	91.12
367.957	102.12
368.184	99.12
368.41	102.12
368.636	89.12
368.862	104.12
369.089	93.12
369.315	86.12
369.541	100.12
369.767	93.12
369.993	86.12
370.219	94.12
370.445	96.12
370.672	101.12
370.898	106.12
371.124	91.12
371.35	88.12
371.576	87.12
371.802	97.12
372.028	104.12
372.254	108.12
372.48	79.12
372.706	102.12
372.932	113.12
373.158	105.12
373.384	119.12
373.61	138.12
373.835	126.12
374.061	107.12
374.287	113.12
374.513	95.12
374.739	119.12
374.965	109.12
375.191	110.12
375.416	95.12
375.642	104.12
375.868	73.12
376.094	100.12
376.319	121.12
376.545	95.12
376.771	89.12
376.997	103.12
377.222	81.12
377.448	89.12
377.674	98.12
377.899	94.12
378.125	80.12
378.35	98.12
378.576	99.12
378.802	89.12
379.027	90.12
379.253	94.12
379.478	92.12
379.704	105.12
379.929	92.12
380.155	97.12
380.38	97.12
380.606	84.12
380.831	105.12
381.057	103.12
381.282	100.12
381.507	104.12
381.733	104.12
381.958	104.12
382.184	104.12
382.409	106.12
382.634	116.12
382.86	119.12
383.085	101.12
383.31	121.12
383.535	123.12
383.761	101.12
383.986	106.12
384.211	110.12
384.436	101.12
384.662	112.12
384.887	92.12
385.112	97.12
385.337	106.12
385.562	90.12
385.787	120.12
386.013	122.12
386.238	113.12
386.463	113.12
386.688	113.12
386.913	111.12
387.138	100.12
387.363	109.12
387.588	109.12
387.813	115.12
388.038	113.12
388.263	117.12
388.488	105.12
388.713	103.12
388.938	101.12
389.163	105.12
389.387	102.12
389.612	95.12
389.837	106.12
390.062	94.12
390.287	97.12
390.512	97.12
390.736	105.12
390.961	105.12
391.186	105.12
391.411	105.12
391.636	104.12
391.86	90.12
392.085	102.12
392.31	120.12
392.534	130.12
392.759	142.12
392.984	205.12
393.208	352.12
393.433	511.12
393.658	403.12
393.882	210.12
394.107	133.12
394.331	150.12
394.556	171.12
394.78	135.12
395.005	116.12
395.229	114.12
395.454	126.12
395.678	160.12
395.903	162.12
396.127	190.12
396.352	216.12
396.576	251.12
396.801	374.12
397.025	399.12
397.249	244.12
397.474	162.12
397.698	126.12
397.922	105.12
398.147	101.12
398.371	98.12
398.595	101.12
398.82	93.12
399.044	100.12
399.268	95.12
399.492	97.12
399.717	116.12
399.941	98.12
400.165	102.12
400.389	81.12
400.613	94.12
400.837	85.12
401.062	91.12
401.286	101.12
401.51	92.12
401.734	90.12
401.958	95.12
402.182	90.12
402.406	97.12
402.63	92.12
402.854	90.12
403.078	95.12
403.302	99.12
403.526	103.12
403.75	99.12
403.974	85.12
404.198	101.12
404.422	108.12
404.645	97.12
404.869	101.12
405.093	84.12
405.317	86.12
405.541	84.12
405.765	84.12
405.988	91.12
406.212	95.12
406.436	91.12
406.66	86.12
406.883	83.12
407.107	103.12
407.331	105.12
407.555	115.12
407.778	146.12
408.002	134.12
408.226	106.12
408.449	88.12
408.673	90.12
408.896	85.12
409.12	90.12
409.344	129.12
409.567	103.12
409.791	121.12
410.014	119.12
410.238	109.12
410.461	102.12
410.685	86.12
410.908	101.12
411.132	95.12
411.355	102.12
411.578	92.12
411.802	90.12
412.025	97.12
412.249	99.12
412.472	84.12
412.695	101.12
412.919	76.12
413.142	87.12
413.365	96.12
413.589	103.12
413.812	95.12
414.035	87.12
414.258	104.12
414.482	87.12
414.705	85.12
414.928	103.12
415.151	106.12
415.374	83.12
415.597	100.12
415.821	86.12
416.044	94.12
416.267	86.12
416.49	89.12
416.713	89.12
416.936	85.12
417.159	68.12
417.382	84.12
417.605	91.12
417.828	98.12
418.051	90.12
418.274	90.12
418.497	94.12
418.72	88.12
418.943	94.12
419.166	101.12
419.389	96.12
419.611	89.12
419.834	99.12
420.057	97.12
420.28	95.12
420.503	89.12
420.726	104.12
420.948	117.12
421.171	123.12
421.394	147.12
421.617	171.12
421.839	163.12
422.062	194.12
422.285	278.12
422.507	488.12
422.73	638.12
422.953	585.12
423.175	367.12
423.398	237.12
423.621	146.12
423.843	147.12
424.066	114.12
424.288	130.12
424.511	113.12
424.733	114.12
424.956	117.12
425.178	90.12
425.401	105.12
425.623	99.12
425.846	103.12
426.068	82.12
426.291	100.12
426.513	91.12
426.735	97.12
426.958	100.12
427.18	76.12
427.402	91.12
427.625	99.12
427.847	102.12
428.069	115.12
428.292	158.12
428.514	201.12
428.736	138.12
428.958	179.12
429.181	173.12
429.403	121.12
429.625	108.12
429.847	154.12
430.069	231.12
430.292	262.12
430.514	240.12
430.736	204.12
430.958	188.12
431.18	110.12
431.402	113.12
431.624	103.12
431.846	155.12
432.068	166.12
432.29	116.12
432.512	106.12
432.734	100.12
432.956	92.12
433.178	93.12
433.4	97.12
433.622	90.12
433.844	85.12
434.066	100.12
434.287	88.12
434.509	79.12
434.731	89.12
434.953	105.12
435.175	86.12
435.397	105.12
435.618	96.12
435.84	109.12
436.062	97.12
436.284	93.12
436.505	74.12
436.727	84.12
436.949	90.12
437.17	81.12
437.392	88.12
437.614	73.12
437.835	85.12
438.057	94.12
438.278	97.12
438.5	115.12
438.721	97.12
438.943	86.12
439.165	91.12
439.386	82.12
439.608	95.12
439.829	84.12
440.05	77.12
440.272	89.12
440.493	111.12
440.715	95.12
440.936	89.12
441.158	88.12
441.379	96.12
441.6	112.12
441.822	99.12
442.043	102.12
442.264	122.12
442.486	190.12
442.707	258.12
442.928	167.12
443.149	137.12
443.371	238.12
443.592	383.12
443.813	345.12
444.034	155.12
444.255	89.12
444.476	110.12
444.698	104.12
444.919	102.12
445.14	220.12
445.361	303.12
445.582	481.12
445.803	411.12
446.024	174.12
446.245	119.12
446.466	97.12
446.687	91.12
446.908	105.12
447.129	88.12
447.35	88.12
447.571	91.12
447.792	86.12
448.013	83.12
448.234	81.12
448.455	90.12
448.675	86.12
448.896	76.12
449.117	103.12
449.338	88.12
449.559	99.12
449.779	99.12
450	91.12
450.221	83.12
450.442	93.12
450.662	93.12
450.883	90.12
451.104	82.12
451.324	93.12
451.545	95.12
451.766	96.12
451.986	95.12
452.207	107.12
452.428	107.12
452.648	116.12
452.869	130.12
453.089	124.12
453.31	98.12
453.53	115.12
453.751	103.12
453.971	91.12
454.192	84.12
454.412	89.12
454.633	91.12
454.853	109.12
455.073	98.12
455.294	98.12
455.514	114.12
455.734	87.12
455.955	83.12
456.175	89.12
456.395	103.12
456.616	90.12
456.836	85.12
457.056	87.12
457.276	84.12
457.497	87.12
457.717	110.12
457.937	142.12
458.157	176.12
458.377	178.12
458.598	160.12
458.818	194.12
459.038	131.12
459.258	99.12
459.478	97.12
459.698	91.12
459.918	95.12
460.138	109.12
460.358	94.12
460.578	117.12
460.798	187.12
461.018	180.12
461.238	116.12
461.458	107.12
461.678	93.12
461.898	94.12
462.118	93.12
462.338	86.12
462.558	88.12
462.777	95.12
462.997	95.12
463.217	98.12
463.437	91.12
463.657	101.12
463.876	100.12
464.096	94.12
464.316	80.12
464.536	102.12
464.755	105.12
464.975	89.12
465.195	94.12
465.414	83.12
465.634	82.12
465.854	89.12
466.073	79.12
466.293	82.12
466.512	90.12
466.732	108.12
466.951	86.12
467.171	101.12
467.391	100.12
467.61	97.12
467.829	85.12
468.049	85.12
468.268	89.12
468.488	90.12
468.707	101.12
468.927	97.12
469.146	78.12
469.365	86.12
469.585	91.12
469.804	92.12
470.023	95.12
470.243	95.12
470.462	94.12
470.681	85.12
470.901	84.12
471.12	84.12
471.339	80.12
471.558	94.12
471.777	85.12
471.997	96.12
472.216	102.12
472.435	109.12
472.654	84.12
472.873	91.12
473.092	102.12
473.311	89.12
473.53	82.12
473.749	96.12
473.968	98.12
474.187	106.12
474.406	99.12
474.625	109.12
474.844	97.12
475.063	93.12
475.282	81.12
475.501	96.12
475.72	78.12
475.939	82.12
476.158	83.12
476.377	91.12
476.596	88.12
476.814	111.12
477.033	81.12
477.252	99.12
477.471	100.12
477.69	83.12
477.908	93.12
478.127	96.12
478.346	98.12
478.564	86.12
478.783	105.12
479.002	101.12
479.22	97.12
479.439	101.12
479.658	93.12
479.876	88.12
480.095	83.12
480.313	86.12
480.532	99.12
480.751	98.12
480.969	111.12
481.188	95.12
481.406	113.12
481.624	105.12
481.843	82.12
482.061	90.12
482.28	88.12
482.498	105.12
482.717	86.12
482.935	105.12
483.153	89.12
483.372	110.12
483.59	109.12
483.808	103.12
484.027	93.12
484.245	98.12
484.463	109.12
484.681	113.12
484.9	110.12
485.118	104.12
485.336	96.12
485.554	96.12
485.772	95.12
485.99	98.12
486.209	107.12
486.427	94.12
486.645	93.12
486.863	94.12
487.081	91.12
487.299	116.12
487.517	137.12
487.735	167.12
487.953	305.12
488.171	229.12
488.389	113.12
488.607	95.12
488.825	85.12
489.043	95.12
489.261	109.12
489.479	85.12
489.696	95.12
489.914	100.12
490.132	97.12
490.35	103.12
490.568	89.12
490.786	94.12
491.003	99.12
491.221	111.12
491.439	101.12
491.657	105.12
491.874	94.12
492.092	91.12
492.31	96.12
492.527	102.12
492.745	90.12
492.963	102.12
493.18	98.12
493.398	92.12
493.615	100.12
493.833	93.12
494.05	81.12
494.268	98.12
494.485	115.12
494.703	86.12
494.92	87.12
495.138	95.12
495.355	93.12
495.573	90.12
495.79	95.12
496.008	104.12
496.225	103.12
496.442	123.12
496.66	101.12
496.877	102.12
497.094	98.12
497.312	90.12
497.529	87.12
497.746	98.12
497.963	102.12
498.181	101.12
498.398	119.12
498.615	102.12
498.832	104.12
499.049	102.12
499.267	120.12
499.484	109.12
499.701	104.12
499.918	92.12
500.135	112.12
500.352	105.12
500.569	99.12
500.786	119.12
501.003	114.12
501.22	98.12
501.437	96.12
501.654	103.12
501.871	100.12
502.088	106.12
502.305	92.12
502.522	96.12
502.739	107.12
502.956	106.12
503.172	98.12
503.389	118.12
503.606	103.12
503.823	118.12
504.04	125.12
504.256	200.12
504.473	210.12
504.69	133.12
504.907	109.12
505.123	85.12
505.34	98.12
505.557	86.12
505.773	103.12
505.99	92.12
506.207	79.12
506.423	93.12
506.64	119.12
506.856	113.12
507.073	100.12
507.289	101.12
507.506	96.12
507.722	97.12
507.939	103.12
508.155	103.12
508.372	98.12
508.588	101.12
508.805	95.12
509.021	92.12
509.238	88.12
509.454	111.12
509.67	83.12
509.887	90.12
510.103	96.12
510.319	109.12
510.536	91.12
510.752	93.12
510.968	96.12
511.184	94.12
511.401	94.12
511.617	88.12
511.833	105.12
512.049	89.12
512.265	95.12
512.481	105.12
512.698	102.12
512.914	94.12
513.13	111.12
513.346	94.12
513.562	86.12
513.778	105.12
513.994	97.12
514.21	106.12
514.426	103.12
514.642	92.12
514.858	91.12
