Data from 17600_3_HRD10591_00032.txt Node
Date: Mon Jan 19 14:09:39 EST 2026
User: Yrep
Spectrometer: HR+D1059
Trigger mode: 1
Integration Time (sec): 1.000000E-1
Scans to average: 1
Electric dark correction enabled: true
Nonlinearity correction enabled: false
Boxcar width: 0
XAxis mode: Wavelengths
Number of Pixels in Spectrum: 2048
>>>>>Begin Spectral Data<<<<<
223.165	-12.12
223.4	-12.12
223.635	-12.12
223.869	-13.12
224.104	-25.12
224.338	-10.12
224.573	-15.12
224.808	-21.12
225.042	-9.12
225.277	2.88
225.511	-6.12
225.746	-0.12
225.98	-0.12
226.215	9.88
226.449	11.88
226.683	20.88
226.918	25.88
227.152	40.88
227.387	46.88
227.621	44.88
227.856	48.88
228.09	39.88
228.324	72.88
228.559	56.88
228.793	59.88
229.027	62.88
229.262	82.88
229.496	69.88
229.73	70.88
229.964	77.88
230.199	56.88
230.433	74.88
230.667	83.88
230.901	78.88
231.136	80.88
231.37	83.88
231.604	70.88
231.838	76.88
232.072	86.88
232.306	74.88
232.541	93.88
232.775	83.88
233.009	81.88
233.243	74.88
233.477	92.88
233.711	72.88
233.945	78.88
234.179	96.88
234.413	77.88
234.647	84.88
234.881	96.88
235.115	72.88
235.349	80.88
235.583	78.88
235.817	69.88
236.051	80.88
236.285	76.88
236.519	76.88
236.753	77.88
236.987	70.88
237.221	66.88
237.455	73.88
237.689	80.88
237.922	83.88
238.156	98.88
238.39	84.88
238.624	75.88
238.858	74.88
239.091	78.88
239.325	85.88
239.559	74.88
239.793	80.88
240.027	82.88
240.26	65.88
240.494	77.88
240.728	84.88
240.961	85.88
241.195	83.88
241.429	71.88
241.662	84.88
241.896	73.88
242.13	70.88
242.363	72.88
242.597	78.88
242.83	79.88
243.064	78.88
243.298	71.88
243.531	91.88
243.765	75.88
243.998	92.88
244.232	82.88
244.465	68.88
244.699	80.88
244.932	78.88
245.166	87.88
245.399	82.88
245.633	70.88
245.866	85.88
246.099	89.88
246.333	73.88
246.566	85.88
246.8	68.88
247.033	85.88
247.266	79.88
247.5	82.88
247.733	88.88
247.966	88.88
248.2	74.88
248.433	69.88
248.666	82.88
248.899	79.88
249.133	82.88
249.366	82.88
249.599	76.88
249.832	74.88
250.066	69.88
250.299	78.88
250.532	82.88
250.765	70.88
250.998	69.88
251.231	69.88
251.465	89.88
251.698	72.88
251.931	81.88
252.164	84.88
252.397	68.88
252.63	87.88
252.863	70.88
253.096	92.88
253.329	82.88
253.562	70.88
253.795	75.88
254.028	94.88
254.261	82.88
254.494	90.88
254.727	100.88
254.96	87.88
255.193	93.88
255.426	76.88
255.659	92.88
255.892	85.88
256.124	74.88
256.357	69.88
256.59	73.88
256.823	78.88
257.056	91.88
257.289	92.88
257.521	89.88
257.754	86.88
257.987	75.88
258.22	87.88
258.452	80.88
258.685	82.88
258.918	85.88
259.151	79.88
259.383	89.88
259.616	82.88
259.849	89.88
260.081	84.88
260.314	92.88
260.547	82.88
260.779	88.88
261.012	86.88
261.244	87.88
261.477	60.88
261.71	64.88
261.942	71.88
262.175	75.88
262.407	83.88
262.64	82.88
262.872	71.88
263.105	60.88
263.337	80.88
263.57	78.88
263.802	87.88
264.035	88.88
264.267	79.88
264.499	86.88
264.732	87.88
264.964	78.88
265.197	90.88
265.429	96.88
265.661	85.88
265.894	77.88
266.126	81.88
266.358	66.88
266.591	85.88
266.823	85.88
267.055	79.88
267.287	84.88
267.52	89.88
267.752	86.88
267.984	89.88
268.216	85.88
268.448	87.88
268.681	85.88
268.913	88.88
269.145	76.88
269.377	92.88
269.609	89.88
269.841	79.88
270.073	92.88
270.306	88.88
270.538	70.88
270.77	87.88
271.002	74.88
271.234	73.88
271.466	83.88
271.698	79.88
271.93	93.88
272.162	87.88
272.394	90.88
272.626	78.88
272.858	96.88
273.09	82.88
273.322	84.88
273.553	79.88
273.785	73.88
274.017	90.88
274.249	86.88
274.481	93.88
274.713	78.88
274.945	84.88
275.176	98.88
275.408	90.88
275.64	95.88
275.872	92.88
276.104	88.88
276.335	87.88
276.567	86.88
276.799	82.88
277.031	92.88
277.262	81.88
277.494	72.88
277.726	90.88
277.957	78.88
278.189	83.88
278.421	85.88
278.652	94.88
278.884	77.88
279.115	76.88
279.347	77.88
279.579	75.88
279.81	90.88
280.042	96.88
280.273	77.88
280.505	75.88
280.736	74.88
280.968	89.88
281.199	86.88
281.431	85.88
281.662	84.88
281.894	86.88
282.125	89.88
282.356	100.88
282.588	98.88
282.819	83.88
283.051	84.88
283.282	99.88
283.513	88.88
283.745	83.88
283.976	88.88
284.207	93.88
284.439	94.88
284.67	83.88
284.901	94.88
285.132	94.88
285.364	99.88
285.595	77.88
285.826	81.88
286.057	76.88
286.288	84.88
286.52	92.88
286.751	91.88
286.982	88.88
287.213	82.88
287.444	100.88
287.675	75.88
287.906	79.88
288.138	86.88
288.369	98.88
288.6	80.88
288.831	71.88
289.062	102.88
289.293	84.88
289.524	98.88
289.755	100.88
289.986	93.88
290.217	90.88
290.448	77.88
290.679	82.88
290.91	102.88
291.141	72.88
291.371	76.88
291.602	82.88
291.833	78.88
292.064	92.88
292.295	90.88
292.526	84.88
292.757	76.88
292.987	84.88
293.218	84.88
293.449	97.88
293.68	97.88
293.91	91.88
294.141	79.88
294.372	76.88
294.603	96.88
294.833	87.88
295.064	97.88
295.295	80.88
295.525	89.88
295.756	86.88
295.987	92.88
296.217	94.88
296.448	88.88
296.679	76.88
296.909	82.88
297.14	88.88
297.37	84.88
297.601	77.88
297.831	90.88
298.062	74.88
298.292	83.88
298.523	84.88
298.753	99.88
298.984	70.88
299.214	85.88
299.445	82.88
299.675	89.88
299.905	105.88
300.136	88.88
300.366	85.88
300.597	75.88
300.827	90.88
301.057	89.88
301.288	83.88
301.518	77.88
301.748	90.88
301.979	108.88
302.209	78.88
302.439	73.88
302.669	85.88
302.9	90.88
303.13	98.88
303.36	75.88
303.59	74.88
303.82	90.88
304.051	82.88
304.281	86.88
304.511	84.88
304.741	96.88
304.971	94.88
305.201	92.88
305.431	87.88
305.661	83.88
305.891	84.88
306.121	79.88
306.352	82.88
306.582	81.88
306.812	82.88
307.042	83.88
307.272	83.88
307.502	85.88
307.731	89.88
307.961	91.88
308.191	84.88
308.421	98.88
308.651	93.88
308.881	87.88
309.111	84.88
309.341	104.88
309.571	112.88
309.8	96.88
310.03	79.88
310.26	91.88
310.49	90.88
310.72	100.88
310.949	93.88
311.179	78.88
311.409	91.88
311.639	93.88
311.868	100.88
312.098	87.88
312.328	88.88
312.557	91.88
312.787	80.88
313.017	90.88
313.246	95.88
313.476	93.88
313.706	90.88
313.935	96.88
314.165	90.88
314.394	85.88
314.624	88.88
314.853	96.88
315.083	80.88
315.312	90.88
315.542	84.88
315.771	86.88
316.001	83.88
316.23	98.88
316.46	87.88
316.689	86.88
316.919	82.88
317.148	105.88
317.377	86.88
317.607	88.88
317.836	96.88
318.065	89.88
318.295	92.88
318.524	90.88
318.753	83.88
318.983	80.88
319.212	91.88
319.441	98.88
319.67	93.88
319.9	92.88
320.129	76.88
320.358	90.88
320.587	89.88
320.816	89.88
321.046	89.88
321.275	93.88
321.504	85.88
321.733	88.88
321.962	85.88
322.191	80.88
322.42	77.88
322.649	80.88
322.878	82.88
323.108	88.88
323.337	89.88
323.566	85.88
323.795	90.88
324.024	99.88
324.253	84.88
324.482	95.88
324.71	76.88
324.939	90.88
325.168	78.88
325.397	89.88
325.626	82.88
325.855	84.88
326.084	85.88
326.313	86.88
326.542	95.88
326.77	90.88
326.999	85.88
327.228	98.88
327.457	92.88
327.686	88.88
327.914	100.88
328.143	99.88
328.372	78.88
328.6	104.88
328.829	79.88
329.058	77.88
329.287	80.88
329.515	76.88
329.744	98.88
329.972	87.88
330.201	94.88
330.43	89.88
330.658	83.88
330.887	89.88
331.115	90.88
331.344	90.88
331.572	88.88
331.801	82.88
332.03	90.88
332.258	87.88
332.486	66.88
332.715	82.88
332.943	85.88
333.172	88.88
333.4	83.88
333.629	72.88
333.857	79.88
334.085	75.88
334.314	79.88
334.542	79.88
334.771	88.88
334.999	86.88
335.227	83.88
335.455	94.88
335.684	82.88
335.912	112.88
336.14	97.88
336.369	107.88
336.597	100.88
336.825	82.88
337.053	86.88
337.281	96.88
337.51	86.88
337.738	89.88
337.966	100.88
338.194	97.88
338.422	92.88
338.65	87.88
338.878	83.88
339.106	84.88
339.334	94.88
339.562	81.88
339.79	89.88
340.018	73.88
340.246	74.88
340.474	94.88
340.702	86.88
340.93	97.88
341.158	87.88
341.386	92.88
341.614	86.88
341.842	72.88
342.07	89.88
342.298	91.88
342.526	93.88
342.754	89.88
342.981	84.88
343.209	77.88
343.437	88.88
343.665	83.88
343.893	81.88
344.12	98.88
344.348	77.88
344.576	83.88
344.804	79.88
345.031	92.88
345.259	87.88
345.487	94.88
345.714	91.88
345.942	81.88
346.17	86.88
346.397	84.88
346.625	84.88
346.853	76.88
347.08	96.88
347.308	84.88
347.535	87.88
347.763	91.88
347.99	101.88
348.218	95.88
348.445	90.88
348.673	92.88
348.9	98.88
349.128	89.88
349.355	91.88
349.583	86.88
349.81	86.88
350.037	85.88
350.265	86.88
350.492	88.88
350.72	83.88
350.947	92.88
351.174	92.88
351.402	87.88
351.629	94.88
351.856	91.88
352.083	87.88
352.311	87.88
352.538	85.88
352.765	91.88
352.992	96.88
353.22	79.88
353.447	78.88
353.674	84.88
353.901	90.88
354.128	91.88
354.355	89.88
354.583	78.88
354.81	102.88
355.037	86.88
355.264	92.88
355.491	96.88
355.718	77.88
355.945	85.88
356.172	85.88
356.399	78.88
356.626	80.88
356.853	91.88
357.08	91.88
357.307	67.88
357.534	99.88
357.761	95.88
357.988	93.88
358.215	84.88
358.441	93.88
358.668	74.88
358.895	83.88
359.122	84.88
359.349	72.88
359.576	67.88
359.802	97.88
360.029	81.88
360.256	86.88
360.483	78.88
360.709	90.88
360.936	93.88
361.163	89.88
361.39	85.88
361.616	89.88
361.843	82.88
362.07	101.88
362.296	99.88
362.523	89.88
362.749	96.88
362.976	97.88
363.203	109.88
363.429	82.88
363.656	78.88
363.882	84.88
364.109	98.88
364.335	102.88
364.562	93.88
364.788	81.88
365.015	82.88
365.241	82.88
365.468	93.88
365.694	84.88
365.92	90.88
366.147	80.88
366.373	81.88
366.599	82.88
366.826	81.88
367.052	98.88
367.278	76.88
367.505	89.88
367.731	93.88
367.957	84.88
368.184	90.88
368.41	90.88
368.636	97.88
368.862	88.88
369.089	74.88
369.315	83.88
369.541	74.88
369.767	86.88
369.993	80.88
370.219	80.88
370.445	79.88
370.672	81.88
370.898	96.88
371.124	81.88
371.35	92.88
371.576	79.88
371.802	93.88
372.028	98.88
372.254	93.88
372.48	100.88
372.706	89.88
372.932	80.88
373.158	91.88
373.384	89.88
373.61	101.88
373.835	100.88
374.061	91.88
374.287	88.88
374.513	93.88
374.739	90.88
374.965	89.88
375.191	94.88
375.416	92.88
375.642	78.88
375.868	86.88
376.094	87.88
376.319	79.88
376.545	84.88
376.771	88.88
376.997	93.88
377.222	74.88
377.448	100.88
377.674	87.88
377.899	87.88
378.125	80.88
378.35	92.88
378.576	76.88
378.802	91.88
379.027	80.88
379.253	79.88
379.478	82.88
379.704	78.88
379.929	80.88
380.155	80.88
380.38	81.88
380.606	89.88
380.831	82.88
381.057	76.88
381.282	93.88
381.507	76.88
381.733	82.88
381.958	77.88
382.184	90.88
382.409	93.88
382.634	99.88
382.86	84.88
383.085	94.88
383.31	100.88
383.535	85.88
383.761	90.88
383.986	76.88
384.211	78.88
384.436	86.88
384.662	91.88
384.887	83.88
385.112	89.88
385.337	92.88
385.562	89.88
385.787	69.88
386.013	83.88
386.238	90.88
386.463	76.88
386.688	98.88
386.913	70.88
387.138	74.88
387.363	92.88
387.588	90.88
387.813	78.88
388.038	94.88
388.263	90.88
388.488	85.88
388.713	91.88
388.938	72.88
389.163	88.88
389.387	81.88
389.612	71.88
389.837	88.88
390.062	91.88
390.287	90.88
390.512	93.88
390.736	93.88
390.961	88.88
391.186	88.88
391.411	74.88
391.636	86.88
391.86	85.88
392.085	90.88
392.31	94.88
392.534	102.88
392.759	101.88
392.984	119.88
393.208	166.88
393.433	212.88
393.658	178.88
393.882	99.88
394.107	93.88
394.331	86.88
394.556	109.88
394.78	101.88
395.005	95.88
395.229	83.88
395.454	97.88
395.678	78.88
395.903	97.88
396.127	110.88
396.352	128.88
396.576	122.88
396.801	159.88
397.025	194.88
397.249	127.88
397.474	114.88
397.698	100.88
397.922	96.88
398.147	90.88
398.371	78.88
398.595	66.88
398.82	88.88
399.044	82.88
399.268	80.88
399.492	84.88
399.717	96.88
399.941	77.88
400.165	90.88
400.389	88.88
400.613	79.88
400.837	75.88
401.062	86.88
401.286	88.88
401.51	82.88
401.734	80.88
401.958	95.88
402.182	89.88
402.406	89.88
402.63	90.88
402.854	85.88
403.078	96.88
403.302	86.88
403.526	88.88
403.75	84.88
403.974	82.88
404.198	85.88
404.422	86.88
404.645	93.88
404.869	86.88
405.093	76.88
405.317	86.88
405.541	73.88
405.765	72.88
405.988	92.88
406.212	81.88
406.436	91.88
406.66	105.88
406.883	91.88
407.107	76.88
407.331	90.88
407.555	102.88
407.778	101.88
408.002	91.88
408.226	77.88
408.449	91.88
408.673	75.88
408.896	100.88
409.12	78.88
409.344	89.88
409.567	82.88
409.791	99.88
410.014	83.88
410.238	84.88
410.461	84.88
410.685	85.88
410.908	88.88
411.132	81.88
411.355	77.88
411.578	85.88
411.802	83.88
412.025	78.88
412.249	76.88
412.472	78.88
412.695	83.88
412.919	75.88
413.142	80.88
413.365	91.88
413.589	87.88
413.812	90.88
414.035	96.88
414.258	81.88
414.482	74.88
414.705	83.88
414.928	84.88
415.151	69.88
415.374	78.88
415.597	96.88
415.821	86.88
416.044	79.88
416.267	82.88
416.49	88.88
416.713	96.88
416.936	85.88
417.159	88.88
417.382	87.88
417.605	79.88
417.828	84.88
418.051	97.88
418.274	83.88
418.497	83.88
418.72	91.88
418.943	82.88
419.166	90.88
419.389	75.88
419.611	87.88
419.834	91.88
420.057	90.88
420.28	78.88
420.503	85.88
420.726	81.88
420.948	86.88
421.171	78.88
421.394	105.88
421.617	104.88
421.839	120.88
422.062	109.88
422.285	116.88
422.507	208.88
422.73	305.88
422.953	286.88
423.175	140.88
423.398	113.88
423.621	76.88
423.843	77.88
424.066	83.88
424.288	85.88
424.511	78.88
424.733	89.88
424.956	74.88
425.178	78.88
425.401	83.88
425.623	90.88
425.846	84.88
426.068	79.88
426.291	68.88
426.513	68.88
426.735	89.88
426.958	80.88
427.18	77.88
427.402	86.88
427.625	79.88
427.847	91.88
428.069	102.88
428.292	105.88
428.514	121.88
428.736	93.88
428.958	118.88
429.181	107.88
429.403	82.88
429.625	90.88
429.847	98.88
430.069	119.88
430.292	112.88
430.514	129.88
430.736	102.88
430.958	102.88
431.18	85.88
431.402	90.88
431.624	101.88
431.846	107.88
432.068	105.88
432.29	78.88
432.512	87.88
432.734	82.88
432.956	87.88
433.178	82.88
433.4	92.88
433.622	95.88
433.844	84.88
434.066	90.88
434.287	69.88
434.509	84.88
434.731	79.88
434.953	90.88
435.175	91.88
435.397	90.88
435.618	87.88
435.84	83.88
436.062	84.88
436.284	81.88
436.505	82.88
436.727	84.88
436.949	68.88
437.17	88.88
437.392	82.88
437.614	70.88
437.835	86.88
438.057	75.88
438.278	76.88
438.5	87.88
438.721	94.88
438.943	92.88
439.165	99.88
439.386	84.88
439.608	86.88
439.829	75.88
440.05	78.88
440.272	78.88
440.493	91.88
440.715	76.88
440.936	77.88
441.158	87.88
441.379	82.88
441.6	75.88
441.822	72.88
442.043	94.88
442.264	85.88
442.486	109.88
442.707	131.88
442.928	102.88
443.149	88.88
443.371	115.88
443.592	166.88
443.813	145.88
444.034	106.88
444.255	97.88
444.476	95.88
444.698	89.88
444.919	98.88
445.14	137.88
445.361	151.88
445.582	178.88
445.803	177.88
446.024	111.88
446.245	90.88
446.466	83.88
446.687	84.88
446.908	99.88
447.129	98.88
447.35	82.88
447.571	88.88
447.792	93.88
448.013	86.88
448.234	86.88
448.455	88.88
448.675	78.88
448.896	72.88
449.117	88.88
449.338	78.88
449.559	85.88
449.779	101.88
450	94.88
450.221	86.88
450.442	78.88
450.662	74.88
450.883	75.88
451.104	78.88
451.324	81.88
451.545	86.88
451.766	82.88
451.986	90.88
452.207	101.88
452.428	88.88
452.648	82.88
452.869	100.88
453.089	84.88
453.31	87.88
453.53	100.88
453.751	87.88
453.971	91.88
454.192	84.88
454.412	84.88
454.633	92.88
454.853	104.88
455.073	85.88
455.294	88.88
455.514	92.88
455.734	74.88
455.955	76.88
456.175	67.88
456.395	80.88
456.616	90.88
456.836	78.88
457.056	72.88
457.276	81.88
457.497	93.88
457.717	83.88
457.937	77.88
458.157	97.88
458.377	96.88
458.598	77.88
458.818	114.88
459.038	92.88
459.258	85.88
459.478	88.88
459.698	82.88
459.918	74.88
460.138	81.88
460.358	90.88
460.578	93.88
460.798	116.88
461.018	107.88
461.238	88.88
461.458	78.88
461.678	87.88
461.898	85.88
462.118	88.88
462.338	84.88
462.558	79.88
462.777	75.88
462.997	100.88
463.217	77.88
463.437	87.88
463.657	88.88
463.876	96.88
464.096	99.88
464.316	88.88
464.536	88.88
464.755	87.88
464.975	84.88
465.195	79.88
465.414	90.88
465.634	78.88
465.854	75.88
466.073	83.88
466.293	79.88
466.512	78.88
466.732	66.88
466.951	76.88
467.171	78.88
467.391	85.88
467.61	88.88
467.829	94.88
468.049	96.88
468.268	70.88
468.488	61.88
468.707	79.88
468.927	80.88
469.146	89.88
469.365	87.88
469.585	80.88
469.804	82.88
470.023	92.88
470.243	88.88
470.462	87.88
470.681	76.88
470.901	74.88
471.12	92.88
471.339	84.88
471.558	76.88
471.777	97.88
471.997	92.88
472.216	80.88
472.435	76.88
472.654	88.88
472.873	89.88
473.092	95.88
473.311	82.88
473.53	91.88
473.749	89.88
473.968	81.88
474.187	88.88
474.406	83.88
474.625	92.88
474.844	82.88
475.063	70.88
475.282	93.88
475.501	88.88
475.72	89.88
475.939	76.88
476.158	74.88
476.377	74.88
476.596	80.88
476.814	88.88
477.033	88.88
477.252	82.88
477.471	83.88
477.69	70.88
477.908	92.88
478.127	87.88
478.346	72.88
478.564	89.88
478.783	88.88
479.002	93.88
479.22	80.88
479.439	85.88
479.658	89.88
479.876	94.88
480.095	88.88
480.313	77.88
480.532	78.88
480.751	83.88
480.969	77.88
481.188	101.88
481.406	93.88
481.624	77.88
481.843	81.88
482.061	84.88
482.28	73.88
482.498	91.88
482.717	81.88
482.935	83.88
483.153	78.88
483.372	92.88
483.59	86.88
483.808	92.88
484.027	94.88
484.245	89.88
484.463	84.88
484.681	81.88
484.9	93.88
485.118	93.88
485.336	96.88
485.554	78.88
485.772	90.88
485.99	85.88
486.209	84.88
486.427	95.88
486.645	70.88
486.863	94.88
487.081	84.88
487.299	81.88
487.517	88.88
487.735	97.88
487.953	124.88
488.171	118.88
488.389	84.88
488.607	86.88
488.825	81.88
489.043	94.88
489.261	83.88
489.479	90.88
489.696	91.88
489.914	88.88
490.132	86.88
490.35	96.88
490.568	80.88
490.786	83.88
491.003	91.88
491.221	93.88
491.439	91.88
491.657	75.88
491.874	94.88
492.092	80.88
492.31	96.88
492.527	83.88
492.745	76.88
492.963	91.88
493.18	83.88
493.398	88.88
493.615	86.88
493.833	83.88
494.05	88.88
494.268	68.88
494.485	79.88
494.703	98.88
494.92	65.88
495.138	88.88
495.355	100.88
495.573	79.88
495.79	78.88
496.008	107.88
496.225	97.88
496.442	82.88
496.66	85.88
496.877	90.88
497.094	73.88
497.312	87.88
497.529	87.88
497.746	83.88
497.963	105.88
498.181	89.88
498.398	88.88
498.615	78.88
498.832	74.88
499.049	82.88
499.267	79.88
499.484	92.88
499.701	92.88
499.918	72.88
500.135	88.88
500.352	90.88
500.569	95.88
500.786	95.88
501.003	93.88
501.22	86.88
501.437	87.88
501.654	82.88
501.871	93.88
502.088	83.88
502.305	63.88
502.522	82.88
502.739	75.88
502.956	88.88
503.172	87.88
503.389	74.88
503.606	90.88
503.823	84.88
504.04	100.88
504.256	90.88
504.473	113.88
504.69	84.88
504.907	92.88
505.123	82.88
505.34	99.88
505.557	98.88
505.773	84.88
505.99	82.88
506.207	96.88
506.423	95.88
506.64	89.88
506.856	87.88
507.073	81.88
507.289	89.88
507.506	80.88
507.722	90.88
507.939	81.88
508.155	89.88
508.372	83.88
508.588	74.88
508.805	89.88
509.021	99.88
509.238	74.88
509.454	98.88
509.67	90.88
509.887	89.88
510.103	75.88
510.319	96.88
510.536	93.88
510.752	64.88
510.968	84.88
511.184	74.88
511.401	85.88
511.617	76.88
511.833	85.88
512.049	84.88
512.265	84.88
512.481	75.88
512.698	94.88
512.914	82.88
513.13	92.88
513.346	101.88
513.562	85.88
513.778	86.88
513.994	82.88
514.21	85.88
514.426	84.88
514.642	86.88
514.858	86.88
515.074	102.88
515.29	85.88
515.506	88.88
515.721	78.88
515.937	103.88
516.153	74.88
516.369	64.88
516.585	91.88
516.801	95.88
517.016	90.88
517.232	87.88
517.448	96.88
517.664	84.88
517.879	86.88
518.095	76.88
518.311	81.88
518.527	96.88
518.742	96.88
