Data from 17600_3_HRD10591_00023.txt Node
Date: Mon Jan 19 14:09:35 EST 2026
User: Yrep
Spectrometer: HR+D1059
Trigger mode: 1
Integration Time (sec): 1.000000E-1
Scans to average: 1
Electric dark correction enabled: true
Nonlinearity correction enabled: false
Boxcar width: 0
XAxis mode: Wavelengths
Number of Pixels in Spectrum: 2048
>>>>>Begin Spectral Data<<<<<
223.165	-27.44
223.4	-27.44
223.635	-27.44
223.869	-33.44
224.104	-24.44
224.338	-7.44
224.573	-28.44
224.808	-12.44
225.042	-4.44
225.277	-4.44
225.511	7.56
225.746	11.56
225.98	4.56
226.215	6.56
226.449	16.56
226.683	32.56
226.918	23.56
227.152	39.56
227.387	36.56
227.621	39.56
227.856	44.56
228.09	55.56
228.324	59.56
228.559	55.56
228.793	66.56
229.027	70.56
229.262	73.56
229.496	69.56
229.73	69.56
229.964	66.56
230.199	72.56
230.433	82.56
230.667	76.56
230.901	84.56
231.136	92.56
231.37	69.56
231.604	80.56
231.838	70.56
232.072	77.56
232.306	61.56
232.541	74.56
232.775	83.56
233.009	70.56
233.243	73.56
233.477	83.56
233.711	91.56
233.945	79.56
234.179	88.56
234.413	64.56
234.647	79.56
234.881	77.56
235.115	80.56
235.349	74.56
235.583	73.56
235.817	82.56
236.051	84.56
236.285	72.56
236.519	72.56
236.753	89.56
236.987	90.56
237.221	76.56
237.455	69.56
237.689	84.56
237.922	81.56
238.156	80.56
238.39	67.56
238.624	76.56
238.858	66.56
239.091	75.56
239.325	95.56
239.559	76.56
239.793	83.56
240.027	88.56
240.26	66.56
240.494	83.56
240.728	78.56
240.961	85.56
241.195	74.56
241.429	74.56
241.662	76.56
241.896	75.56
242.13	74.56
242.363	91.56
242.597	79.56
242.83	80.56
243.064	75.56
243.298	67.56
243.531	67.56
243.765	85.56
243.998	61.56
244.232	89.56
244.465	85.56
244.699	83.56
244.932	77.56
245.166	73.56
245.399	84.56
245.633	80.56
245.866	74.56
246.099	80.56
246.333	78.56
246.566	86.56
246.8	88.56
247.033	82.56
247.266	91.56
247.5	88.56
247.733	78.56
247.966	77.56
248.2	75.56
248.433	83.56
248.666	82.56
248.899	94.56
249.133	82.56
249.366	92.56
249.599	72.56
249.832	85.56
250.066	95.56
250.299	79.56
250.532	74.56
250.765	86.56
250.998	82.56
251.231	78.56
251.465	70.56
251.698	91.56
251.931	86.56
252.164	82.56
252.397	90.56
252.63	72.56
252.863	83.56
253.096	82.56
253.329	66.56
253.562	82.56
253.795	71.56
254.028	82.56
254.261	98.56
254.494	83.56
254.727	80.56
254.96	111.56
255.193	74.56
255.426	70.56
255.659	98.56
255.892	86.56
256.124	72.56
256.357	67.56
256.59	64.56
256.823	74.56
257.056	65.56
257.289	69.56
257.521	59.56
257.754	73.56
257.987	81.56
258.22	97.56
258.452	87.56
258.685	86.56
258.918	96.56
259.151	85.56
259.383	89.56
259.616	83.56
259.849	87.56
260.081	73.56
260.314	82.56
260.547	69.56
260.779	83.56
261.012	77.56
261.244	87.56
261.477	70.56
261.71	89.56
261.942	89.56
262.175	74.56
262.407	86.56
262.64	91.56
262.872	70.56
263.105	84.56
263.337	82.56
263.57	83.56
263.802	64.56
264.035	76.56
264.267	77.56
264.499	80.56
264.732	73.56
264.964	94.56
265.197	81.56
265.429	77.56
265.661	69.56
265.894	82.56
266.126	86.56
266.358	71.56
266.591	77.56
266.823	73.56
267.055	71.56
267.287	93.56
267.52	86.56
267.752	87.56
267.984	91.56
268.216	73.56
268.448	72.56
268.681	64.56
268.913	71.56
269.145	77.56
269.377	82.56
269.609	86.56
269.841	87.56
270.073	87.56
270.306	91.56
270.538	92.56
270.77	90.56
271.002	90.56
271.234	72.56
271.466	83.56
271.698	77.56
271.93	96.56
272.162	77.56
272.394	83.56
272.626	80.56
272.858	94.56
273.09	87.56
273.322	88.56
273.553	90.56
273.785	82.56
274.017	87.56
274.249	81.56
274.481	74.56
274.713	74.56
274.945	90.56
275.176	76.56
275.408	83.56
275.64	89.56
275.872	88.56
276.104	78.56
276.335	78.56
276.567	60.56
276.799	111.56
277.031	80.56
277.262	81.56
277.494	84.56
277.726	87.56
277.957	80.56
278.189	87.56
278.421	95.56
278.652	90.56
278.884	78.56
279.115	82.56
279.347	90.56
279.579	98.56
279.81	85.56
280.042	94.56
280.273	89.56
280.505	100.56
280.736	87.56
280.968	84.56
281.199	76.56
281.431	79.56
281.662	80.56
281.894	95.56
282.125	86.56
282.356	82.56
282.588	74.56
282.819	91.56
283.051	82.56
283.282	84.56
283.513	87.56
283.745	77.56
283.976	74.56
284.207	86.56
284.439	82.56
284.67	88.56
284.901	82.56
285.132	94.56
285.364	86.56
285.595	82.56
285.826	74.56
286.057	86.56
286.288	77.56
286.52	82.56
286.751	76.56
286.982	82.56
287.213	86.56
287.444	85.56
287.675	83.56
287.906	89.56
288.138	72.56
288.369	79.56
288.6	104.56
288.831	76.56
289.062	95.56
289.293	79.56
289.524	75.56
289.755	70.56
289.986	76.56
290.217	87.56
290.448	86.56
290.679	82.56
290.91	73.56
291.141	83.56
291.371	86.56
291.602	77.56
291.833	69.56
292.064	81.56
292.295	83.56
292.526	84.56
292.757	74.56
292.987	87.56
293.218	81.56
293.449	87.56
293.68	95.56
293.91	93.56
294.141	94.56
294.372	92.56
294.603	80.56
294.833	90.56
295.064	94.56
295.295	77.56
295.525	76.56
295.756	83.56
295.987	84.56
296.217	74.56
296.448	81.56
296.679	80.56
296.909	94.56
297.14	81.56
297.37	94.56
297.601	94.56
297.831	80.56
298.062	85.56
298.292	100.56
298.523	73.56
298.753	77.56
298.984	80.56
299.214	85.56
299.445	96.56
299.675	74.56
299.905	84.56
300.136	71.56
300.366	100.56
300.597	94.56
300.827	87.56
301.057	95.56
301.288	76.56
301.518	92.56
301.748	94.56
301.979	98.56
302.209	83.56
302.439	76.56
302.669	81.56
302.9	94.56
303.13	79.56
303.36	99.56
303.59	76.56
303.82	83.56
304.051	86.56
304.281	87.56
304.511	83.56
304.741	77.56
304.971	70.56
305.201	82.56
305.431	80.56
305.661	82.56
305.891	83.56
306.121	92.56
306.352	86.56
306.582	85.56
306.812	84.56
307.042	84.56
307.272	68.56
307.502	83.56
307.731	92.56
307.961	100.56
308.191	83.56
308.421	75.56
308.651	107.56
308.881	76.56
309.111	95.56
309.341	92.56
309.571	94.56
309.8	87.56
310.03	77.56
310.26	80.56
310.49	85.56
310.72	80.56
310.949	80.56
311.179	82.56
311.409	76.56
311.639	75.56
311.868	81.56
312.098	91.56
312.328	86.56
312.557	87.56
312.787	85.56
313.017	71.56
313.246	84.56
313.476	91.56
313.706	97.56
313.935	85.56
314.165	99.56
314.394	91.56
314.624	80.56
314.853	92.56
315.083	88.56
315.312	95.56
315.542	82.56
315.771	99.56
316.001	86.56
316.23	101.56
316.46	95.56
316.689	79.56
316.919	80.56
317.148	98.56
317.377	91.56
317.607	83.56
317.836	102.56
318.065	94.56
318.295	93.56
318.524	84.56
318.753	75.56
318.983	75.56
319.212	87.56
319.441	93.56
319.67	90.56
319.9	74.56
320.129	88.56
320.358	77.56
320.587	76.56
320.816	85.56
321.046	85.56
321.275	104.56
321.504	78.56
321.733	83.56
321.962	80.56
322.191	91.56
322.42	84.56
322.649	90.56
322.878	82.56
323.108	86.56
323.337	83.56
323.566	88.56
323.795	89.56
324.024	86.56
324.253	83.56
324.482	84.56
324.71	75.56
324.939	80.56
325.168	88.56
325.397	80.56
325.626	88.56
325.855	76.56
326.084	85.56
326.313	97.56
326.542	105.56
326.77	81.56
326.999	81.56
327.228	70.56
327.457	73.56
327.686	98.56
327.914	78.56
328.143	77.56
328.372	87.56
328.6	79.56
328.829	77.56
329.058	77.56
329.287	81.56
329.515	90.56
329.744	76.56
329.972	81.56
330.201	94.56
330.43	90.56
330.658	81.56
330.887	89.56
331.115	94.56
331.344	72.56
331.572	94.56
331.801	95.56
332.03	72.56
332.258	90.56
332.486	88.56
332.715	78.56
332.943	76.56
333.172	78.56
333.4	87.56
333.629	78.56
333.857	75.56
334.085	95.56
334.314	88.56
334.542	91.56
334.771	102.56
334.999	90.56
335.227	95.56
335.455	87.56
335.684	97.56
335.912	102.56
336.14	69.56
336.369	95.56
336.597	91.56
336.825	82.56
337.053	83.56
337.281	82.56
337.51	90.56
337.738	87.56
337.966	82.56
338.194	59.56
338.422	80.56
338.65	95.56
338.878	82.56
339.106	85.56
339.334	90.56
339.562	88.56
339.79	89.56
340.018	69.56
340.246	77.56
340.474	76.56
340.702	69.56
340.93	82.56
341.158	82.56
341.386	76.56
341.614	77.56
341.842	90.56
342.07	78.56
342.298	82.56
342.526	76.56
342.754	92.56
342.981	94.56
343.209	94.56
343.437	99.56
343.665	85.56
343.893	83.56
344.12	87.56
344.348	86.56
344.576	88.56
344.804	83.56
345.031	85.56
345.259	84.56
345.487	84.56
345.714	90.56
345.942	84.56
346.17	101.56
346.397	92.56
346.625	114.56
346.853	73.56
347.08	82.56
347.308	82.56
347.535	76.56
347.763	82.56
347.99	94.56
348.218	94.56
348.445	79.56
348.673	81.56
348.9	94.56
349.128	82.56
349.355	82.56
349.583	84.56
349.81	82.56
350.037	84.56
350.265	89.56
350.492	76.56
350.72	81.56
350.947	84.56
351.174	94.56
351.402	83.56
351.629	91.56
351.856	98.56
352.083	82.56
352.311	80.56
352.538	76.56
352.765	91.56
352.992	90.56
353.22	88.56
353.447	86.56
353.674	93.56
353.901	86.56
354.128	84.56
354.355	79.56
354.583	91.56
354.81	98.56
355.037	98.56
355.264	94.56
355.491	76.56
355.718	100.56
355.945	80.56
356.172	92.56
356.399	87.56
356.626	96.56
356.853	96.56
357.08	85.56
357.307	77.56
357.534	86.56
357.761	94.56
357.988	95.56
358.215	92.56
358.441	86.56
358.668	84.56
358.895	76.56
359.122	78.56
359.349	88.56
359.576	84.56
359.802	83.56
360.029	73.56
360.256	75.56
360.483	92.56
360.709	82.56
360.936	89.56
361.163	69.56
361.39	88.56
361.616	75.56
361.843	94.56
362.07	84.56
362.296	101.56
362.523	88.56
362.749	90.56
362.976	102.56
363.203	103.56
363.429	104.56
363.656	100.56
363.882	77.56
364.109	105.56
364.335	114.56
364.562	115.56
364.788	99.56
365.015	90.56
365.241	78.56
365.468	93.56
365.694	82.56
365.92	78.56
366.147	82.56
366.373	80.56
366.599	93.56
366.826	89.56
367.052	85.56
367.278	91.56
367.505	88.56
367.731	100.56
367.957	91.56
368.184	77.56
368.41	76.56
368.636	95.56
368.862	71.56
369.089	90.56
369.315	76.56
369.541	116.56
369.767	92.56
369.993	84.56
370.219	85.56
370.445	86.56
370.672	95.56
370.898	89.56
371.124	87.56
371.35	82.56
371.576	80.56
371.802	92.56
372.028	87.56
372.254	86.56
372.48	99.56
372.706	85.56
372.932	83.56
373.158	94.56
373.384	95.56
373.61	110.56
373.835	98.56
374.061	99.56
374.287	100.56
374.513	97.56
374.739	88.56
374.965	92.56
375.191	96.56
375.416	82.56
375.642	84.56
375.868	98.56
376.094	95.56
376.319	77.56
376.545	101.56
376.771	83.56
376.997	92.56
377.222	90.56
377.448	74.56
377.674	76.56
377.899	86.56
378.125	89.56
378.35	95.56
378.576	85.56
378.802	72.56
379.027	81.56
379.253	92.56
379.478	95.56
379.704	83.56
379.929	92.56
380.155	73.56
380.38	81.56
380.606	86.56
380.831	88.56
381.057	90.56
381.282	91.56
381.507	95.56
381.733	88.56
381.958	82.56
382.184	97.56
382.409	101.56
382.634	110.56
382.86	89.56
383.085	94.56
383.31	94.56
383.535	93.56
383.761	100.56
383.986	104.56
384.211	104.56
384.436	86.56
384.662	103.56
384.887	88.56
385.112	95.56
385.337	98.56
385.562	88.56
385.787	99.56
386.013	96.56
386.238	104.56
386.463	97.56
386.688	103.56
386.913	83.56
387.138	110.56
387.363	96.56
387.588	88.56
387.813	87.56
388.038	94.56
388.263	91.56
388.488	94.56
388.713	78.56
388.938	85.56
389.163	78.56
389.387	102.56
389.612	76.56
389.837	92.56
390.062	90.56
390.287	85.56
390.512	96.56
390.736	89.56
390.961	84.56
391.186	82.56
391.411	90.56
391.636	91.56
391.86	87.56
392.085	91.56
392.31	88.56
392.534	102.56
392.759	115.56
392.984	157.56
393.208	227.56
393.433	341.56
393.658	258.56
393.882	134.56
394.107	97.56
394.331	106.56
394.556	118.56
394.78	108.56
395.005	92.56
395.229	86.56
395.454	96.56
395.678	98.56
395.903	105.56
396.127	129.56
396.352	133.56
396.576	153.56
396.801	218.56
397.025	268.56
397.249	156.56
397.474	102.56
397.698	101.56
397.922	97.56
398.147	103.56
398.371	75.56
398.595	106.56
398.82	88.56
399.044	85.56
399.268	100.56
399.492	98.56
399.717	87.56
399.941	102.56
400.165	85.56
400.389	75.56
400.613	91.56
400.837	82.56
401.062	89.56
401.286	81.56
401.51	98.56
401.734	80.56
401.958	96.56
402.182	71.56
402.406	80.56
402.63	81.56
402.854	77.56
403.078	73.56
403.302	84.56
403.526	89.56
403.75	89.56
403.974	71.56
404.198	80.56
404.422	73.56
404.645	94.56
404.869	96.56
405.093	85.56
405.317	92.56
405.541	79.56
405.765	84.56
405.988	88.56
406.212	81.56
406.436	90.56
406.66	96.56
406.883	87.56
407.107	86.56
407.331	92.56
407.555	107.56
407.778	112.56
408.002	111.56
408.226	84.56
408.449	82.56
408.673	81.56
408.896	88.56
409.12	94.56
409.344	93.56
409.567	86.56
409.791	88.56
410.014	88.56
410.238	85.56
410.461	82.56
410.685	97.56
410.908	91.56
411.132	83.56
411.355	68.56
411.578	88.56
411.802	72.56
412.025	89.56
412.249	86.56
412.472	90.56
412.695	83.56
412.919	86.56
413.142	83.56
413.365	84.56
413.589	72.56
413.812	89.56
414.035	75.56
414.258	93.56
414.482	70.56
414.705	85.56
414.928	77.56
415.151	88.56
415.374	97.56
415.597	77.56
415.821	86.56
416.044	90.56
416.267	79.56
416.49	72.56
416.713	87.56
416.936	95.56
417.159	92.56
417.382	86.56
417.605	91.56
417.828	87.56
418.051	67.56
418.274	80.56
418.497	87.56
418.72	81.56
418.943	83.56
419.166	83.56
419.389	98.56
419.611	88.56
419.834	82.56
420.057	78.56
420.28	94.56
420.503	87.56
420.726	81.56
420.948	91.56
421.171	99.56
421.394	116.56
421.617	112.56
421.839	128.56
422.062	121.56
422.285	150.56
422.507	211.56
422.73	303.56
422.953	294.56
423.175	175.56
423.398	110.56
423.621	109.56
423.843	93.56
424.066	103.56
424.288	91.56
424.511	94.56
424.733	91.56
424.956	96.56
425.178	104.56
425.401	85.56
425.623	101.56
425.846	91.56
426.068	95.56
426.291	84.56
426.513	80.56
426.735	87.56
426.958	85.56
427.18	76.56
427.402	95.56
427.625	83.56
427.847	93.56
428.069	94.56
428.292	107.56
428.514	110.56
428.736	90.56
428.958	110.56
429.181	116.56
429.403	94.56
429.625	86.56
429.847	123.56
430.069	139.56
430.292	145.56
430.514	132.56
430.736	112.56
430.958	110.56
431.18	95.56
431.402	94.56
431.624	106.56
431.846	104.56
432.068	120.56
432.29	92.56
432.512	84.56
432.734	76.56
432.956	93.56
433.178	84.56
433.4	90.56
433.622	87.56
433.844	80.56
434.066	88.56
434.287	76.56
434.509	98.56
434.731	70.56
434.953	82.56
435.175	83.56
435.397	88.56
435.618	92.56
435.84	89.56
436.062	83.56
436.284	84.56
436.505	91.56
436.727	83.56
436.949	88.56
437.17	85.56
437.392	79.56
437.614	94.56
437.835	91.56
438.057	89.56
438.278	86.56
438.5	103.56
438.721	90.56
438.943	95.56
439.165	99.56
439.386	71.56
439.608	87.56
439.829	89.56
440.05	89.56
440.272	69.56
440.493	90.56
440.715	82.56
440.936	74.56
441.158	82.56
441.379	80.56
441.6	72.56
441.822	99.56
442.043	92.56
442.264	84.56
442.486	120.56
442.707	130.56
442.928	100.56
443.149	107.56
443.371	139.56
443.592	189.56
443.813	166.56
444.034	90.56
444.255	88.56
444.476	94.56
444.698	88.56
444.919	96.56
445.14	149.56
445.361	168.56
445.582	204.56
445.803	196.56
446.024	116.56
446.245	89.56
446.466	89.56
446.687	80.56
446.908	79.56
447.129	86.56
447.35	78.56
447.571	83.56
447.792	88.56
448.013	73.56
448.234	86.56
448.455	103.56
448.675	88.56
448.896	90.56
449.117	106.56
449.338	89.56
449.559	89.56
449.779	90.56
450	94.56
450.221	85.56
450.442	78.56
450.662	91.56
450.883	72.56
451.104	77.56
451.324	95.56
451.545	85.56
451.766	100.56
451.986	84.56
452.207	72.56
452.428	80.56
452.648	83.56
452.869	106.56
453.089	83.56
453.31	86.56
453.53	88.56
453.751	95.56
453.971	81.56
454.192	74.56
454.412	86.56
454.633	72.56
454.853	97.56
455.073	84.56
455.294	89.56
455.514	88.56
455.734	88.56
455.955	90.56
456.175	82.56
456.395	86.56
456.616	82.56
456.836	71.56
457.056	81.56
457.276	78.56
457.497	80.56
457.717	96.56
457.937	105.56
458.157	116.56
458.377	102.56
458.598	95.56
458.818	115.56
459.038	84.56
459.258	95.56
459.478	92.56
459.698	74.56
459.918	91.56
460.138	80.56
460.358	84.56
460.578	92.56
460.798	119.56
461.018	119.56
461.238	88.56
461.458	85.56
461.678	94.56
461.898	103.56
462.118	92.56
462.338	97.56
462.558	74.56
462.777	78.56
462.997	70.56
463.217	69.56
463.437	75.56
463.657	73.56
463.876	84.56
464.096	87.56
464.316	92.56
464.536	81.56
464.755	83.56
464.975	82.56
465.195	86.56
465.414	72.56
465.634	88.56
465.854	91.56
466.073	97.56
466.293	91.56
466.512	75.56
466.732	100.56
466.951	87.56
467.171	78.56
467.391	89.56
467.61	68.56
467.829	82.56
468.049	88.56
468.268	89.56
468.488	92.56
468.707	82.56
468.927	90.56
469.146	87.56
469.365	91.56
469.585	88.56
469.804	83.56
470.023	92.56
470.243	84.56
470.462	78.56
470.681	93.56
470.901	87.56
471.12	94.56
471.339	98.56
471.558	82.56
471.777	92.56
471.997	90.56
472.216	96.56
472.435	90.56
472.654	86.56
472.873	86.56
473.092	91.56
473.311	86.56
473.53	82.56
473.749	88.56
473.968	88.56
474.187	85.56
474.406	85.56
474.625	95.56
474.844	95.56
475.063	74.56
475.282	84.56
475.501	70.56
475.72	82.56
475.939	85.56
476.158	96.56
476.377	90.56
476.596	80.56
476.814	88.56
477.033	97.56
477.252	87.56
477.471	98.56
477.69	84.56
477.908	84.56
478.127	86.56
478.346	84.56
478.564	83.56
478.783	77.56
479.002	77.56
479.22	86.56
479.439	88.56
479.658	83.56
479.876	79.56
480.095	87.56
480.313	91.56
480.532	102.56
480.751	85.56
480.969	81.56
481.188	77.56
481.406	112.56
481.624	72.56
481.843	79.56
482.061	80.56
482.28	73.56
482.498	87.56
482.717	69.56
482.935	96.56
483.153	90.56
483.372	100.56
483.59	99.56
483.808	91.56
484.027	94.56
484.245	88.56
484.463	84.56
484.681	89.56
484.9	99.56
485.118	100.56
485.336	83.56
485.554	96.56
485.772	86.56
485.99	78.56
486.209	91.56
486.427	85.56
486.645	76.56
486.863	97.56
487.081	86.56
487.299	96.56
487.517	113.56
487.735	108.56
487.953	148.56
488.171	125.56
488.389	86.56
488.607	82.56
488.825	85.56
489.043	97.56
489.261	83.56
489.479	91.56
489.696	77.56
489.914	92.56
490.132	86.56
490.35	82.56
490.568	82.56
490.786	90.56
491.003	85.56
491.221	92.56
491.439	68.56
491.657	77.56
491.874	88.56
492.092	88.56
492.31	91.56
492.527	92.56
492.745	98.56
492.963	82.56
493.18	95.56
493.398	86.56
493.615	96.56
493.833	86.56
494.05	96.56
494.268	77.56
494.485	105.56
494.703	88.56
494.92	87.56
495.138	93.56
495.355	92.56
495.573	98.56
495.79	88.56
496.008	92.56
496.225	105.56
496.442	87.56
496.66	103.56
496.877	101.56
497.094	94.56
497.312	93.56
497.529	95.56
497.746	99.56
497.963	89.56
498.181	100.56
498.398	108.56
498.615	77.56
498.832	104.56
499.049	91.56
499.267	94.56
499.484	85.56
499.701	88.56
499.918	96.56
500.135	100.56
500.352	68.56
500.569	87.56
500.786	88.56
501.003	97.56
501.22	105.56
501.437	80.56
501.654	98.56
501.871	96.56
502.088	85.56
502.305	83.56
502.522	86.56
502.739	74.56
502.956	72.56
503.172	99.56
503.389	90.56
503.606	79.56
503.823	87.56
504.04	91.56
504.256	122.56
504.473	132.56
504.69	104.56
504.907	96.56
505.123	98.56
505.34	91.56
505.557	98.56
505.773	84.56
505.99	88.56
506.207	92.56
506.423	89.56
506.64	67.56
506.856	94.56
507.073	90.56
507.289	99.56
507.506	97.56
507.722	89.56
507.939	88.56
508.155	98.56
508.372	83.56
508.588	73.56
508.805	81.56
509.021	88.56
509.238	86.56
509.454	95.56
509.67	78.56
509.887	84.56
510.103	84.56
510.319	90.56
510.536	98.56
510.752	93.56
510.968	83.56
511.184	91.56
511.401	84.56
511.617	88.56
511.833	82.56
512.049	94.56
512.265	89.56
512.481	90.56
512.698	94.56
512.914	86.56
513.13	85.56
513.346	89.56
513.562	83.56
513.778	81.56
513.994	85.56
514.21	100.56
514.426	84.56
514.642	71.56
514.858	88.56
515.074	80.56
515.29	84.56
515.506	82.56
515.721	84.56
515.937	98.56
516.153	85.56
516.369	84.56
516.585	76.56
516.801	104.56
517.016	87.56
517.232	96.56
517.448	110.56
517.664	86.56
517.879	78.56
518.095	97.56
518.311	90.56
