Data from 17600_3_HRD10591_00020.txt Node
Date: Mon Jan 19 14:09:33 EST 2026
User: Yrep
Spectrometer: HR+D1059
Trigger mode: 1
Integration Time (sec): 1.000000E-1
Scans to average: 1
Electric dark correction enabled: true
Nonlinearity correction enabled: false
Boxcar width: 0
XAxis mode: Wavelengths
Number of Pixels in Spectrum: 2048
>>>>>Begin Spectral Data<<<<<
223.165	-21.44
223.4	-21.44
223.635	-21.44
223.869	-13.44
224.104	-13.44
224.338	-1.44
224.573	-12.44
224.808	-16.44
225.042	-18.44
225.277	-1.44
225.511	-15.44
225.746	7.56
225.98	1.56
226.215	7.56
226.449	10.56
226.683	30.56
226.918	23.56
227.152	32.56
227.387	30.56
227.621	31.56
227.856	49.56
228.09	51.56
228.324	54.56
228.559	50.56
228.793	57.56
229.027	52.56
229.262	81.56
229.496	64.56
229.73	71.56
229.964	65.56
230.199	58.56
230.433	76.56
230.667	68.56
230.901	78.56
231.136	81.56
231.37	70.56
231.604	74.56
231.838	87.56
232.072	84.56
232.306	102.56
232.541	72.56
232.775	79.56
233.009	75.56
233.243	80.56
233.477	87.56
233.711	89.56
233.945	79.56
234.179	73.56
234.413	71.56
234.647	77.56
234.881	79.56
235.115	91.56
235.349	78.56
235.583	89.56
235.817	65.56
236.051	81.56
236.285	70.56
236.519	70.56
236.753	80.56
236.987	53.56
237.221	90.56
237.455	69.56
237.689	75.56
237.922	72.56
238.156	88.56
238.39	69.56
238.624	73.56
238.858	72.56
239.091	70.56
239.325	77.56
239.559	77.56
239.793	70.56
240.027	80.56
240.26	76.56
240.494	70.56
240.728	75.56
240.961	79.56
241.195	65.56
241.429	75.56
241.662	71.56
241.896	80.56
242.13	62.56
242.363	76.56
242.597	79.56
242.83	73.56
243.064	76.56
243.298	82.56
243.531	71.56
243.765	65.56
243.998	77.56
244.232	83.56
244.465	81.56
244.699	80.56
244.932	71.56
245.166	76.56
245.399	63.56
245.633	89.56
245.866	73.56
246.099	86.56
246.333	86.56
246.566	72.56
246.8	63.56
247.033	85.56
247.266	73.56
247.5	62.56
247.733	88.56
247.966	70.56
248.2	64.56
248.433	82.56
248.666	76.56
248.899	82.56
249.133	80.56
249.366	82.56
249.599	74.56
249.832	67.56
250.066	86.56
250.299	83.56
250.532	77.56
250.765	66.56
250.998	82.56
251.231	88.56
251.465	76.56
251.698	73.56
251.931	77.56
252.164	65.56
252.397	82.56
252.63	91.56
252.863	81.56
253.096	85.56
253.329	85.56
253.562	79.56
253.795	74.56
254.028	96.56
254.261	71.56
254.494	63.56
254.727	73.56
254.96	77.56
255.193	83.56
255.426	67.56
255.659	86.56
255.892	87.56
256.124	81.56
256.357	95.56
256.59	67.56
256.823	74.56
257.056	58.56
257.289	66.56
257.521	71.56
257.754	66.56
257.987	83.56
258.22	82.56
258.452	71.56
258.685	83.56
258.918	77.56
259.151	78.56
259.383	94.56
259.616	91.56
259.849	70.56
260.081	84.56
260.314	88.56
260.547	79.56
260.779	90.56
261.012	75.56
261.244	76.56
261.477	82.56
261.71	78.56
261.942	80.56
262.175	78.56
262.407	79.56
262.64	61.56
262.872	79.56
263.105	93.56
263.337	75.56
263.57	84.56
263.802	80.56
264.035	75.56
264.267	87.56
264.499	81.56
264.732	83.56
264.964	81.56
265.197	66.56
265.429	76.56
265.661	85.56
265.894	74.56
266.126	81.56
266.358	83.56
266.591	83.56
266.823	73.56
267.055	61.56
267.287	86.56
267.52	75.56
267.752	95.56
267.984	83.56
268.216	72.56
268.448	67.56
268.681	83.56
268.913	71.56
269.145	81.56
269.377	92.56
269.609	75.56
269.841	91.56
270.073	88.56
270.306	81.56
270.538	74.56
270.77	93.56
271.002	90.56
271.234	81.56
271.466	81.56
271.698	69.56
271.93	77.56
272.162	90.56
272.394	81.56
272.626	66.56
272.858	77.56
273.09	64.56
273.322	81.56
273.553	77.56
273.785	89.56
274.017	79.56
274.249	82.56
274.481	71.56
274.713	75.56
274.945	95.56
275.176	70.56
275.408	81.56
275.64	77.56
275.872	78.56
276.104	93.56
276.335	76.56
276.567	93.56
276.799	93.56
277.031	71.56
277.262	73.56
277.494	85.56
277.726	82.56
277.957	78.56
278.189	92.56
278.421	89.56
278.652	84.56
278.884	92.56
279.115	69.56
279.347	79.56
279.579	83.56
279.81	91.56
280.042	87.56
280.273	84.56
280.505	90.56
280.736	86.56
280.968	80.56
281.199	76.56
281.431	79.56
281.662	75.56
281.894	78.56
282.125	82.56
282.356	93.56
282.588	71.56
282.819	81.56
283.051	87.56
283.282	89.56
283.513	82.56
283.745	89.56
283.976	97.56
284.207	80.56
284.439	85.56
284.67	90.56
284.901	86.56
285.132	92.56
285.364	80.56
285.595	93.56
285.826	76.56
286.057	69.56
286.288	85.56
286.52	68.56
286.751	77.56
286.982	92.56
287.213	89.56
287.444	64.56
287.675	85.56
287.906	99.56
288.138	67.56
288.369	83.56
288.6	74.56
288.831	79.56
289.062	75.56
289.293	93.56
289.524	71.56
289.755	83.56
289.986	87.56
290.217	79.56
290.448	83.56
290.679	86.56
290.91	78.56
291.141	87.56
291.371	74.56
291.602	79.56
291.833	75.56
292.064	80.56
292.295	85.56
292.526	74.56
292.757	73.56
292.987	75.56
293.218	63.56
293.449	90.56
293.68	82.56
293.91	93.56
294.141	69.56
294.372	82.56
294.603	76.56
294.833	88.56
295.064	69.56
295.295	81.56
295.525	81.56
295.756	86.56
295.987	73.56
296.217	79.56
296.448	83.56
296.679	70.56
296.909	72.56
297.14	82.56
297.37	73.56
297.601	72.56
297.831	87.56
298.062	87.56
298.292	88.56
298.523	87.56
298.753	81.56
298.984	74.56
299.214	76.56
299.445	91.56
299.675	86.56
299.905	80.56
300.136	85.56
300.366	90.56
300.597	69.56
300.827	81.56
301.057	79.56
301.288	84.56
301.518	94.56
301.748	93.56
301.979	101.56
302.209	79.56
302.439	81.56
302.669	85.56
302.9	93.56
303.13	84.56
303.36	93.56
303.59	66.56
303.82	79.56
304.051	81.56
304.281	81.56
304.511	86.56
304.741	67.56
304.971	87.56
305.201	76.56
305.431	75.56
305.661	96.56
305.891	88.56
306.121	78.56
306.352	85.56
306.582	93.56
306.812	83.56
307.042	93.56
307.272	88.56
307.502	95.56
307.731	74.56
307.961	85.56
308.191	85.56
308.421	91.56
308.651	110.56
308.881	89.56
309.111	84.56
309.341	75.56
309.571	81.56
309.8	93.56
310.03	84.56
310.26	73.56
310.49	97.56
310.72	82.56
310.949	97.56
311.179	71.56
311.409	75.56
311.639	79.56
311.868	83.56
312.098	87.56
312.328	90.56
312.557	81.56
312.787	84.56
313.017	91.56
313.246	80.56
313.476	69.56
313.706	84.56
313.935	71.56
314.165	81.56
314.394	81.56
314.624	91.56
314.853	81.56
315.083	85.56
315.312	76.56
315.542	76.56
315.771	80.56
316.001	90.56
316.23	72.56
316.46	87.56
316.689	95.56
316.919	88.56
317.148	79.56
317.377	89.56
317.607	97.56
317.836	76.56
318.065	92.56
318.295	88.56
318.524	75.56
318.753	91.56
318.983	96.56
319.212	86.56
319.441	75.56
319.67	87.56
319.9	73.56
320.129	83.56
320.358	93.56
320.587	96.56
320.816	83.56
321.046	81.56
321.275	65.56
321.504	80.56
321.733	84.56
321.962	100.56
322.191	85.56
322.42	87.56
322.649	83.56
322.878	89.56
323.108	85.56
323.337	84.56
323.566	70.56
323.795	80.56
324.024	85.56
324.253	97.56
324.482	81.56
324.71	77.56
324.939	107.56
325.168	92.56
325.397	71.56
325.626	89.56
325.855	81.56
326.084	96.56
326.313	82.56
326.542	89.56
326.77	71.56
326.999	81.56
327.228	81.56
327.457	84.56
327.686	76.56
327.914	87.56
328.143	79.56
328.372	90.56
328.6	81.56
328.829	72.56
329.058	85.56
329.287	82.56
329.515	73.56
329.744	75.56
329.972	79.56
330.201	89.56
330.43	79.56
330.658	93.56
330.887	78.56
331.115	78.56
331.344	85.56
331.572	91.56
331.801	67.56
332.03	85.56
332.258	85.56
332.486	85.56
332.715	79.56
332.943	81.56
333.172	85.56
333.4	71.56
333.629	81.56
333.857	77.56
334.085	75.56
334.314	75.56
334.542	93.56
334.771	103.56
334.999	81.56
335.227	91.56
335.455	78.56
335.684	75.56
335.912	104.56
336.14	79.56
336.369	83.56
336.597	79.56
336.825	78.56
337.053	80.56
337.281	84.56
337.51	82.56
337.738	89.56
337.966	92.56
338.194	89.56
338.422	94.56
338.65	84.56
338.878	86.56
339.106	81.56
339.334	84.56
339.562	89.56
339.79	85.56
340.018	90.56
340.246	79.56
340.474	79.56
340.702	78.56
340.93	91.56
341.158	90.56
341.386	95.56
341.614	74.56
341.842	84.56
342.07	89.56
342.298	76.56
342.526	86.56
342.754	93.56
342.981	99.56
343.209	93.56
343.437	84.56
343.665	89.56
343.893	88.56
344.12	87.56
344.348	86.56
344.576	84.56
344.804	88.56
345.031	88.56
345.259	94.56
345.487	90.56
345.714	95.56
345.942	85.56
346.17	74.56
346.397	84.56
346.625	91.56
346.853	79.56
347.08	78.56
347.308	88.56
347.535	80.56
347.763	82.56
347.99	91.56
348.218	105.56
348.445	74.56
348.673	85.56
348.9	93.56
349.128	86.56
349.355	83.56
349.583	80.56
349.81	74.56
350.037	86.56
350.265	87.56
350.492	74.56
350.72	87.56
350.947	99.56
351.174	73.56
351.402	91.56
351.629	73.56
351.856	87.56
352.083	83.56
352.311	80.56
352.538	81.56
352.765	88.56
352.992	79.56
353.22	78.56
353.447	80.56
353.674	91.56
353.901	68.56
354.128	83.56
354.355	81.56
354.583	78.56
354.81	73.56
355.037	77.56
355.264	81.56
355.491	82.56
355.718	91.56
355.945	75.56
356.172	70.56
356.399	73.56
356.626	89.56
356.853	85.56
357.08	81.56
357.307	93.56
357.534	85.56
357.761	81.56
357.988	77.56
358.215	80.56
358.441	79.56
358.668	74.56
358.895	83.56
359.122	82.56
359.349	69.56
359.576	87.56
359.802	74.56
360.029	85.56
360.256	75.56
360.483	88.56
360.709	73.56
360.936	88.56
361.163	82.56
361.39	94.56
361.616	85.56
361.843	94.56
362.07	79.56
362.296	90.56
362.523	86.56
362.749	93.56
362.976	95.56
363.203	98.56
363.429	71.56
363.656	95.56
363.882	89.56
364.109	88.56
364.335	95.56
364.562	85.56
364.788	78.56
365.015	77.56
365.241	74.56
365.468	83.56
365.694	81.56
365.92	65.56
366.147	66.56
366.373	79.56
366.599	73.56
366.826	82.56
367.052	80.56
367.278	86.56
367.505	79.56
367.731	93.56
367.957	81.56
368.184	103.56
368.41	75.56
368.636	71.56
368.862	77.56
369.089	76.56
369.315	80.56
369.541	83.56
369.767	87.56
369.993	73.56
370.219	85.56
370.445	70.56
370.672	84.56
370.898	73.56
371.124	81.56
371.35	75.56
371.576	92.56
371.802	75.56
372.028	82.56
372.254	94.56
372.48	93.56
372.706	61.56
372.932	75.56
373.158	80.56
373.384	73.56
373.61	91.56
373.835	93.56
374.061	80.56
374.287	88.56
374.513	82.56
374.739	81.56
374.965	84.56
375.191	86.56
375.416	80.56
375.642	82.56
375.868	74.56
376.094	85.56
376.319	79.56
376.545	102.56
376.771	83.56
376.997	86.56
377.222	90.56
377.448	80.56
377.674	83.56
377.899	87.56
378.125	79.56
378.35	97.56
378.576	80.56
378.802	86.56
379.027	82.56
379.253	87.56
379.478	87.56
379.704	87.56
379.929	76.56
380.155	83.56
380.38	73.56
380.606	92.56
380.831	91.56
381.057	87.56
381.282	87.56
381.507	75.56
381.733	87.56
381.958	77.56
382.184	71.56
382.409	74.56
382.634	88.56
382.86	80.56
383.085	82.56
383.31	92.56
383.535	90.56
383.761	83.56
383.986	78.56
384.211	80.56
384.436	81.56
384.662	87.56
384.887	69.56
385.112	79.56
385.337	85.56
385.562	81.56
385.787	76.56
386.013	73.56
386.238	70.56
386.463	88.56
386.688	116.56
386.913	85.56
387.138	93.56
387.363	90.56
387.588	79.56
387.813	80.56
388.038	85.56
388.263	94.56
388.488	90.56
388.713	81.56
388.938	83.56
389.163	84.56
389.387	71.56
389.612	69.56
389.837	74.56
390.062	82.56
390.287	91.56
390.512	90.56
390.736	80.56
390.961	72.56
391.186	78.56
391.411	79.56
391.636	95.56
391.86	102.56
392.085	79.56
392.31	85.56
392.534	79.56
392.759	93.56
392.984	90.56
393.208	107.56
393.433	118.56
393.658	117.56
393.882	85.56
394.107	76.56
394.331	86.56
394.556	75.56
394.78	76.56
395.005	77.56
395.229	93.56
395.454	85.56
395.678	75.56
395.903	78.56
396.127	89.56
396.352	82.56
396.576	99.56
396.801	100.56
397.025	115.56
397.249	76.56
397.474	93.56
397.698	102.56
397.922	72.56
398.147	92.56
398.371	64.56
398.595	82.56
398.82	83.56
399.044	72.56
399.268	71.56
399.492	65.56
399.717	69.56
399.941	102.56
400.165	89.56
400.389	72.56
400.613	70.56
400.837	79.56
401.062	87.56
401.286	71.56
401.51	81.56
401.734	83.56
401.958	90.56
402.182	65.56
402.406	82.56
402.63	79.56
402.854	81.56
403.078	96.56
403.302	80.56
403.526	86.56
403.75	93.56
403.974	75.56
404.198	73.56
404.422	71.56
404.645	88.56
404.869	83.56
405.093	96.56
405.317	83.56
405.541	97.56
405.765	68.56
405.988	83.56
406.212	66.56
406.436	91.56
406.66	87.56
406.883	90.56
407.107	94.56
407.331	95.56
407.555	89.56
407.778	93.56
408.002	97.56
408.226	71.56
408.449	85.56
408.673	81.56
408.896	71.56
409.12	81.56
409.344	93.56
409.567	94.56
409.791	89.56
410.014	85.56
410.238	78.56
410.461	96.56
410.685	73.56
410.908	85.56
411.132	81.56
411.355	98.56
411.578	71.56
411.802	93.56
412.025	75.56
412.249	85.56
412.472	89.56
412.695	83.56
412.919	76.56
413.142	85.56
413.365	83.56
413.589	76.56
413.812	67.56
414.035	84.56
414.258	79.56
414.482	79.56
414.705	86.56
414.928	94.56
415.151	66.56
415.374	79.56
415.597	81.56
415.821	83.56
416.044	93.56
416.267	85.56
416.49	82.56
416.713	75.56
416.936	82.56
417.159	81.56
417.382	86.56
417.605	78.56
417.828	98.56
418.051	78.56
418.274	82.56
418.497	81.56
418.72	75.56
418.943	71.56
419.166	75.56
419.389	85.56
419.611	82.56
419.834	68.56
420.057	85.56
420.28	96.56
420.503	93.56
420.726	79.56
420.948	80.56
421.171	74.56
421.394	79.56
421.617	93.56
421.839	85.56
422.062	97.56
422.285	97.56
422.507	105.56
422.73	131.56
422.953	129.56
423.175	98.56
423.398	92.56
423.621	86.56
423.843	96.56
424.066	75.56
424.288	74.56
424.511	89.56
424.733	86.56
424.956	87.56
425.178	80.56
425.401	64.56
425.623	89.56
425.846	82.56
426.068	69.56
426.291	86.56
426.513	78.56
426.735	78.56
426.958	81.56
427.18	86.56
427.402	89.56
427.625	74.56
427.847	88.56
428.069	73.56
428.292	80.56
428.514	85.56
428.736	63.56
428.958	85.56
429.181	94.56
429.403	88.56
429.625	75.56
429.847	98.56
430.069	101.56
430.292	90.56
430.514	91.56
430.736	94.56
430.958	79.56
431.18	87.56
431.402	78.56
431.624	75.56
431.846	79.56
432.068	104.56
432.29	92.56
432.512	94.56
432.734	78.56
432.956	79.56
433.178	99.56
433.4	82.56
433.622	80.56
433.844	81.56
434.066	86.56
434.287	84.56
434.509	79.56
434.731	73.56
434.953	70.56
435.175	79.56
435.397	75.56
435.618	99.56
435.84	81.56
436.062	73.56
436.284	82.56
436.505	84.56
436.727	70.56
436.949	87.56
437.17	76.56
437.392	74.56
437.614	82.56
437.835	89.56
438.057	74.56
438.278	82.56
438.5	65.56
438.721	85.56
438.943	82.56
439.165	73.56
439.386	65.56
439.608	99.56
439.829	72.56
440.05	85.56
440.272	81.56
440.493	72.56
440.715	74.56
440.936	82.56
441.158	85.56
441.379	77.56
441.6	93.56
441.822	76.56
442.043	81.56
442.264	103.56
442.486	87.56
442.707	101.56
442.928	87.56
443.149	88.56
443.371	98.56
443.592	95.56
443.813	106.56
444.034	73.56
444.255	85.56
444.476	77.56
444.698	74.56
444.919	72.56
445.14	145.56
445.361	121.56
445.582	103.56
445.803	106.56
446.024	94.56
446.245	99.56
446.466	89.56
446.687	73.56
446.908	76.56
447.129	83.56
447.35	65.56
447.571	82.56
447.792	81.56
448.013	83.56
448.234	82.56
448.455	81.56
448.675	72.56
448.896	100.56
449.117	73.56
449.338	81.56
449.559	84.56
449.779	95.56
450	89.56
450.221	82.56
450.442	71.56
450.662	75.56
450.883	72.56
451.104	87.56
451.324	73.56
451.545	98.56
451.766	68.56
451.986	79.56
452.207	88.56
452.428	64.56
452.648	84.56
452.869	79.56
453.089	74.56
453.31	93.56
453.53	75.56
453.751	91.56
453.971	72.56
454.192	83.56
454.412	81.56
454.633	83.56
454.853	87.56
455.073	69.56
455.294	83.56
455.514	80.56
455.734	77.56
455.955	89.56
456.175	84.56
456.395	82.56
456.616	78.56
456.836	84.56
457.056	83.56
457.276	87.56
457.497	89.56
457.717	85.56
457.937	82.56
458.157	81.56
458.377	87.56
458.598	72.56
458.818	90.56
459.038	88.56
459.258	70.56
459.478	66.56
459.698	91.56
459.918	86.56
460.138	71.56
460.358	71.56
460.578	93.56
460.798	100.56
461.018	85.56
461.238	89.56
461.458	73.56
461.678	74.56
461.898	73.56
462.118	84.56
462.338	84.56
462.558	81.56
462.777	84.56
462.997	76.56
463.217	81.56
463.437	81.56
463.657	70.56
463.876	86.56
464.096	84.56
464.316	84.56
464.536	88.56
464.755	80.56
464.975	81.56
465.195	74.56
465.414	95.56
465.634	82.56
465.854	85.56
466.073	93.56
466.293	89.56
466.512	74.56
466.732	71.56
466.951	79.56
467.171	70.56
467.391	68.56
467.61	80.56
467.829	87.56
468.049	85.56
468.268	84.56
468.488	80.56
468.707	75.56
468.927	77.56
469.146	81.56
469.365	89.56
469.585	75.56
469.804	84.56
470.023	81.56
470.243	79.56
470.462	87.56
470.681	81.56
470.901	53.56
471.12	79.56
471.339	84.56
471.558	75.56
471.777	90.56
471.997	100.56
472.216	85.56
472.435	88.56
472.654	87.56
472.873	74.56
473.092	85.56
473.311	87.56
473.53	82.56
473.749	78.56
473.968	89.56
474.187	85.56
474.406	81.56
474.625	87.56
474.844	63.56
475.063	83.56
475.282	81.56
475.501	59.56
475.72	85.56
475.939	78.56
476.158	79.56
476.377	73.56
476.596	91.56
476.814	86.56
477.033	76.56
477.252	72.56
477.471	63.56
477.69	82.56
477.908	88.56
478.127	83.56
478.346	72.56
478.564	85.56
478.783	73.56
479.002	70.56
479.22	79.56
479.439	86.56
479.658	82.56
479.876	75.56
480.095	78.56
480.313	99.56
480.532	88.56
480.751	75.56
480.969	83.56
481.188	80.56
481.406	82.56
481.624	93.56
481.843	89.56
482.061	91.56
482.28	86.56
482.498	70.56
482.717	69.56
482.935	88.56
483.153	85.56
483.372	84.56
483.59	94.56
483.808	84.56
484.027	92.56
484.245	94.56
484.463	99.56
484.681	89.56
484.9	86.56
485.118	87.56
485.336	101.56
485.554	88.56
485.772	98.56
485.99	80.56
486.209	76.56
486.427	80.56
486.645	97.56
486.863	79.56
487.081	83.56
487.299	81.56
487.517	75.56
487.735	72.56
487.953	97.56
488.171	83.56
488.389	88.56
488.607	82.56
488.825	87.56
489.043	70.56
489.261	85.56
489.479	71.56
489.696	73.56
489.914	84.56
490.132	87.56
490.35	88.56
490.568	82.56
490.786	77.56
491.003	78.56
491.221	78.56
491.439	89.56
491.657	87.56
491.874	86.56
492.092	82.56
492.31	83.56
492.527	101.56
492.745	82.56
492.963	90.56
493.18	87.56
493.398	78.56
493.615	79.56
493.833	87.56
494.05	82.56
494.268	75.56
494.485	79.56
494.703	89.56
494.92	87.56
495.138	75.56
495.355	89.56
495.573	79.56
495.79	80.56
496.008	85.56
496.225	79.56
496.442	77.56
496.66	87.56
496.877	64.56
497.094	81.56
497.312	90.56
497.529	84.56
497.746	91.56
497.963	91.56
498.181	76.56
498.398	86.56
498.615	83.56
498.832	74.56
499.049	79.56
499.267	79.56
499.484	84.56
499.701	73.56
499.918	91.56
500.135	90.56
500.352	93.56
500.569	64.56
500.786	67.56
501.003	70.56
501.22	78.56
501.437	88.56
501.654	93.56
501.871	87.56
502.088	75.56
502.305	88.56
502.522	89.56
502.739	81.56
502.956	90.56
503.172	82.56
503.389	74.56
503.606	76.56
503.823	90.56
504.04	101.56
504.256	87.56
504.473	74.56
504.69	81.56
504.907	87.56
505.123	94.56
505.34	87.56
505.557	84.56
505.773	79.56
505.99	93.56
506.207	81.56
506.423	92.56
506.64	84.56
506.856	89.56
507.073	94.56
507.289	83.56
507.506	97.56
507.722	85.56
507.939	81.56
508.155	86.56
508.372	75.56
508.588	71.56
508.805	85.56
509.021	75.56
509.238	78.56
509.454	71.56
509.67	98.56
509.887	86.56
510.103	78.56
510.319	74.56
510.536	77.56
510.752	83.56
510.968	84.56
511.184	81.56
511.401	111.56
511.617	81.56
511.833	89.56
512.049	85.56
512.265	90.56
512.481	72.56
512.698	88.56
512.914	71.56
513.13	94.56
513.346	93.56
513.562	86.56
513.778	88.56
513.994	69.56
514.21	70.56
514.426	81.56
514.642	94.56
514.858	91.56
515.074	71.56
515.29	80.56
515.506	79.56
515.721	80.56
515.937	87.56
516.153	73.56
516.369	77.56
516.585	68.56
516.801	70.56
517.016	81.56
517.232	86.56
517.448	97.56
517.664	75.56
517.879	87.56
518.095	93.56
518.311	72.56
518.527	82.56
518.742	87.56
518.958	98.56
519.173	91.56
519.389	94.56
519.605	77.56
519.82	71.56
