Data from 17600_3_HRD10591_00031.txt Node
Date: Mon Jan 19 14:09:39 EST 2026
User: Yrep
Spectrometer: HR+D1059
Trigger mode: 1
Integration Time (sec): 1.000000E-1
Scans to average: 1
Electric dark correction enabled: true
Nonlinearity correction enabled: false
Boxcar width: 0
XAxis mode: Wavelengths
Number of Pixels in Spectrum: 2048
>>>>>Begin Spectral Data<<<<<
223.165	-13
223.4	-13
223.635	-13
223.869	-29
224.104	-33
224.338	-11
224.573	-4
224.808	-13
225.042	1
225.277	-9
225.511	-16
225.746	-3
225.98	6
226.215	10
226.449	24
226.683	17
226.918	33
227.152	40
227.387	33
227.621	39
227.856	35
228.09	31
228.324	43
228.559	59
228.793	44
229.027	59
229.262	73
229.496	65
229.73	65
229.964	78
230.199	79
230.433	64
230.667	76
230.901	83
231.136	79
231.37	71
231.604	83
231.838	67
232.072	80
232.306	78
232.541	86
232.775	91
233.009	81
233.243	78
233.477	76
233.711	83
233.945	93
234.179	81
234.413	77
234.647	80
234.881	91
235.115	87
235.349	74
235.583	82
235.817	71
236.051	75
236.285	75
236.519	76
236.753	96
236.987	84
237.221	77
237.455	69
237.689	76
237.922	74
238.156	86
238.39	79
238.624	65
238.858	81
239.091	75
239.325	78
239.559	90
239.793	92
240.027	87
240.26	82
240.494	69
240.728	71
240.961	81
241.195	77
241.429	80
241.662	81
241.896	82
242.13	72
242.363	88
242.597	72
242.83	82
243.064	74
243.298	88
243.531	74
243.765	95
243.998	73
244.232	80
244.465	83
244.699	88
244.932	78
245.166	76
245.399	77
245.633	74
245.866	89
246.099	74
246.333	77
246.566	75
246.8	97
247.033	91
247.266	79
247.5	62
247.733	59
247.966	81
248.2	91
248.433	91
248.666	86
248.899	71
249.133	67
249.366	76
249.599	89
249.832	79
250.066	92
250.299	81
250.532	78
250.765	77
250.998	81
251.231	75
251.465	63
251.698	82
251.931	78
252.164	97
252.397	83
252.63	74
252.863	75
253.096	93
253.329	81
253.562	85
253.795	80
254.028	68
254.261	83
254.494	78
254.727	85
254.96	89
255.193	83
255.426	75
255.659	68
255.892	90
256.124	85
256.357	75
256.59	81
256.823	78
257.056	83
257.289	84
257.521	59
257.754	83
257.987	90
258.22	75
258.452	82
258.685	83
258.918	75
259.151	91
259.383	77
259.616	81
259.849	74
260.081	74
260.314	70
260.547	75
260.779	85
261.012	78
261.244	83
261.477	84
261.71	89
261.942	88
262.175	81
262.407	73
262.64	74
262.872	88
263.105	75
263.337	85
263.57	82
263.802	83
264.035	81
264.267	89
264.499	81
264.732	84
264.964	79
265.197	83
265.429	87
265.661	76
265.894	90
266.126	84
266.358	65
266.591	85
266.823	76
267.055	87
267.287	74
267.52	85
267.752	76
267.984	73
268.216	82
268.448	89
268.681	97
268.913	85
269.145	76
269.377	81
269.609	77
269.841	90
270.073	90
270.306	91
270.538	87
270.77	96
271.002	92
271.234	79
271.466	74
271.698	91
271.93	89
272.162	88
272.394	81
272.626	72
272.858	75
273.09	82
273.322	91
273.553	76
273.785	78
274.017	94
274.249	98
274.481	78
274.713	86
274.945	81
275.176	91
275.408	87
275.64	92
275.872	90
276.104	77
276.335	74
276.567	91
276.799	95
277.031	88
277.262	78
277.494	78
277.726	75
277.957	71
278.189	80
278.421	90
278.652	93
278.884	68
279.115	71
279.347	86
279.579	72
279.81	72
280.042	75
280.273	85
280.505	87
280.736	86
280.968	89
281.199	95
281.431	88
281.662	79
281.894	79
282.125	84
282.356	90
282.588	80
282.819	72
283.051	95
283.282	84
283.513	81
283.745	77
283.976	73
284.207	75
284.439	77
284.67	86
284.901	95
285.132	96
285.364	75
285.595	89
285.826	87
286.057	89
286.288	85
286.52	94
286.751	95
286.982	88
287.213	77
287.444	74
287.675	82
287.906	79
288.138	78
288.369	83
288.6	90
288.831	91
289.062	76
289.293	94
289.524	91
289.755	87
289.986	59
290.217	81
290.448	83
290.679	83
290.91	80
291.141	101
291.371	95
291.602	84
291.833	87
292.064	80
292.295	78
292.526	65
292.757	77
292.987	88
293.218	90
293.449	101
293.68	81
293.91	79
294.141	79
294.372	88
294.603	84
294.833	100
295.064	82
295.295	75
295.525	80
295.756	83
295.987	81
296.217	73
296.448	75
296.679	81
296.909	90
297.14	82
297.37	107
297.601	77
297.831	88
298.062	89
298.292	90
298.523	99
298.753	96
298.984	84
299.214	77
299.445	87
299.675	77
299.905	96
300.136	89
300.366	107
300.597	99
300.827	90
301.057	75
301.288	89
301.518	104
301.748	85
301.979	91
302.209	68
302.439	71
302.669	82
302.9	78
303.13	79
303.36	98
303.59	87
303.82	78
304.051	89
304.281	81
304.511	77
304.741	92
304.971	90
305.201	92
305.431	88
305.661	71
305.891	91
306.121	87
306.352	93
306.582	86
306.812	78
307.042	83
307.272	75
307.502	76
307.731	75
307.961	67
308.191	86
308.421	87
308.651	83
308.881	90
309.111	76
309.341	87
309.571	85
309.8	85
310.03	84
310.26	78
310.49	76
310.72	71
310.949	82
311.179	82
311.409	88
311.639	92
311.868	84
312.098	106
312.328	92
312.557	84
312.787	81
313.017	88
313.246	86
313.476	86
313.706	95
313.935	77
314.165	80
314.394	78
314.624	71
314.853	86
315.083	87
315.312	73
315.542	78
315.771	74
316.001	99
316.23	83
316.46	91
316.689	90
316.919	84
317.148	81
317.377	89
317.607	88
317.836	83
318.065	100
318.295	81
318.524	81
318.753	88
318.983	82
319.212	84
319.441	84
319.67	77
319.9	71
320.129	76
320.358	75
320.587	91
320.816	82
321.046	82
321.275	91
321.504	75
321.733	81
321.962	79
322.191	90
322.42	108
322.649	86
322.878	85
323.108	87
323.337	94
323.566	74
323.795	80
324.024	102
324.253	85
324.482	77
324.71	82
324.939	91
325.168	77
325.397	83
325.626	64
325.855	83
326.084	76
326.313	83
326.542	89
326.77	73
326.999	83
327.228	91
327.457	86
327.686	81
327.914	96
328.143	97
328.372	91
328.6	99
328.829	83
329.058	94
329.287	76
329.515	84
329.744	93
329.972	92
330.201	76
330.43	79
330.658	92
330.887	72
331.115	75
331.344	91
331.572	96
331.801	87
332.03	66
332.258	93
332.486	87
332.715	86
332.943	87
333.172	89
333.4	82
333.629	79
333.857	74
334.085	91
334.314	72
334.542	78
334.771	83
334.999	87
335.227	83
335.455	87
335.684	86
335.912	94
336.14	85
336.369	91
336.597	91
336.825	82
337.053	72
337.281	80
337.51	86
337.738	82
337.966	81
338.194	81
338.422	90
338.65	80
338.878	78
339.106	90
339.334	87
339.562	101
339.79	87
340.018	99
340.246	92
340.474	93
340.702	75
340.93	87
341.158	75
341.386	78
341.614	78
341.842	99
342.07	77
342.298	94
342.526	85
342.754	94
342.981	95
343.209	79
343.437	97
343.665	82
343.893	88
344.12	73
344.348	93
344.576	91
344.804	91
345.031	77
345.259	83
345.487	105
345.714	93
345.942	76
346.17	90
346.397	75
346.625	88
346.853	83
347.08	71
347.308	83
347.535	88
347.763	83
347.99	83
348.218	93
348.445	81
348.673	88
348.9	94
349.128	81
349.355	77
349.583	76
349.81	88
350.037	74
350.265	75
350.492	83
350.72	83
350.947	84
351.174	86
351.402	88
351.629	85
351.856	86
352.083	80
352.311	92
352.538	96
352.765	81
352.992	103
353.22	87
353.447	90
353.674	89
353.901	81
354.128	75
354.355	85
354.583	89
354.81	83
355.037	90
355.264	96
355.491	78
355.718	75
355.945	88
356.172	87
356.399	72
356.626	91
356.853	74
357.08	76
357.307	71
357.534	95
357.761	87
357.988	99
358.215	95
358.441	81
358.668	76
358.895	84
359.122	89
359.349	85
359.576	75
359.802	90
360.029	90
360.256	84
360.483	97
360.709	69
360.936	80
361.163	81
361.39	74
361.616	79
361.843	79
362.07	84
362.296	84
362.523	83
362.749	100
362.976	94
363.203	107
363.429	81
363.656	76
363.882	84
364.109	92
364.335	101
364.562	91
364.788	74
365.015	84
365.241	83
365.468	92
365.694	80
365.92	97
366.147	84
366.373	87
366.599	84
366.826	76
367.052	91
367.278	95
367.505	84
367.731	87
367.957	88
368.184	74
368.41	77
368.636	83
368.862	90
369.089	76
369.315	76
369.541	94
369.767	90
369.993	89
370.219	93
370.445	81
370.672	81
370.898	84
371.124	83
371.35	84
371.576	85
371.802	82
372.028	80
372.254	84
372.48	92
372.706	89
372.932	79
373.158	89
373.384	98
373.61	95
373.835	100
374.061	96
374.287	87
374.513	81
374.739	87
374.965	68
375.191	77
375.416	87
375.642	92
375.868	89
376.094	77
376.319	79
376.545	83
376.771	73
376.997	84
377.222	94
377.448	99
377.674	75
377.899	80
378.125	75
378.35	75
378.576	84
378.802	85
379.027	70
379.253	83
379.478	74
379.704	83
379.929	87
380.155	109
380.38	70
380.606	73
380.831	78
381.057	79
381.282	95
381.507	88
381.733	76
381.958	104
382.184	85
382.409	81
382.634	76
382.86	86
383.085	89
383.31	79
383.535	94
383.761	81
383.986	78
384.211	85
384.436	72
384.662	73
384.887	89
385.112	90
385.337	89
385.562	88
385.787	76
386.013	82
386.238	79
386.463	106
386.688	101
386.913	77
387.138	88
387.363	91
387.588	80
387.813	88
388.038	75
388.263	96
388.488	76
388.713	79
388.938	77
389.163	79
389.387	72
389.612	73
389.837	93
390.062	85
390.287	64
390.512	91
390.736	91
390.961	89
391.186	84
391.411	74
391.636	87
391.86	71
392.085	75
392.31	88
392.534	83
392.759	95
392.984	100
393.208	124
393.433	163
393.658	153
393.882	96
394.107	103
394.331	89
394.556	98
394.78	89
395.005	83
395.229	73
395.454	81
395.678	95
395.903	95
396.127	98
396.352	105
396.576	108
396.801	130
397.025	154
397.249	113
397.474	100
397.698	96
397.922	90
398.147	88
398.371	82
398.595	93
398.82	77
399.044	86
399.268	91
399.492	74
399.717	93
399.941	91
400.165	87
400.389	70
400.613	85
400.837	87
401.062	92
401.286	79
401.51	87
401.734	80
401.958	84
402.182	78
402.406	86
402.63	83
402.854	93
403.078	74
403.302	96
403.526	98
403.75	82
403.974	72
404.198	80
404.422	80
404.645	86
404.869	78
405.093	68
405.317	78
405.541	73
405.765	78
405.988	75
406.212	83
406.436	80
406.66	85
406.883	88
407.107	86
407.331	85
407.555	88
407.778	108
408.002	99
408.226	84
408.449	84
408.673	81
408.896	93
409.12	92
409.344	84
409.567	77
409.791	84
410.014	91
410.238	81
410.461	77
410.685	83
410.908	60
411.132	73
411.355	94
411.578	80
411.802	84
412.025	70
412.249	79
412.472	63
412.695	84
412.919	102
413.142	90
413.365	83
413.589	81
413.812	84
414.035	75
414.258	84
414.482	71
414.705	77
414.928	87
415.151	69
415.374	80
415.597	91
415.821	84
416.044	94
416.267	86
416.49	68
416.713	83
416.936	75
417.159	75
417.382	73
417.605	70
417.828	96
418.051	82
418.274	81
418.497	65
418.72	64
418.943	76
419.166	82
419.389	77
419.611	85
419.834	73
420.057	70
420.28	87
420.503	88
420.726	81
420.948	82
421.171	93
421.394	105
421.617	106
421.839	87
422.062	101
422.285	100
422.507	156
422.73	187
422.953	188
423.175	131
423.398	96
423.621	88
423.843	92
424.066	84
424.288	82
424.511	84
424.733	82
424.956	88
425.178	95
425.401	80
425.623	85
425.846	84
426.068	83
426.291	71
426.513	68
426.735	81
426.958	92
427.18	90
427.402	98
427.625	74
427.847	105
428.069	89
428.292	101
428.514	113
428.736	104
428.958	101
429.181	93
429.403	88
429.625	98
429.847	95
430.069	107
430.292	107
430.514	113
430.736	98
430.958	92
431.18	87
431.402	87
431.624	83
431.846	97
432.068	115
432.29	85
432.512	69
432.734	87
432.956	76
433.178	84
433.4	91
433.622	77
433.844	76
434.066	75
434.287	90
434.509	87
434.731	84
434.953	86
435.175	71
435.397	85
435.618	72
435.84	83
436.062	98
436.284	80
436.505	85
436.727	81
436.949	83
437.17	90
437.392	91
437.614	96
437.835	98
438.057	73
438.278	81
438.5	96
438.721	79
438.943	83
439.165	78
439.386	77
439.608	85
439.829	89
440.05	96
440.272	83
440.493	78
440.715	92
440.936	79
441.158	87
441.379	77
441.6	106
441.822	91
442.043	98
442.264	92
442.486	98
442.707	97
442.928	91
443.149	102
443.371	106
443.592	136
443.813	117
444.034	78
444.255	89
444.476	86
444.698	92
444.919	97
445.14	151
445.361	131
445.582	129
445.803	140
446.024	83
446.245	87
446.466	93
446.687	97
446.908	70
447.129	77
447.35	85
447.571	86
447.792	83
448.013	81
448.234	84
448.455	76
448.675	78
448.896	72
449.117	84
449.338	81
449.559	92
449.779	83
450	91
450.221	75
450.442	77
450.662	86
450.883	73
451.104	97
451.324	96
451.545	92
451.766	86
451.986	79
452.207	73
452.428	90
452.648	85
452.869	88
453.089	77
453.31	77
453.53	81
453.751	84
453.971	84
454.192	89
454.412	83
454.633	70
454.853	92
455.073	85
455.294	74
455.514	81
455.734	89
455.955	84
456.175	77
456.395	80
456.616	82
456.836	95
457.056	84
457.276	76
457.497	89
457.717	78
457.937	105
458.157	98
458.377	99
458.598	93
458.818	90
459.038	96
459.258	84
459.478	86
459.698	65
459.918	87
460.138	78
460.358	92
460.578	104
460.798	103
461.018	99
461.238	85
461.458	95
461.678	89
461.898	87
462.118	70
462.338	71
462.558	73
462.777	96
462.997	91
463.217	88
463.437	86
463.657	88
463.876	77
464.096	107
464.316	90
464.536	85
464.755	84
464.975	74
465.195	68
465.414	78
465.634	70
465.854	85
466.073	83
466.293	83
466.512	77
466.732	84
466.951	79
467.171	88
467.391	83
467.61	73
467.829	85
468.049	78
468.268	81
468.488	81
468.707	74
468.927	96
469.146	92
469.365	91
469.585	93
469.804	93
470.023	74
470.243	97
470.462	83
470.681	75
470.901	81
471.12	73
471.339	65
471.558	90
471.777	91
471.997	82
472.216	78
472.435	85
472.654	91
472.873	85
473.092	83
473.311	83
473.53	68
473.749	71
473.968	81
474.187	86
474.406	87
474.625	93
474.844	87
475.063	75
475.282	81
475.501	75
475.72	68
475.939	95
476.158	84
476.377	87
476.596	91
476.814	76
477.033	92
477.252	89
477.471	99
477.69	90
477.908	91
478.127	97
478.346	74
478.564	92
478.783	100
479.002	82
479.22	82
479.439	83
479.658	85
479.876	95
480.095	80
480.313	79
480.532	88
480.751	89
480.969	86
481.188	88
481.406	100
481.624	69
481.843	102
482.061	88
482.28	81
482.498	92
482.717	86
482.935	88
483.153	79
483.372	85
483.59	84
483.808	83
484.027	85
484.245	88
484.463	90
484.681	99
484.9	83
485.118	67
485.336	84
485.554	87
485.772	93
485.99	67
486.209	84
486.427	86
486.645	95
486.863	89
487.081	92
487.299	97
487.517	85
487.735	98
487.953	120
488.171	81
488.389	96
488.607	84
488.825	78
489.043	83
489.261	86
489.479	97
489.696	84
489.914	85
490.132	89
490.35	90
490.568	86
490.786	91
491.003	87
491.221	86
491.439	82
491.657	86
491.874	91
492.092	77
492.31	67
492.527	87
492.745	89
492.963	85
493.18	93
493.398	83
493.615	89
493.833	81
494.05	86
494.268	74
494.485	77
494.703	96
494.92	93
495.138	77
495.355	78
495.573	78
495.79	86
496.008	85
496.225	89
496.442	87
496.66	88
496.877	90
497.094	95
497.312	89
497.529	95
497.746	92
497.963	85
498.181	75
498.398	81
498.615	90
498.832	95
499.049	87
499.267	85
499.484	89
499.701	87
499.918	88
500.135	88
500.352	65
500.569	77
500.786	88
501.003	87
501.22	76
501.437	87
501.654	95
501.871	88
502.088	94
502.305	89
502.522	96
502.739	77
502.956	87
503.172	79
503.389	89
503.606	78
503.823	88
504.04	85
504.256	101
504.473	112
504.69	71
504.907	89
505.123	92
505.34	75
505.557	69
505.773	83
505.99	83
506.207	83
506.423	89
506.64	88
506.856	73
507.073	104
507.289	85
507.506	86
507.722	101
507.939	92
508.155	84
508.372	85
508.588	90
508.805	84
509.021	85
509.238	82
509.454	74
509.67	78
509.887	80
510.103	92
510.319	93
510.536	70
510.752	90
510.968	95
511.184	97
511.401	96
511.617	106
511.833	81
512.049	78
512.265	89
512.481	87
512.698	69
512.914	81
513.13	86
513.346	82
513.562	90
513.778	88
513.994	84
514.21	81
514.426	87
514.642	84
514.858	75
515.074	92
515.29	78
515.506	81
515.721	88
515.937	99
516.153	83
516.369	85
516.585	100
516.801	85
517.016	90
517.232	83
517.448	72
517.664	75
517.879	81
518.095	72
518.311	76
518.527	88
518.742	103
518.958	105
519.173	100
519.389	109
519.605	83
519.82	92
520.036	92
520.251	70
520.467	88
520.682	88
520.898	86
521.113	83
521.329	91
521.544	86
521.76	70
521.975	83
522.19	91
522.406	96
522.621	91
522.836	88
523.052	69
523.267	88
523.482	81
523.698	74
523.913	86
524.128	76
524.343	86
524.559	86
524.774	80
524.989	87
525.204	100
525.419	89
525.634	83
525.849	85
526.064	88
526.28	140
526.495	148
526.71	148
526.925	114
527.14	133
527.355	140
527.57	91
527.785	91
527.999	87
528.214	82
528.429	87
528.644	82
528.859	99
529.074	80
529.289	103
529.503	83
529.718	85
529.933	87
530.148	90
530.363	97
530.577	87
530.792	91
531.007	101
531.221	88
531.436	97
531.651	87
531.865	89
532.08	85
532.295	91
532.509	83
532.724	80
532.938	90
533.153	85
533.367	81
533.582	90
533.796	107
534.011	85
534.225	80
534.44	84
534.654	88
534.868	92
535.083	114
535.297	113
535.511	113
535.726	99
535.94	90
536.154	75
536.369	89
536.583	86
536.797	84
537.011	79
537.225	96
537.44	85
537.654	95
537.868	90
538.082	95
538.296	88
538.51	95
538.724	86
538.938	103
539.153	89
539.367	91
539.581	94
539.795	95
540.009	101
540.222	84
540.436	97
540.65	89
540.864	91
541.078	101
541.292	92
541.506	83
541.72	91
541.934	95
542.147	87
542.361	91
542.575	88
542.789	87
543.002	95
543.216	97
543.43	87
543.644	96
543.857	100
544.071	93
544.285	100
544.498	88
544.712	94
544.925	109
545.139	93
545.352	93
545.566	87
545.779	88
545.993	98
546.206	92
546.42	109
546.633	87
546.847	108
547.06	90
547.274	92
547.487	103
547.7	111
547.914	111
548.127	116
548.34	129
548.554	130
548.767	123
548.98	122
549.193	134
549.407	123
549.62	123
549.833	123
550.046	132
550.259	131
550.473	124
550.686	153
550.899	166
551.112	174
551.325	187
551.538	157
551.751	162
551.964	170
552.177	168
552.39	149
552.603	163
552.816	170
553.029	152
553.242	141
553.455	154
553.667	155
553.88	180
554.093	162
554.306	172
554.519	166
554.732	156
554.944	163
555.157	166
555.37	165
555.583	156
555.795	161
556.008	151
556.221	149
556.433	131
556.646	132
556.859	143
557.071	132
557.284	113
557.496	105
557.709	115
557.921	115
558.134	116
558.346	139
558.559	115
558.771	123
558.984	155
559.196	179
559.409	134
559.621	154
559.833	147
560.046	153
560.258	116
560.47	139
560.683	114
560.895	99
561.107	89
561.32	94
561.532	104
561.744	90
561.956	85
562.168	107
562.381	93
562.593	99
562.805	104
563.017	91
563.229	102
563.441	81
563.653	95
563.865	95
564.077	83
564.289	92
564.501	83
564.713	88
564.925	87
565.137	78
565.349	91
565.561	90
565.773	106
565.985	92
566.197	95
566.408	95
566.62	80
566.832	99
567.044	91
567.255	103
567.467	75
567.679	88
567.891	85
568.102	91
568.314	92
568.526	111
568.737	100
568.949	87
569.161	96
569.372	83
569.584	91
569.795	85
570.007	83
570.218	87
570.43	90
570.641	102
570.853	78
571.064	97
571.276	84
571.487	100
571.698	104
571.91	97
572.121	81
572.333	96
572.544	85
572.755	89
572.966	107
573.178	85
573.389	99
573.6	99
573.811	87
574.023	104
574.234	88
574.445	90
574.656	84
574.867	86
575.078	91
575.289	91
575.501	84
575.712	92
575.923	85
576.134	70
576.345	88
576.556	83
576.767	95
576.978	95
577.188	96
577.399	108
577.61	91
577.821	101
578.032	85
578.243	91
578.454	99
578.665	76
578.875	74
579.086	90
579.297	93
579.508	74
579.718	88
579.929	87
580.14	87
580.35	95
580.561	86
580.772	99
580.982	97
581.193	96
581.403	88
581.614	95
581.825	81
582.035	104
582.246	87
582.456	75
582.667	84
582.877	99
583.087	88
583.298	96
583.508	101
583.719	88
583.929	87
584.139	104
584.35	95
584.56	96
584.77	89
584.981	90
585.191	89
585.401	86
585.611	96
585.821	119
586.032	137
586.242	90
586.452	91
586.662	99
586.872	91
587.082	84
587.292	91
587.502	96
587.713	101
587.923	108
