Data from 17600_3_HRD10591_00017.txt Node
Date: Mon Jan 19 14:09:32 EST 2026
User: Yrep
Spectrometer: HR+D1059
Trigger mode: 1
Integration Time (sec): 1.000000E-1
Scans to average: 1
Electric dark correction enabled: true
Nonlinearity correction enabled: false
Boxcar width: 0
XAxis mode: Wavelengths
Number of Pixels in Spectrum: 2048
>>>>>Begin Spectral Data<<<<<
223.165	-12.94
223.4	-12.94
223.635	-12.94
223.869	-19.94
224.104	-17.94
224.338	-17.94
224.573	-26.94
224.808	-24.94
225.042	-3.94
225.277	-9.94
225.511	-0.94
225.746	4.06
225.98	3.06
226.215	10.06
226.449	9.06
226.683	29.06
226.918	47.06
227.152	33.06
227.387	36.06
227.621	31.06
227.856	47.06
228.09	55.06
228.324	48.06
228.559	47.06
228.793	48.06
229.027	50.06
229.262	65.06
229.496	75.06
229.73	71.06
229.964	60.06
230.199	66.06
230.433	73.06
230.667	77.06
230.901	66.06
231.136	66.06
231.37	74.06
231.604	76.06
231.838	80.06
232.072	84.06
232.306	91.06
232.541	76.06
232.775	81.06
233.009	79.06
233.243	82.06
233.477	82.06
233.711	86.06
233.945	77.06
234.179	74.06
234.413	75.06
234.647	83.06
234.881	86.06
235.115	70.06
235.349	70.06
235.583	82.06
235.817	89.06
236.051	78.06
236.285	68.06
236.519	76.06
236.753	73.06
236.987	64.06
237.221	72.06
237.455	72.06
237.689	85.06
237.922	92.06
238.156	69.06
238.39	63.06
238.624	90.06
238.858	70.06
239.091	58.06
239.325	73.06
239.559	75.06
239.793	73.06
240.027	71.06
240.26	72.06
240.494	74.06
240.728	71.06
240.961	82.06
241.195	88.06
241.429	85.06
241.662	82.06
241.896	82.06
242.13	75.06
242.363	70.06
242.597	70.06
242.83	81.06
243.064	77.06
243.298	64.06
243.531	70.06
243.765	90.06
243.998	76.06
244.232	82.06
244.465	73.06
244.699	76.06
244.932	71.06
245.166	75.06
245.399	72.06
245.633	68.06
245.866	73.06
246.099	81.06
246.333	74.06
246.566	88.06
246.8	72.06
247.033	74.06
247.266	94.06
247.5	68.06
247.733	77.06
247.966	78.06
248.2	87.06
248.433	75.06
248.666	72.06
248.899	76.06
249.133	84.06
249.366	84.06
249.599	71.06
249.832	80.06
250.066	80.06
250.299	94.06
250.532	88.06
250.765	76.06
250.998	74.06
251.231	72.06
251.465	83.06
251.698	78.06
251.931	83.06
252.164	67.06
252.397	76.06
252.63	80.06
252.863	92.06
253.096	81.06
253.329	76.06
253.562	71.06
253.795	86.06
254.028	83.06
254.261	77.06
254.494	77.06
254.727	70.06
254.96	81.06
255.193	72.06
255.426	98.06
255.659	79.06
255.892	75.06
256.124	87.06
256.357	73.06
256.59	68.06
256.823	66.06
257.056	77.06
257.289	94.06
257.521	84.06
257.754	82.06
257.987	71.06
258.22	80.06
258.452	81.06
258.685	84.06
258.918	76.06
259.151	88.06
259.383	72.06
259.616	82.06
259.849	77.06
260.081	73.06
260.314	76.06
260.547	88.06
260.779	96.06
261.012	103.06
261.244	88.06
261.477	71.06
261.71	79.06
261.942	82.06
262.175	79.06
262.407	69.06
262.64	80.06
262.872	81.06
263.105	86.06
263.337	83.06
263.57	86.06
263.802	76.06
264.035	89.06
264.267	80.06
264.499	82.06
264.732	76.06
264.964	74.06
265.197	70.06
265.429	83.06
265.661	82.06
265.894	85.06
266.126	83.06
266.358	82.06
266.591	74.06
266.823	83.06
267.055	77.06
267.287	81.06
267.52	76.06
267.752	85.06
267.984	72.06
268.216	78.06
268.448	94.06
268.681	85.06
268.913	78.06
269.145	83.06
269.377	67.06
269.609	90.06
269.841	72.06
270.073	73.06
270.306	76.06
270.538	83.06
270.77	70.06
271.002	70.06
271.234	83.06
271.466	87.06
271.698	76.06
271.93	92.06
272.162	74.06
272.394	78.06
272.626	68.06
272.858	86.06
273.09	97.06
273.322	81.06
273.553	84.06
273.785	83.06
274.017	89.06
274.249	91.06
274.481	90.06
274.713	96.06
274.945	82.06
275.176	71.06
275.408	83.06
275.64	89.06
275.872	76.06
276.104	77.06
276.335	82.06
276.567	83.06
276.799	73.06
277.031	90.06
277.262	86.06
277.494	88.06
277.726	78.06
277.957	81.06
278.189	93.06
278.421	74.06
278.652	84.06
278.884	93.06
279.115	85.06
279.347	97.06
279.579	86.06
279.81	84.06
280.042	83.06
280.273	68.06
280.505	94.06
280.736	82.06
280.968	95.06
281.199	72.06
281.431	85.06
281.662	91.06
281.894	87.06
282.125	76.06
282.356	82.06
282.588	84.06
282.819	87.06
283.051	89.06
283.282	89.06
283.513	77.06
283.745	82.06
283.976	83.06
284.207	90.06
284.439	91.06
284.67	83.06
284.901	88.06
285.132	103.06
285.364	98.06
285.595	79.06
285.826	76.06
286.057	80.06
286.288	79.06
286.52	80.06
286.751	81.06
286.982	85.06
287.213	97.06
287.444	80.06
287.675	88.06
287.906	92.06
288.138	95.06
288.369	96.06
288.6	75.06
288.831	75.06
289.062	82.06
289.293	80.06
289.524	80.06
289.755	87.06
289.986	75.06
290.217	72.06
290.448	94.06
290.679	92.06
290.91	97.06
291.141	84.06
291.371	89.06
291.602	87.06
291.833	81.06
292.064	82.06
292.295	87.06
292.526	94.06
292.757	73.06
292.987	94.06
293.218	97.06
293.449	98.06
293.68	72.06
293.91	88.06
294.141	80.06
294.372	84.06
294.603	82.06
294.833	65.06
295.064	79.06
295.295	90.06
295.525	95.06
295.756	95.06
295.987	76.06
296.217	87.06
296.448	94.06
296.679	70.06
296.909	101.06
297.14	88.06
297.37	95.06
297.601	86.06
297.831	80.06
298.062	92.06
298.292	95.06
298.523	88.06
298.753	85.06
298.984	88.06
299.214	81.06
299.445	86.06
299.675	85.06
299.905	96.06
300.136	93.06
300.366	86.06
300.597	80.06
300.827	105.06
301.057	91.06
301.288	88.06
301.518	82.06
301.748	79.06
301.979	98.06
302.209	84.06
302.439	98.06
302.669	92.06
302.9	98.06
303.13	87.06
303.36	88.06
303.59	91.06
303.82	91.06
304.051	103.06
304.281	84.06
304.511	99.06
304.741	100.06
304.971	88.06
305.201	102.06
305.431	88.06
305.661	90.06
305.891	86.06
306.121	81.06
306.352	88.06
306.582	82.06
306.812	91.06
307.042	75.06
307.272	81.06
307.502	83.06
307.731	77.06
307.961	94.06
308.191	94.06
308.421	109.06
308.651	96.06
308.881	93.06
309.111	90.06
309.341	110.06
309.571	104.06
309.8	94.06
310.03	95.06
310.26	88.06
310.49	99.06
310.72	100.06
310.949	89.06
311.179	87.06
311.409	82.06
311.639	82.06
311.868	94.06
312.098	76.06
312.328	86.06
312.557	101.06
312.787	79.06
313.017	91.06
313.246	79.06
313.476	98.06
313.706	75.06
313.935	86.06
314.165	76.06
314.394	92.06
314.624	86.06
314.853	90.06
315.083	90.06
315.312	88.06
315.542	105.06
315.771	96.06
316.001	100.06
316.23	102.06
316.46	83.06
316.689	88.06
316.919	76.06
317.148	95.06
317.377	87.06
317.607	94.06
317.836	101.06
318.065	116.06
318.295	112.06
318.524	86.06
318.753	72.06
318.983	87.06
319.212	90.06
319.441	103.06
319.67	89.06
319.9	87.06
320.129	94.06
320.358	91.06
320.587	93.06
320.816	89.06
321.046	92.06
321.275	93.06
321.504	97.06
321.733	88.06
321.962	102.06
322.191	97.06
322.42	90.06
322.649	102.06
322.878	102.06
323.108	89.06
323.337	90.06
323.566	104.06
323.795	80.06
324.024	96.06
324.253	89.06
324.482	105.06
324.71	82.06
324.939	93.06
325.168	98.06
325.397	92.06
325.626	81.06
325.855	91.06
326.084	92.06
326.313	81.06
326.542	91.06
326.77	103.06
326.999	93.06
327.228	91.06
327.457	83.06
327.686	93.06
327.914	82.06
328.143	94.06
328.372	102.06
328.6	92.06
328.829	84.06
329.058	76.06
329.287	76.06
329.515	89.06
329.744	99.06
329.972	88.06
330.201	104.06
330.43	91.06
330.658	83.06
330.887	93.06
331.115	87.06
331.344	87.06
331.572	91.06
331.801	86.06
332.03	90.06
332.258	83.06
332.486	89.06
332.715	90.06
332.943	93.06
333.172	89.06
333.4	80.06
333.629	88.06
333.857	91.06
334.085	103.06
334.314	101.06
334.542	105.06
334.771	107.06
334.999	99.06
335.227	105.06
335.455	104.06
335.684	89.06
335.912	118.06
336.14	96.06
336.369	111.06
336.597	102.06
336.825	101.06
337.053	86.06
337.281	90.06
337.51	98.06
337.738	84.06
337.966	91.06
338.194	88.06
338.422	79.06
338.65	85.06
338.878	90.06
339.106	99.06
339.334	84.06
339.562	75.06
339.79	86.06
340.018	85.06
340.246	95.06
340.474	83.06
340.702	87.06
340.93	90.06
341.158	96.06
341.386	90.06
341.614	83.06
341.842	87.06
342.07	80.06
342.298	88.06
342.526	99.06
342.754	76.06
342.981	93.06
343.209	86.06
343.437	111.06
343.665	88.06
343.893	94.06
344.12	101.06
344.348	103.06
344.576	90.06
344.804	76.06
345.031	102.06
345.259	97.06
345.487	88.06
345.714	88.06
345.942	99.06
346.17	103.06
346.397	91.06
346.625	79.06
346.853	84.06
347.08	98.06
347.308	86.06
347.535	93.06
347.763	86.06
347.99	89.06
348.218	94.06
348.445	72.06
348.673	95.06
348.9	92.06
349.128	93.06
349.355	99.06
349.583	91.06
349.81	86.06
350.037	99.06
350.265	78.06
350.492	101.06
350.72	87.06
350.947	89.06
351.174	94.06
351.402	85.06
351.629	92.06
351.856	77.06
352.083	80.06
352.311	98.06
352.538	82.06
352.765	95.06
352.992	107.06
353.22	96.06
353.447	93.06
353.674	81.06
353.901	77.06
354.128	88.06
354.355	100.06
354.583	106.06
354.81	100.06
355.037	100.06
355.264	89.06
355.491	96.06
355.718	86.06
355.945	97.06
356.172	94.06
356.399	97.06
356.626	102.06
356.853	88.06
357.08	105.06
357.307	91.06
357.534	87.06
357.761	98.06
357.988	105.06
358.215	94.06
358.441	91.06
358.668	86.06
358.895	102.06
359.122	97.06
359.349	91.06
359.576	101.06
359.802	77.06
360.029	89.06
360.256	86.06
360.483	86.06
360.709	77.06
360.936	95.06
361.163	98.06
361.39	96.06
361.616	100.06
361.843	102.06
362.07	103.06
362.296	113.06
362.523	119.06
362.749	136.06
362.976	135.06
363.203	161.06
363.429	118.06
363.656	115.06
363.882	106.06
364.109	135.06
364.335	154.06
364.562	187.06
364.788	156.06
365.015	97.06
365.241	97.06
365.468	97.06
365.694	85.06
365.92	90.06
366.147	83.06
366.373	78.06
366.599	96.06
366.826	88.06
367.052	83.06
367.278	83.06
367.505	96.06
367.731	107.06
367.957	105.06
368.184	94.06
368.41	100.06
368.636	87.06
368.862	114.06
369.089	85.06
369.315	89.06
369.541	86.06
369.767	95.06
369.993	94.06
370.219	90.06
370.445	103.06
370.672	113.06
370.898	88.06
371.124	106.06
371.35	79.06
371.576	90.06
371.802	96.06
372.028	85.06
372.254	88.06
372.48	92.06
372.706	89.06
372.932	89.06
373.158	99.06
373.384	116.06
373.61	128.06
373.835	131.06
374.061	112.06
374.287	99.06
374.513	109.06
374.739	132.06
374.965	100.06
375.191	111.06
375.416	80.06
375.642	110.06
375.868	112.06
376.094	99.06
376.319	114.06
376.545	107.06
376.771	84.06
376.997	100.06
377.222	85.06
377.448	96.06
377.674	90.06
377.899	109.06
378.125	81.06
378.35	82.06
378.576	80.06
378.802	82.06
379.027	101.06
379.253	105.06
379.478	86.06
379.704	101.06
379.929	105.06
380.155	76.06
380.38	85.06
380.606	95.06
380.831	91.06
381.057	93.06
381.282	96.06
381.507	114.06
381.733	101.06
381.958	98.06
382.184	112.06
382.409	114.06
382.634	115.06
382.86	119.06
383.085	113.06
383.31	112.06
383.535	121.06
383.761	123.06
383.986	108.06
384.211	107.06
384.436	95.06
384.662	98.06
384.887	110.06
385.112	95.06
385.337	112.06
385.562	101.06
385.787	117.06
386.013	123.06
386.238	98.06
386.463	114.06
386.688	100.06
386.913	101.06
387.138	95.06
387.363	104.06
387.588	116.06
387.813	138.06
388.038	103.06
388.263	116.06
388.488	112.06
388.713	108.06
388.938	106.06
389.163	97.06
389.387	102.06
389.612	94.06
389.837	103.06
390.062	107.06
390.287	80.06
390.512	94.06
390.736	99.06
390.961	91.06
391.186	87.06
391.411	88.06
391.636	98.06
391.86	91.06
392.085	110.06
392.31	125.06
392.534	120.06
392.759	131.06
392.984	219.06
393.208	370.06
393.433	550.06
393.658	408.06
393.882	194.06
394.107	131.06
394.331	141.06
394.556	162.06
394.78	138.06
395.005	117.06
395.229	95.06
395.454	112.06
395.678	119.06
395.903	144.06
396.127	178.06
396.352	234.06
396.576	231.06
396.801	377.06
397.025	408.06
397.249	224.06
397.474	164.06
397.698	118.06
397.922	136.06
398.147	96.06
398.371	101.06
398.595	102.06
398.82	94.06
399.044	96.06
399.268	99.06
399.492	87.06
399.717	99.06
399.941	98.06
400.165	95.06
400.389	85.06
400.613	91.06
400.837	112.06
401.062	88.06
401.286	71.06
401.51	88.06
401.734	106.06
401.958	89.06
402.182	89.06
402.406	99.06
402.63	98.06
402.854	103.06
403.078	101.06
403.302	121.06
403.526	102.06
403.75	97.06
403.974	80.06
404.198	104.06
404.422	110.06
404.645	118.06
404.869	106.06
405.093	84.06
405.317	89.06
405.541	95.06
405.765	90.06
405.988	86.06
406.212	87.06
406.436	94.06
406.66	107.06
406.883	101.06
407.107	103.06
407.331	96.06
407.555	92.06
407.778	136.06
408.002	132.06
408.226	115.06
408.449	99.06
408.673	107.06
408.896	88.06
409.12	95.06
409.344	119.06
409.567	129.06
409.791	138.06
410.014	128.06
410.238	119.06
410.461	95.06
410.685	112.06
410.908	111.06
411.132	88.06
411.355	82.06
411.578	87.06
411.802	90.06
412.025	96.06
412.249	84.06
412.472	85.06
412.695	101.06
412.919	101.06
413.142	92.06
413.365	94.06
413.589	86.06
413.812	81.06
414.035	97.06
414.258	101.06
414.482	87.06
414.705	103.06
414.928	85.06
415.151	96.06
415.374	100.06
415.597	80.06
415.821	67.06
416.044	87.06
416.267	98.06
416.49	94.06
416.713	61.06
416.936	83.06
417.159	84.06
417.382	87.06
417.605	98.06
417.828	99.06
418.051	101.06
418.274	80.06
418.497	91.06
418.72	97.06
418.943	98.06
419.166	99.06
419.389	90.06
419.611	89.06
419.834	99.06
420.057	100.06
420.28	100.06
420.503	107.06
420.726	85.06
420.948	91.06
421.171	114.06
421.394	130.06
421.617	160.06
421.839	163.06
422.062	178.06
422.285	233.06
422.507	415.06
422.73	550.06
422.953	503.06
423.175	329.06
423.398	208.06
423.621	142.06
423.843	127.06
424.066	130.06
424.288	109.06
424.511	119.06
424.733	106.06
424.956	103.06
425.178	100.06
425.401	86.06
425.623	102.06
425.846	97.06
426.068	87.06
426.291	90.06
426.513	79.06
426.735	96.06
426.958	87.06
427.18	104.06
427.402	115.06
427.625	86.06
427.847	100.06
428.069	136.06
428.292	150.06
428.514	177.06
428.736	128.06
428.958	171.06
429.181	178.06
429.403	126.06
429.625	104.06
429.847	176.06
430.069	205.06
430.292	246.06
430.514	216.06
430.736	176.06
430.958	176.06
431.18	124.06
431.402	101.06
431.624	118.06
431.846	147.06
432.068	177.06
432.29	124.06
432.512	104.06
432.734	91.06
432.956	92.06
433.178	96.06
433.4	91.06
433.622	93.06
433.844	100.06
434.066	82.06
434.287	86.06
434.509	91.06
434.731	95.06
434.953	82.06
435.175	99.06
435.397	102.06
435.618	114.06
435.84	102.06
436.062	86.06
436.284	92.06
436.505	92.06
436.727	85.06
436.949	87.06
437.17	90.06
437.392	96.06
437.614	98.06
437.835	95.06
438.057	78.06
438.278	100.06
438.5	91.06
438.721	90.06
438.943	72.06
439.165	82.06
439.386	86.06
439.608	94.06
439.829	86.06
440.05	84.06
440.272	98.06
440.493	99.06
440.715	96.06
440.936	93.06
441.158	78.06
441.379	98.06
441.6	98.06
441.822	101.06
442.043	99.06
442.264	112.06
442.486	178.06
442.707	242.06
442.928	168.06
443.149	140.06
443.371	200.06
443.592	348.06
443.813	305.06
444.034	140.06
444.255	101.06
444.476	103.06
444.698	95.06
444.919	122.06
445.14	226.06
445.361	271.06
445.582	417.06
445.803	356.06
446.024	151.06
446.245	114.06
446.466	99.06
446.687	96.06
446.908	96.06
447.129	96.06
447.35	97.06
447.571	96.06
447.792	91.06
448.013	86.06
448.234	91.06
448.455	79.06
448.675	85.06
448.896	94.06
449.117	81.06
449.338	84.06
449.559	80.06
449.779	95.06
450	97.06
450.221	95.06
450.442	83.06
450.662	95.06
450.883	98.06
451.104	88.06
451.324	105.06
451.545	101.06
451.766	86.06
451.986	90.06
452.207	96.06
452.428	100.06
452.648	106.06
452.869	123.06
453.089	104.06
453.31	117.06
453.53	111.06
453.751	96.06
453.971	83.06
454.192	87.06
454.412	87.06
454.633	91.06
454.853	87.06
455.073	91.06
455.294	94.06
455.514	105.06
455.734	104.06
455.955	88.06
456.175	86.06
456.395	107.06
456.616	92.06
456.836	95.06
457.056	94.06
457.276	90.06
457.497	114.06
457.717	102.06
457.937	136.06
458.157	161.06
458.377	162.06
458.598	162.06
458.818	167.06
459.038	123.06
459.258	94.06
459.478	78.06
459.698	96.06
459.918	98.06
460.138	82.06
460.358	89.06
460.578	109.06
460.798	163.06
461.018	164.06
461.238	107.06
461.458	97.06
461.678	95.06
461.898	87.06
462.118	97.06
462.338	82.06
462.558	98.06
462.777	84.06
462.997	88.06
463.217	82.06
463.437	92.06
463.657	105.06
463.876	88.06
464.096	92.06
464.316	91.06
464.536	99.06
464.755	92.06
464.975	97.06
465.195	89.06
465.414	102.06
465.634	87.06
465.854	97.06
466.073	81.06
466.293	90.06
466.512	83.06
466.732	95.06
466.951	99.06
467.171	100.06
467.391	89.06
467.61	84.06
467.829	76.06
468.049	96.06
468.268	102.06
468.488	90.06
468.707	106.06
468.927	96.06
469.146	98.06
469.365	96.06
469.585	87.06
469.804	95.06
470.023	87.06
470.243	97.06
470.462	93.06
470.681	86.06
470.901	86.06
471.12	88.06
471.339	95.06
471.558	89.06
471.777	95.06
471.997	92.06
472.216	75.06
472.435	98.06
472.654	92.06
472.873	84.06
473.092	87.06
473.311	100.06
473.53	78.06
473.749	90.06
473.968	86.06
474.187	87.06
474.406	87.06
474.625	107.06
474.844	103.06
475.063	83.06
475.282	88.06
475.501	85.06
475.72	102.06
475.939	94.06
476.158	80.06
476.377	90.06
476.596	86.06
476.814	94.06
477.033	94.06
477.252	92.06
477.471	84.06
477.69	81.06
477.908	95.06
478.127	99.06
478.346	95.06
478.564	96.06
478.783	89.06
479.002	98.06
479.22	96.06
479.439	97.06
479.658	90.06
479.876	84.06
480.095	87.06
480.313	98.06
480.532	99.06
480.751	75.06
480.969	91.06
481.188	105.06
481.406	99.06
481.624	112.06
481.843	88.06
482.061	89.06
482.28	99.06
482.498	89.06
482.717	107.06
482.935	105.06
483.153	104.06
483.372	114.06
483.59	105.06
483.808	93.06
484.027	101.06
484.245	100.06
484.463	106.06
484.681	102.06
484.9	117.06
485.118	96.06
485.336	103.06
485.554	99.06
485.772	103.06
485.99	110.06
486.209	112.06
486.427	96.06
486.645	102.06
486.863	111.06
487.081	104.06
487.299	110.06
487.517	117.06
487.735	159.06
487.953	279.06
488.171	215.06
488.389	127.06
488.607	89.06
488.825	95.06
489.043	98.06
489.261	100.06
489.479	110.06
489.696	94.06
489.914	99.06
490.132	108.06
490.35	84.06
490.568	102.06
490.786	107.06
491.003	94.06
491.221	107.06
491.439	101.06
491.657	91.06
491.874	94.06
492.092	104.06
492.31	98.06
492.527	92.06
492.745	90.06
492.963	107.06
493.18	97.06
493.398	90.06
493.615	96.06
493.833	85.06
494.05	94.06
494.268	102.06
494.485	89.06
494.703	110.06
494.92	90.06
495.138	103.06
495.355	84.06
495.573	91.06
495.79	94.06
496.008	102.06
496.225	97.06
496.442	95.06
496.66	96.06
496.877	105.06
497.094	95.06
497.312	88.06
497.529	98.06
497.746	104.06
497.963	92.06
498.181	106.06
498.398	120.06
498.615	122.06
498.832	94.06
499.049	104.06
499.267	102.06
499.484	115.06
499.701	88.06
499.918	101.06
500.135	101.06
500.352	99.06
500.569	104.06
500.786	96.06
501.003	99.06
501.22	98.06
501.437	113.06
501.654	98.06
501.871	96.06
502.088	97.06
502.305	98.06
502.522	74.06
502.739	88.06
502.956	100.06
503.172	95.06
503.389	105.06
503.606	100.06
503.823	113.06
504.04	130.06
504.256	190.06
504.473	198.06
504.69	110.06
504.907	106.06
505.123	105.06
505.34	89.06
505.557	92.06
505.773	101.06
505.99	82.06
506.207	96.06
506.423	86.06
506.64	88.06
506.856	92.06
507.073	98.06
507.289	92.06
507.506	95.06
507.722	92.06
507.939	89.06
508.155	106.06
508.372	82.06
508.588	91.06
508.805	89.06
509.021	101.06
509.238	101.06
509.454	94.06
509.67	89.06
509.887	94.06
510.103	90.06
510.319	97.06
510.536	89.06
510.752	98.06
510.968	101.06
511.184	96.06
511.401	106.06
511.617	88.06
511.833	85.06
512.049	115.06
512.265	96.06
512.481	101.06
512.698	91.06
512.914	101.06
513.13	104.06
513.346	79.06
513.562	103.06
513.778	85.06
513.994	95.06
514.21	100.06
514.426	103.06
514.642	97.06
514.858	102.06
515.074	99.06
