Data from 17600_3_HRD10591_00016.txt Node
Date: Mon Jan 19 14:09:31 EST 2026
User: Yrep
Spectrometer: HR+D1059
Trigger mode: 1
Integration Time (sec): 1.000000E-1
Scans to average: 1
Electric dark correction enabled: true
Nonlinearity correction enabled: false
Boxcar width: 0
XAxis mode: Wavelengths
Number of Pixels in Spectrum: 2048
>>>>>Begin Spectral Data<<<<<
223.165	-8
223.4	-8
223.635	-8
223.869	-18
224.104	-20
224.338	-15
224.573	-10
224.808	-9
225.042	-9
225.277	-15
225.511	0
225.746	-2
225.98	11
226.215	16
226.449	21
226.683	14
226.918	20
227.152	24
227.387	34
227.621	26
227.856	36
228.09	50
228.324	54
228.559	62
228.793	57
229.027	70
229.262	55
229.496	70
229.73	64
229.964	78
230.199	79
230.433	79
230.667	71
230.901	93
231.136	78
231.37	86
231.604	89
231.838	89
232.072	81
232.306	75
232.541	80
232.775	68
233.009	74
233.243	78
233.477	82
233.711	86
233.945	82
234.179	63
234.413	86
234.647	64
234.881	89
235.115	80
235.349	82
235.583	82
235.817	78
236.051	66
236.285	73
236.519	65
236.753	69
236.987	73
237.221	70
237.455	80
237.689	71
237.922	78
238.156	78
238.39	80
238.624	62
238.858	81
239.091	74
239.325	84
239.559	79
239.793	74
240.027	72
240.26	79
240.494	76
240.728	85
240.961	72
241.195	81
241.429	84
241.662	80
241.896	83
242.13	70
242.363	72
242.597	71
242.83	73
243.064	70
243.298	77
243.531	74
243.765	67
243.998	82
244.232	90
244.465	82
244.699	89
244.932	76
245.166	62
245.399	63
245.633	78
245.866	76
246.099	88
246.333	80
246.566	78
246.8	84
247.033	73
247.266	68
247.5	71
247.733	76
247.966	66
248.2	76
248.433	84
248.666	84
248.899	81
249.133	92
249.366	64
249.599	83
249.832	68
250.066	80
250.299	76
250.532	65
250.765	62
250.998	75
251.231	82
251.465	84
251.698	88
251.931	81
252.164	73
252.397	84
252.63	84
252.863	63
253.096	73
253.329	79
253.562	67
253.795	84
254.028	88
254.261	82
254.494	84
254.727	75
254.96	85
255.193	76
255.426	71
255.659	84
255.892	75
256.124	84
256.357	75
256.59	82
256.823	85
257.056	77
257.289	69
257.521	72
257.754	77
257.987	76
258.22	80
258.452	69
258.685	71
258.918	83
259.151	85
259.383	86
259.616	75
259.849	76
260.081	78
260.314	77
260.547	65
260.779	67
261.012	80
261.244	72
261.477	81
261.71	80
261.942	74
262.175	87
262.407	78
262.64	65
262.872	84
263.105	90
263.337	78
263.57	81
263.802	73
264.035	66
264.267	98
264.499	76
264.732	94
264.964	90
265.197	85
265.429	73
265.661	81
265.894	73
266.126	97
266.358	80
266.591	78
266.823	78
267.055	73
267.287	70
267.52	73
267.752	68
267.984	82
268.216	98
268.448	86
268.681	84
268.913	73
269.145	93
269.377	71
269.609	84
269.841	87
270.073	69
270.306	73
270.538	85
270.77	94
271.002	73
271.234	77
271.466	80
271.698	64
271.93	89
272.162	69
272.394	86
272.626	93
272.858	78
273.09	82
273.322	71
273.553	87
273.785	88
274.017	70
274.249	88
274.481	80
274.713	101
274.945	71
275.176	81
275.408	74
275.64	64
275.872	80
276.104	91
276.335	80
276.567	72
276.799	64
277.031	68
277.262	72
277.494	84
277.726	67
277.957	93
278.189	84
278.421	82
278.652	64
278.884	84
279.115	78
279.347	88
279.579	84
279.81	78
280.042	86
280.273	88
280.505	79
280.736	87
280.968	77
281.199	81
281.431	80
281.662	84
281.894	80
282.125	83
282.356	80
282.588	81
282.819	80
283.051	85
283.282	85
283.513	86
283.745	82
283.976	78
284.207	86
284.439	89
284.67	91
284.901	75
285.132	72
285.364	77
285.595	88
285.826	84
286.057	82
286.288	84
286.52	63
286.751	84
286.982	82
287.213	89
287.444	93
287.675	70
287.906	73
288.138	74
288.369	76
288.6	74
288.831	92
289.062	83
289.293	96
289.524	74
289.755	84
289.986	91
290.217	95
290.448	70
290.679	89
290.91	57
291.141	86
291.371	94
291.602	74
291.833	80
292.064	87
292.295	75
292.526	80
292.757	81
292.987	74
293.218	86
293.449	67
293.68	80
293.91	81
294.141	87
294.372	74
294.603	80
294.833	85
295.064	81
295.295	87
295.525	85
295.756	88
295.987	70
296.217	78
296.448	80
296.679	81
296.909	87
297.14	83
297.37	87
297.601	84
297.831	74
298.062	84
298.292	94
298.523	91
298.753	84
298.984	80
299.214	74
299.445	96
299.675	80
299.905	78
300.136	90
300.366	70
300.597	75
300.827	74
301.057	80
301.288	90
301.518	88
301.748	75
301.979	88
302.209	73
302.439	71
302.669	87
302.9	86
303.13	94
303.36	72
303.59	83
303.82	76
304.051	90
304.281	74
304.511	79
304.741	83
304.971	83
305.201	99
305.431	88
305.661	80
305.891	87
306.121	78
306.352	87
306.582	80
306.812	85
307.042	71
307.272	86
307.502	72
307.731	92
307.961	92
308.191	81
308.421	72
308.651	88
308.881	91
309.111	88
309.341	89
309.571	80
309.8	78
310.03	82
310.26	72
310.49	80
310.72	67
310.949	87
311.179	95
311.409	82
311.639	84
311.868	75
312.098	68
312.328	82
312.557	67
312.787	70
313.017	70
313.246	87
313.476	73
313.706	81
313.935	83
314.165	84
314.394	89
314.624	80
314.853	93
315.083	92
315.312	100
315.542	102
315.771	95
316.001	89
316.23	84
316.46	64
316.689	77
316.919	70
317.148	70
317.377	85
317.607	97
317.836	97
318.065	99
318.295	90
318.524	96
318.753	79
318.983	89
319.212	82
319.441	84
319.67	75
319.9	79
320.129	84
320.358	81
320.587	85
320.816	77
321.046	72
321.275	74
321.504	88
321.733	87
321.962	80
322.191	88
322.42	70
322.649	73
322.878	82
323.108	74
323.337	86
323.566	86
323.795	100
324.024	88
324.253	88
324.482	85
324.71	90
324.939	81
325.168	74
325.397	68
325.626	88
325.855	86
326.084	98
326.313	80
326.542	69
326.77	84
326.999	78
327.228	84
327.457	98
327.686	94
327.914	83
328.143	81
328.372	78
328.6	85
328.829	99
329.058	80
329.287	66
329.515	73
329.744	76
329.972	79
330.201	79
330.43	87
330.658	92
330.887	86
331.115	90
331.344	81
331.572	89
331.801	89
332.03	100
332.258	97
332.486	74
332.715	86
332.943	79
333.172	76
333.4	80
333.629	79
333.857	93
334.085	80
334.314	80
334.542	89
334.771	84
334.999	93
335.227	80
335.455	83
335.684	80
335.912	84
336.14	92
336.369	90
336.597	86
336.825	79
337.053	88
337.281	71
337.51	72
337.738	83
337.966	80
338.194	82
338.422	95
338.65	92
338.878	78
339.106	84
339.334	80
339.562	87
339.79	80
340.018	87
340.246	88
340.474	86
340.702	87
340.93	91
341.158	84
341.386	89
341.614	75
341.842	70
342.07	84
342.298	76
342.526	90
342.754	96
342.981	91
343.209	76
343.437	90
343.665	71
343.893	80
344.12	79
344.348	77
344.576	96
344.804	79
345.031	82
345.259	96
345.487	90
345.714	76
345.942	78
346.17	74
346.397	78
346.625	89
346.853	83
347.08	88
347.308	88
347.535	79
347.763	87
347.99	77
348.218	81
348.445	78
348.673	75
348.9	85
349.128	89
349.355	78
349.583	80
349.81	82
350.037	85
350.265	78
350.492	92
350.72	69
350.947	80
351.174	71
351.402	86
351.629	88
351.856	73
352.083	81
352.311	79
352.538	88
352.765	86
352.992	93
353.22	80
353.447	80
353.674	74
353.901	81
354.128	80
354.355	79
354.583	94
354.81	78
355.037	83
355.264	85
355.491	83
355.718	93
355.945	90
356.172	92
356.399	78
356.626	81
356.853	96
357.08	87
357.307	92
357.534	84
357.761	86
357.988	89
358.215	78
358.441	73
358.668	82
358.895	86
359.122	84
359.349	88
359.576	97
359.802	88
360.029	90
360.256	85
360.483	86
360.709	85
360.936	85
361.163	80
361.39	74
361.616	77
361.843	84
362.07	80
362.296	81
362.523	86
362.749	85
362.976	89
363.203	99
363.429	99
363.656	92
363.882	79
364.109	96
364.335	95
364.562	96
364.788	90
365.015	89
365.241	87
365.468	94
365.694	76
365.92	85
366.147	79
366.373	73
366.599	65
366.826	87
367.052	74
367.278	80
367.505	87
367.731	101
367.957	90
368.184	98
368.41	90
368.636	94
368.862	88
369.089	92
369.315	82
369.541	85
369.767	92
369.993	82
370.219	92
370.445	76
370.672	97
370.898	90
371.124	84
371.35	83
371.576	78
371.802	81
372.028	89
372.254	109
372.48	75
372.706	70
372.932	74
373.158	90
373.384	88
373.61	101
373.835	92
374.061	74
374.287	92
374.513	73
374.739	84
374.965	87
375.191	81
375.416	88
375.642	81
375.868	89
376.094	82
376.319	96
376.545	72
376.771	81
376.997	80
377.222	78
377.448	74
377.674	77
377.899	84
378.125	78
378.35	74
378.576	87
378.802	75
379.027	82
379.253	83
379.478	84
379.704	80
379.929	85
380.155	87
380.38	82
380.606	98
380.831	83
381.057	93
381.282	83
381.507	91
381.733	78
381.958	87
382.184	96
382.409	80
382.634	84
382.86	94
383.085	97
383.31	95
383.535	86
383.761	74
383.986	89
384.211	76
384.436	89
384.662	92
384.887	101
385.112	84
385.337	85
385.562	82
385.787	85
386.013	92
386.238	84
386.463	80
386.688	78
386.913	74
387.138	80
387.363	71
387.588	87
387.813	91
388.038	90
388.263	83
388.488	83
388.713	81
388.938	86
389.163	93
389.387	90
389.612	88
389.837	83
390.062	89
390.287	86
390.512	61
390.736	84
390.961	74
391.186	78
391.411	84
391.636	103
391.86	87
392.085	80
392.31	85
392.534	98
392.759	95
392.984	114
393.208	157
393.433	207
393.658	176
393.882	108
394.107	100
394.331	108
394.556	90
394.78	79
395.005	92
395.229	87
395.454	87
395.678	90
395.903	103
396.127	113
396.352	105
396.576	134
396.801	166
397.025	169
397.249	112
397.474	85
397.698	87
397.922	89
398.147	89
398.371	88
398.595	72
398.82	81
399.044	82
399.268	75
399.492	96
399.717	95
399.941	69
400.165	88
400.389	80
400.613	81
400.837	92
401.062	96
401.286	82
401.51	77
401.734	89
401.958	78
402.182	88
402.406	84
402.63	83
402.854	71
403.078	75
403.302	85
403.526	88
403.75	84
403.974	75
404.198	72
404.422	98
404.645	80
404.869	78
405.093	99
405.317	89
405.541	77
405.765	81
405.988	86
406.212	99
406.436	83
406.66	84
406.883	82
407.107	93
407.331	92
407.555	84
407.778	106
408.002	106
408.226	87
408.449	80
408.673	84
408.896	78
409.12	64
409.344	87
409.567	80
409.791	85
410.014	88
410.238	81
410.461	89
410.685	81
410.908	84
411.132	99
411.355	90
411.578	85
411.802	93
412.025	79
412.249	91
412.472	85
412.695	77
412.919	81
413.142	73
413.365	76
413.589	86
413.812	83
414.035	63
414.258	82
414.482	86
414.705	94
414.928	69
415.151	72
415.374	72
415.597	88
415.821	83
416.044	83
416.267	81
416.49	86
416.713	78
416.936	83
417.159	69
417.382	93
417.605	81
417.828	89
418.051	89
418.274	83
418.497	81
418.72	81
418.943	86
419.166	86
419.389	73
419.611	86
419.834	86
420.057	82
420.28	86
420.503	81
420.726	80
420.948	86
421.171	84
421.394	74
421.617	94
421.839	87
422.062	91
422.285	103
422.507	173
422.73	211
422.953	208
423.175	136
423.398	105
423.621	93
423.843	96
424.066	85
424.288	95
424.511	84
424.733	84
424.956	82
425.178	70
425.401	87
425.623	80
425.846	88
426.068	94
426.291	90
426.513	81
426.735	98
426.958	85
427.18	84
427.402	97
427.625	85
427.847	92
428.069	88
428.292	109
428.514	98
428.736	103
428.958	93
429.181	112
429.403	79
429.625	74
429.847	102
430.069	98
430.292	123
430.514	110
430.736	103
430.958	106
431.18	88
431.402	72
431.624	86
431.846	99
432.068	89
432.29	112
432.512	79
432.734	89
432.956	96
433.178	92
433.4	66
433.622	85
433.844	92
434.066	64
434.287	80
434.509	86
434.731	73
434.953	88
435.175	73
435.397	84
435.618	88
435.84	97
436.062	89
436.284	84
436.505	80
436.727	60
436.949	68
437.17	93
437.392	84
437.614	88
437.835	86
438.057	88
438.278	75
438.5	91
438.721	96
438.943	76
439.165	87
439.386	72
439.608	85
439.829	83
440.05	76
440.272	92
440.493	90
440.715	79
440.936	90
441.158	92
441.379	84
441.6	70
441.822	87
442.043	90
442.264	84
442.486	113
442.707	118
442.928	102
443.149	94
443.371	101
443.592	148
443.813	118
444.034	70
444.255	93
444.476	89
444.698	66
444.919	91
445.14	182
445.361	157
445.582	160
445.803	139
446.024	104
446.245	92
446.466	85
446.687	86
446.908	80
447.129	84
447.35	85
447.571	80
447.792	84
448.013	91
448.234	80
448.455	80
448.675	84
448.896	77
449.117	72
449.338	80
449.559	80
449.779	77
450	68
450.221	80
450.442	80
450.662	75
450.883	87
451.104	81
451.324	86
451.545	82
451.766	77
451.986	79
452.207	88
452.428	75
452.648	85
452.869	96
453.089	92
453.31	90
453.53	81
453.751	70
453.971	68
454.192	94
454.412	71
454.633	73
454.853	85
455.073	80
455.294	75
455.514	88
455.734	88
455.955	80
456.175	78
456.395	80
456.616	79
456.836	81
457.056	82
457.276	79
457.497	76
457.717	88
457.937	74
458.157	79
458.377	97
458.598	95
458.818	88
459.038	82
459.258	89
459.478	84
459.698	70
459.918	98
460.138	109
460.358	88
460.578	92
460.798	97
461.018	90
461.238	89
461.458	84
461.678	74
461.898	92
462.118	80
462.338	76
462.558	72
462.777	83
462.997	87
463.217	87
463.437	86
463.657	93
463.876	65
464.096	91
464.316	76
464.536	76
464.755	95
464.975	76
465.195	78
465.414	87
465.634	73
465.854	76
466.073	88
466.293	85
466.512	89
466.732	100
466.951	64
467.171	82
467.391	82
467.61	84
467.829	88
468.049	92
468.268	77
468.488	86
468.707	74
468.927	88
469.146	89
469.365	103
469.585	84
469.804	74
470.023	87
470.243	93
470.462	87
470.681	81
470.901	88
471.12	93
471.339	84
471.558	82
471.777	89
471.997	87
472.216	73
472.435	81
472.654	76
472.873	92
473.092	78
473.311	89
473.53	88
473.749	87
473.968	87
474.187	90
474.406	87
474.625	68
474.844	65
475.063	77
475.282	90
475.501	95
475.72	87
475.939	86
476.158	81
476.377	84
476.596	82
476.814	90
477.033	85
477.252	90
477.471	79
477.69	94
477.908	74
478.127	80
478.346	90
478.564	90
478.783	78
479.002	95
479.22	87
479.439	94
479.658	88
479.876	84
480.095	92
480.313	79
480.532	94
480.751	98
480.969	73
481.188	87
481.406	85
481.624	74
481.843	100
482.061	74
482.28	82
482.498	77
482.717	72
482.935	90
483.153	85
483.372	78
483.59	86
483.808	85
484.027	81
484.245	85
484.463	82
484.681	83
484.9	70
485.118	86
485.336	69
485.554	89
485.772	80
485.99	79
486.209	95
486.427	89
486.645	83
486.863	82
487.081	77
487.299	79
487.517	90
487.735	96
487.953	108
488.171	102
488.389	84
488.607	84
488.825	89
489.043	81
489.261	86
489.479	85
489.696	92
489.914	74
490.132	101
490.35	92
490.568	79
490.786	74
491.003	90
491.221	102
491.439	86
491.657	89
491.874	96
492.092	97
492.31	81
492.527	95
492.745	88
492.963	81
493.18	82
493.398	89
493.615	84
493.833	82
494.05	94
494.268	96
494.485	84
494.703	82
494.92	98
495.138	74
495.355	94
495.573	98
495.79	87
496.008	97
496.225	77
496.442	91
496.66	92
496.877	81
497.094	104
497.312	88
497.529	94
497.746	84
497.963	92
498.181	83
498.398	89
498.615	80
498.832	88
499.049	85
499.267	94
499.484	72
499.701	82
499.918	84
500.135	97
500.352	75
500.569	80
500.786	74
501.003	92
501.22	92
501.437	80
501.654	99
501.871	80
502.088	87
502.305	86
502.522	82
502.739	94
502.956	90
503.172	90
503.389	79
503.606	93
503.823	90
504.04	86
504.256	105
504.473	90
504.69	74
504.907	94
505.123	96
505.34	94
505.557	75
505.773	90
505.99	68
506.207	88
506.423	92
506.64	60
506.856	74
507.073	86
507.289	78
507.506	72
507.722	82
507.939	100
508.155	83
508.372	89
508.588	100
508.805	74
509.021	76
509.238	79
509.454	76
509.67	77
509.887	90
510.103	95
510.319	90
510.536	88
510.752	84
510.968	78
511.184	87
511.401	79
511.617	92
511.833	80
512.049	81
512.265	84
512.481	82
512.698	75
512.914	104
513.13	94
513.346	87
513.562	89
513.778	101
513.994	71
514.21	84
514.426	95
514.642	101
514.858	100
515.074	93
515.29	82
515.506	75
515.721	84
515.937	74
516.153	80
516.369	85
516.585	96
516.801	68
517.016	80
517.232	97
517.448	92
517.664	93
517.879	72
518.095	102
518.311	76
518.527	102
518.742	96
518.958	114
519.173	116
519.389	103
519.605	89
519.82	81
520.036	79
520.251	73
520.467	86
520.682	102
520.898	93
521.113	100
521.329	93
521.544	91
521.76	95
521.975	85
522.19	90
522.406	88
522.621	83
522.836	96
523.052	89
523.267	74
523.482	88
523.698	78
523.913	73
524.128	85
524.343	81
524.559	88
524.774	89
524.989	81
525.204	76
525.419	74
525.634	92
525.849	84
526.064	86
526.28	137
526.495	153
526.71	158
526.925	148
527.14	156
527.355	148
527.57	79
527.785	81
527.999	92
528.214	86
528.429	92
528.644	84
528.859	92
529.074	102
529.289	94
529.503	86
529.718	87
529.933	80
530.148	92
530.363	80
530.577	95
530.792	82
531.007	86
531.221	98
531.436	94
531.651	95
531.865	94
532.08	85
532.295	83
532.509	102
532.724	98
532.938	102
533.153	94
533.367	97
533.582	93
533.796	86
534.011	89
534.225	88
534.44	83
534.654	92
534.868	108
535.083	121
535.297	110
535.511	90
535.726	91
535.94	100
536.154	91
536.369	90
536.583	78
536.797	86
537.011	94
537.225	79
537.44	104
537.654	89
537.868	95
538.082	76
538.296	86
538.51	91
538.724	90
538.938	95
539.153	88
539.367	87
539.581	77
539.795	90
540.009	97
540.222	94
540.436	81
540.65	104
540.864	89
541.078	86
541.292	94
541.506	95
541.72	89
541.934	93
542.147	103
542.361	100
542.575	101
542.789	102
543.002	85
543.216	98
543.43	101
543.644	85
543.857	81
544.071	91
544.285	92
544.498	84
544.712	97
544.925	92
545.139	92
545.352	95
545.566	105
545.779	108
545.993	100
546.206	108
546.42	95
546.633	108
546.847	114
547.06	114
547.274	119
547.487	121
547.7	132
547.914	148
548.127	134
548.34	160
548.554	140
548.767	154
548.98	138
549.193	149
549.407	137
549.62	151
549.833	154
550.046	175
550.259	169
550.473	180
550.686	160
550.899	208
551.112	215
551.325	235
551.538	229
551.751	237
551.964	212
552.177	241
552.39	221
552.603	228
552.816	240
553.029	236
553.242	238
553.455	249
553.667	230
553.88	265
554.093	276
554.306	274
554.519	282
554.732	278
554.944	274
555.157	261
555.37	263
555.583	254
555.795	220
556.008	209
556.221	200
556.433	198
556.646	183
556.859	172
557.071	172
557.284	169
557.496	164
557.709	145
557.921	153
558.134	153
558.346	164
558.559	160
558.771	124
558.984	193
559.196	216
559.409	145
559.621	185
559.833	160
560.046	169
560.258	145
560.47	156
560.683	121
560.895	110
561.107	110
561.32	95
561.532	105
561.744	100
561.956	104
562.168	87
562.381	99
562.593	98
562.805	102
563.017	109
563.229	110
563.441	111
563.653	106
563.865	101
564.077	94
564.289	95
564.501	94
564.713	100
564.925	103
565.137	100
565.349	81
565.561	103
565.773	94
565.985	92
566.197	102
566.408	94
566.62	99
566.832	92
567.044	99
567.255	96
567.467	105
567.679	89
567.891	100
568.102	97
568.314	103
568.526	96
568.737	103
568.949	103
569.161	106
569.372	91
569.584	91
569.795	98
570.007	87
570.218	86
570.43	99
570.641	108
570.853	87
571.064	102
571.276	104
571.487	89
571.698	93
571.91	100
572.121	99
572.333	100
572.544	104
572.755	99
572.966	94
573.178	100
573.389	95
573.6	100
573.811	79
574.023	108
574.234	96
574.445	95
574.656	86
574.867	88
575.078	99
575.289	100
575.501	109
575.712	84
575.923	101
576.134	94
576.345	110
576.556	73
576.767	97
576.978	94
577.188	103
577.399	86
577.61	85
577.821	103
578.032	80
578.243	80
578.454	87
578.665	92
578.875	82
579.086	91
579.297	83
579.508	91
579.718	77
579.929	81
580.14	85
580.35	84
580.561	88
580.772	85
580.982	84
581.193	90
581.403	98
581.614	95
581.825	104
582.035	92
582.246	85
582.456	88
582.667	84
582.877	88
583.087	84
583.298	88
583.508	98
583.719	96
583.929	93
584.139	112
584.35	96
584.56	96
584.77	93
584.981	90
585.191	96
585.401	90
585.611	100
585.821	106
586.032	135
586.242	115
586.452	88
586.662	82
586.872	98
587.082	97
587.292	101
587.502	103
