Data from 17600_3_HRD10591_00046.txt Node
Date: Mon Jan 19 14:09:46 EST 2026
User: Yrep
Spectrometer: HR+D1059
Trigger mode: 1
Integration Time (sec): 1.000000E-1
Scans to average: 1
Electric dark correction enabled: true
Nonlinearity correction enabled: false
Boxcar width: 0
XAxis mode: Wavelengths
Number of Pixels in Spectrum: 2048
>>>>>Begin Spectral Data<<<<<
223.165	1.75
223.4	1.75
223.635	1.75
223.869	-17.25
224.104	-14.25
224.338	-15.25
224.573	-15.25
224.808	-7.25
225.042	-9.25
225.277	-6.25
225.511	-3.25
225.746	-4.25
225.98	4.75
226.215	9.75
226.449	18.75
226.683	21.75
226.918	17.75
227.152	17.75
227.387	35.75
227.621	40.75
227.856	48.75
228.09	42.75
228.324	60.75
228.559	68.75
228.793	70.75
229.027	75.75
229.262	71.75
229.496	72.75
229.73	64.75
229.964	81.75
230.199	86.75
230.433	82.75
230.667	77.75
230.901	79.75
231.136	65.75
231.37	70.75
231.604	84.75
231.838	62.75
232.072	80.75
232.306	74.75
232.541	87.75
232.775	84.75
233.009	82.75
233.243	83.75
233.477	72.75
233.711	90.75
233.945	80.75
234.179	82.75
234.413	64.75
234.647	74.75
234.881	73.75
235.115	75.75
235.349	76.75
235.583	69.75
235.817	79.75
236.051	74.75
236.285	77.75
236.519	70.75
236.753	67.75
236.987	91.75
237.221	84.75
237.455	80.75
237.689	71.75
237.922	76.75
238.156	79.75
238.39	81.75
238.624	74.75
238.858	71.75
239.091	99.75
239.325	74.75
239.559	78.75
239.793	68.75
240.027	69.75
240.26	64.75
240.494	89.75
240.728	75.75
240.961	82.75
241.195	85.75
241.429	85.75
241.662	67.75
241.896	80.75
242.13	68.75
242.363	79.75
242.597	78.75
242.83	76.75
243.064	74.75
243.298	85.75
243.531	63.75
243.765	80.75
243.998	76.75
244.232	87.75
244.465	76.75
244.699	86.75
244.932	72.75
245.166	66.75
245.399	86.75
245.633	82.75
245.866	79.75
246.099	75.75
246.333	80.75
246.566	68.75
246.8	79.75
247.033	84.75
247.266	71.75
247.5	73.75
247.733	74.75
247.966	79.75
248.2	90.75
248.433	80.75
248.666	66.75
248.899	74.75
249.133	87.75
249.366	80.75
249.599	69.75
249.832	66.75
250.066	81.75
250.299	82.75
250.532	70.75
250.765	70.75
250.998	73.75
251.231	78.75
251.465	93.75
251.698	70.75
251.931	79.75
252.164	91.75
252.397	82.75
252.63	68.75
252.863	86.75
253.096	87.75
253.329	72.75
253.562	66.75
253.795	70.75
254.028	92.75
254.261	86.75
254.494	70.75
254.727	86.75
254.96	80.75
255.193	74.75
255.426	62.75
255.659	66.75
255.892	72.75
256.124	73.75
256.357	82.75
256.59	81.75
256.823	81.75
257.056	84.75
257.289	75.75
257.521	90.75
257.754	83.75
257.987	83.75
258.22	73.75
258.452	74.75
258.685	86.75
258.918	68.75
259.151	81.75
259.383	78.75
259.616	60.75
259.849	68.75
260.081	81.75
260.314	64.75
260.547	75.75
260.779	81.75
261.012	80.75
261.244	83.75
261.477	90.75
261.71	80.75
261.942	94.75
262.175	84.75
262.407	73.75
262.64	76.75
262.872	95.75
263.105	78.75
263.337	94.75
263.57	85.75
263.802	81.75
264.035	70.75
264.267	74.75
264.499	87.75
264.732	78.75
264.964	81.75
265.197	73.75
265.429	82.75
265.661	78.75
265.894	83.75
266.126	80.75
266.358	95.75
266.591	74.75
266.823	82.75
267.055	87.75
267.287	68.75
267.52	82.75
267.752	88.75
267.984	57.75
268.216	77.75
268.448	83.75
268.681	86.75
268.913	79.75
269.145	81.75
269.377	72.75
269.609	80.75
269.841	95.75
270.073	84.75
270.306	73.75
270.538	81.75
270.77	84.75
271.002	89.75
271.234	84.75
271.466	66.75
271.698	56.75
271.93	85.75
272.162	72.75
272.394	91.75
272.626	69.75
272.858	81.75
273.09	82.75
273.322	84.75
273.553	69.75
273.785	74.75
274.017	72.75
274.249	76.75
274.481	58.75
274.713	84.75
274.945	65.75
275.176	82.75
275.408	81.75
275.64	95.75
275.872	78.75
276.104	83.75
276.335	69.75
276.567	83.75
276.799	76.75
277.031	80.75
277.262	83.75
277.494	101.75
277.726	81.75
277.957	72.75
278.189	74.75
278.421	84.75
278.652	84.75
278.884	76.75
279.115	93.75
279.347	78.75
279.579	72.75
279.81	79.75
280.042	74.75
280.273	90.75
280.505	79.75
280.736	100.75
280.968	79.75
281.199	74.75
281.431	93.75
281.662	94.75
281.894	90.75
282.125	66.75
282.356	90.75
282.588	80.75
282.819	65.75
283.051	80.75
283.282	94.75
283.513	76.75
283.745	87.75
283.976	85.75
284.207	81.75
284.439	79.75
284.67	89.75
284.901	84.75
285.132	86.75
285.364	94.75
285.595	91.75
285.826	67.75
286.057	72.75
286.288	81.75
286.52	68.75
286.751	76.75
286.982	76.75
287.213	77.75
287.444	84.75
287.675	91.75
287.906	72.75
288.138	87.75
288.369	86.75
288.6	76.75
288.831	89.75
289.062	98.75
289.293	84.75
289.524	88.75
289.755	77.75
289.986	77.75
290.217	88.75
290.448	85.75
290.679	92.75
290.91	87.75
291.141	87.75
291.371	70.75
291.602	77.75
291.833	95.75
292.064	83.75
292.295	79.75
292.526	84.75
292.757	74.75
292.987	63.75
293.218	69.75
293.449	84.75
293.68	85.75
293.91	83.75
294.141	77.75
294.372	85.75
294.603	70.75
294.833	85.75
295.064	82.75
295.295	85.75
295.525	76.75
295.756	81.75
295.987	82.75
296.217	85.75
296.448	85.75
296.679	91.75
296.909	94.75
297.14	86.75
297.37	83.75
297.601	80.75
297.831	86.75
298.062	83.75
298.292	89.75
298.523	82.75
298.753	87.75
298.984	82.75
299.214	82.75
299.445	91.75
299.675	90.75
299.905	70.75
300.136	93.75
300.366	86.75
300.597	91.75
300.827	97.75
301.057	78.75
301.288	89.75
301.518	82.75
301.748	103.75
301.979	99.75
302.209	90.75
302.439	75.75
302.669	73.75
302.9	94.75
303.13	84.75
303.36	79.75
303.59	83.75
303.82	83.75
304.051	86.75
304.281	76.75
304.511	87.75
304.741	103.75
304.971	90.75
305.201	80.75
305.431	88.75
305.661	88.75
305.891	86.75
306.121	79.75
306.352	70.75
306.582	78.75
306.812	79.75
307.042	105.75
307.272	92.75
307.502	100.75
307.731	77.75
307.961	74.75
308.191	94.75
308.421	86.75
308.651	88.75
308.881	88.75
309.111	89.75
309.341	85.75
309.571	90.75
309.8	81.75
310.03	86.75
310.26	81.75
310.49	85.75
310.72	96.75
310.949	96.75
311.179	87.75
311.409	74.75
311.639	89.75
311.868	86.75
312.098	84.75
312.328	87.75
312.557	89.75
312.787	86.75
313.017	99.75
313.246	84.75
313.476	94.75
313.706	80.75
313.935	76.75
314.165	86.75
314.394	86.75
314.624	82.75
314.853	77.75
315.083	90.75
315.312	87.75
315.542	90.75
315.771	80.75
316.001	72.75
316.23	82.75
316.46	80.75
316.689	86.75
316.919	77.75
317.148	77.75
317.377	88.75
317.607	74.75
317.836	93.75
318.065	90.75
318.295	84.75
318.524	80.75
318.753	85.75
318.983	85.75
319.212	76.75
319.441	84.75
319.67	101.75
319.9	89.75
320.129	72.75
320.358	89.75
320.587	91.75
320.816	83.75
321.046	84.75
321.275	81.75
321.504	84.75
321.733	74.75
321.962	94.75
322.191	84.75
322.42	83.75
322.649	89.75
322.878	85.75
323.108	84.75
323.337	83.75
323.566	88.75
323.795	99.75
324.024	94.75
324.253	89.75
324.482	82.75
324.71	83.75
324.939	92.75
325.168	80.75
325.397	82.75
325.626	93.75
325.855	94.75
326.084	88.75
326.313	78.75
326.542	86.75
326.77	92.75
326.999	76.75
327.228	90.75
327.457	72.75
327.686	84.75
327.914	94.75
328.143	94.75
328.372	83.75
328.6	76.75
328.829	72.75
329.058	86.75
329.287	91.75
329.515	92.75
329.744	78.75
329.972	79.75
330.201	74.75
330.43	95.75
330.658	86.75
330.887	79.75
331.115	84.75
331.344	91.75
331.572	90.75
331.801	73.75
332.03	80.75
332.258	93.75
332.486	63.75
332.715	82.75
332.943	78.75
333.172	90.75
333.4	88.75
333.629	96.75
333.857	76.75
334.085	84.75
334.314	73.75
334.542	84.75
334.771	87.75
334.999	100.75
335.227	78.75
335.455	82.75
335.684	78.75
335.912	85.75
336.14	88.75
336.369	84.75
336.597	81.75
336.825	82.75
337.053	90.75
337.281	84.75
337.51	80.75
337.738	74.75
337.966	82.75
338.194	81.75
338.422	77.75
338.65	71.75
338.878	98.75
339.106	78.75
339.334	111.75
339.562	87.75
339.79	82.75
340.018	76.75
340.246	75.75
340.474	94.75
340.702	94.75
340.93	83.75
341.158	87.75
341.386	75.75
341.614	76.75
341.842	83.75
342.07	87.75
342.298	84.75
342.526	98.75
342.754	84.75
342.981	83.75
343.209	79.75
343.437	103.75
343.665	82.75
343.893	82.75
344.12	105.75
344.348	87.75
344.576	87.75
344.804	69.75
345.031	77.75
345.259	83.75
345.487	85.75
345.714	96.75
345.942	81.75
346.17	91.75
346.397	73.75
346.625	90.75
346.853	82.75
347.08	82.75
347.308	84.75
347.535	82.75
347.763	88.75
347.99	94.75
348.218	89.75
348.445	92.75
348.673	83.75
348.9	74.75
349.128	82.75
349.355	81.75
349.583	79.75
349.81	88.75
350.037	87.75
350.265	79.75
350.492	86.75
350.72	93.75
350.947	94.75
351.174	84.75
351.402	76.75
351.629	88.75
351.856	74.75
352.083	92.75
352.311	86.75
352.538	87.75
352.765	82.75
352.992	79.75
353.22	76.75
353.447	83.75
353.674	94.75
353.901	95.75
354.128	94.75
354.355	100.75
354.583	88.75
354.81	84.75
355.037	88.75
355.264	94.75
355.491	96.75
355.718	71.75
355.945	80.75
356.172	88.75
356.399	93.75
356.626	73.75
356.853	86.75
357.08	85.75
357.307	93.75
357.534	72.75
357.761	96.75
357.988	93.75
358.215	82.75
358.441	87.75
358.668	76.75
358.895	80.75
359.122	84.75
359.349	93.75
359.576	77.75
359.802	97.75
360.029	92.75
360.256	92.75
360.483	82.75
360.709	99.75
360.936	85.75
361.163	77.75
361.39	90.75
361.616	97.75
361.843	82.75
362.07	88.75
362.296	90.75
362.523	83.75
362.749	93.75
362.976	98.75
363.203	121.75
363.429	95.75
363.656	104.75
363.882	90.75
364.109	97.75
364.335	95.75
364.562	116.75
364.788	98.75
365.015	90.75
365.241	83.75
365.468	88.75
365.694	95.75
365.92	75.75
366.147	91.75
366.373	74.75
366.599	90.75
366.826	84.75
367.052	102.75
367.278	83.75
367.505	82.75
367.731	102.75
367.957	87.75
368.184	80.75
368.41	75.75
368.636	88.75
368.862	70.75
369.089	92.75
369.315	90.75
369.541	96.75
369.767	82.75
369.993	74.75
370.219	76.75
370.445	105.75
370.672	100.75
370.898	75.75
371.124	83.75
371.35	90.75
371.576	109.75
371.802	72.75
372.028	95.75
372.254	107.75
372.48	112.75
372.706	96.75
372.932	86.75
373.158	102.75
373.384	89.75
373.61	104.75
373.835	87.75
374.061	85.75
374.287	93.75
374.513	84.75
374.739	108.75
374.965	104.75
375.191	99.75
375.416	67.75
375.642	85.75
375.868	100.75
376.094	91.75
376.319	90.75
376.545	89.75
376.771	74.75
376.997	84.75
377.222	71.75
377.448	103.75
377.674	94.75
377.899	100.75
378.125	82.75
378.35	73.75
378.576	82.75
378.802	81.75
379.027	82.75
379.253	77.75
379.478	96.75
379.704	96.75
379.929	85.75
380.155	95.75
380.38	79.75
380.606	81.75
380.831	82.75
381.057	87.75
381.282	88.75
381.507	100.75
381.733	87.75
381.958	89.75
382.184	92.75
382.409	90.75
382.634	108.75
382.86	87.75
383.085	83.75
383.31	86.75
383.535	84.75
383.761	90.75
383.986	90.75
384.211	94.75
384.436	86.75
384.662	90.75
384.887	103.75
385.112	91.75
385.337	85.75
385.562	90.75
385.787	82.75
386.013	99.75
386.238	98.75
386.463	101.75
386.688	105.75
386.913	94.75
387.138	79.75
387.363	86.75
387.588	89.75
387.813	97.75
388.038	94.75
388.263	86.75
388.488	91.75
388.713	97.75
388.938	92.75
389.163	66.75
389.387	92.75
389.612	94.75
389.837	86.75
390.062	104.75
390.287	87.75
390.512	75.75
390.736	98.75
390.961	87.75
391.186	86.75
391.411	86.75
391.636	79.75
391.86	99.75
392.085	91.75
392.31	102.75
392.534	102.75
392.759	103.75
392.984	144.75
393.208	194.75
393.433	298.75
393.658	222.75
393.882	126.75
394.107	98.75
394.331	103.75
394.556	110.75
394.78	92.75
395.005	83.75
395.229	97.75
395.454	95.75
395.678	94.75
395.903	109.75
396.127	118.75
396.352	150.75
396.576	149.75
396.801	217.75
397.025	244.75
397.249	126.75
397.474	111.75
397.698	82.75
397.922	94.75
398.147	88.75
398.371	79.75
398.595	95.75
398.82	84.75
399.044	83.75
399.268	74.75
399.492	95.75
399.717	97.75
399.941	83.75
400.165	86.75
400.389	82.75
400.613	79.75
400.837	80.75
401.062	82.75
401.286	93.75
401.51	80.75
401.734	76.75
401.958	91.75
402.182	100.75
402.406	95.75
402.63	90.75
402.854	96.75
403.078	93.75
403.302	81.75
403.526	86.75
403.75	84.75
403.974	88.75
404.198	112.75
404.422	89.75
404.645	95.75
404.869	90.75
405.093	71.75
405.317	72.75
405.541	90.75
405.765	90.75
405.988	76.75
406.212	81.75
406.436	93.75
406.66	69.75
406.883	88.75
407.107	88.75
407.331	92.75
407.555	92.75
407.778	108.75
408.002	106.75
408.226	91.75
408.449	83.75
408.673	87.75
408.896	90.75
409.12	94.75
409.344	101.75
409.567	89.75
409.791	81.75
410.014	98.75
410.238	90.75
410.461	83.75
410.685	83.75
410.908	91.75
411.132	77.75
411.355	73.75
411.578	88.75
411.802	80.75
412.025	86.75
412.249	75.75
412.472	74.75
412.695	76.75
412.919	96.75
413.142	72.75
413.365	77.75
413.589	91.75
413.812	85.75
414.035	89.75
414.258	76.75
414.482	88.75
414.705	91.75
414.928	87.75
415.151	96.75
415.374	77.75
415.597	77.75
415.821	88.75
416.044	83.75
416.267	89.75
416.49	87.75
416.713	91.75
416.936	87.75
417.159	90.75
417.382	80.75
417.605	83.75
417.828	83.75
418.051	75.75
418.274	88.75
418.497	81.75
418.72	83.75
418.943	69.75
419.166	82.75
419.389	86.75
419.611	75.75
419.834	90.75
420.057	96.75
420.28	90.75
420.503	91.75
420.726	97.75
420.948	92.75
421.171	76.75
421.394	102.75
421.617	124.75
421.839	116.75
422.062	119.75
422.285	149.75
422.507	227.75
422.73	348.75
422.953	319.75
423.175	155.75
423.398	110.75
423.621	105.75
423.843	97.75
424.066	91.75
424.288	81.75
424.511	93.75
424.733	91.75
424.956	98.75
425.178	86.75
425.401	87.75
425.623	89.75
425.846	78.75
426.068	75.75
426.291	78.75
426.513	80.75
426.735	93.75
426.958	91.75
427.18	77.75
427.402	97.75
427.625	88.75
427.847	82.75
428.069	102.75
428.292	121.75
428.514	116.75
428.736	96.75
428.958	113.75
429.181	112.75
429.403	84.75
429.625	89.75
429.847	112.75
430.069	143.75
430.292	153.75
430.514	146.75
430.736	123.75
430.958	124.75
431.18	84.75
431.402	80.75
431.624	84.75
431.846	103.75
432.068	110.75
432.29	99.75
432.512	81.75
432.734	91.75
432.956	91.75
433.178	92.75
433.4	89.75
433.622	87.75
433.844	90.75
434.066	82.75
434.287	87.75
434.509	93.75
434.731	90.75
434.953	80.75
435.175	86.75
435.397	84.75
435.618	101.75
435.84	86.75
436.062	82.75
436.284	89.75
436.505	80.75
436.727	84.75
436.949	87.75
437.17	87.75
437.392	78.75
437.614	82.75
437.835	76.75
438.057	76.75
438.278	83.75
438.5	89.75
438.721	101.75
438.943	87.75
439.165	97.75
439.386	76.75
439.608	69.75
439.829	89.75
440.05	94.75
440.272	92.75
440.493	90.75
440.715	96.75
440.936	88.75
441.158	83.75
441.379	93.75
441.6	92.75
441.822	91.75
442.043	82.75
442.264	89.75
442.486	106.75
442.707	121.75
442.928	110.75
443.149	84.75
443.371	140.75
443.592	191.75
443.813	179.75
444.034	114.75
444.255	85.75
444.476	86.75
444.698	91.75
444.919	98.75
445.14	152.75
445.361	177.75
445.582	221.75
445.803	191.75
446.024	113.75
446.245	89.75
446.466	86.75
446.687	92.75
446.908	80.75
447.129	86.75
447.35	79.75
447.571	90.75
447.792	80.75
448.013	94.75
448.234	84.75
448.455	92.75
448.675	82.75
448.896	66.75
449.117	89.75
449.338	75.75
449.559	86.75
449.779	75.75
450	85.75
450.221	86.75
450.442	86.75
450.662	90.75
450.883	88.75
451.104	90.75
451.324	79.75
451.545	90.75
451.766	95.75
451.986	94.75
452.207	86.75
452.428	77.75
452.648	89.75
452.869	99.75
453.089	80.75
453.31	82.75
453.53	86.75
453.751	89.75
453.971	83.75
454.192	83.75
454.412	83.75
454.633	91.75
454.853	79.75
455.073	79.75
455.294	90.75
455.514	90.75
455.734	91.75
455.955	82.75
456.175	76.75
456.395	92.75
456.616	86.75
456.836	95.75
457.056	85.75
457.276	70.75
457.497	76.75
457.717	96.75
457.937	97.75
458.157	94.75
458.377	101.75
458.598	96.75
458.818	92.75
459.038	95.75
459.258	90.75
459.478	82.75
459.698	77.75
459.918	98.75
460.138	87.75
460.358	88.75
460.578	87.75
460.798	114.75
461.018	107.75
461.238	94.75
461.458	82.75
461.678	87.75
461.898	94.75
462.118	78.75
462.338	87.75
462.558	91.75
462.777	73.75
462.997	76.75
463.217	83.75
463.437	91.75
463.657	87.75
463.876	75.75
464.096	83.75
464.316	79.75
464.536	77.75
464.755	85.75
464.975	99.75
465.195	97.75
465.414	72.75
465.634	75.75
465.854	68.75
466.073	57.75
466.293	77.75
466.512	83.75
466.732	88.75
466.951	84.75
467.171	94.75
467.391	82.75
467.61	90.75
467.829	86.75
468.049	76.75
468.268	84.75
468.488	93.75
468.707	88.75
468.927	97.75
469.146	78.75
469.365	86.75
469.585	74.75
469.804	76.75
470.023	89.75
470.243	90.75
470.462	88.75
470.681	82.75
470.901	94.75
471.12	86.75
471.339	76.75
471.558	82.75
471.777	84.75
471.997	87.75
472.216	86.75
472.435	75.75
472.654	88.75
472.873	83.75
473.092	82.75
473.311	90.75
473.53	80.75
473.749	91.75
473.968	84.75
474.187	90.75
474.406	92.75
474.625	75.75
474.844	100.75
475.063	89.75
475.282	90.75
475.501	82.75
475.72	97.75
475.939	89.75
476.158	76.75
476.377	82.75
476.596	84.75
476.814	76.75
477.033	91.75
477.252	81.75
477.471	89.75
477.69	79.75
477.908	87.75
478.127	87.75
478.346	66.75
478.564	82.75
478.783	95.75
479.002	91.75
479.22	94.75
479.439	82.75
479.658	86.75
479.876	98.75
480.095	92.75
480.313	78.75
480.532	76.75
480.751	83.75
480.969	94.75
481.188	97.75
481.406	86.75
481.624	87.75
481.843	87.75
482.061	83.75
482.28	84.75
482.498	92.75
482.717	92.75
482.935	79.75
483.153	72.75
483.372	86.75
483.59	76.75
483.808	84.75
484.027	82.75
484.245	67.75
484.463	74.75
484.681	91.75
484.9	84.75
485.118	86.75
485.336	81.75
485.554	88.75
485.772	93.75
485.99	91.75
486.209	86.75
486.427	87.75
486.645	82.75
486.863	69.75
487.081	75.75
487.299	103.75
487.517	104.75
487.735	96.75
487.953	130.75
488.171	92.75
488.389	85.75
488.607	91.75
488.825	90.75
489.043	89.75
489.261	80.75
489.479	82.75
489.696	95.75
489.914	84.75
490.132	89.75
490.35	81.75
490.568	94.75
490.786	104.75
491.003	76.75
491.221	98.75
491.439	86.75
491.657	78.75
491.874	76.75
492.092	69.75
492.31	99.75
492.527	85.75
492.745	93.75
492.963	94.75
493.18	83.75
493.398	91.75
493.615	88.75
493.833	86.75
494.05	90.75
494.268	92.75
494.485	93.75
494.703	88.75
494.92	90.75
495.138	98.75
495.355	83.75
495.573	94.75
495.79	89.75
496.008	86.75
496.225	89.75
496.442	94.75
496.66	87.75
496.877	82.75
497.094	96.75
497.312	89.75
497.529	94.75
497.746	87.75
497.963	82.75
498.181	80.75
498.398	81.75
498.615	80.75
498.832	80.75
499.049	80.75
499.267	82.75
499.484	85.75
499.701	95.75
499.918	71.75
500.135	83.75
500.352	84.75
500.569	83.75
500.786	92.75
501.003	97.75
501.22	83.75
501.437	85.75
501.654	94.75
501.871	86.75
502.088	89.75
502.305	89.75
502.522	94.75
502.739	90.75
502.956	92.75
503.172	89.75
503.389	100.75
503.606	85.75
503.823	91.75
504.04	94.75
504.256	116.75
504.473	122.75
504.69	85.75
504.907	99.75
505.123	79.75
505.34	92.75
505.557	75.75
505.773	91.75
505.99	76.75
506.207	68.75
506.423	83.75
506.64	86.75
506.856	83.75
507.073	102.75
507.289	80.75
507.506	70.75
507.722	76.75
507.939	84.75
508.155	79.75
508.372	88.75
508.588	90.75
508.805	92.75
509.021	75.75
509.238	82.75
509.454	86.75
509.67	85.75
509.887	70.75
510.103	75.75
510.319	85.75
510.536	91.75
510.752	85.75
510.968	104.75
511.184	92.75
511.401	102.75
511.617	75.75
511.833	70.75
512.049	82.75
512.265	84.75
512.481	79.75
512.698	86.75
512.914	80.75
513.13	87.75
513.346	87.75
513.562	82.75
513.778	81.75
513.994	90.75
514.21	75.75
514.426	90.75
514.642	94.75
514.858	89.75
515.074	91.75
515.29	83.75
515.506	83.75
515.721	89.75
515.937	86.75
516.153	91.75
516.369	90.75
516.585	81.75
516.801	91.75
517.016	79.75
517.232	88.75
517.448	88.75
517.664	98.75
517.879	74.75
518.095	87.75
518.311	96.75
518.527	103.75
518.742	97.75
