Data from 17600_3_HRD10591_00025.txt Node
Date: Mon Jan 19 14:09:36 EST 2026
User: Yrep
Spectrometer: HR+D1059
Trigger mode: 1
Integration Time (sec): 1.000000E-1
Scans to average: 1
Electric dark correction enabled: true
Nonlinearity correction enabled: false
Boxcar width: 0
XAxis mode: Wavelengths
Number of Pixels in Spectrum: 2048
>>>>>Begin Spectral Data<<<<<
223.165	-26.88
223.4	-26.88
223.635	-26.88
223.869	-18.88
224.104	-19.88
224.338	-11.88
224.573	-3.88
224.808	-0.88
225.042	-12.88
225.277	10.12
225.511	-27.88
225.746	-3.88
225.98	-0.88
226.215	18.12
226.449	19.12
226.683	29.12
226.918	21.12
227.152	30.12
227.387	23.12
227.621	33.12
227.856	32.12
228.09	41.12
228.324	48.12
228.559	54.12
228.793	61.12
229.027	59.12
229.262	62.12
229.496	64.12
229.73	72.12
229.964	61.12
230.199	66.12
230.433	80.12
230.667	67.12
230.901	74.12
231.136	71.12
231.37	69.12
231.604	93.12
231.838	64.12
232.072	78.12
232.306	73.12
232.541	85.12
232.775	79.12
233.009	71.12
233.243	72.12
233.477	80.12
233.711	89.12
233.945	73.12
234.179	76.12
234.413	76.12
234.647	94.12
234.881	92.12
235.115	73.12
235.349	75.12
235.583	88.12
235.817	77.12
236.051	78.12
236.285	66.12
236.519	70.12
236.753	71.12
236.987	79.12
237.221	75.12
237.455	73.12
237.689	84.12
237.922	90.12
238.156	84.12
238.39	75.12
238.624	96.12
238.858	64.12
239.091	80.12
239.325	71.12
239.559	83.12
239.793	73.12
240.027	82.12
240.26	73.12
240.494	82.12
240.728	60.12
240.961	72.12
241.195	68.12
241.429	80.12
241.662	70.12
241.896	66.12
242.13	75.12
242.363	74.12
242.597	74.12
242.83	72.12
243.064	69.12
243.298	78.12
243.531	76.12
243.765	71.12
243.998	69.12
244.232	83.12
244.465	66.12
244.699	70.12
244.932	52.12
245.166	85.12
245.399	84.12
245.633	68.12
245.866	77.12
246.099	91.12
246.333	69.12
246.566	80.12
246.8	76.12
247.033	74.12
247.266	78.12
247.5	86.12
247.733	72.12
247.966	80.12
248.2	74.12
248.433	71.12
248.666	98.12
248.899	73.12
249.133	68.12
249.366	76.12
249.599	64.12
249.832	69.12
250.066	81.12
250.299	78.12
250.532	75.12
250.765	80.12
250.998	73.12
251.231	76.12
251.465	74.12
251.698	87.12
251.931	84.12
252.164	90.12
252.397	73.12
252.63	75.12
252.863	80.12
253.096	86.12
253.329	77.12
253.562	83.12
253.795	85.12
254.028	84.12
254.261	71.12
254.494	72.12
254.727	84.12
254.96	78.12
255.193	69.12
255.426	81.12
255.659	78.12
255.892	64.12
256.124	74.12
256.357	78.12
256.59	88.12
256.823	81.12
257.056	65.12
257.289	65.12
257.521	81.12
257.754	75.12
257.987	74.12
258.22	84.12
258.452	83.12
258.685	75.12
258.918	74.12
259.151	67.12
259.383	87.12
259.616	85.12
259.849	73.12
260.081	88.12
260.314	70.12
260.547	74.12
260.779	90.12
261.012	84.12
261.244	72.12
261.477	78.12
261.71	73.12
261.942	84.12
262.175	68.12
262.407	62.12
262.64	85.12
262.872	72.12
263.105	86.12
263.337	89.12
263.57	92.12
263.802	86.12
264.035	87.12
264.267	60.12
264.499	57.12
264.732	81.12
264.964	80.12
265.197	77.12
265.429	88.12
265.661	84.12
265.894	88.12
266.126	94.12
266.358	89.12
266.591	77.12
266.823	80.12
267.055	71.12
267.287	72.12
267.52	73.12
267.752	81.12
267.984	82.12
268.216	71.12
268.448	67.12
268.681	88.12
268.913	66.12
269.145	71.12
269.377	82.12
269.609	80.12
269.841	80.12
270.073	82.12
270.306	68.12
270.538	80.12
270.77	76.12
271.002	64.12
271.234	63.12
271.466	85.12
271.698	78.12
271.93	75.12
272.162	89.12
272.394	85.12
272.626	79.12
272.858	89.12
273.09	86.12
273.322	74.12
273.553	75.12
273.785	83.12
274.017	77.12
274.249	80.12
274.481	82.12
274.713	77.12
274.945	70.12
275.176	71.12
275.408	73.12
275.64	71.12
275.872	75.12
276.104	75.12
276.335	78.12
276.567	93.12
276.799	68.12
277.031	89.12
277.262	61.12
277.494	84.12
277.726	70.12
277.957	78.12
278.189	73.12
278.421	80.12
278.652	88.12
278.884	78.12
279.115	72.12
279.347	85.12
279.579	89.12
279.81	76.12
280.042	76.12
280.273	81.12
280.505	85.12
280.736	83.12
280.968	88.12
281.199	82.12
281.431	65.12
281.662	78.12
281.894	92.12
282.125	84.12
282.356	81.12
282.588	84.12
282.819	80.12
283.051	84.12
283.282	71.12
283.513	80.12
283.745	80.12
283.976	86.12
284.207	85.12
284.439	82.12
284.67	96.12
284.901	80.12
285.132	79.12
285.364	98.12
285.595	72.12
285.826	77.12
286.057	105.12
286.288	80.12
286.52	96.12
286.751	77.12
286.982	73.12
287.213	92.12
287.444	99.12
287.675	78.12
287.906	86.12
288.138	86.12
288.369	83.12
288.6	88.12
288.831	82.12
289.062	81.12
289.293	87.12
289.524	79.12
289.755	90.12
289.986	104.12
290.217	90.12
290.448	81.12
290.679	81.12
290.91	80.12
291.141	77.12
291.371	103.12
291.602	85.12
291.833	84.12
292.064	60.12
292.295	68.12
292.526	75.12
292.757	85.12
292.987	92.12
293.218	90.12
293.449	68.12
293.68	94.12
293.91	81.12
294.141	87.12
294.372	87.12
294.603	92.12
294.833	84.12
295.064	84.12
295.295	74.12
295.525	81.12
295.756	86.12
295.987	82.12
296.217	84.12
296.448	81.12
296.679	98.12
296.909	94.12
297.14	68.12
297.37	84.12
297.601	75.12
297.831	87.12
298.062	96.12
298.292	89.12
298.523	87.12
298.753	78.12
298.984	80.12
299.214	75.12
299.445	102.12
299.675	82.12
299.905	79.12
300.136	85.12
300.366	89.12
300.597	94.12
300.827	84.12
301.057	66.12
301.288	78.12
301.518	92.12
301.748	80.12
301.979	81.12
302.209	79.12
302.439	84.12
302.669	82.12
302.9	84.12
303.13	78.12
303.36	82.12
303.59	90.12
303.82	77.12
304.051	99.12
304.281	88.12
304.511	84.12
304.741	80.12
304.971	88.12
305.201	88.12
305.431	88.12
305.661	78.12
305.891	71.12
306.121	90.12
306.352	79.12
306.582	92.12
306.812	83.12
307.042	82.12
307.272	71.12
307.502	88.12
307.731	102.12
307.961	82.12
308.191	69.12
308.421	93.12
308.651	74.12
308.881	88.12
309.111	83.12
309.341	81.12
309.571	99.12
309.8	86.12
310.03	76.12
310.26	78.12
310.49	75.12
310.72	79.12
310.949	83.12
311.179	69.12
311.409	75.12
311.639	86.12
311.868	72.12
312.098	84.12
312.328	84.12
312.557	76.12
312.787	90.12
313.017	80.12
313.246	74.12
313.476	96.12
313.706	88.12
313.935	75.12
314.165	89.12
314.394	84.12
314.624	81.12
314.853	74.12
315.083	93.12
315.312	84.12
315.542	99.12
315.771	84.12
316.001	88.12
316.23	87.12
316.46	87.12
316.689	84.12
316.919	66.12
317.148	80.12
317.377	94.12
317.607	80.12
317.836	80.12
318.065	105.12
318.295	78.12
318.524	88.12
318.753	93.12
318.983	90.12
319.212	85.12
319.441	78.12
319.67	87.12
319.9	86.12
320.129	98.12
320.358	62.12
320.587	85.12
320.816	80.12
321.046	90.12
321.275	90.12
321.504	85.12
321.733	78.12
321.962	75.12
322.191	84.12
322.42	82.12
322.649	100.12
322.878	86.12
323.108	105.12
323.337	70.12
323.566	86.12
323.795	92.12
324.024	80.12
324.253	86.12
324.482	82.12
324.71	86.12
324.939	88.12
325.168	86.12
325.397	89.12
325.626	83.12
325.855	86.12
326.084	74.12
326.313	80.12
326.542	83.12
326.77	86.12
326.999	75.12
327.228	89.12
327.457	83.12
327.686	85.12
327.914	103.12
328.143	89.12
328.372	88.12
328.6	82.12
328.829	86.12
329.058	72.12
329.287	100.12
329.515	80.12
329.744	80.12
329.972	73.12
330.201	83.12
330.43	82.12
330.658	77.12
330.887	93.12
331.115	81.12
331.344	75.12
331.572	82.12
331.801	93.12
332.03	75.12
332.258	77.12
332.486	72.12
332.715	94.12
332.943	73.12
333.172	86.12
333.4	77.12
333.629	70.12
333.857	87.12
334.085	96.12
334.314	81.12
334.542	82.12
334.771	89.12
334.999	81.12
335.227	86.12
335.455	89.12
335.684	84.12
335.912	85.12
336.14	91.12
336.369	90.12
336.597	62.12
336.825	87.12
337.053	85.12
337.281	89.12
337.51	91.12
337.738	87.12
337.966	82.12
338.194	94.12
338.422	82.12
338.65	73.12
338.878	88.12
339.106	78.12
339.334	78.12
339.562	95.12
339.79	86.12
340.018	77.12
340.246	90.12
340.474	92.12
340.702	87.12
340.93	96.12
341.158	85.12
341.386	81.12
341.614	88.12
341.842	85.12
342.07	69.12
342.298	80.12
342.526	85.12
342.754	81.12
342.981	69.12
343.209	97.12
343.437	108.12
343.665	80.12
343.893	77.12
344.12	92.12
344.348	95.12
344.576	89.12
344.804	83.12
345.031	83.12
345.259	73.12
345.487	78.12
345.714	75.12
345.942	74.12
346.17	68.12
346.397	82.12
346.625	76.12
346.853	80.12
347.08	87.12
347.308	79.12
347.535	92.12
347.763	66.12
347.99	74.12
348.218	80.12
348.445	83.12
348.673	76.12
348.9	72.12
349.128	84.12
349.355	83.12
349.583	89.12
349.81	78.12
350.037	72.12
350.265	78.12
350.492	78.12
350.72	75.12
350.947	90.12
351.174	84.12
351.402	76.12
351.629	84.12
351.856	80.12
352.083	80.12
352.311	82.12
352.538	79.12
352.765	84.12
352.992	89.12
353.22	89.12
353.447	82.12
353.674	72.12
353.901	97.12
354.128	96.12
354.355	90.12
354.583	106.12
354.81	86.12
355.037	94.12
355.264	89.12
355.491	86.12
355.718	100.12
355.945	82.12
356.172	70.12
356.399	82.12
356.626	87.12
356.853	80.12
357.08	95.12
357.307	85.12
357.534	95.12
357.761	83.12
357.988	88.12
358.215	81.12
358.441	95.12
358.668	90.12
358.895	85.12
359.122	97.12
359.349	102.12
359.576	88.12
359.802	83.12
360.029	91.12
360.256	95.12
360.483	89.12
360.709	67.12
360.936	89.12
361.163	74.12
361.39	77.12
361.616	78.12
361.843	93.12
362.07	93.12
362.296	75.12
362.523	86.12
362.749	97.12
362.976	109.12
363.203	99.12
363.429	88.12
363.656	91.12
363.882	94.12
364.109	77.12
364.335	120.12
364.562	122.12
364.788	97.12
365.015	98.12
365.241	89.12
365.468	92.12
365.694	86.12
365.92	73.12
366.147	78.12
366.373	79.12
366.599	82.12
366.826	80.12
367.052	81.12
367.278	88.12
367.505	82.12
367.731	103.12
367.957	100.12
368.184	88.12
368.41	90.12
368.636	93.12
368.862	82.12
369.089	93.12
369.315	80.12
369.541	86.12
369.767	84.12
369.993	76.12
370.219	93.12
370.445	95.12
370.672	91.12
370.898	90.12
371.124	86.12
371.35	74.12
371.576	79.12
371.802	89.12
372.028	95.12
372.254	96.12
372.48	93.12
372.706	90.12
372.932	81.12
373.158	94.12
373.384	85.12
373.61	96.12
373.835	78.12
374.061	97.12
374.287	97.12
374.513	89.12
374.739	104.12
374.965	84.12
375.191	95.12
375.416	92.12
375.642	93.12
375.868	83.12
376.094	96.12
376.319	81.12
376.545	96.12
376.771	78.12
376.997	78.12
377.222	90.12
377.448	85.12
377.674	89.12
377.899	96.12
378.125	99.12
378.35	89.12
378.576	82.12
378.802	94.12
379.027	75.12
379.253	82.12
379.478	70.12
379.704	88.12
379.929	78.12
380.155	93.12
380.38	72.12
380.606	94.12
380.831	84.12
381.057	72.12
381.282	83.12
381.507	86.12
381.733	82.12
381.958	75.12
382.184	86.12
382.409	91.12
382.634	81.12
382.86	99.12
383.085	86.12
383.31	93.12
383.535	96.12
383.761	95.12
383.986	89.12
384.211	88.12
384.436	89.12
384.662	95.12
384.887	95.12
385.112	89.12
385.337	93.12
385.562	91.12
385.787	90.12
386.013	92.12
386.238	93.12
386.463	88.12
386.688	90.12
386.913	80.12
387.138	80.12
387.363	87.12
387.588	91.12
387.813	100.12
388.038	90.12
388.263	103.12
388.488	91.12
388.713	83.12
388.938	77.12
389.163	72.12
389.387	75.12
389.612	76.12
389.837	90.12
390.062	89.12
390.287	84.12
390.512	95.12
390.736	89.12
390.961	75.12
391.186	64.12
391.411	87.12
391.636	80.12
391.86	79.12
392.085	90.12
392.31	92.12
392.534	92.12
392.759	96.12
392.984	132.12
393.208	184.12
393.433	254.12
393.658	223.12
393.882	120.12
394.107	102.12
394.331	104.12
394.556	110.12
394.78	101.12
395.005	77.12
395.229	80.12
395.454	93.12
395.678	102.12
395.903	112.12
396.127	126.12
396.352	123.12
396.576	147.12
396.801	222.12
397.025	219.12
397.249	132.12
397.474	128.12
397.698	84.12
397.922	89.12
398.147	86.12
398.371	81.12
398.595	81.12
398.82	82.12
399.044	72.12
399.268	88.12
399.492	78.12
399.717	66.12
399.941	78.12
400.165	85.12
400.389	72.12
400.613	86.12
400.837	75.12
401.062	92.12
401.286	80.12
401.51	85.12
401.734	77.12
401.958	81.12
402.182	77.12
402.406	89.12
402.63	82.12
402.854	103.12
403.078	84.12
403.302	90.12
403.526	93.12
403.75	96.12
403.974	90.12
404.198	84.12
404.422	87.12
404.645	81.12
404.869	92.12
405.093	94.12
405.317	81.12
405.541	71.12
405.765	68.12
405.988	80.12
406.212	94.12
406.436	78.12
406.66	86.12
406.883	89.12
407.107	78.12
407.331	95.12
407.555	93.12
407.778	95.12
408.002	113.12
408.226	90.12
408.449	90.12
408.673	84.12
408.896	78.12
409.12	88.12
409.344	88.12
409.567	88.12
409.791	94.12
410.014	94.12
410.238	82.12
410.461	88.12
410.685	86.12
410.908	96.12
411.132	96.12
411.355	84.12
411.578	80.12
411.802	78.12
412.025	94.12
412.249	94.12
412.472	89.12
412.695	83.12
412.919	80.12
413.142	71.12
413.365	86.12
413.589	56.12
413.812	78.12
414.035	89.12
414.258	83.12
414.482	82.12
414.705	92.12
414.928	86.12
415.151	72.12
415.374	81.12
415.597	86.12
415.821	80.12
416.044	86.12
416.267	95.12
416.49	78.12
416.713	88.12
416.936	85.12
417.159	94.12
417.382	93.12
417.605	77.12
417.828	81.12
418.051	81.12
418.274	70.12
418.497	92.12
418.72	97.12
418.943	84.12
419.166	68.12
419.389	82.12
419.611	60.12
419.834	72.12
420.057	85.12
420.28	82.12
420.503	89.12
420.726	89.12
420.948	86.12
421.171	78.12
421.394	92.12
421.617	111.12
421.839	105.12
422.062	105.12
422.285	142.12
422.507	240.12
422.73	329.12
422.953	284.12
423.175	172.12
423.398	124.12
423.621	105.12
423.843	84.12
424.066	94.12
424.288	92.12
424.511	98.12
424.733	89.12
424.956	94.12
425.178	96.12
425.401	78.12
425.623	86.12
425.846	87.12
426.068	104.12
426.291	75.12
426.513	97.12
426.735	88.12
426.958	89.12
427.18	87.12
427.402	81.12
427.625	88.12
427.847	83.12
428.069	108.12
428.292	125.12
428.514	121.12
428.736	116.12
428.958	114.12
429.181	116.12
429.403	102.12
429.625	95.12
429.847	97.12
430.069	137.12
430.292	150.12
430.514	132.12
430.736	120.12
430.958	115.12
431.18	88.12
431.402	94.12
431.624	94.12
431.846	102.12
432.068	115.12
432.29	103.12
432.512	82.12
432.734	95.12
432.956	79.12
433.178	88.12
433.4	79.12
433.622	88.12
433.844	87.12
434.066	87.12
434.287	87.12
434.509	89.12
434.731	80.12
434.953	80.12
435.175	87.12
435.397	95.12
435.618	87.12
435.84	90.12
436.062	93.12
436.284	88.12
436.505	76.12
436.727	84.12
436.949	87.12
437.17	89.12
437.392	74.12
437.614	70.12
437.835	86.12
438.057	88.12
438.278	93.12
438.5	90.12
438.721	87.12
438.943	73.12
439.165	79.12
439.386	70.12
439.608	74.12
439.829	80.12
440.05	100.12
440.272	94.12
440.493	83.12
440.715	82.12
440.936	93.12
441.158	80.12
441.379	78.12
441.6	94.12
441.822	75.12
442.043	90.12
442.264	103.12
442.486	119.12
442.707	136.12
442.928	118.12
443.149	94.12
443.371	135.12
443.592	191.12
443.813	168.12
444.034	102.12
444.255	91.12
444.476	96.12
444.698	92.12
444.919	88.12
445.14	162.12
445.361	175.12
445.582	213.12
445.803	202.12
446.024	116.12
446.245	94.12
446.466	84.12
446.687	74.12
446.908	82.12
447.129	87.12
447.35	86.12
447.571	82.12
447.792	78.12
448.013	73.12
448.234	68.12
448.455	73.12
448.675	88.12
448.896	74.12
449.117	84.12
449.338	88.12
449.559	80.12
449.779	78.12
450	86.12
450.221	72.12
450.442	73.12
450.662	87.12
450.883	94.12
451.104	71.12
451.324	90.12
451.545	89.12
451.766	88.12
451.986	81.12
452.207	70.12
452.428	89.12
452.648	94.12
452.869	85.12
453.089	98.12
453.31	88.12
453.53	80.12
453.751	81.12
453.971	79.12
454.192	87.12
454.412	87.12
454.633	80.12
454.853	79.12
455.073	97.12
455.294	71.12
455.514	81.12
455.734	80.12
455.955	84.12
456.175	82.12
456.395	81.12
456.616	76.12
456.836	86.12
457.056	74.12
457.276	92.12
457.497	74.12
457.717	96.12
457.937	98.12
458.157	91.12
458.377	104.12
458.598	102.12
458.818	109.12
459.038	96.12
459.258	81.12
459.478	80.12
459.698	74.12
459.918	72.12
460.138	85.12
460.358	84.12
460.578	88.12
460.798	114.12
461.018	123.12
461.238	92.12
461.458	100.12
461.678	80.12
461.898	90.12
462.118	75.12
462.338	68.12
462.558	81.12
462.777	90.12
462.997	94.12
463.217	76.12
463.437	85.12
463.657	85.12
463.876	98.12
464.096	84.12
464.316	82.12
464.536	80.12
464.755	93.12
464.975	93.12
465.195	94.12
465.414	88.12
465.634	91.12
465.854	67.12
466.073	77.12
466.293	70.12
466.512	83.12
466.732	78.12
466.951	71.12
467.171	80.12
467.391	90.12
467.61	94.12
467.829	86.12
468.049	89.12
468.268	81.12
468.488	97.12
468.707	84.12
468.927	90.12
469.146	68.12
469.365	76.12
469.585	82.12
469.804	97.12
470.023	65.12
470.243	74.12
470.462	76.12
470.681	87.12
470.901	67.12
471.12	80.12
471.339	71.12
471.558	77.12
471.777	86.12
471.997	72.12
472.216	88.12
472.435	86.12
472.654	87.12
472.873	72.12
473.092	86.12
473.311	82.12
473.53	86.12
473.749	87.12
473.968	90.12
474.187	102.12
474.406	87.12
474.625	75.12
474.844	89.12
475.063	86.12
475.282	93.12
475.501	76.12
475.72	90.12
475.939	72.12
476.158	90.12
476.377	75.12
476.596	88.12
476.814	86.12
477.033	82.12
477.252	88.12
477.471	84.12
477.69	76.12
477.908	76.12
478.127	89.12
478.346	82.12
478.564	80.12
478.783	97.12
479.002	79.12
479.22	83.12
479.439	85.12
479.658	86.12
479.876	72.12
480.095	80.12
480.313	61.12
480.532	95.12
480.751	92.12
480.969	88.12
481.188	84.12
481.406	84.12
481.624	90.12
481.843	84.12
482.061	96.12
482.28	78.12
482.498	86.12
482.717	88.12
482.935	71.12
483.153	84.12
483.372	100.12
483.59	85.12
483.808	85.12
484.027	77.12
484.245	74.12
484.463	99.12
484.681	88.12
484.9	81.12
485.118	83.12
485.336	89.12
485.554	88.12
485.772	83.12
485.99	78.12
486.209	78.12
486.427	85.12
486.645	82.12
486.863	92.12
487.081	86.12
487.299	84.12
487.517	86.12
487.735	112.12
487.953	150.12
488.171	128.12
488.389	91.12
488.607	90.12
488.825	84.12
489.043	98.12
489.261	94.12
489.479	83.12
489.696	97.12
489.914	86.12
490.132	87.12
490.35	83.12
490.568	75.12
490.786	83.12
491.003	85.12
491.221	96.12
491.439	58.12
491.657	74.12
491.874	86.12
492.092	89.12
492.31	94.12
492.527	82.12
492.745	80.12
492.963	94.12
493.18	76.12
493.398	96.12
493.615	80.12
493.833	88.12
494.05	84.12
494.268	89.12
494.485	86.12
494.703	102.12
494.92	97.12
495.138	76.12
495.355	82.12
495.573	66.12
495.79	78.12
496.008	73.12
496.225	87.12
496.442	92.12
496.66	93.12
496.877	100.12
497.094	81.12
497.312	94.12
497.529	88.12
497.746	69.12
497.963	72.12
498.181	83.12
498.398	96.12
498.615	88.12
498.832	97.12
499.049	100.12
499.267	82.12
499.484	80.12
499.701	93.12
499.918	75.12
500.135	81.12
500.352	85.12
500.569	83.12
500.786	84.12
501.003	79.12
501.22	64.12
501.437	90.12
501.654	74.12
501.871	88.12
502.088	75.12
502.305	79.12
502.522	84.12
502.739	84.12
502.956	82.12
503.172	87.12
503.389	95.12
503.606	95.12
503.823	71.12
504.04	82.12
504.256	108.12
504.473	126.12
504.69	80.12
504.907	104.12
505.123	77.12
505.34	78.12
505.557	76.12
505.773	77.12
505.99	82.12
506.207	86.12
506.423	72.12
506.64	92.12
506.856	83.12
507.073	92.12
507.289	78.12
507.506	75.12
507.722	68.12
507.939	75.12
508.155	89.12
508.372	88.12
508.588	78.12
508.805	90.12
509.021	86.12
509.238	78.12
509.454	92.12
509.67	93.12
509.887	86.12
510.103	83.12
510.319	80.12
510.536	101.12
510.752	80.12
510.968	76.12
511.184	88.12
511.401	94.12
511.617	87.12
511.833	75.12
512.049	67.12
512.265	93.12
512.481	96.12
512.698	77.12
512.914	89.12
513.13	92.12
513.346	104.12
513.562	82.12
513.778	71.12
513.994	74.12
514.21	79.12
514.426	89.12
514.642	85.12
514.858	78.12
515.074	86.12
515.29	82.12
515.506	74.12
515.721	59.12
515.937	72.12
516.153	90.12
516.369	74.12
516.585	69.12
516.801	92.12
517.016	94.12
517.232	94.12
517.448	84.12
517.664	89.12
517.879	96.12
518.095	76.12
518.311	74.12
518.527	92.12
518.742	112.12
