Data from 17600_3_HRD10591_00007.txt Node
Date: Mon Jan 19 14:09:27 EST 2026
User: Yrep
Spectrometer: HR+D1059
Trigger mode: 1
Integration Time (sec): 1.000000E-1
Scans to average: 1
Electric dark correction enabled: true
Nonlinearity correction enabled: false
Boxcar width: 0
XAxis mode: Wavelengths
Number of Pixels in Spectrum: 2048
>>>>>Begin Spectral Data<<<<<
223.165	-11.62
223.4	-11.62
223.635	-11.62
223.869	-25.62
224.104	-13.62
224.338	-21.62
224.573	-16.62
224.808	-8.62
225.042	5.38
225.277	-2.62
225.511	-7.62
225.746	-2.62
225.98	0.38
226.215	24.38
226.449	29.38
226.683	13.38
226.918	8.38
227.152	29.38
227.387	42.38
227.621	23.38
227.856	46.38
228.09	51.38
228.324	51.38
228.559	57.38
228.793	57.38
229.027	55.38
229.262	75.38
229.496	57.38
229.73	67.38
229.964	72.38
230.199	66.38
230.433	85.38
230.667	71.38
230.901	76.38
231.136	73.38
231.37	66.38
231.604	61.38
231.838	90.38
232.072	75.38
232.306	83.38
232.541	83.38
232.775	61.38
233.009	75.38
233.243	77.38
233.477	90.38
233.711	81.38
233.945	81.38
234.179	71.38
234.413	75.38
234.647	96.38
234.881	81.38
235.115	69.38
235.349	81.38
235.583	85.38
235.817	79.38
236.051	64.38
236.285	80.38
236.519	69.38
236.753	77.38
236.987	71.38
237.221	72.38
237.455	89.38
237.689	84.38
237.922	85.38
238.156	94.38
238.39	79.38
238.624	89.38
238.858	86.38
239.091	75.38
239.325	76.38
239.559	74.38
239.793	67.38
240.027	83.38
240.26	72.38
240.494	63.38
240.728	78.38
240.961	79.38
241.195	74.38
241.429	64.38
241.662	69.38
241.896	69.38
242.13	72.38
242.363	72.38
242.597	87.38
242.83	88.38
243.064	82.38
243.298	73.38
243.531	63.38
243.765	77.38
243.998	81.38
244.232	77.38
244.465	69.38
244.699	77.38
244.932	73.38
245.166	76.38
245.399	67.38
245.633	67.38
245.866	83.38
246.099	63.38
246.333	62.38
246.566	89.38
246.8	73.38
247.033	86.38
247.266	59.38
247.5	81.38
247.733	74.38
247.966	74.38
248.2	91.38
248.433	83.38
248.666	78.38
248.899	71.38
249.133	88.38
249.366	87.38
249.599	74.38
249.832	77.38
250.066	83.38
250.299	80.38
250.532	83.38
250.765	79.38
250.998	79.38
251.231	75.38
251.465	80.38
251.698	67.38
251.931	79.38
252.164	74.38
252.397	84.38
252.63	83.38
252.863	81.38
253.096	75.38
253.329	75.38
253.562	72.38
253.795	95.38
254.028	85.38
254.261	78.38
254.494	67.38
254.727	89.38
254.96	73.38
255.193	97.38
255.426	89.38
255.659	77.38
255.892	68.38
256.124	90.38
256.357	78.38
256.59	64.38
256.823	80.38
257.056	56.38
257.289	78.38
257.521	85.38
257.754	78.38
257.987	81.38
258.22	85.38
258.452	81.38
258.685	77.38
258.918	74.38
259.151	66.38
259.383	83.38
259.616	82.38
259.849	83.38
260.081	83.38
260.314	82.38
260.547	81.38
260.779	70.38
261.012	86.38
261.244	81.38
261.477	73.38
261.71	82.38
261.942	83.38
262.175	74.38
262.407	77.38
262.64	67.38
262.872	73.38
263.105	79.38
263.337	86.38
263.57	75.38
263.802	69.38
264.035	71.38
264.267	75.38
264.499	74.38
264.732	75.38
264.964	81.38
265.197	82.38
265.429	77.38
265.661	81.38
265.894	88.38
266.126	86.38
266.358	90.38
266.591	89.38
266.823	87.38
267.055	91.38
267.287	91.38
267.52	93.38
267.752	79.38
267.984	86.38
268.216	78.38
268.448	82.38
268.681	99.38
268.913	90.38
269.145	73.38
269.377	85.38
269.609	88.38
269.841	71.38
270.073	82.38
270.306	90.38
270.538	78.38
270.77	73.38
271.002	79.38
271.234	83.38
271.466	83.38
271.698	94.38
271.93	81.38
272.162	73.38
272.394	80.38
272.626	79.38
272.858	78.38
273.09	90.38
273.322	77.38
273.553	95.38
273.785	82.38
274.017	79.38
274.249	85.38
274.481	81.38
274.713	89.38
274.945	89.38
275.176	85.38
275.408	82.38
275.64	76.38
275.872	91.38
276.104	87.38
276.335	96.38
276.567	81.38
276.799	84.38
277.031	86.38
277.262	77.38
277.494	97.38
277.726	77.38
277.957	77.38
278.189	84.38
278.421	76.38
278.652	86.38
278.884	78.38
279.115	74.38
279.347	77.38
279.579	75.38
279.81	93.38
280.042	87.38
280.273	81.38
280.505	89.38
280.736	89.38
280.968	79.38
281.199	83.38
281.431	85.38
281.662	82.38
281.894	74.38
282.125	83.38
282.356	69.38
282.588	77.38
282.819	93.38
283.051	90.38
283.282	75.38
283.513	83.38
283.745	87.38
283.976	81.38
284.207	90.38
284.439	76.38
284.67	85.38
284.901	85.38
285.132	80.38
285.364	101.38
285.595	83.38
285.826	61.38
286.057	81.38
286.288	90.38
286.52	82.38
286.751	74.38
286.982	93.38
287.213	82.38
287.444	97.38
287.675	81.38
287.906	75.38
288.138	97.38
288.369	83.38
288.6	90.38
288.831	80.38
289.062	84.38
289.293	82.38
289.524	87.38
289.755	95.38
289.986	82.38
290.217	80.38
290.448	68.38
290.679	80.38
290.91	99.38
291.141	88.38
291.371	83.38
291.602	73.38
291.833	79.38
292.064	86.38
292.295	82.38
292.526	74.38
292.757	85.38
292.987	76.38
293.218	76.38
293.449	72.38
293.68	95.38
293.91	87.38
294.141	87.38
294.372	87.38
294.603	89.38
294.833	87.38
295.064	82.38
295.295	77.38
295.525	86.38
295.756	84.38
295.987	94.38
296.217	75.38
296.448	74.38
296.679	75.38
296.909	76.38
297.14	85.38
297.37	83.38
297.601	97.38
297.831	87.38
298.062	83.38
298.292	80.38
298.523	79.38
298.753	76.38
298.984	84.38
299.214	91.38
299.445	74.38
299.675	84.38
299.905	89.38
300.136	93.38
300.366	86.38
300.597	85.38
300.827	95.38
301.057	79.38
301.288	80.38
301.518	84.38
301.748	104.38
301.979	90.38
302.209	95.38
302.439	91.38
302.669	91.38
302.9	86.38
303.13	93.38
303.36	80.38
303.59	74.38
303.82	83.38
304.051	82.38
304.281	91.38
304.511	88.38
304.741	76.38
304.971	87.38
305.201	84.38
305.431	83.38
305.661	84.38
305.891	81.38
306.121	87.38
306.352	80.38
306.582	83.38
306.812	93.38
307.042	94.38
307.272	94.38
307.502	65.38
307.731	75.38
307.961	76.38
308.191	89.38
308.421	103.38
308.651	105.38
308.881	89.38
309.111	89.38
309.341	101.38
309.571	83.38
309.8	93.38
310.03	93.38
310.26	72.38
310.49	98.38
310.72	81.38
310.949	81.38
311.179	93.38
311.409	79.38
311.639	96.38
311.868	82.38
312.098	88.38
312.328	88.38
312.557	82.38
312.787	87.38
313.017	89.38
313.246	88.38
313.476	94.38
313.706	69.38
313.935	80.38
314.165	81.38
314.394	81.38
314.624	88.38
314.853	96.38
315.083	93.38
315.312	85.38
315.542	86.38
315.771	94.38
316.001	109.38
316.23	100.38
316.46	96.38
316.689	65.38
316.919	85.38
317.148	72.38
317.377	98.38
317.607	98.38
317.836	98.38
318.065	121.38
318.295	98.38
318.524	97.38
318.753	88.38
318.983	94.38
319.212	81.38
319.441	90.38
319.67	93.38
319.9	93.38
320.129	84.38
320.358	87.38
320.587	81.38
320.816	75.38
321.046	102.38
321.275	107.38
321.504	88.38
321.733	98.38
321.962	79.38
322.191	94.38
322.42	101.38
322.649	95.38
322.878	89.38
323.108	98.38
323.337	93.38
323.566	90.38
323.795	85.38
324.024	93.38
324.253	75.38
324.482	87.38
324.71	97.38
324.939	83.38
325.168	88.38
325.397	76.38
325.626	98.38
325.855	88.38
326.084	72.38
326.313	75.38
326.542	86.38
326.77	77.38
326.999	86.38
327.228	95.38
327.457	73.38
327.686	80.38
327.914	95.38
328.143	78.38
328.372	100.38
328.6	88.38
328.829	99.38
329.058	95.38
329.287	88.38
329.515	93.38
329.744	88.38
329.972	88.38
330.201	78.38
330.43	95.38
330.658	88.38
330.887	91.38
331.115	91.38
331.344	88.38
331.572	90.38
331.801	86.38
332.03	80.38
332.258	66.38
332.486	81.38
332.715	95.38
332.943	83.38
333.172	89.38
333.4	88.38
333.629	95.38
333.857	89.38
334.085	79.38
334.314	81.38
334.542	84.38
334.771	89.38
334.999	88.38
335.227	89.38
335.455	99.38
335.684	96.38
335.912	92.38
336.14	95.38
336.369	97.38
336.597	109.38
336.825	89.38
337.053	75.38
337.281	109.38
337.51	103.38
337.738	97.38
337.966	78.38
338.194	81.38
338.422	95.38
338.65	85.38
338.878	90.38
339.106	81.38
339.334	101.38
339.562	93.38
339.79	82.38
340.018	73.38
340.246	88.38
340.474	86.38
340.702	102.38
340.93	92.38
341.158	84.38
341.386	86.38
341.614	91.38
341.842	87.38
342.07	86.38
342.298	87.38
342.526	88.38
342.754	89.38
342.981	77.38
343.209	99.38
343.437	92.38
343.665	89.38
343.893	95.38
344.12	99.38
344.348	86.38
344.576	99.38
344.804	99.38
345.031	92.38
345.259	101.38
345.487	95.38
345.714	91.38
345.942	83.38
346.17	96.38
346.397	82.38
346.625	85.38
346.853	81.38
347.08	79.38
347.308	87.38
347.535	84.38
347.763	95.38
347.99	70.38
348.218	85.38
348.445	82.38
348.673	83.38
348.9	93.38
349.128	87.38
349.355	92.38
349.583	90.38
349.81	93.38
350.037	96.38
350.265	81.38
350.492	84.38
350.72	82.38
350.947	84.38
351.174	105.38
351.402	83.38
351.629	89.38
351.856	87.38
352.083	88.38
352.311	90.38
352.538	82.38
352.765	90.38
352.992	91.38
353.22	78.38
353.447	77.38
353.674	86.38
353.901	105.38
354.128	94.38
354.355	81.38
354.583	82.38
354.81	87.38
355.037	91.38
355.264	98.38
355.491	104.38
355.718	87.38
355.945	86.38
356.172	96.38
356.399	79.38
356.626	76.38
356.853	99.38
357.08	91.38
357.307	69.38
357.534	96.38
357.761	89.38
357.988	103.38
358.215	110.38
358.441	85.38
358.668	84.38
358.895	95.38
359.122	83.38
359.349	87.38
359.576	83.38
359.802	93.38
360.029	97.38
360.256	93.38
360.483	97.38
360.709	101.38
360.936	92.38
361.163	90.38
361.39	76.38
361.616	91.38
361.843	101.38
362.07	96.38
362.296	97.38
362.523	92.38
362.749	105.38
362.976	124.38
363.203	111.38
363.429	100.38
363.656	99.38
363.882	92.38
364.109	104.38
364.335	134.38
364.562	137.38
364.788	119.38
365.015	90.38
365.241	99.38
365.468	105.38
365.694	82.38
365.92	89.38
366.147	81.38
366.373	95.38
366.599	79.38
366.826	83.38
367.052	94.38
367.278	108.38
367.505	102.38
367.731	103.38
367.957	91.38
368.184	89.38
368.41	96.38
368.636	92.38
368.862	89.38
369.089	87.38
369.315	93.38
369.541	95.38
369.767	87.38
369.993	79.38
370.219	88.38
370.445	94.38
370.672	106.38
370.898	102.38
371.124	94.38
371.35	88.38
371.576	103.38
371.802	88.38
372.028	90.38
372.254	91.38
372.48	93.38
372.706	99.38
372.932	90.38
373.158	108.38
373.384	106.38
373.61	120.38
373.835	128.38
374.061	101.38
374.287	89.38
374.513	105.38
374.739	88.38
374.965	97.38
375.191	107.38
375.416	109.38
375.642	85.38
375.868	97.38
376.094	89.38
376.319	99.38
376.545	81.38
376.771	79.38
376.997	97.38
377.222	81.38
377.448	95.38
377.674	73.38
377.899	91.38
378.125	85.38
378.35	93.38
378.576	82.38
378.802	95.38
379.027	90.38
379.253	102.38
379.478	87.38
379.704	83.38
379.929	98.38
380.155	90.38
380.38	96.38
380.606	73.38
380.831	110.38
381.057	102.38
381.282	91.38
381.507	89.38
381.733	104.38
381.958	125.38
382.184	98.38
382.409	105.38
382.634	94.38
382.86	102.38
383.085	93.38
383.31	101.38
383.535	112.38
383.761	95.38
383.986	97.38
384.211	103.38
384.436	103.38
384.662	96.38
384.887	89.38
385.112	87.38
385.337	106.38
385.562	93.38
385.787	85.38
386.013	104.38
386.238	88.38
386.463	83.38
386.688	91.38
386.913	92.38
387.138	110.38
387.363	99.38
387.588	104.38
387.813	105.38
388.038	100.38
388.263	112.38
388.488	91.38
388.713	116.38
388.938	109.38
389.163	108.38
389.387	97.38
389.612	85.38
389.837	101.38
390.062	99.38
390.287	102.38
390.512	99.38
390.736	94.38
390.961	91.38
391.186	104.38
391.411	85.38
391.636	102.38
391.86	99.38
392.085	109.38
392.31	91.38
392.534	115.38
392.759	131.38
392.984	210.38
393.208	365.38
393.433	539.38
393.658	405.38
393.882	180.38
394.107	125.38
394.331	137.38
394.556	150.38
394.78	127.38
395.005	101.38
395.229	106.38
395.454	105.38
395.678	109.38
395.903	133.38
396.127	149.38
396.352	168.38
396.576	217.38
396.801	352.38
397.025	440.38
397.249	233.38
397.474	148.38
397.698	119.38
397.922	109.38
398.147	97.38
398.371	87.38
398.595	100.38
398.82	100.38
399.044	94.38
399.268	107.38
399.492	90.38
399.717	78.38
399.941	94.38
400.165	80.38
400.389	82.38
400.613	102.38
400.837	86.38
401.062	91.38
401.286	96.38
401.51	77.38
401.734	99.38
401.958	86.38
402.182	85.38
402.406	100.38
402.63	94.38
402.854	96.38
403.078	101.38
403.302	93.38
403.526	106.38
403.75	95.38
403.974	100.38
404.198	103.38
404.422	115.38
404.645	101.38
404.869	91.38
405.093	94.38
405.317	87.38
405.541	99.38
405.765	76.38
405.988	90.38
406.212	115.38
406.436	100.38
406.66	87.38
406.883	97.38
407.107	84.38
407.331	90.38
407.555	111.38
407.778	148.38
408.002	150.38
408.226	94.38
408.449	83.38
408.673	91.38
408.896	95.38
409.12	103.38
409.344	113.38
409.567	90.38
409.791	108.38
410.014	113.38
410.238	103.38
410.461	87.38
410.685	95.38
410.908	98.38
411.132	94.38
411.355	94.38
411.578	99.38
411.802	81.38
412.025	88.38
412.249	85.38
412.472	87.38
412.695	93.38
412.919	89.38
413.142	99.38
413.365	104.38
413.589	79.38
413.812	88.38
414.035	95.38
414.258	93.38
414.482	78.38
414.705	97.38
414.928	85.38
415.151	83.38
415.374	79.38
415.597	87.38
415.821	100.38
416.044	86.38
416.267	98.38
416.49	71.38
416.713	87.38
416.936	91.38
417.159	78.38
417.382	97.38
417.605	83.38
417.828	95.38
418.051	99.38
418.274	92.38
418.497	89.38
418.72	88.38
418.943	88.38
419.166	87.38
419.389	97.38
419.611	84.38
419.834	98.38
420.057	101.38
420.28	93.38
420.503	88.38
420.726	94.38
420.948	99.38
421.171	111.38
421.394	117.38
421.617	155.38
421.839	157.38
422.062	147.38
422.285	170.38
422.507	261.38
422.73	370.38
422.953	323.38
423.175	213.38
423.398	157.38
423.621	120.38
423.843	100.38
424.066	107.38
424.288	86.38
424.511	94.38
424.733	95.38
424.956	98.38
425.178	96.38
425.401	92.38
425.623	77.38
425.846	84.38
426.068	96.38
426.291	95.38
426.513	97.38
426.735	94.38
426.958	97.38
427.18	97.38
427.402	113.38
427.625	102.38
427.847	103.38
428.069	97.38
428.292	135.38
428.514	133.38
428.736	109.38
428.958	127.38
429.181	148.38
429.403	99.38
429.625	88.38
429.847	126.38
430.069	166.38
430.292	191.38
430.514	176.38
430.736	136.38
430.958	124.38
431.18	102.38
431.402	86.38
431.624	103.38
431.846	133.38
432.068	139.38
432.29	90.38
432.512	101.38
432.734	90.38
432.956	91.38
433.178	88.38
433.4	84.38
433.622	97.38
433.844	95.38
434.066	85.38
434.287	95.38
434.509	97.38
434.731	100.38
434.953	89.38
435.175	93.38
435.397	97.38
435.618	110.38
435.84	107.38
436.062	90.38
436.284	85.38
436.505	79.38
436.727	87.38
436.949	91.38
437.17	80.38
437.392	87.38
437.614	88.38
437.835	96.38
438.057	70.38
438.278	85.38
438.5	89.38
438.721	89.38
438.943	103.38
439.165	90.38
439.386	93.38
439.608	109.38
439.829	78.38
440.05	97.38
440.272	85.38
440.493	91.38
440.715	94.38
440.936	87.38
441.158	88.38
441.379	93.38
441.6	102.38
441.822	90.38
442.043	101.38
442.264	100.38
442.486	148.38
442.707	178.38
442.928	128.38
443.149	109.38
443.371	152.38
443.592	257.38
443.813	204.38
444.034	99.38
444.255	86.38
444.476	102.38
444.698	89.38
444.919	93.38
445.14	196.38
445.361	197.38
445.582	282.38
445.803	248.38
446.024	117.38
446.245	91.38
446.466	105.38
446.687	87.38
446.908	100.38
447.129	89.38
447.35	101.38
447.571	88.38
447.792	83.38
448.013	85.38
448.234	85.38
448.455	84.38
448.675	91.38
448.896	79.38
449.117	88.38
449.338	92.38
449.559	81.38
449.779	77.38
450	93.38
450.221	97.38
450.442	90.38
450.662	88.38
450.883	84.38
451.104	88.38
451.324	75.38
451.545	89.38
451.766	86.38
451.986	67.38
452.207	101.38
452.428	93.38
452.648	90.38
452.869	114.38
453.089	101.38
453.31	95.38
453.53	85.38
453.751	84.38
453.971	88.38
454.192	86.38
454.412	103.38
454.633	83.38
454.853	94.38
455.073	87.38
455.294	90.38
455.514	100.38
455.734	90.38
455.955	91.38
456.175	93.38
456.395	93.38
456.616	99.38
456.836	93.38
457.056	102.38
457.276	69.38
457.497	111.38
457.717	112.38
457.937	106.38
458.157	143.38
458.377	143.38
458.598	121.38
458.818	117.38
459.038	103.38
459.258	94.38
459.478	95.38
459.698	91.38
459.918	86.38
460.138	101.38
460.358	87.38
460.578	111.38
460.798	113.38
461.018	133.38
461.238	93.38
461.458	109.38
461.678	80.38
461.898	93.38
462.118	102.38
462.338	95.38
462.558	86.38
462.777	91.38
462.997	86.38
463.217	98.38
463.437	81.38
463.657	67.38
463.876	81.38
464.096	83.38
464.316	85.38
464.536	79.38
464.755	104.38
464.975	106.38
465.195	88.38
465.414	88.38
465.634	89.38
465.854	97.38
466.073	103.38
466.293	85.38
466.512	81.38
466.732	83.38
466.951	87.38
467.171	87.38
467.391	88.38
467.61	82.38
467.829	79.38
468.049	101.38
468.268	95.38
468.488	88.38
468.707	91.38
468.927	84.38
469.146	80.38
469.365	89.38
469.585	87.38
469.804	97.38
470.023	86.38
470.243	100.38
470.462	81.38
470.681	88.38
470.901	87.38
471.12	85.38
471.339	98.38
471.558	89.38
471.777	98.38
471.997	87.38
472.216	93.38
472.435	80.38
472.654	91.38
472.873	86.38
473.092	110.38
473.311	88.38
473.53	90.38
473.749	87.38
473.968	85.38
474.187	99.38
474.406	81.38
474.625	84.38
474.844	93.38
475.063	90.38
475.282	99.38
475.501	90.38
475.72	98.38
475.939	98.38
476.158	95.38
476.377	101.38
476.596	104.38
476.814	97.38
477.033	94.38
477.252	102.38
477.471	89.38
477.69	93.38
477.908	88.38
478.127	99.38
478.346	94.38
478.564	78.38
478.783	85.38
479.002	90.38
479.22	82.38
479.439	86.38
479.658	81.38
479.876	93.38
480.095	82.38
480.313	105.38
480.532	99.38
480.751	82.38
480.969	82.38
481.188	94.38
481.406	91.38
481.624	97.38
481.843	95.38
482.061	90.38
482.28	97.38
482.498	91.38
482.717	97.38
482.935	103.38
483.153	94.38
483.372	89.38
483.59	95.38
483.808	96.38
484.027	97.38
484.245	88.38
484.463	98.38
484.681	101.38
484.9	97.38
485.118	98.38
485.336	101.38
485.554	95.38
485.772	88.38
485.99	99.38
486.209	89.38
486.427	93.38
486.645	85.38
486.863	102.38
487.081	99.38
487.299	112.38
487.517	90.38
487.735	118.38
487.953	202.38
488.171	146.38
488.389	94.38
488.607	111.38
488.825	99.38
489.043	104.38
489.261	95.38
489.479	90.38
489.696	98.38
489.914	96.38
490.132	101.38
490.35	87.38
490.568	110.38
490.786	86.38
491.003	89.38
491.221	93.38
491.439	101.38
491.657	86.38
491.874	95.38
492.092	90.38
492.31	103.38
492.527	85.38
492.745	101.38
492.963	90.38
493.18	95.38
493.398	92.38
493.615	100.38
493.833	89.38
494.05	92.38
494.268	100.38
494.485	84.38
494.703	88.38
494.92	88.38
495.138	89.38
495.355	82.38
495.573	93.38
495.79	89.38
496.008	98.38
496.225	100.38
496.442	99.38
496.66	102.38
496.877	105.38
497.094	109.38
497.312	88.38
497.529	84.38
497.746	101.38
497.963	97.38
498.181	82.38
498.398	104.38
498.615	91.38
498.832	110.38
499.049	96.38
499.267	92.38
499.484	96.38
499.701	106.38
499.918	90.38
500.135	115.38
500.352	93.38
500.569	73.38
500.786	106.38
501.003	100.38
501.22	95.38
501.437	89.38
501.654	89.38
501.871	103.38
502.088	94.38
502.305	93.38
502.522	103.38
502.739	110.38
502.956	97.38
503.172	97.38
503.389	99.38
503.606	100.38
503.823	101.38
504.04	109.38
504.256	138.38
504.473	134.38
504.69	91.38
504.907	93.38
505.123	87.38
505.34	93.38
505.557	77.38
505.773	74.38
505.99	87.38
506.207	82.38
506.423	99.38
506.64	87.38
506.856	90.38
507.073	101.38
507.289	99.38
507.506	99.38
507.722	99.38
507.939	90.38
508.155	92.38
508.372	98.38
508.588	96.38
508.805	90.38
509.021	97.38
509.238	81.38
509.454	87.38
509.67	98.38
509.887	95.38
510.103	91.38
510.319	79.38
510.536	88.38
510.752	100.38
510.968	91.38
511.184	74.38
511.401	89.38
511.617	85.38
511.833	87.38
512.049	84.38
512.265	101.38
512.481	87.38
512.698	98.38
512.914	85.38
513.13	83.38
513.346	98.38
513.562	89.38
513.778	91.38
513.994	95.38
514.21	83.38
514.426	100.38
514.642	81.38
514.858	85.38
515.074	88.38
515.29	95.38
515.506	95.38
515.721	96.38
515.937	93.38
516.153	86.38
516.369	87.38
516.585	92.38
516.801	89.38
