Data from 17600_3_HRD10591_00005.txt Node
Date: Mon Jan 19 14:09:26 EST 2026
User: Yrep
Spectrometer: HR+D1059
Trigger mode: 1
Integration Time (sec): 1.000000E-1
Scans to average: 1
Electric dark correction enabled: true
Nonlinearity correction enabled: false
Boxcar width: 0
XAxis mode: Wavelengths
Number of Pixels in Spectrum: 2048
>>>>>Begin Spectral Data<<<<<
223.165	-22.88
223.4	-22.88
223.635	-22.88
223.869	-26.88
224.104	-11.88
224.338	-7.88
224.573	-26.88
224.808	-17.88
225.042	-7.88
225.277	-9.88
225.511	2.12
225.746	8.12
225.98	9.12
226.215	17.12
226.449	8.12
226.683	23.12
226.918	19.12
227.152	45.12
227.387	26.12
227.621	44.12
227.856	37.12
228.09	39.12
228.324	49.12
228.559	68.12
228.793	66.12
229.027	57.12
229.262	60.12
229.496	59.12
229.73	61.12
229.964	74.12
230.199	70.12
230.433	83.12
230.667	79.12
230.901	71.12
231.136	84.12
231.37	57.12
231.604	56.12
231.838	72.12
232.072	73.12
232.306	79.12
232.541	75.12
232.775	82.12
233.009	76.12
233.243	86.12
233.477	87.12
233.711	75.12
233.945	70.12
234.179	73.12
234.413	77.12
234.647	84.12
234.881	71.12
235.115	81.12
235.349	96.12
235.583	65.12
235.817	68.12
236.051	90.12
236.285	65.12
236.519	80.12
236.753	80.12
236.987	70.12
237.221	65.12
237.455	78.12
237.689	74.12
237.922	81.12
238.156	61.12
238.39	79.12
238.624	75.12
238.858	64.12
239.091	84.12
239.325	74.12
239.559	82.12
239.793	75.12
240.027	85.12
240.26	69.12
240.494	69.12
240.728	70.12
240.961	68.12
241.195	84.12
241.429	71.12
241.662	62.12
241.896	73.12
242.13	65.12
242.363	81.12
242.597	65.12
242.83	78.12
243.064	89.12
243.298	79.12
243.531	90.12
243.765	74.12
243.998	69.12
244.232	77.12
244.465	69.12
244.699	84.12
244.932	93.12
245.166	84.12
245.399	84.12
245.633	77.12
245.866	85.12
246.099	79.12
246.333	88.12
246.566	81.12
246.8	74.12
247.033	72.12
247.266	78.12
247.5	74.12
247.733	70.12
247.966	68.12
248.2	66.12
248.433	77.12
248.666	89.12
248.899	63.12
249.133	68.12
249.366	80.12
249.599	78.12
249.832	85.12
250.066	70.12
250.299	65.12
250.532	80.12
250.765	68.12
250.998	80.12
251.231	71.12
251.465	86.12
251.698	86.12
251.931	82.12
252.164	89.12
252.397	79.12
252.63	84.12
252.863	85.12
253.096	81.12
253.329	69.12
253.562	70.12
253.795	76.12
254.028	70.12
254.261	78.12
254.494	77.12
254.727	82.12
254.96	86.12
255.193	82.12
255.426	87.12
255.659	81.12
255.892	72.12
256.124	81.12
256.357	75.12
256.59	71.12
256.823	80.12
257.056	76.12
257.289	71.12
257.521	86.12
257.754	84.12
257.987	75.12
258.22	81.12
258.452	81.12
258.685	81.12
258.918	82.12
259.151	84.12
259.383	77.12
259.616	88.12
259.849	93.12
260.081	73.12
260.314	85.12
260.547	73.12
260.779	75.12
261.012	92.12
261.244	71.12
261.477	82.12
261.71	87.12
261.942	87.12
262.175	80.12
262.407	78.12
262.64	67.12
262.872	72.12
263.105	90.12
263.337	82.12
263.57	73.12
263.802	74.12
264.035	97.12
264.267	92.12
264.499	80.12
264.732	85.12
264.964	73.12
265.197	87.12
265.429	93.12
265.661	76.12
265.894	94.12
266.126	84.12
266.358	74.12
266.591	86.12
266.823	81.12
267.055	73.12
267.287	77.12
267.52	72.12
267.752	86.12
267.984	77.12
268.216	88.12
268.448	92.12
268.681	71.12
268.913	78.12
269.145	84.12
269.377	88.12
269.609	79.12
269.841	91.12
270.073	85.12
270.306	88.12
270.538	82.12
270.77	71.12
271.002	91.12
271.234	82.12
271.466	89.12
271.698	85.12
271.93	75.12
272.162	78.12
272.394	90.12
272.626	87.12
272.858	80.12
273.09	82.12
273.322	76.12
273.553	87.12
273.785	78.12
274.017	88.12
274.249	88.12
274.481	84.12
274.713	79.12
274.945	83.12
275.176	93.12
275.408	72.12
275.64	81.12
275.872	79.12
276.104	79.12
276.335	80.12
276.567	83.12
276.799	81.12
277.031	80.12
277.262	86.12
277.494	70.12
277.726	65.12
277.957	68.12
278.189	69.12
278.421	92.12
278.652	90.12
278.884	68.12
279.115	82.12
279.347	81.12
279.579	86.12
279.81	86.12
280.042	78.12
280.273	80.12
280.505	72.12
280.736	78.12
280.968	72.12
281.199	82.12
281.431	87.12
281.662	86.12
281.894	88.12
282.125	75.12
282.356	71.12
282.588	94.12
282.819	83.12
283.051	86.12
283.282	81.12
283.513	94.12
283.745	82.12
283.976	97.12
284.207	77.12
284.439	85.12
284.67	66.12
284.901	78.12
285.132	78.12
285.364	75.12
285.595	100.12
285.826	79.12
286.057	91.12
286.288	83.12
286.52	92.12
286.751	83.12
286.982	86.12
287.213	84.12
287.444	78.12
287.675	81.12
287.906	71.12
288.138	90.12
288.369	100.12
288.6	97.12
288.831	74.12
289.062	89.12
289.293	82.12
289.524	85.12
289.755	81.12
289.986	92.12
290.217	75.12
290.448	80.12
290.679	82.12
290.91	96.12
291.141	89.12
291.371	78.12
291.602	85.12
291.833	87.12
292.064	99.12
292.295	80.12
292.526	73.12
292.757	78.12
292.987	80.12
293.218	96.12
293.449	88.12
293.68	75.12
293.91	77.12
294.141	84.12
294.372	95.12
294.603	83.12
294.833	92.12
295.064	59.12
295.295	87.12
295.525	79.12
295.756	81.12
295.987	88.12
296.217	88.12
296.448	84.12
296.679	96.12
296.909	88.12
297.14	92.12
297.37	93.12
297.601	95.12
297.831	86.12
298.062	88.12
298.292	84.12
298.523	84.12
298.753	82.12
298.984	94.12
299.214	87.12
299.445	92.12
299.675	95.12
299.905	92.12
300.136	88.12
300.366	81.12
300.597	90.12
300.827	87.12
301.057	83.12
301.288	83.12
301.518	86.12
301.748	79.12
301.979	100.12
302.209	97.12
302.439	89.12
302.669	92.12
302.9	74.12
303.13	79.12
303.36	92.12
303.59	96.12
303.82	82.12
304.051	85.12
304.281	89.12
304.511	84.12
304.741	84.12
304.971	87.12
305.201	86.12
305.431	76.12
305.661	88.12
305.891	85.12
306.121	110.12
306.352	90.12
306.582	79.12
306.812	86.12
307.042	78.12
307.272	76.12
307.502	86.12
307.731	94.12
307.961	88.12
308.191	103.12
308.421	81.12
308.651	85.12
308.881	87.12
309.111	89.12
309.341	105.12
309.571	95.12
309.8	93.12
310.03	87.12
310.26	82.12
310.49	85.12
310.72	85.12
310.949	81.12
311.179	74.12
311.409	87.12
311.639	88.12
311.868	81.12
312.098	76.12
312.328	79.12
312.557	70.12
312.787	83.12
313.017	84.12
313.246	84.12
313.476	65.12
313.706	80.12
313.935	88.12
314.165	89.12
314.394	89.12
314.624	81.12
314.853	86.12
315.083	81.12
315.312	88.12
315.542	92.12
315.771	104.12
316.001	93.12
316.23	102.12
316.46	91.12
316.689	72.12
316.919	86.12
317.148	89.12
317.377	96.12
317.607	96.12
317.836	82.12
318.065	98.12
318.295	90.12
318.524	91.12
318.753	84.12
318.983	82.12
319.212	91.12
319.441	97.12
319.67	94.12
319.9	82.12
320.129	83.12
320.358	86.12
320.587	85.12
320.816	83.12
321.046	83.12
321.275	82.12
321.504	98.12
321.733	84.12
321.962	90.12
322.191	93.12
322.42	97.12
322.649	78.12
322.878	86.12
323.108	87.12
323.337	88.12
323.566	80.12
323.795	80.12
324.024	87.12
324.253	89.12
324.482	85.12
324.71	92.12
324.939	89.12
325.168	89.12
325.397	79.12
325.626	79.12
325.855	80.12
326.084	88.12
326.313	90.12
326.542	84.12
326.77	91.12
326.999	88.12
327.228	84.12
327.457	92.12
327.686	82.12
327.914	79.12
328.143	80.12
328.372	77.12
328.6	89.12
328.829	79.12
329.058	87.12
329.287	96.12
329.515	74.12
329.744	80.12
329.972	113.12
330.201	82.12
330.43	98.12
330.658	93.12
330.887	83.12
331.115	88.12
331.344	82.12
331.572	94.12
331.801	81.12
332.03	73.12
332.258	87.12
332.486	78.12
332.715	80.12
332.943	73.12
333.172	80.12
333.4	85.12
333.629	89.12
333.857	82.12
334.085	86.12
334.314	82.12
334.542	97.12
334.771	90.12
334.999	88.12
335.227	84.12
335.455	77.12
335.684	89.12
335.912	98.12
336.14	104.12
336.369	97.12
336.597	90.12
336.825	83.12
337.053	75.12
337.281	87.12
337.51	89.12
337.738	85.12
337.966	89.12
338.194	76.12
338.422	78.12
338.65	102.12
338.878	94.12
339.106	81.12
339.334	94.12
339.562	74.12
339.79	93.12
340.018	82.12
340.246	88.12
340.474	92.12
340.702	87.12
340.93	83.12
341.158	77.12
341.386	72.12
341.614	89.12
341.842	73.12
342.07	83.12
342.298	82.12
342.526	84.12
342.754	88.12
342.981	80.12
343.209	83.12
343.437	85.12
343.665	73.12
343.893	94.12
344.12	91.12
344.348	76.12
344.576	88.12
344.804	77.12
345.031	82.12
345.259	84.12
345.487	97.12
345.714	95.12
345.942	81.12
346.17	94.12
346.397	86.12
346.625	96.12
346.853	88.12
347.08	79.12
347.308	83.12
347.535	87.12
347.763	78.12
347.99	80.12
348.218	71.12
348.445	88.12
348.673	85.12
348.9	89.12
349.128	76.12
349.355	81.12
349.583	90.12
349.81	103.12
350.037	96.12
350.265	83.12
350.492	86.12
350.72	93.12
350.947	95.12
351.174	85.12
351.402	84.12
351.629	92.12
351.856	92.12
352.083	99.12
352.311	82.12
352.538	94.12
352.765	100.12
352.992	99.12
353.22	75.12
353.447	81.12
353.674	84.12
353.901	80.12
354.128	92.12
354.355	89.12
354.583	88.12
354.81	79.12
355.037	89.12
355.264	92.12
355.491	82.12
355.718	79.12
355.945	93.12
356.172	93.12
356.399	94.12
356.626	81.12
356.853	87.12
357.08	90.12
357.307	88.12
357.534	79.12
357.761	86.12
357.988	98.12
358.215	91.12
358.441	86.12
358.668	75.12
358.895	81.12
359.122	93.12
359.349	77.12
359.576	78.12
359.802	78.12
360.029	77.12
360.256	87.12
360.483	97.12
360.709	90.12
360.936	95.12
361.163	81.12
361.39	86.12
361.616	84.12
361.843	80.12
362.07	103.12
362.296	89.12
362.523	97.12
362.749	100.12
362.976	114.12
363.203	124.12
363.429	95.12
363.656	92.12
363.882	88.12
364.109	109.12
364.335	108.12
364.562	146.12
364.788	120.12
365.015	96.12
365.241	101.12
365.468	94.12
365.694	104.12
365.92	85.12
366.147	83.12
366.373	86.12
366.599	80.12
366.826	82.12
367.052	82.12
367.278	74.12
367.505	74.12
367.731	93.12
367.957	89.12
368.184	74.12
368.41	89.12
368.636	90.12
368.862	92.12
369.089	86.12
369.315	78.12
369.541	75.12
369.767	88.12
369.993	89.12
370.219	89.12
370.445	82.12
370.672	100.12
370.898	91.12
371.124	90.12
371.35	88.12
371.576	87.12
371.802	83.12
372.028	89.12
372.254	96.12
372.48	82.12
372.706	86.12
372.932	93.12
373.158	100.12
373.384	96.12
373.61	90.12
373.835	103.12
374.061	95.12
374.287	101.12
374.513	104.12
374.739	94.12
374.965	111.12
375.191	84.12
375.416	93.12
375.642	88.12
375.868	87.12
376.094	81.12
376.319	100.12
376.545	87.12
376.771	92.12
376.997	89.12
377.222	89.12
377.448	93.12
377.674	91.12
377.899	96.12
378.125	89.12
378.35	88.12
378.576	97.12
378.802	86.12
379.027	82.12
379.253	69.12
379.478	91.12
379.704	97.12
379.929	93.12
380.155	71.12
380.38	79.12
380.606	84.12
380.831	94.12
381.057	94.12
381.282	88.12
381.507	87.12
381.733	89.12
381.958	110.12
382.184	102.12
382.409	109.12
382.634	98.12
382.86	92.12
383.085	97.12
383.31	93.12
383.535	96.12
383.761	104.12
383.986	92.12
384.211	72.12
384.436	101.12
384.662	86.12
384.887	91.12
385.112	101.12
385.337	74.12
385.562	96.12
385.787	95.12
386.013	95.12
386.238	109.12
386.463	80.12
386.688	110.12
386.913	93.12
387.138	103.12
387.363	104.12
387.588	100.12
387.813	96.12
388.038	105.12
388.263	83.12
388.488	93.12
388.713	93.12
388.938	101.12
389.163	99.12
389.387	90.12
389.612	82.12
389.837	88.12
390.062	106.12
390.287	84.12
390.512	95.12
390.736	95.12
390.961	85.12
391.186	94.12
391.411	96.12
391.636	87.12
391.86	108.12
392.085	88.12
392.31	76.12
392.534	89.12
392.759	116.12
392.984	139.12
393.208	263.12
393.433	391.12
393.658	303.12
393.882	149.12
394.107	102.12
394.331	112.12
394.556	119.12
394.78	105.12
395.005	98.12
395.229	97.12
395.454	100.12
395.678	89.12
395.903	104.12
396.127	132.12
396.352	150.12
396.576	181.12
396.801	263.12
397.025	292.12
397.249	181.12
397.474	120.12
397.698	110.12
397.922	92.12
398.147	95.12
398.371	84.12
398.595	80.12
398.82	103.12
399.044	78.12
399.268	74.12
399.492	88.12
399.717	80.12
399.941	83.12
400.165	74.12
400.389	79.12
400.613	75.12
400.837	77.12
401.062	86.12
401.286	93.12
401.51	97.12
401.734	80.12
401.958	86.12
402.182	97.12
402.406	85.12
402.63	84.12
402.854	84.12
403.078	88.12
403.302	73.12
403.526	95.12
403.75	92.12
403.974	87.12
404.198	96.12
404.422	86.12
404.645	96.12
404.869	98.12
405.093	98.12
405.317	89.12
405.541	88.12
405.765	97.12
405.988	77.12
406.212	79.12
406.436	91.12
406.66	92.12
406.883	82.12
407.107	82.12
407.331	97.12
407.555	104.12
407.778	121.12
408.002	125.12
408.226	88.12
408.449	72.12
408.673	78.12
408.896	98.12
409.12	97.12
409.344	107.12
409.567	88.12
409.791	101.12
410.014	108.12
410.238	93.12
410.461	80.12
410.685	90.12
410.908	69.12
411.132	84.12
411.355	74.12
411.578	82.12
411.802	86.12
412.025	82.12
412.249	76.12
412.472	92.12
412.695	86.12
412.919	72.12
413.142	96.12
413.365	81.12
413.589	82.12
413.812	81.12
414.035	81.12
414.258	84.12
414.482	73.12
414.705	74.12
414.928	83.12
415.151	82.12
415.374	75.12
415.597	89.12
415.821	80.12
416.044	91.12
416.267	72.12
416.49	99.12
416.713	89.12
416.936	79.12
417.159	68.12
417.382	78.12
417.605	74.12
417.828	94.12
418.051	75.12
418.274	85.12
418.497	93.12
418.72	84.12
418.943	85.12
419.166	90.12
419.389	87.12
419.611	83.12
419.834	88.12
420.057	81.12
420.28	90.12
420.503	75.12
420.726	96.12
420.948	95.12
421.171	101.12
421.394	105.12
421.617	129.12
421.839	133.12
422.062	114.12
422.285	175.12
422.507	256.12
422.73	339.12
422.953	324.12
423.175	202.12
423.398	126.12
423.621	119.12
423.843	100.12
424.066	94.12
424.288	97.12
424.511	92.12
424.733	89.12
424.956	75.12
425.178	97.12
425.401	76.12
425.623	86.12
425.846	82.12
426.068	79.12
426.291	87.12
426.513	91.12
426.735	92.12
426.958	107.12
427.18	89.12
427.402	84.12
427.625	84.12
427.847	98.12
428.069	115.12
428.292	118.12
428.514	141.12
428.736	117.12
428.958	116.12
429.181	125.12
429.403	82.12
429.625	102.12
429.847	119.12
430.069	155.12
430.292	179.12
430.514	163.12
430.736	124.12
430.958	125.12
431.18	102.12
431.402	88.12
431.624	100.12
431.846	120.12
432.068	113.12
432.29	91.12
432.512	78.12
432.734	72.12
432.956	97.12
433.178	75.12
433.4	84.12
433.622	96.12
433.844	97.12
434.066	94.12
434.287	97.12
434.509	88.12
434.731	84.12
434.953	63.12
435.175	87.12
435.397	81.12
435.618	88.12
435.84	78.12
436.062	88.12
436.284	90.12
436.505	96.12
436.727	93.12
436.949	88.12
437.17	87.12
437.392	83.12
437.614	92.12
437.835	85.12
438.057	91.12
438.278	88.12
438.5	82.12
438.721	84.12
438.943	84.12
439.165	86.12
439.386	75.12
439.608	81.12
439.829	78.12
440.05	74.12
440.272	85.12
440.493	80.12
440.715	94.12
440.936	86.12
441.158	100.12
441.379	87.12
441.6	79.12
441.822	87.12
442.043	91.12
442.264	92.12
442.486	140.12
442.707	158.12
442.928	109.12
443.149	104.12
443.371	144.12
443.592	236.12
443.813	214.12
444.034	126.12
444.255	98.12
444.476	91.12
444.698	89.12
444.919	91.12
445.14	188.12
445.361	186.12
445.582	269.12
445.803	229.12
446.024	117.12
446.245	86.12
446.466	87.12
446.687	82.12
446.908	75.12
447.129	100.12
447.35	73.12
447.571	88.12
447.792	83.12
448.013	85.12
448.234	81.12
448.455	105.12
448.675	85.12
448.896	86.12
449.117	105.12
449.338	75.12
449.559	79.12
449.779	65.12
450	86.12
450.221	96.12
450.442	92.12
450.662	72.12
450.883	86.12
451.104	74.12
451.324	84.12
451.545	88.12
451.766	67.12
451.986	89.12
452.207	94.12
452.428	87.12
452.648	90.12
452.869	110.12
453.089	91.12
453.31	82.12
453.53	112.12
453.751	103.12
453.971	87.12
454.192	83.12
454.412	94.12
454.633	72.12
454.853	88.12
455.073	84.12
455.294	84.12
455.514	98.12
455.734	86.12
455.955	83.12
456.175	90.12
456.395	94.12
456.616	92.12
456.836	101.12
457.056	79.12
457.276	74.12
457.497	77.12
457.717	83.12
457.937	125.12
458.157	115.12
458.377	132.12
458.598	138.12
458.818	135.12
459.038	93.12
459.258	90.12
459.478	102.12
459.698	81.12
459.918	79.12
460.138	84.12
460.358	89.12
460.578	96.12
460.798	130.12
461.018	126.12
461.238	85.12
461.458	100.12
461.678	92.12
461.898	94.12
462.118	96.12
462.338	79.12
462.558	77.12
462.777	96.12
462.997	93.12
463.217	79.12
463.437	81.12
463.657	93.12
463.876	89.12
464.096	84.12
464.316	74.12
464.536	82.12
464.755	94.12
464.975	92.12
465.195	86.12
465.414	76.12
465.634	60.12
465.854	93.12
466.073	74.12
466.293	77.12
466.512	80.12
466.732	87.12
466.951	77.12
467.171	95.12
467.391	89.12
467.61	81.12
467.829	80.12
468.049	86.12
468.268	89.12
468.488	98.12
468.707	82.12
468.927	90.12
469.146	87.12
469.365	89.12
469.585	73.12
469.804	87.12
470.023	96.12
470.243	87.12
470.462	90.12
470.681	82.12
470.901	87.12
471.12	88.12
471.339	84.12
471.558	67.12
471.777	87.12
471.997	72.12
472.216	82.12
472.435	94.12
472.654	75.12
472.873	94.12
473.092	88.12
473.311	84.12
473.53	82.12
473.749	86.12
473.968	88.12
474.187	89.12
474.406	73.12
474.625	88.12
474.844	90.12
475.063	85.12
475.282	86.12
475.501	75.12
475.72	94.12
475.939	97.12
476.158	98.12
476.377	96.12
476.596	79.12
476.814	94.12
477.033	96.12
477.252	92.12
477.471	85.12
477.69	105.12
477.908	95.12
478.127	80.12
478.346	84.12
478.564	87.12
478.783	92.12
479.002	75.12
479.22	87.12
479.439	89.12
479.658	86.12
479.876	88.12
480.095	82.12
480.313	88.12
480.532	90.12
480.751	80.12
480.969	94.12
481.188	95.12
481.406	100.12
481.624	75.12
481.843	102.12
482.061	84.12
482.28	94.12
482.498	92.12
482.717	93.12
482.935	96.12
483.153	87.12
483.372	101.12
483.59	93.12
483.808	90.12
484.027	95.12
484.245	72.12
484.463	81.12
484.681	101.12
484.9	84.12
485.118	82.12
485.336	84.12
485.554	95.12
485.772	90.12
485.99	80.12
486.209	95.12
486.427	91.12
486.645	86.12
486.863	84.12
487.081	91.12
487.299	90.12
487.517	102.12
487.735	121.12
487.953	193.12
488.171	153.12
488.389	95.12
488.607	85.12
488.825	86.12
489.043	90.12
489.261	87.12
489.479	92.12
489.696	88.12
489.914	87.12
490.132	93.12
490.35	93.12
490.568	82.12
490.786	73.12
491.003	84.12
491.221	96.12
491.439	76.12
491.657	81.12
491.874	100.12
492.092	94.12
492.31	90.12
492.527	89.12
492.745	102.12
492.963	95.12
493.18	84.12
493.398	97.12
493.615	101.12
493.833	88.12
494.05	85.12
494.268	85.12
494.485	112.12
494.703	99.12
494.92	78.12
495.138	89.12
495.355	95.12
495.573	77.12
495.79	86.12
496.008	102.12
496.225	87.12
496.442	95.12
496.66	89.12
496.877	85.12
497.094	95.12
497.312	88.12
497.529	86.12
497.746	77.12
497.963	88.12
498.181	89.12
498.398	93.12
498.615	98.12
498.832	93.12
499.049	77.12
499.267	110.12
499.484	76.12
499.701	78.12
499.918	95.12
500.135	85.12
500.352	88.12
500.569	93.12
500.786	106.12
501.003	83.12
501.22	84.12
501.437	87.12
501.654	75.12
501.871	84.12
502.088	99.12
502.305	86.12
502.522	82.12
502.739	97.12
502.956	94.12
503.172	97.12
503.389	112.12
503.606	88.12
503.823	103.12
504.04	108.12
504.256	155.12
504.473	141.12
504.69	111.12
504.907	100.12
505.123	97.12
505.34	87.12
505.557	105.12
505.773	93.12
505.99	102.12
506.207	96.12
506.423	94.12
506.64	87.12
506.856	96.12
507.073	79.12
507.289	85.12
507.506	89.12
507.722	80.12
507.939	84.12
508.155	98.12
508.372	92.12
508.588	76.12
508.805	90.12
509.021	84.12
509.238	97.12
509.454	89.12
509.67	79.12
509.887	100.12
510.103	75.12
510.319	81.12
510.536	94.12
510.752	98.12
510.968	78.12
511.184	92.12
511.401	80.12
511.617	85.12
511.833	99.12
512.049	93.12
512.265	85.12
512.481	87.12
512.698	101.12
512.914	97.12
513.13	95.12
513.346	86.12
513.562	81.12
513.778	98.12
513.994	83.12
514.21	97.12
514.426	85.12
514.642	100.12
514.858	80.12
515.074	96.12
515.29	81.12
515.506	96.12
515.721	89.12
515.937	93.12
516.153	75.12
516.369	100.12
516.585	100.12
516.801	95.12
517.016	101.12
517.232	97.12
517.448	93.12
517.664	89.12
517.879	78.12
