Data from 17600_3_HRD10591_00029.txt Node
Date: Mon Jan 19 14:09:38 EST 2026
User: Yrep
Spectrometer: HR+D1059
Trigger mode: 1
Integration Time (sec): 1.000000E-1
Scans to average: 1
Electric dark correction enabled: true
Nonlinearity correction enabled: false
Boxcar width: 0
XAxis mode: Wavelengths
Number of Pixels in Spectrum: 2048
>>>>>Begin Spectral Data<<<<<
223.165	-17.75
223.4	-17.75
223.635	-17.75
223.869	-15.75
224.104	-15.75
224.338	-20.75
224.573	-11.75
224.808	-13.75
225.042	-0.75
225.277	-1.75
225.511	-3.75
225.746	12.25
225.98	-8.75
226.215	9.25
226.449	12.25
226.683	18.25
226.918	30.25
227.152	28.25
227.387	38.25
227.621	34.25
227.856	47.25
228.09	47.25
228.324	47.25
228.559	58.25
228.793	53.25
229.027	57.25
229.262	73.25
229.496	59.25
229.73	62.25
229.964	69.25
230.199	74.25
230.433	66.25
230.667	73.25
230.901	70.25
231.136	84.25
231.37	73.25
231.604	71.25
231.838	82.25
232.072	80.25
232.306	77.25
232.541	91.25
232.775	68.25
233.009	82.25
233.243	80.25
233.477	80.25
233.711	71.25
233.945	70.25
234.179	79.25
234.413	76.25
234.647	81.25
234.881	79.25
235.115	84.25
235.349	83.25
235.583	89.25
235.817	94.25
236.051	77.25
236.285	77.25
236.519	76.25
236.753	83.25
236.987	79.25
237.221	67.25
237.455	73.25
237.689	75.25
237.922	86.25
238.156	74.25
238.39	62.25
238.624	67.25
238.858	96.25
239.091	68.25
239.325	75.25
239.559	71.25
239.793	74.25
240.027	64.25
240.26	86.25
240.494	72.25
240.728	80.25
240.961	95.25
241.195	81.25
241.429	96.25
241.662	78.25
241.896	64.25
242.13	76.25
242.363	67.25
242.597	70.25
242.83	69.25
243.064	59.25
243.298	71.25
243.531	73.25
243.765	81.25
243.998	68.25
244.232	95.25
244.465	95.25
244.699	69.25
244.932	68.25
245.166	59.25
245.399	82.25
245.633	81.25
245.866	71.25
246.099	85.25
246.333	66.25
246.566	74.25
246.8	72.25
247.033	77.25
247.266	63.25
247.5	84.25
247.733	75.25
247.966	62.25
248.2	76.25
248.433	70.25
248.666	85.25
248.899	82.25
249.133	70.25
249.366	73.25
249.599	86.25
249.832	74.25
250.066	86.25
250.299	79.25
250.532	83.25
250.765	74.25
250.998	81.25
251.231	71.25
251.465	71.25
251.698	67.25
251.931	85.25
252.164	69.25
252.397	72.25
252.63	89.25
252.863	90.25
253.096	77.25
253.329	82.25
253.562	71.25
253.795	58.25
254.028	76.25
254.261	84.25
254.494	84.25
254.727	79.25
254.96	70.25
255.193	76.25
255.426	72.25
255.659	75.25
255.892	80.25
256.124	67.25
256.357	76.25
256.59	78.25
256.823	87.25
257.056	79.25
257.289	79.25
257.521	90.25
257.754	90.25
257.987	74.25
258.22	84.25
258.452	73.25
258.685	69.25
258.918	83.25
259.151	80.25
259.383	78.25
259.616	75.25
259.849	73.25
260.081	92.25
260.314	67.25
260.547	77.25
260.779	85.25
261.012	79.25
261.244	80.25
261.477	93.25
261.71	91.25
261.942	56.25
262.175	86.25
262.407	73.25
262.64	74.25
262.872	65.25
263.105	73.25
263.337	77.25
263.57	74.25
263.802	57.25
264.035	80.25
264.267	79.25
264.499	74.25
264.732	81.25
264.964	80.25
265.197	79.25
265.429	73.25
265.661	85.25
265.894	71.25
266.126	74.25
266.358	81.25
266.591	78.25
266.823	71.25
267.055	83.25
267.287	83.25
267.52	75.25
267.752	69.25
267.984	84.25
268.216	80.25
268.448	71.25
268.681	85.25
268.913	82.25
269.145	81.25
269.377	89.25
269.609	75.25
269.841	74.25
270.073	81.25
270.306	82.25
270.538	75.25
270.77	94.25
271.002	79.25
271.234	74.25
271.466	99.25
271.698	72.25
271.93	76.25
272.162	80.25
272.394	82.25
272.626	83.25
272.858	86.25
273.09	91.25
273.322	76.25
273.553	88.25
273.785	88.25
274.017	92.25
274.249	87.25
274.481	80.25
274.713	82.25
274.945	70.25
275.176	91.25
275.408	74.25
275.64	77.25
275.872	87.25
276.104	69.25
276.335	88.25
276.567	80.25
276.799	90.25
277.031	82.25
277.262	82.25
277.494	73.25
277.726	84.25
277.957	87.25
278.189	90.25
278.421	76.25
278.652	75.25
278.884	74.25
279.115	83.25
279.347	94.25
279.579	76.25
279.81	87.25
280.042	91.25
280.273	100.25
280.505	77.25
280.736	83.25
280.968	77.25
281.199	97.25
281.431	82.25
281.662	79.25
281.894	76.25
282.125	64.25
282.356	94.25
282.588	87.25
282.819	70.25
283.051	88.25
283.282	81.25
283.513	87.25
283.745	81.25
283.976	80.25
284.207	72.25
284.439	88.25
284.67	94.25
284.901	89.25
285.132	73.25
285.364	93.25
285.595	80.25
285.826	77.25
286.057	75.25
286.288	78.25
286.52	80.25
286.751	87.25
286.982	81.25
287.213	77.25
287.444	80.25
287.675	82.25
287.906	99.25
288.138	81.25
288.369	76.25
288.6	94.25
288.831	86.25
289.062	84.25
289.293	94.25
289.524	79.25
289.755	89.25
289.986	90.25
290.217	84.25
290.448	86.25
290.679	74.25
290.91	85.25
291.141	86.25
291.371	90.25
291.602	88.25
291.833	79.25
292.064	81.25
292.295	76.25
292.526	85.25
292.757	91.25
292.987	88.25
293.218	81.25
293.449	82.25
293.68	89.25
293.91	70.25
294.141	89.25
294.372	79.25
294.603	78.25
294.833	83.25
295.064	76.25
295.295	86.25
295.525	92.25
295.756	70.25
295.987	74.25
296.217	90.25
296.448	95.25
296.679	92.25
296.909	85.25
297.14	79.25
297.37	77.25
297.601	77.25
297.831	90.25
298.062	93.25
298.292	88.25
298.523	98.25
298.753	101.25
298.984	82.25
299.214	87.25
299.445	82.25
299.675	82.25
299.905	86.25
300.136	74.25
300.366	74.25
300.597	85.25
300.827	96.25
301.057	83.25
301.288	69.25
301.518	85.25
301.748	70.25
301.979	85.25
302.209	75.25
302.439	94.25
302.669	75.25
302.9	87.25
303.13	90.25
303.36	72.25
303.59	88.25
303.82	97.25
304.051	84.25
304.281	96.25
304.511	85.25
304.741	83.25
304.971	77.25
305.201	90.25
305.431	83.25
305.661	90.25
305.891	86.25
306.121	70.25
306.352	90.25
306.582	83.25
306.812	84.25
307.042	87.25
307.272	85.25
307.502	75.25
307.731	74.25
307.961	87.25
308.191	84.25
308.421	73.25
308.651	87.25
308.881	84.25
309.111	82.25
309.341	93.25
309.571	93.25
309.8	75.25
310.03	65.25
310.26	90.25
310.49	80.25
310.72	88.25
310.949	74.25
311.179	87.25
311.409	93.25
311.639	90.25
311.868	93.25
312.098	83.25
312.328	79.25
312.557	72.25
312.787	81.25
313.017	84.25
313.246	91.25
313.476	95.25
313.706	93.25
313.935	85.25
314.165	90.25
314.394	89.25
314.624	81.25
314.853	89.25
315.083	85.25
315.312	84.25
315.542	81.25
315.771	82.25
316.001	90.25
316.23	88.25
316.46	87.25
316.689	92.25
316.919	103.25
317.148	88.25
317.377	77.25
317.607	101.25
317.836	81.25
318.065	92.25
318.295	92.25
318.524	74.25
318.753	77.25
318.983	82.25
319.212	85.25
319.441	89.25
319.67	68.25
319.9	91.25
320.129	98.25
320.358	83.25
320.587	86.25
320.816	88.25
321.046	85.25
321.275	75.25
321.504	75.25
321.733	92.25
321.962	84.25
322.191	97.25
322.42	74.25
322.649	80.25
322.878	80.25
323.108	89.25
323.337	92.25
323.566	84.25
323.795	86.25
324.024	80.25
324.253	91.25
324.482	75.25
324.71	99.25
324.939	77.25
325.168	91.25
325.397	75.25
325.626	92.25
325.855	88.25
326.084	84.25
326.313	90.25
326.542	86.25
326.77	79.25
326.999	90.25
327.228	103.25
327.457	94.25
327.686	87.25
327.914	90.25
328.143	80.25
328.372	86.25
328.6	76.25
328.829	80.25
329.058	87.25
329.287	103.25
329.515	88.25
329.744	82.25
329.972	83.25
330.201	92.25
330.43	99.25
330.658	94.25
330.887	81.25
331.115	99.25
331.344	70.25
331.572	92.25
331.801	93.25
332.03	95.25
332.258	86.25
332.486	76.25
332.715	90.25
332.943	90.25
333.172	70.25
333.4	86.25
333.629	83.25
333.857	61.25
334.085	87.25
334.314	75.25
334.542	94.25
334.771	91.25
334.999	86.25
335.227	90.25
335.455	85.25
335.684	96.25
335.912	95.25
336.14	72.25
336.369	83.25
336.597	98.25
336.825	75.25
337.053	79.25
337.281	95.25
337.51	83.25
337.738	88.25
337.966	87.25
338.194	92.25
338.422	94.25
338.65	90.25
338.878	87.25
339.106	79.25
339.334	94.25
339.562	90.25
339.79	102.25
340.018	91.25
340.246	84.25
340.474	82.25
340.702	65.25
340.93	87.25
341.158	80.25
341.386	81.25
341.614	69.25
341.842	75.25
342.07	87.25
342.298	89.25
342.526	85.25
342.754	90.25
342.981	86.25
343.209	89.25
343.437	101.25
343.665	81.25
343.893	84.25
344.12	88.25
344.348	81.25
344.576	72.25
344.804	89.25
345.031	66.25
345.259	88.25
345.487	87.25
345.714	62.25
345.942	84.25
346.17	91.25
346.397	95.25
346.625	83.25
346.853	87.25
347.08	94.25
347.308	71.25
347.535	77.25
347.763	79.25
347.99	79.25
348.218	84.25
348.445	76.25
348.673	88.25
348.9	85.25
349.128	88.25
349.355	86.25
349.583	94.25
349.81	87.25
350.037	93.25
350.265	94.25
350.492	76.25
350.72	86.25
350.947	90.25
351.174	78.25
351.402	90.25
351.629	89.25
351.856	80.25
352.083	84.25
352.311	96.25
352.538	91.25
352.765	83.25
352.992	87.25
353.22	90.25
353.447	79.25
353.674	88.25
353.901	84.25
354.128	82.25
354.355	87.25
354.583	95.25
354.81	90.25
355.037	96.25
355.264	87.25
355.491	80.25
355.718	89.25
355.945	74.25
356.172	87.25
356.399	92.25
356.626	85.25
356.853	93.25
357.08	88.25
357.307	87.25
357.534	91.25
357.761	79.25
357.988	87.25
358.215	87.25
358.441	81.25
358.668	90.25
358.895	94.25
359.122	88.25
359.349	84.25
359.576	92.25
359.802	81.25
360.029	86.25
360.256	80.25
360.483	88.25
360.709	90.25
360.936	97.25
361.163	89.25
361.39	95.25
361.616	84.25
361.843	90.25
362.07	79.25
362.296	80.25
362.523	88.25
362.749	82.25
362.976	88.25
363.203	98.25
363.429	70.25
363.656	89.25
363.882	93.25
364.109	91.25
364.335	96.25
364.562	89.25
364.788	77.25
365.015	90.25
365.241	98.25
365.468	80.25
365.694	99.25
365.92	77.25
366.147	98.25
366.373	80.25
366.599	80.25
366.826	80.25
367.052	81.25
367.278	87.25
367.505	94.25
367.731	83.25
367.957	90.25
368.184	87.25
368.41	90.25
368.636	63.25
368.862	91.25
369.089	89.25
369.315	86.25
369.541	82.25
369.767	87.25
369.993	85.25
370.219	88.25
370.445	77.25
370.672	92.25
370.898	86.25
371.124	79.25
371.35	86.25
371.576	98.25
371.802	88.25
372.028	103.25
372.254	88.25
372.48	67.25
372.706	82.25
372.932	75.25
373.158	91.25
373.384	102.25
373.61	99.25
373.835	101.25
374.061	90.25
374.287	79.25
374.513	88.25
374.739	83.25
374.965	85.25
375.191	98.25
375.416	79.25
375.642	77.25
375.868	80.25
376.094	77.25
376.319	85.25
376.545	86.25
376.771	79.25
376.997	84.25
377.222	74.25
377.448	75.25
377.674	85.25
377.899	72.25
378.125	80.25
378.35	78.25
378.576	86.25
378.802	76.25
379.027	82.25
379.253	91.25
379.478	77.25
379.704	85.25
379.929	84.25
380.155	82.25
380.38	99.25
380.606	73.25
380.831	92.25
381.057	88.25
381.282	95.25
381.507	74.25
381.733	100.25
381.958	92.25
382.184	79.25
382.409	74.25
382.634	96.25
382.86	89.25
383.085	86.25
383.31	88.25
383.535	82.25
383.761	91.25
383.986	86.25
384.211	82.25
384.436	83.25
384.662	82.25
384.887	95.25
385.112	82.25
385.337	77.25
385.562	91.25
385.787	86.25
386.013	99.25
386.238	76.25
386.463	86.25
386.688	105.25
386.913	77.25
387.138	86.25
387.363	81.25
387.588	77.25
387.813	80.25
388.038	81.25
388.263	76.25
388.488	78.25
388.713	86.25
388.938	78.25
389.163	90.25
389.387	98.25
389.612	82.25
389.837	88.25
390.062	75.25
390.287	72.25
390.512	94.25
390.736	94.25
390.961	81.25
391.186	80.25
391.411	75.25
391.636	66.25
391.86	79.25
392.085	84.25
392.31	99.25
392.534	92.25
392.759	88.25
392.984	101.25
393.208	130.25
393.433	167.25
393.658	146.25
393.882	93.25
394.107	90.25
394.331	87.25
394.556	100.25
394.78	87.25
395.005	73.25
395.229	88.25
395.454	89.25
395.678	84.25
395.903	94.25
396.127	94.25
396.352	96.25
396.576	112.25
396.801	137.25
397.025	156.25
397.249	114.25
397.474	99.25
397.698	99.25
397.922	88.25
398.147	91.25
398.371	86.25
398.595	95.25
398.82	77.25
399.044	97.25
399.268	75.25
399.492	84.25
399.717	72.25
399.941	74.25
400.165	79.25
400.389	72.25
400.613	71.25
400.837	89.25
401.062	80.25
401.286	75.25
401.51	78.25
401.734	79.25
401.958	75.25
402.182	83.25
402.406	85.25
402.63	90.25
402.854	77.25
403.078	96.25
403.302	82.25
403.526	72.25
403.75	80.25
403.974	76.25
404.198	72.25
404.422	78.25
404.645	92.25
404.869	70.25
405.093	88.25
405.317	86.25
405.541	68.25
405.765	82.25
405.988	84.25
406.212	98.25
406.436	89.25
406.66	95.25
406.883	73.25
407.107	78.25
407.331	87.25
407.555	73.25
407.778	86.25
408.002	98.25
408.226	103.25
408.449	82.25
408.673	97.25
408.896	73.25
409.12	86.25
409.344	94.25
409.567	84.25
409.791	76.25
410.014	90.25
410.238	71.25
410.461	88.25
410.685	92.25
410.908	96.25
411.132	75.25
411.355	91.25
411.578	90.25
411.802	76.25
412.025	83.25
412.249	91.25
412.472	81.25
412.695	87.25
412.919	86.25
413.142	87.25
413.365	75.25
413.589	91.25
413.812	81.25
414.035	90.25
414.258	71.25
414.482	74.25
414.705	77.25
414.928	75.25
415.151	78.25
415.374	75.25
415.597	72.25
415.821	85.25
416.044	74.25
416.267	83.25
416.49	88.25
416.713	83.25
416.936	79.25
417.159	83.25
417.382	94.25
417.605	90.25
417.828	82.25
418.051	91.25
418.274	89.25
418.497	93.25
418.72	82.25
418.943	80.25
419.166	86.25
419.389	83.25
419.611	85.25
419.834	79.25
420.057	76.25
420.28	98.25
420.503	91.25
420.726	90.25
420.948	89.25
421.171	80.25
421.394	88.25
421.617	90.25
421.839	87.25
422.062	89.25
422.285	109.25
422.507	146.25
422.73	180.25
422.953	172.25
423.175	136.25
423.398	94.25
423.621	97.25
423.843	75.25
424.066	86.25
424.288	89.25
424.511	84.25
424.733	81.25
424.956	81.25
425.178	85.25
425.401	92.25
425.623	85.25
425.846	90.25
426.068	79.25
426.291	73.25
426.513	68.25
426.735	84.25
426.958	93.25
427.18	84.25
427.402	74.25
427.625	81.25
427.847	76.25
428.069	95.25
428.292	80.25
428.514	96.25
428.736	88.25
428.958	98.25
429.181	100.25
429.403	78.25
429.625	84.25
429.847	98.25
430.069	107.25
430.292	108.25
430.514	83.25
430.736	86.25
430.958	87.25
431.18	86.25
431.402	92.25
431.624	92.25
431.846	85.25
432.068	94.25
432.29	83.25
432.512	62.25
432.734	75.25
432.956	78.25
433.178	91.25
433.4	84.25
433.622	91.25
433.844	84.25
434.066	87.25
434.287	76.25
434.509	87.25
434.731	84.25
434.953	93.25
435.175	95.25
435.397	74.25
435.618	82.25
435.84	79.25
436.062	75.25
436.284	84.25
436.505	79.25
436.727	92.25
436.949	83.25
437.17	95.25
437.392	84.25
437.614	77.25
437.835	94.25
438.057	76.25
438.278	100.25
438.5	95.25
438.721	80.25
438.943	85.25
439.165	81.25
439.386	81.25
439.608	77.25
439.829	84.25
440.05	92.25
440.272	77.25
440.493	74.25
440.715	87.25
440.936	84.25
441.158	92.25
441.379	72.25
441.6	75.25
441.822	89.25
442.043	71.25
442.264	80.25
442.486	99.25
442.707	117.25
442.928	89.25
443.149	98.25
443.371	100.25
443.592	129.25
443.813	120.25
444.034	90.25
444.255	75.25
444.476	94.25
444.698	87.25
444.919	75.25
445.14	146.25
445.361	141.25
445.582	144.25
445.803	120.25
446.024	89.25
446.245	76.25
446.466	89.25
446.687	77.25
446.908	87.25
447.129	80.25
447.35	80.25
447.571	92.25
447.792	79.25
448.013	95.25
448.234	89.25
448.455	74.25
448.675	82.25
448.896	77.25
449.117	83.25
449.338	83.25
449.559	84.25
449.779	67.25
450	83.25
450.221	92.25
450.442	73.25
450.662	81.25
450.883	76.25
451.104	80.25
451.324	84.25
451.545	81.25
451.766	84.25
451.986	67.25
452.207	74.25
452.428	84.25
452.648	58.25
452.869	73.25
453.089	76.25
453.31	71.25
453.53	89.25
453.751	78.25
453.971	76.25
454.192	92.25
454.412	76.25
454.633	92.25
454.853	69.25
455.073	64.25
455.294	89.25
455.514	89.25
455.734	68.25
455.955	88.25
456.175	83.25
456.395	78.25
456.616	84.25
456.836	74.25
457.056	79.25
457.276	75.25
457.497	66.25
457.717	82.25
457.937	82.25
458.157	74.25
458.377	84.25
458.598	68.25
458.818	96.25
459.038	82.25
459.258	78.25
459.478	75.25
459.698	82.25
459.918	87.25
460.138	84.25
460.358	81.25
460.578	85.25
460.798	88.25
461.018	92.25
461.238	95.25
461.458	94.25
461.678	83.25
461.898	97.25
462.118	84.25
462.338	67.25
462.558	76.25
462.777	84.25
462.997	83.25
463.217	75.25
463.437	91.25
463.657	98.25
463.876	78.25
464.096	75.25
464.316	71.25
464.536	84.25
464.755	91.25
464.975	90.25
465.195	71.25
465.414	96.25
465.634	91.25
465.854	96.25
466.073	94.25
466.293	77.25
466.512	82.25
466.732	78.25
466.951	76.25
467.171	81.25
467.391	75.25
467.61	86.25
467.829	91.25
468.049	84.25
468.268	88.25
468.488	83.25
468.707	72.25
468.927	82.25
469.146	74.25
469.365	77.25
469.585	73.25
469.804	77.25
470.023	79.25
470.243	73.25
470.462	68.25
470.681	85.25
470.901	78.25
471.12	92.25
471.339	89.25
471.558	96.25
471.777	80.25
471.997	78.25
472.216	67.25
472.435	84.25
472.654	81.25
472.873	87.25
473.092	70.25
473.311	92.25
473.53	74.25
473.749	76.25
473.968	77.25
474.187	82.25
474.406	83.25
474.625	88.25
474.844	83.25
475.063	94.25
475.282	92.25
475.501	94.25
475.72	84.25
475.939	91.25
476.158	74.25
476.377	77.25
476.596	88.25
476.814	88.25
477.033	103.25
477.252	66.25
477.471	68.25
477.69	81.25
477.908	82.25
478.127	78.25
478.346	76.25
478.564	81.25
478.783	86.25
479.002	76.25
479.22	83.25
479.439	74.25
479.658	90.25
479.876	87.25
480.095	79.25
480.313	82.25
480.532	87.25
480.751	96.25
480.969	81.25
481.188	91.25
481.406	96.25
481.624	91.25
481.843	91.25
482.061	68.25
482.28	82.25
482.498	81.25
482.717	77.25
482.935	85.25
483.153	74.25
483.372	90.25
483.59	91.25
483.808	78.25
484.027	87.25
484.245	95.25
484.463	71.25
484.681	85.25
484.9	86.25
485.118	75.25
485.336	80.25
485.554	80.25
485.772	76.25
485.99	73.25
486.209	78.25
486.427	74.25
486.645	69.25
486.863	86.25
487.081	87.25
487.299	85.25
487.517	97.25
487.735	96.25
487.953	95.25
488.171	103.25
488.389	72.25
488.607	88.25
488.825	85.25
489.043	64.25
489.261	100.25
489.479	86.25
489.696	72.25
489.914	82.25
490.132	86.25
490.35	95.25
490.568	91.25
490.786	62.25
491.003	71.25
491.221	82.25
491.439	88.25
491.657	82.25
491.874	92.25
492.092	92.25
492.31	79.25
492.527	69.25
492.745	90.25
492.963	72.25
493.18	88.25
493.398	91.25
493.615	86.25
493.833	90.25
494.05	90.25
494.268	55.25
494.485	84.25
494.703	74.25
494.92	91.25
495.138	97.25
495.355	88.25
495.573	84.25
495.79	84.25
496.008	79.25
496.225	82.25
496.442	94.25
496.66	93.25
496.877	92.25
497.094	85.25
497.312	85.25
497.529	77.25
497.746	78.25
497.963	76.25
498.181	89.25
498.398	92.25
498.615	86.25
498.832	78.25
499.049	76.25
499.267	81.25
499.484	78.25
499.701	78.25
499.918	83.25
500.135	77.25
500.352	90.25
500.569	86.25
500.786	97.25
501.003	82.25
501.22	80.25
501.437	83.25
501.654	70.25
501.871	84.25
502.088	74.25
502.305	87.25
502.522	77.25
502.739	85.25
502.956	92.25
503.172	79.25
503.389	84.25
503.606	89.25
503.823	89.25
504.04	76.25
504.256	91.25
504.473	80.25
504.69	81.25
504.907	80.25
505.123	72.25
505.34	81.25
505.557	86.25
505.773	77.25
505.99	73.25
506.207	82.25
506.423	88.25
506.64	99.25
506.856	80.25
507.073	88.25
507.289	73.25
507.506	90.25
507.722	88.25
507.939	71.25
508.155	92.25
508.372	84.25
508.588	84.25
508.805	87.25
509.021	84.25
509.238	85.25
509.454	86.25
509.67	83.25
509.887	71.25
510.103	85.25
510.319	82.25
510.536	83.25
510.752	88.25
510.968	71.25
511.184	76.25
511.401	86.25
511.617	94.25
511.833	83.25
512.049	88.25
512.265	74.25
512.481	88.25
512.698	72.25
512.914	77.25
513.13	75.25
513.346	76.25
513.562	93.25
513.778	87.25
513.994	84.25
514.21	87.25
514.426	94.25
514.642	83.25
514.858	79.25
515.074	85.25
515.29	77.25
515.506	85.25
515.721	81.25
515.937	84.25
516.153	82.25
516.369	82.25
516.585	88.25
516.801	99.25
517.016	77.25
517.232	82.25
517.448	89.25
517.664	85.25
517.879	81.25
518.095	69.25
518.311	92.25
518.527	92.25
518.742	94.25
518.958	98.25
519.173	107.25
519.389	101.25
519.605	78.25
