Data from 17600_3_HRD10591_00026.txt Node
Date: Mon Jan 19 14:09:36 EST 2026
User: Yrep
Spectrometer: HR+D1059
Trigger mode: 1
Integration Time (sec): 1.000000E-1
Scans to average: 1
Electric dark correction enabled: true
Nonlinearity correction enabled: false
Boxcar width: 0
XAxis mode: Wavelengths
Number of Pixels in Spectrum: 2048
>>>>>Begin Spectral Data<<<<<
223.165	-15.38
223.4	-15.38
223.635	-15.38
223.869	-21.38
224.104	-28.38
224.338	-5.38
224.573	-30.38
224.808	-29.38
225.042	-1.38
225.277	-5.38
225.511	1.62
225.746	3.62
225.98	18.62
226.215	10.62
226.449	21.62
226.683	24.62
226.918	25.62
227.152	30.62
227.387	36.62
227.621	43.62
227.856	38.62
228.09	48.62
228.324	53.62
228.559	58.62
228.793	56.62
229.027	65.62
229.262	70.62
229.496	82.62
229.73	85.62
229.964	60.62
230.199	78.62
230.433	71.62
230.667	85.62
230.901	77.62
231.136	72.62
231.37	79.62
231.604	75.62
231.838	75.62
232.072	75.62
232.306	86.62
232.541	91.62
232.775	86.62
233.009	76.62
233.243	75.62
233.477	84.62
233.711	84.62
233.945	79.62
234.179	82.62
234.413	99.62
234.647	70.62
234.881	67.62
235.115	77.62
235.349	77.62
235.583	94.62
235.817	73.62
236.051	72.62
236.285	78.62
236.519	81.62
236.753	78.62
236.987	79.62
237.221	74.62
237.455	82.62
237.689	78.62
237.922	77.62
238.156	79.62
238.39	68.62
238.624	79.62
238.858	80.62
239.091	89.62
239.325	75.62
239.559	75.62
239.793	80.62
240.027	57.62
240.26	76.62
240.494	77.62
240.728	68.62
240.961	76.62
241.195	89.62
241.429	71.62
241.662	73.62
241.896	69.62
242.13	68.62
242.363	70.62
242.597	79.62
242.83	78.62
243.064	84.62
243.298	81.62
243.531	74.62
243.765	88.62
243.998	85.62
244.232	74.62
244.465	71.62
244.699	67.62
244.932	83.62
245.166	74.62
245.399	80.62
245.633	90.62
245.866	81.62
246.099	70.62
246.333	82.62
246.566	86.62
246.8	82.62
247.033	72.62
247.266	92.62
247.5	83.62
247.733	85.62
247.966	83.62
248.2	74.62
248.433	68.62
248.666	90.62
248.899	98.62
249.133	89.62
249.366	81.62
249.599	73.62
249.832	74.62
250.066	85.62
250.299	71.62
250.532	66.62
250.765	75.62
250.998	70.62
251.231	77.62
251.465	75.62
251.698	81.62
251.931	70.62
252.164	82.62
252.397	79.62
252.63	71.62
252.863	85.62
253.096	78.62
253.329	80.62
253.562	95.62
253.795	83.62
254.028	81.62
254.261	88.62
254.494	82.62
254.727	81.62
254.96	66.62
255.193	69.62
255.426	84.62
255.659	73.62
255.892	79.62
256.124	95.62
256.357	92.62
256.59	71.62
256.823	80.62
257.056	81.62
257.289	91.62
257.521	79.62
257.754	83.62
257.987	75.62
258.22	85.62
258.452	96.62
258.685	83.62
258.918	88.62
259.151	77.62
259.383	80.62
259.616	85.62
259.849	82.62
260.081	77.62
260.314	81.62
260.547	70.62
260.779	82.62
261.012	85.62
261.244	66.62
261.477	81.62
261.71	78.62
261.942	97.62
262.175	88.62
262.407	74.62
262.64	78.62
262.872	85.62
263.105	84.62
263.337	82.62
263.57	78.62
263.802	85.62
264.035	73.62
264.267	83.62
264.499	73.62
264.732	82.62
264.964	83.62
265.197	74.62
265.429	89.62
265.661	78.62
265.894	93.62
266.126	86.62
266.358	88.62
266.591	77.62
266.823	85.62
267.055	85.62
267.287	84.62
267.52	85.62
267.752	86.62
267.984	77.62
268.216	93.62
268.448	86.62
268.681	89.62
268.913	88.62
269.145	86.62
269.377	81.62
269.609	82.62
269.841	82.62
270.073	84.62
270.306	77.62
270.538	81.62
270.77	71.62
271.002	85.62
271.234	83.62
271.466	96.62
271.698	87.62
271.93	74.62
272.162	89.62
272.394	86.62
272.626	81.62
272.858	83.62
273.09	86.62
273.322	84.62
273.553	74.62
273.785	81.62
274.017	76.62
274.249	91.62
274.481	74.62
274.713	81.62
274.945	91.62
275.176	104.62
275.408	83.62
275.64	65.62
275.872	89.62
276.104	91.62
276.335	83.62
276.567	86.62
276.799	91.62
277.031	84.62
277.262	92.62
277.494	81.62
277.726	87.62
277.957	83.62
278.189	87.62
278.421	83.62
278.652	72.62
278.884	74.62
279.115	93.62
279.347	79.62
279.579	87.62
279.81	87.62
280.042	74.62
280.273	83.62
280.505	84.62
280.736	91.62
280.968	90.62
281.199	97.62
281.431	91.62
281.662	82.62
281.894	88.62
282.125	87.62
282.356	85.62
282.588	89.62
282.819	91.62
283.051	90.62
283.282	79.62
283.513	83.62
283.745	85.62
283.976	102.62
284.207	86.62
284.439	82.62
284.67	90.62
284.901	83.62
285.132	77.62
285.364	84.62
285.595	93.62
285.826	88.62
286.057	84.62
286.288	77.62
286.52	77.62
286.751	83.62
286.982	94.62
287.213	92.62
287.444	80.62
287.675	87.62
287.906	75.62
288.138	99.62
288.369	85.62
288.6	83.62
288.831	90.62
289.062	92.62
289.293	84.62
289.524	90.62
289.755	94.62
289.986	74.62
290.217	80.62
290.448	80.62
290.679	89.62
290.91	91.62
291.141	84.62
291.371	91.62
291.602	95.62
291.833	92.62
292.064	90.62
292.295	83.62
292.526	80.62
292.757	79.62
292.987	76.62
293.218	73.62
293.449	87.62
293.68	108.62
293.91	79.62
294.141	88.62
294.372	69.62
294.603	76.62
294.833	89.62
295.064	84.62
295.295	74.62
295.525	85.62
295.756	95.62
295.987	85.62
296.217	90.62
296.448	83.62
296.679	77.62
296.909	86.62
297.14	76.62
297.37	88.62
297.601	96.62
297.831	81.62
298.062	82.62
298.292	85.62
298.523	97.62
298.753	85.62
298.984	90.62
299.214	80.62
299.445	88.62
299.675	95.62
299.905	71.62
300.136	78.62
300.366	83.62
300.597	99.62
300.827	86.62
301.057	80.62
301.288	85.62
301.518	66.62
301.748	79.62
301.979	103.62
302.209	91.62
302.439	91.62
302.669	84.62
302.9	85.62
303.13	83.62
303.36	93.62
303.59	91.62
303.82	94.62
304.051	84.62
304.281	79.62
304.511	95.62
304.741	76.62
304.971	94.62
305.201	93.62
305.431	97.62
305.661	89.62
305.891	82.62
306.121	89.62
306.352	77.62
306.582	87.62
306.812	93.62
307.042	91.62
307.272	87.62
307.502	81.62
307.731	99.62
307.961	84.62
308.191	87.62
308.421	91.62
308.651	79.62
308.881	87.62
309.111	83.62
309.341	74.62
309.571	100.62
309.8	85.62
310.03	96.62
310.26	85.62
310.49	77.62
310.72	92.62
310.949	78.62
311.179	77.62
311.409	95.62
311.639	81.62
311.868	92.62
312.098	76.62
312.328	92.62
312.557	84.62
312.787	84.62
313.017	100.62
313.246	100.62
313.476	104.62
313.706	92.62
313.935	91.62
314.165	83.62
314.394	83.62
314.624	78.62
314.853	100.62
315.083	91.62
315.312	81.62
315.542	98.62
315.771	90.62
316.001	89.62
316.23	81.62
316.46	85.62
316.689	88.62
316.919	93.62
317.148	89.62
317.377	82.62
317.607	107.62
317.836	99.62
318.065	84.62
318.295	85.62
318.524	81.62
318.753	76.62
318.983	78.62
319.212	87.62
319.441	90.62
319.67	94.62
319.9	96.62
320.129	82.62
320.358	88.62
320.587	109.62
320.816	82.62
321.046	89.62
321.275	87.62
321.504	87.62
321.733	83.62
321.962	84.62
322.191	88.62
322.42	102.62
322.649	105.62
322.878	79.62
323.108	85.62
323.337	81.62
323.566	84.62
323.795	88.62
324.024	93.62
324.253	85.62
324.482	74.62
324.71	78.62
324.939	91.62
325.168	83.62
325.397	93.62
325.626	93.62
325.855	92.62
326.084	89.62
326.313	74.62
326.542	93.62
326.77	87.62
326.999	93.62
327.228	91.62
327.457	78.62
327.686	91.62
327.914	77.62
328.143	87.62
328.372	93.62
328.6	92.62
328.829	94.62
329.058	84.62
329.287	77.62
329.515	86.62
329.744	72.62
329.972	95.62
330.201	93.62
330.43	80.62
330.658	89.62
330.887	102.62
331.115	88.62
331.344	86.62
331.572	83.62
331.801	80.62
332.03	91.62
332.258	76.62
332.486	83.62
332.715	84.62
332.943	80.62
333.172	78.62
333.4	99.62
333.629	91.62
333.857	74.62
334.085	90.62
334.314	82.62
334.542	78.62
334.771	74.62
334.999	80.62
335.227	90.62
335.455	91.62
335.684	94.62
335.912	89.62
336.14	87.62
336.369	102.62
336.597	102.62
336.825	94.62
337.053	83.62
337.281	79.62
337.51	80.62
337.738	87.62
337.966	68.62
338.194	77.62
338.422	90.62
338.65	79.62
338.878	96.62
339.106	65.62
339.334	99.62
339.562	81.62
339.79	90.62
340.018	89.62
340.246	90.62
340.474	77.62
340.702	84.62
340.93	85.62
341.158	82.62
341.386	95.62
341.614	90.62
341.842	78.62
342.07	75.62
342.298	88.62
342.526	76.62
342.754	94.62
342.981	81.62
343.209	79.62
343.437	89.62
343.665	82.62
343.893	77.62
344.12	92.62
344.348	82.62
344.576	78.62
344.804	81.62
345.031	94.62
345.259	103.62
345.487	85.62
345.714	84.62
345.942	90.62
346.17	77.62
346.397	83.62
346.625	86.62
346.853	78.62
347.08	71.62
347.308	74.62
347.535	82.62
347.763	84.62
347.99	74.62
348.218	75.62
348.445	96.62
348.673	87.62
348.9	107.62
349.128	86.62
349.355	95.62
349.583	85.62
349.81	83.62
350.037	75.62
350.265	84.62
350.492	86.62
350.72	77.62
350.947	84.62
351.174	69.62
351.402	95.62
351.629	92.62
351.856	95.62
352.083	86.62
352.311	90.62
352.538	75.62
352.765	88.62
352.992	99.62
353.22	85.62
353.447	89.62
353.674	96.62
353.901	87.62
354.128	85.62
354.355	87.62
354.583	79.62
354.81	84.62
355.037	90.62
355.264	88.62
355.491	87.62
355.718	83.62
355.945	87.62
356.172	83.62
356.399	74.62
356.626	69.62
356.853	83.62
357.08	91.62
357.307	90.62
357.534	65.62
357.761	88.62
357.988	85.62
358.215	70.62
358.441	85.62
358.668	81.62
358.895	79.62
359.122	94.62
359.349	94.62
359.576	96.62
359.802	79.62
360.029	92.62
360.256	91.62
360.483	89.62
360.709	92.62
360.936	96.62
361.163	89.62
361.39	107.62
361.616	94.62
361.843	100.62
362.07	91.62
362.296	82.62
362.523	78.62
362.749	79.62
362.976	91.62
363.203	84.62
363.429	80.62
363.656	75.62
363.882	76.62
364.109	91.62
364.335	94.62
364.562	93.62
364.788	88.62
365.015	103.62
365.241	77.62
365.468	88.62
365.694	81.62
365.92	92.62
366.147	93.62
366.373	74.62
366.599	83.62
366.826	71.62
367.052	105.62
367.278	82.62
367.505	76.62
367.731	100.62
367.957	85.62
368.184	70.62
368.41	81.62
368.636	86.62
368.862	89.62
369.089	82.62
369.315	96.62
369.541	92.62
369.767	90.62
369.993	99.62
370.219	70.62
370.445	82.62
370.672	96.62
370.898	100.62
371.124	84.62
371.35	90.62
371.576	84.62
371.802	71.62
372.028	88.62
372.254	63.62
372.48	78.62
372.706	80.62
372.932	97.62
373.158	85.62
373.384	75.62
373.61	94.62
373.835	86.62
374.061	82.62
374.287	77.62
374.513	83.62
374.739	76.62
374.965	83.62
375.191	70.62
375.416	85.62
375.642	77.62
375.868	94.62
376.094	76.62
376.319	84.62
376.545	80.62
376.771	83.62
376.997	81.62
377.222	101.62
377.448	94.62
377.674	88.62
377.899	93.62
378.125	84.62
378.35	91.62
378.576	75.62
378.802	90.62
379.027	100.62
379.253	105.62
379.478	97.62
379.704	71.62
379.929	90.62
380.155	83.62
380.38	84.62
380.606	96.62
380.831	87.62
381.057	84.62
381.282	87.62
381.507	79.62
381.733	89.62
381.958	82.62
382.184	80.62
382.409	68.62
382.634	92.62
382.86	92.62
383.085	86.62
383.31	96.62
383.535	91.62
383.761	111.62
383.986	90.62
384.211	74.62
384.436	76.62
384.662	87.62
384.887	83.62
385.112	81.62
385.337	92.62
385.562	85.62
385.787	97.62
386.013	105.62
386.238	86.62
386.463	76.62
386.688	91.62
386.913	84.62
387.138	89.62
387.363	78.62
387.588	86.62
387.813	80.62
388.038	87.62
388.263	89.62
388.488	80.62
388.713	76.62
388.938	90.62
389.163	85.62
389.387	73.62
389.612	71.62
389.837	83.62
390.062	69.62
390.287	74.62
390.512	83.62
390.736	82.62
390.961	90.62
391.186	84.62
391.411	76.62
391.636	87.62
391.86	78.62
392.085	88.62
392.31	82.62
392.534	84.62
392.759	89.62
392.984	99.62
393.208	107.62
393.433	122.62
393.658	109.62
393.882	77.62
394.107	85.62
394.331	88.62
394.556	83.62
394.78	83.62
395.005	86.62
395.229	89.62
395.454	92.62
395.678	97.62
395.903	90.62
396.127	88.62
396.352	92.62
396.576	100.62
396.801	112.62
397.025	128.62
397.249	92.62
397.474	99.62
397.698	89.62
397.922	85.62
398.147	96.62
398.371	91.62
398.595	94.62
398.82	88.62
399.044	82.62
399.268	88.62
399.492	87.62
399.717	89.62
399.941	78.62
400.165	84.62
400.389	93.62
400.613	105.62
400.837	86.62
401.062	84.62
401.286	90.62
401.51	78.62
401.734	82.62
401.958	86.62
402.182	80.62
402.406	85.62
402.63	83.62
402.854	85.62
403.078	72.62
403.302	79.62
403.526	80.62
403.75	83.62
403.974	70.62
404.198	61.62
404.422	87.62
404.645	86.62
404.869	77.62
405.093	83.62
405.317	80.62
405.541	85.62
405.765	89.62
405.988	79.62
406.212	77.62
406.436	79.62
406.66	93.62
406.883	75.62
407.107	88.62
407.331	78.62
407.555	70.62
407.778	102.62
408.002	82.62
408.226	85.62
408.449	78.62
408.673	85.62
408.896	85.62
409.12	77.62
409.344	80.62
409.567	68.62
409.791	86.62
410.014	91.62
410.238	79.62
410.461	70.62
410.685	77.62
410.908	81.62
411.132	81.62
411.355	82.62
411.578	87.62
411.802	78.62
412.025	83.62
412.249	83.62
412.472	77.62
412.695	91.62
412.919	73.62
413.142	66.62
413.365	93.62
413.589	82.62
413.812	85.62
414.035	78.62
414.258	77.62
414.482	76.62
414.705	77.62
414.928	77.62
415.151	82.62
415.374	67.62
415.597	74.62
415.821	82.62
416.044	94.62
416.267	85.62
416.49	85.62
416.713	79.62
416.936	77.62
417.159	67.62
417.382	81.62
417.605	85.62
417.828	72.62
418.051	81.62
418.274	78.62
418.497	76.62
418.72	89.62
418.943	86.62
419.166	98.62
419.389	91.62
419.611	97.62
419.834	85.62
420.057	98.62
420.28	85.62
420.503	82.62
420.726	91.62
420.948	75.62
421.171	76.62
421.394	82.62
421.617	82.62
421.839	82.62
422.062	88.62
422.285	98.62
422.507	98.62
422.73	127.62
422.953	130.62
423.175	87.62
423.398	79.62
423.621	75.62
423.843	75.62
424.066	72.62
424.288	91.62
424.511	84.62
424.733	84.62
424.956	89.62
425.178	85.62
425.401	84.62
425.623	97.62
425.846	75.62
426.068	78.62
426.291	82.62
426.513	90.62
426.735	73.62
426.958	72.62
427.18	89.62
427.402	70.62
427.625	77.62
427.847	78.62
428.069	76.62
428.292	86.62
428.514	85.62
428.736	83.62
428.958	81.62
429.181	78.62
429.403	72.62
429.625	88.62
429.847	81.62
430.069	95.62
430.292	96.62
430.514	82.62
430.736	101.62
430.958	87.62
431.18	88.62
431.402	81.62
431.624	78.62
431.846	91.62
432.068	83.62
432.29	72.62
432.512	91.62
432.734	85.62
432.956	85.62
433.178	95.62
433.4	89.62
433.622	72.62
433.844	87.62
434.066	67.62
434.287	78.62
434.509	91.62
434.731	72.62
434.953	70.62
435.175	72.62
435.397	74.62
435.618	72.62
435.84	95.62
436.062	90.62
436.284	79.62
436.505	102.62
436.727	87.62
436.949	68.62
437.17	84.62
437.392	78.62
437.614	69.62
437.835	90.62
438.057	70.62
438.278	79.62
438.5	92.62
438.721	87.62
438.943	79.62
439.165	101.62
439.386	87.62
439.608	70.62
439.829	80.62
440.05	85.62
440.272	83.62
440.493	84.62
440.715	91.62
440.936	80.62
441.158	78.62
441.379	76.62
441.6	96.62
441.822	97.62
442.043	79.62
442.264	98.62
442.486	87.62
442.707	98.62
442.928	85.62
443.149	100.62
443.371	96.62
443.592	77.62
443.813	106.62
444.034	78.62
444.255	89.62
444.476	71.62
444.698	77.62
444.919	77.62
445.14	153.62
445.361	125.62
445.582	110.62
445.803	93.62
446.024	82.62
446.245	93.62
446.466	93.62
446.687	80.62
446.908	85.62
447.129	78.62
447.35	84.62
447.571	93.62
447.792	70.62
448.013	81.62
448.234	80.62
448.455	88.62
448.675	77.62
448.896	74.62
449.117	84.62
449.338	81.62
449.559	77.62
449.779	80.62
450	97.62
450.221	78.62
450.442	94.62
450.662	79.62
450.883	79.62
451.104	87.62
451.324	83.62
451.545	93.62
451.766	86.62
451.986	69.62
452.207	90.62
452.428	85.62
452.648	83.62
452.869	80.62
453.089	79.62
453.31	83.62
453.53	78.62
453.751	96.62
453.971	87.62
454.192	74.62
454.412	92.62
454.633	80.62
454.853	88.62
455.073	79.62
455.294	87.62
455.514	72.62
455.734	75.62
455.955	95.62
456.175	73.62
456.395	75.62
456.616	76.62
456.836	79.62
457.056	72.62
457.276	71.62
457.497	87.62
457.717	87.62
457.937	71.62
458.157	73.62
458.377	87.62
458.598	81.62
458.818	77.62
459.038	80.62
459.258	99.62
459.478	82.62
459.698	86.62
459.918	72.62
460.138	70.62
460.358	79.62
460.578	79.62
460.798	93.62
461.018	92.62
461.238	82.62
461.458	87.62
461.678	74.62
461.898	87.62
462.118	79.62
462.338	82.62
462.558	78.62
462.777	88.62
462.997	94.62
463.217	78.62
463.437	84.62
463.657	83.62
463.876	83.62
464.096	79.62
464.316	86.62
464.536	82.62
464.755	91.62
464.975	92.62
465.195	73.62
465.414	88.62
465.634	94.62
465.854	72.62
466.073	77.62
466.293	96.62
466.512	84.62
466.732	85.62
466.951	78.62
467.171	97.62
467.391	88.62
467.61	77.62
467.829	83.62
468.049	80.62
468.268	99.62
468.488	78.62
468.707	87.62
468.927	81.62
469.146	97.62
469.365	82.62
469.585	86.62
469.804	83.62
470.023	84.62
470.243	87.62
470.462	80.62
470.681	85.62
470.901	84.62
471.12	86.62
471.339	98.62
471.558	87.62
471.777	89.62
471.997	90.62
472.216	93.62
472.435	85.62
472.654	89.62
472.873	96.62
473.092	87.62
473.311	86.62
473.53	85.62
473.749	68.62
473.968	87.62
474.187	89.62
474.406	90.62
474.625	79.62
474.844	77.62
475.063	84.62
475.282	83.62
475.501	91.62
475.72	91.62
475.939	82.62
476.158	97.62
476.377	93.62
476.596	77.62
476.814	86.62
477.033	84.62
477.252	74.62
477.471	85.62
477.69	75.62
477.908	71.62
478.127	90.62
478.346	79.62
478.564	86.62
478.783	76.62
479.002	77.62
479.22	95.62
479.439	95.62
479.658	92.62
479.876	91.62
480.095	71.62
480.313	100.62
480.532	95.62
480.751	76.62
480.969	101.62
481.188	88.62
481.406	75.62
481.624	77.62
481.843	77.62
482.061	71.62
482.28	79.62
482.498	83.62
482.717	78.62
482.935	73.62
483.153	97.62
483.372	80.62
483.59	63.62
483.808	81.62
484.027	85.62
484.245	82.62
484.463	82.62
484.681	85.62
484.9	82.62
485.118	84.62
485.336	85.62
485.554	79.62
485.772	75.62
485.99	74.62
486.209	98.62
486.427	80.62
486.645	79.62
486.863	81.62
487.081	77.62
487.299	80.62
487.517	85.62
487.735	90.62
487.953	92.62
488.171	79.62
488.389	98.62
488.607	100.62
488.825	90.62
489.043	86.62
489.261	98.62
489.479	80.62
489.696	88.62
489.914	73.62
490.132	80.62
490.35	87.62
490.568	78.62
490.786	92.62
491.003	88.62
491.221	86.62
491.439	76.62
491.657	90.62
491.874	94.62
492.092	80.62
492.31	80.62
492.527	80.62
492.745	78.62
492.963	70.62
493.18	90.62
493.398	81.62
493.615	80.62
493.833	80.62
494.05	80.62
494.268	96.62
494.485	93.62
494.703	84.62
494.92	97.62
495.138	98.62
495.355	86.62
495.573	86.62
495.79	82.62
496.008	83.62
496.225	96.62
496.442	82.62
496.66	80.62
496.877	90.62
497.094	91.62
497.312	81.62
497.529	91.62
497.746	86.62
497.963	79.62
498.181	80.62
498.398	84.62
498.615	94.62
498.832	75.62
499.049	81.62
499.267	76.62
499.484	83.62
499.701	69.62
499.918	84.62
500.135	79.62
500.352	78.62
500.569	87.62
500.786	84.62
501.003	84.62
501.22	88.62
501.437	77.62
501.654	84.62
501.871	99.62
502.088	91.62
502.305	77.62
502.522	85.62
502.739	89.62
502.956	89.62
503.172	73.62
503.389	82.62
503.606	77.62
503.823	92.62
504.04	92.62
504.256	87.62
504.473	89.62
504.69	87.62
504.907	82.62
505.123	93.62
505.34	87.62
505.557	84.62
505.773	80.62
505.99	79.62
506.207	87.62
506.423	101.62
506.64	88.62
506.856	94.62
507.073	82.62
507.289	80.62
507.506	82.62
507.722	77.62
507.939	100.62
508.155	90.62
508.372	85.62
508.588	94.62
508.805	84.62
509.021	90.62
509.238	76.62
509.454	97.62
509.67	88.62
509.887	74.62
510.103	87.62
510.319	83.62
510.536	101.62
510.752	84.62
510.968	93.62
511.184	71.62
511.401	90.62
511.617	79.62
511.833	83.62
512.049	81.62
512.265	79.62
512.481	89.62
512.698	85.62
512.914	82.62
513.13	90.62
513.346	87.62
513.562	81.62
513.778	74.62
513.994	84.62
514.21	87.62
514.426	75.62
514.642	82.62
514.858	83.62
515.074	83.62
515.29	85.62
515.506	75.62
515.721	97.62
515.937	77.62
516.153	91.62
516.369	90.62
516.585	87.62
516.801	86.62
517.016	85.62
517.232	92.62
517.448	94.62
517.664	82.62
517.879	89.62
518.095	84.62
518.311	87.62
518.527	98.62
518.742	88.62
518.958	86.62
519.173	99.62
519.389	77.62
519.605	77.62
