Data from 17600_3_HRD10591_00044.txt Node
Date: Mon Jan 19 14:09:45 EST 2026
User: Yrep
Spectrometer: HR+D1059
Trigger mode: 1
Integration Time (sec): 1.000000E-1
Scans to average: 1
Electric dark correction enabled: true
Nonlinearity correction enabled: false
Boxcar width: 0
XAxis mode: Wavelengths
Number of Pixels in Spectrum: 2048
>>>>>Begin Spectral Data<<<<<
223.165	-26.88
223.4	-26.88
223.635	-26.88
223.869	-26.88
224.104	-6.88
224.338	-14.88
224.573	-20.88
224.808	-14.88
225.042	-6.88
225.277	-10.88
225.511	-7.88
225.746	16.12
225.98	7.12
226.215	9.12
226.449	22.12
226.683	19.12
226.918	25.12
227.152	38.12
227.387	41.12
227.621	41.12
227.856	48.12
228.09	52.12
228.324	60.12
228.559	58.12
228.793	67.12
229.027	65.12
229.262	57.12
229.496	64.12
229.73	83.12
229.964	76.12
230.199	67.12
230.433	85.12
230.667	83.12
230.901	76.12
231.136	60.12
231.37	89.12
231.604	80.12
231.838	83.12
232.072	75.12
232.306	90.12
232.541	83.12
232.775	73.12
233.009	92.12
233.243	88.12
233.477	83.12
233.711	75.12
233.945	87.12
234.179	83.12
234.413	85.12
234.647	68.12
234.881	89.12
235.115	86.12
235.349	65.12
235.583	84.12
235.817	85.12
236.051	77.12
236.285	84.12
236.519	67.12
236.753	76.12
236.987	83.12
237.221	78.12
237.455	92.12
237.689	80.12
237.922	76.12
238.156	82.12
238.39	88.12
238.624	75.12
238.858	81.12
239.091	83.12
239.325	77.12
239.559	67.12
239.793	79.12
240.027	91.12
240.26	67.12
240.494	74.12
240.728	68.12
240.961	75.12
241.195	81.12
241.429	84.12
241.662	91.12
241.896	85.12
242.13	67.12
242.363	83.12
242.597	83.12
242.83	93.12
243.064	69.12
243.298	71.12
243.531	81.12
243.765	78.12
243.998	81.12
244.232	75.12
244.465	73.12
244.699	59.12
244.932	71.12
245.166	94.12
245.399	79.12
245.633	73.12
245.866	77.12
246.099	70.12
246.333	83.12
246.566	85.12
246.8	84.12
247.033	75.12
247.266	75.12
247.5	70.12
247.733	77.12
247.966	72.12
248.2	83.12
248.433	89.12
248.666	84.12
248.899	81.12
249.133	68.12
249.366	85.12
249.599	77.12
249.832	73.12
250.066	80.12
250.299	87.12
250.532	89.12
250.765	78.12
250.998	77.12
251.231	73.12
251.465	81.12
251.698	76.12
251.931	74.12
252.164	88.12
252.397	84.12
252.63	76.12
252.863	67.12
253.096	81.12
253.329	67.12
253.562	74.12
253.795	80.12
254.028	84.12
254.261	75.12
254.494	78.12
254.727	83.12
254.96	100.12
255.193	78.12
255.426	99.12
255.659	88.12
255.892	91.12
256.124	83.12
256.357	76.12
256.59	78.12
256.823	76.12
257.056	85.12
257.289	87.12
257.521	82.12
257.754	88.12
257.987	85.12
258.22	83.12
258.452	85.12
258.685	76.12
258.918	71.12
259.151	74.12
259.383	89.12
259.616	81.12
259.849	73.12
260.081	79.12
260.314	74.12
260.547	78.12
260.779	83.12
261.012	95.12
261.244	84.12
261.477	79.12
261.71	74.12
261.942	67.12
262.175	77.12
262.407	101.12
262.64	77.12
262.872	75.12
263.105	72.12
263.337	70.12
263.57	77.12
263.802	97.12
264.035	92.12
264.267	85.12
264.499	88.12
264.732	84.12
264.964	91.12
265.197	61.12
265.429	96.12
265.661	78.12
265.894	71.12
266.126	81.12
266.358	69.12
266.591	90.12
266.823	87.12
267.055	81.12
267.287	87.12
267.52	93.12
267.752	75.12
267.984	74.12
268.216	68.12
268.448	88.12
268.681	90.12
268.913	80.12
269.145	91.12
269.377	91.12
269.609	73.12
269.841	81.12
270.073	83.12
270.306	88.12
270.538	71.12
270.77	95.12
271.002	69.12
271.234	74.12
271.466	81.12
271.698	77.12
271.93	95.12
272.162	87.12
272.394	92.12
272.626	67.12
272.858	93.12
273.09	65.12
273.322	100.12
273.553	86.12
273.785	97.12
274.017	85.12
274.249	95.12
274.481	85.12
274.713	75.12
274.945	88.12
275.176	85.12
275.408	80.12
275.64	91.12
275.872	75.12
276.104	89.12
276.335	83.12
276.567	84.12
276.799	73.12
277.031	67.12
277.262	90.12
277.494	100.12
277.726	82.12
277.957	81.12
278.189	68.12
278.421	93.12
278.652	95.12
278.884	104.12
279.115	99.12
279.347	95.12
279.579	96.12
279.81	101.12
280.042	83.12
280.273	96.12
280.505	80.12
280.736	83.12
280.968	89.12
281.199	88.12
281.431	99.12
281.662	98.12
281.894	97.12
282.125	75.12
282.356	71.12
282.588	78.12
282.819	75.12
283.051	80.12
283.282	75.12
283.513	94.12
283.745	77.12
283.976	91.12
284.207	92.12
284.439	88.12
284.67	87.12
284.901	87.12
285.132	96.12
285.364	83.12
285.595	78.12
285.826	83.12
286.057	95.12
286.288	74.12
286.52	86.12
286.751	91.12
286.982	80.12
287.213	81.12
287.444	89.12
287.675	80.12
287.906	72.12
288.138	79.12
288.369	81.12
288.6	94.12
288.831	89.12
289.062	91.12
289.293	82.12
289.524	76.12
289.755	80.12
289.986	93.12
290.217	86.12
290.448	68.12
290.679	86.12
290.91	90.12
291.141	99.12
291.371	94.12
291.602	96.12
291.833	95.12
292.064	79.12
292.295	65.12
292.526	77.12
292.757	99.12
292.987	84.12
293.218	80.12
293.449	71.12
293.68	88.12
293.91	84.12
294.141	86.12
294.372	87.12
294.603	89.12
294.833	71.12
295.064	85.12
295.295	71.12
295.525	85.12
295.756	98.12
295.987	63.12
296.217	93.12
296.448	89.12
296.679	96.12
296.909	85.12
297.14	81.12
297.37	71.12
297.601	89.12
297.831	88.12
298.062	82.12
298.292	70.12
298.523	94.12
298.753	87.12
298.984	83.12
299.214	88.12
299.445	86.12
299.675	83.12
299.905	94.12
300.136	83.12
300.366	76.12
300.597	89.12
300.827	83.12
301.057	87.12
301.288	84.12
301.518	77.12
301.748	87.12
301.979	90.12
302.209	85.12
302.439	90.12
302.669	95.12
302.9	84.12
303.13	82.12
303.36	90.12
303.59	91.12
303.82	83.12
304.051	83.12
304.281	61.12
304.511	79.12
304.741	92.12
304.971	93.12
305.201	83.12
305.431	80.12
305.661	91.12
305.891	81.12
306.121	94.12
306.352	77.12
306.582	77.12
306.812	87.12
307.042	86.12
307.272	83.12
307.502	96.12
307.731	89.12
307.961	90.12
308.191	91.12
308.421	75.12
308.651	83.12
308.881	71.12
309.111	89.12
309.341	94.12
309.571	77.12
309.8	74.12
310.03	92.12
310.26	74.12
310.49	95.12
310.72	89.12
310.949	95.12
311.179	69.12
311.409	90.12
311.639	79.12
311.868	89.12
312.098	74.12
312.328	85.12
312.557	88.12
312.787	87.12
313.017	92.12
313.246	71.12
313.476	87.12
313.706	90.12
313.935	80.12
314.165	71.12
314.394	84.12
314.624	76.12
314.853	89.12
315.083	84.12
315.312	87.12
315.542	106.12
315.771	95.12
316.001	85.12
316.23	94.12
316.46	89.12
316.689	66.12
316.919	79.12
317.148	98.12
317.377	80.12
317.607	79.12
317.836	96.12
318.065	95.12
318.295	86.12
318.524	81.12
318.753	89.12
318.983	79.12
319.212	91.12
319.441	71.12
319.67	86.12
319.9	77.12
320.129	91.12
320.358	87.12
320.587	86.12
320.816	73.12
321.046	82.12
321.275	89.12
321.504	92.12
321.733	86.12
321.962	83.12
322.191	88.12
322.42	86.12
322.649	87.12
322.878	83.12
323.108	83.12
323.337	76.12
323.566	82.12
323.795	97.12
324.024	90.12
324.253	87.12
324.482	90.12
324.71	84.12
324.939	83.12
325.168	91.12
325.397	83.12
325.626	96.12
325.855	76.12
326.084	78.12
326.313	76.12
326.542	87.12
326.77	99.12
326.999	86.12
327.228	89.12
327.457	92.12
327.686	88.12
327.914	79.12
328.143	96.12
328.372	80.12
328.6	73.12
328.829	58.12
329.058	82.12
329.287	84.12
329.515	74.12
329.744	84.12
329.972	77.12
330.201	74.12
330.43	78.12
330.658	98.12
330.887	77.12
331.115	83.12
331.344	83.12
331.572	86.12
331.801	91.12
332.03	88.12
332.258	97.12
332.486	81.12
332.715	78.12
332.943	89.12
333.172	100.12
333.4	93.12
333.629	89.12
333.857	87.12
334.085	96.12
334.314	85.12
334.542	86.12
334.771	92.12
334.999	89.12
335.227	89.12
335.455	103.12
335.684	91.12
335.912	95.12
336.14	82.12
336.369	91.12
336.597	85.12
336.825	98.12
337.053	76.12
337.281	87.12
337.51	87.12
337.738	81.12
337.966	85.12
338.194	89.12
338.422	82.12
338.65	81.12
338.878	86.12
339.106	91.12
339.334	90.12
339.562	89.12
339.79	81.12
340.018	67.12
340.246	77.12
340.474	90.12
340.702	90.12
340.93	87.12
341.158	87.12
341.386	71.12
341.614	86.12
341.842	76.12
342.07	79.12
342.298	97.12
342.526	94.12
342.754	90.12
342.981	78.12
343.209	100.12
343.437	104.12
343.665	84.12
343.893	85.12
344.12	83.12
344.348	95.12
344.576	96.12
344.804	89.12
345.031	100.12
345.259	93.12
345.487	94.12
345.714	83.12
345.942	89.12
346.17	92.12
346.397	69.12
346.625	88.12
346.853	89.12
347.08	94.12
347.308	89.12
347.535	80.12
347.763	90.12
347.99	85.12
348.218	66.12
348.445	85.12
348.673	82.12
348.9	98.12
349.128	67.12
349.355	95.12
349.583	81.12
349.81	89.12
350.037	79.12
350.265	106.12
350.492	84.12
350.72	85.12
350.947	93.12
351.174	96.12
351.402	67.12
351.629	87.12
351.856	93.12
352.083	77.12
352.311	96.12
352.538	85.12
352.765	97.12
352.992	89.12
353.22	77.12
353.447	74.12
353.674	90.12
353.901	78.12
354.128	92.12
354.355	91.12
354.583	75.12
354.81	90.12
355.037	84.12
355.264	91.12
355.491	88.12
355.718	86.12
355.945	81.12
356.172	86.12
356.399	87.12
356.626	87.12
356.853	84.12
357.08	94.12
357.307	93.12
357.534	87.12
357.761	94.12
357.988	87.12
358.215	74.12
358.441	76.12
358.668	84.12
358.895	67.12
359.122	91.12
359.349	85.12
359.576	68.12
359.802	105.12
360.029	74.12
360.256	87.12
360.483	90.12
360.709	91.12
360.936	91.12
361.163	94.12
361.39	76.12
361.616	91.12
361.843	89.12
362.07	103.12
362.296	100.12
362.523	85.12
362.749	75.12
362.976	98.12
363.203	100.12
363.429	76.12
363.656	84.12
363.882	97.12
364.109	88.12
364.335	102.12
364.562	84.12
364.788	88.12
365.015	82.12
365.241	83.12
365.468	84.12
365.694	83.12
365.92	81.12
366.147	82.12
366.373	99.12
366.599	89.12
366.826	85.12
367.052	81.12
367.278	72.12
367.505	83.12
367.731	91.12
367.957	82.12
368.184	84.12
368.41	95.12
368.636	84.12
368.862	85.12
369.089	65.12
369.315	96.12
369.541	80.12
369.767	82.12
369.993	78.12
370.219	87.12
370.445	83.12
370.672	64.12
370.898	72.12
371.124	96.12
371.35	86.12
371.576	84.12
371.802	87.12
372.028	79.12
372.254	91.12
372.48	76.12
372.706	88.12
372.932	88.12
373.158	75.12
373.384	69.12
373.61	99.12
373.835	101.12
374.061	82.12
374.287	75.12
374.513	85.12
374.739	84.12
374.965	88.12
375.191	74.12
375.416	85.12
375.642	84.12
375.868	100.12
376.094	79.12
376.319	71.12
376.545	81.12
376.771	76.12
376.997	80.12
377.222	67.12
377.448	78.12
377.674	92.12
377.899	88.12
378.125	73.12
378.35	85.12
378.576	87.12
378.802	87.12
379.027	77.12
379.253	97.12
379.478	81.12
379.704	77.12
379.929	85.12
380.155	69.12
380.38	75.12
380.606	75.12
380.831	87.12
381.057	83.12
381.282	102.12
381.507	77.12
381.733	83.12
381.958	90.12
382.184	87.12
382.409	73.12
382.634	87.12
382.86	92.12
383.085	79.12
383.31	90.12
383.535	87.12
383.761	83.12
383.986	86.12
384.211	85.12
384.436	81.12
384.662	75.12
384.887	93.12
385.112	79.12
385.337	92.12
385.562	77.12
385.787	71.12
386.013	76.12
386.238	84.12
386.463	93.12
386.688	100.12
386.913	100.12
387.138	87.12
387.363	78.12
387.588	80.12
387.813	74.12
388.038	81.12
388.263	79.12
388.488	87.12
388.713	83.12
388.938	77.12
389.163	76.12
389.387	83.12
389.612	76.12
389.837	85.12
390.062	83.12
390.287	88.12
390.512	73.12
390.736	80.12
390.961	83.12
391.186	75.12
391.411	73.12
391.636	83.12
391.86	87.12
392.085	90.12
392.31	90.12
392.534	79.12
392.759	91.12
392.984	114.12
393.208	159.12
393.433	213.12
393.658	176.12
393.882	94.12
394.107	107.12
394.331	101.12
394.556	106.12
394.78	90.12
395.005	74.12
395.229	89.12
395.454	90.12
395.678	78.12
395.903	87.12
396.127	107.12
396.352	111.12
396.576	106.12
396.801	150.12
397.025	175.12
397.249	107.12
397.474	82.12
397.698	93.12
397.922	91.12
398.147	75.12
398.371	99.12
398.595	85.12
398.82	85.12
399.044	81.12
399.268	85.12
399.492	88.12
399.717	79.12
399.941	84.12
400.165	88.12
400.389	93.12
400.613	92.12
400.837	89.12
401.062	81.12
401.286	67.12
401.51	83.12
401.734	73.12
401.958	83.12
402.182	71.12
402.406	78.12
402.63	81.12
402.854	89.12
403.078	69.12
403.302	83.12
403.526	85.12
403.75	85.12
403.974	72.12
404.198	81.12
404.422	91.12
404.645	97.12
404.869	81.12
405.093	84.12
405.317	82.12
405.541	73.12
405.765	79.12
405.988	76.12
406.212	75.12
406.436	67.12
406.66	87.12
406.883	87.12
407.107	73.12
407.331	94.12
407.555	72.12
407.778	77.12
408.002	95.12
408.226	89.12
408.449	65.12
408.673	83.12
408.896	79.12
409.12	91.12
409.344	85.12
409.567	76.12
409.791	81.12
410.014	89.12
410.238	83.12
410.461	80.12
410.685	96.12
410.908	86.12
411.132	96.12
411.355	81.12
411.578	75.12
411.802	83.12
412.025	71.12
412.249	89.12
412.472	82.12
412.695	90.12
412.919	76.12
413.142	80.12
413.365	81.12
413.589	80.12
413.812	92.12
414.035	81.12
414.258	92.12
414.482	94.12
414.705	83.12
414.928	85.12
415.151	78.12
415.374	68.12
415.597	91.12
415.821	69.12
416.044	84.12
416.267	90.12
416.49	84.12
416.713	67.12
416.936	79.12
417.159	85.12
417.382	96.12
417.605	73.12
417.828	87.12
418.051	78.12
418.274	89.12
418.497	74.12
418.72	73.12
418.943	83.12
419.166	75.12
419.389	97.12
419.611	85.12
419.834	75.12
420.057	88.12
420.28	80.12
420.503	88.12
420.726	82.12
420.948	77.12
421.171	90.12
421.394	91.12
421.617	104.12
421.839	103.12
422.062	92.12
422.285	91.12
422.507	112.12
422.73	159.12
422.953	154.12
423.175	100.12
423.398	76.12
423.621	81.12
423.843	81.12
424.066	84.12
424.288	67.12
424.511	79.12
424.733	85.12
424.956	87.12
425.178	87.12
425.401	85.12
425.623	67.12
425.846	74.12
426.068	87.12
426.291	90.12
426.513	85.12
426.735	68.12
426.958	72.12
427.18	75.12
427.402	77.12
427.625	79.12
427.847	84.12
428.069	85.12
428.292	85.12
428.514	88.12
428.736	65.12
428.958	86.12
429.181	90.12
429.403	75.12
429.625	81.12
429.847	86.12
430.069	93.12
430.292	108.12
430.514	100.12
430.736	96.12
430.958	77.12
431.18	87.12
431.402	83.12
431.624	81.12
431.846	89.12
432.068	112.12
432.29	83.12
432.512	99.12
432.734	75.12
432.956	77.12
433.178	90.12
433.4	71.12
433.622	98.12
433.844	88.12
434.066	85.12
434.287	79.12
434.509	72.12
434.731	92.12
434.953	85.12
435.175	82.12
435.397	89.12
435.618	88.12
435.84	74.12
436.062	87.12
436.284	60.12
436.505	90.12
436.727	74.12
436.949	73.12
437.17	87.12
437.392	96.12
437.614	77.12
437.835	97.12
438.057	75.12
438.278	70.12
438.5	76.12
438.721	70.12
438.943	90.12
439.165	71.12
439.386	82.12
439.608	77.12
439.829	85.12
440.05	78.12
440.272	74.12
440.493	81.12
440.715	87.12
440.936	82.12
441.158	76.12
441.379	79.12
441.6	73.12
441.822	79.12
442.043	76.12
442.264	89.12
442.486	91.12
442.707	86.12
442.928	88.12
443.149	81.12
443.371	86.12
443.592	119.12
443.813	98.12
444.034	82.12
444.255	94.12
444.476	71.12
444.698	91.12
444.919	89.12
445.14	153.12
445.361	116.12
445.582	111.12
445.803	104.12
446.024	79.12
446.245	90.12
446.466	94.12
446.687	73.12
446.908	97.12
447.129	86.12
447.35	77.12
447.571	71.12
447.792	75.12
448.013	67.12
448.234	83.12
448.455	83.12
448.675	88.12
448.896	77.12
449.117	74.12
449.338	86.12
449.559	68.12
449.779	85.12
450	81.12
450.221	74.12
450.442	81.12
450.662	83.12
450.883	87.12
451.104	95.12
451.324	95.12
451.545	88.12
451.766	87.12
451.986	83.12
452.207	75.12
452.428	74.12
452.648	79.12
452.869	101.12
453.089	83.12
453.31	69.12
453.53	85.12
453.751	84.12
453.971	77.12
454.192	88.12
454.412	76.12
454.633	69.12
454.853	79.12
455.073	79.12
455.294	81.12
455.514	85.12
455.734	88.12
455.955	75.12
456.175	71.12
456.395	88.12
456.616	72.12
456.836	87.12
457.056	85.12
457.276	68.12
457.497	71.12
457.717	101.12
457.937	74.12
458.157	78.12
458.377	83.12
458.598	71.12
458.818	81.12
459.038	74.12
459.258	87.12
459.478	97.12
459.698	83.12
459.918	78.12
460.138	67.12
460.358	79.12
460.578	86.12
460.798	83.12
461.018	85.12
461.238	92.12
461.458	89.12
461.678	88.12
461.898	71.12
462.118	90.12
462.338	78.12
462.558	87.12
462.777	76.12
462.997	78.12
463.217	71.12
463.437	88.12
463.657	68.12
463.876	78.12
464.096	86.12
464.316	90.12
464.536	88.12
464.755	78.12
464.975	80.12
465.195	83.12
465.414	86.12
465.634	86.12
465.854	90.12
466.073	71.12
466.293	78.12
466.512	71.12
466.732	68.12
466.951	81.12
467.171	79.12
467.391	69.12
467.61	76.12
467.829	85.12
468.049	99.12
468.268	81.12
468.488	87.12
468.707	87.12
468.927	86.12
469.146	93.12
469.365	80.12
469.585	93.12
469.804	98.12
470.023	75.12
470.243	78.12
470.462	80.12
470.681	87.12
470.901	83.12
471.12	98.12
471.339	91.12
471.558	87.12
471.777	90.12
471.997	76.12
472.216	100.12
472.435	87.12
472.654	89.12
472.873	80.12
473.092	91.12
473.311	82.12
473.53	87.12
473.749	73.12
473.968	83.12
474.187	84.12
474.406	80.12
474.625	75.12
474.844	78.12
475.063	87.12
475.282	84.12
475.501	80.12
475.72	92.12
475.939	79.12
476.158	76.12
476.377	87.12
476.596	91.12
476.814	76.12
477.033	95.12
477.252	88.12
477.471	89.12
477.69	83.12
477.908	95.12
478.127	91.12
478.346	78.12
478.564	74.12
478.783	77.12
479.002	85.12
479.22	77.12
479.439	87.12
479.658	75.12
479.876	97.12
480.095	89.12
480.313	97.12
480.532	85.12
480.751	77.12
480.969	71.12
481.188	95.12
481.406	78.12
481.624	84.12
481.843	98.12
482.061	91.12
482.28	81.12
482.498	86.12
482.717	80.12
482.935	82.12
483.153	93.12
483.372	78.12
483.59	83.12
483.808	72.12
484.027	94.12
484.245	88.12
484.463	83.12
484.681	80.12
484.9	89.12
485.118	103.12
485.336	77.12
485.554	78.12
485.772	91.12
485.99	88.12
486.209	75.12
486.427	77.12
486.645	72.12
486.863	83.12
487.081	107.12
487.299	78.12
487.517	93.12
487.735	91.12
487.953	105.12
488.171	93.12
488.389	83.12
488.607	78.12
488.825	82.12
489.043	79.12
489.261	86.12
489.479	81.12
489.696	76.12
489.914	83.12
490.132	87.12
490.35	86.12
490.568	73.12
490.786	83.12
491.003	83.12
491.221	84.12
491.439	72.12
491.657	75.12
491.874	74.12
492.092	91.12
492.31	86.12
492.527	81.12
492.745	90.12
492.963	85.12
493.18	78.12
493.398	91.12
493.615	91.12
493.833	74.12
494.05	96.12
494.268	89.12
494.485	75.12
494.703	90.12
494.92	77.12
495.138	94.12
495.355	88.12
495.573	86.12
495.79	87.12
496.008	83.12
496.225	83.12
496.442	73.12
496.66	91.12
496.877	93.12
497.094	96.12
497.312	81.12
497.529	76.12
497.746	75.12
497.963	77.12
498.181	85.12
498.398	87.12
498.615	88.12
498.832	75.12
499.049	86.12
499.267	97.12
499.484	101.12
499.701	93.12
499.918	85.12
500.135	79.12
500.352	84.12
500.569	74.12
500.786	69.12
501.003	67.12
501.22	83.12
501.437	80.12
501.654	79.12
501.871	84.12
502.088	92.12
502.305	78.12
502.522	83.12
502.739	90.12
502.956	87.12
503.172	99.12
503.389	88.12
503.606	74.12
503.823	95.12
504.04	85.12
504.256	87.12
504.473	85.12
504.69	76.12
504.907	77.12
505.123	83.12
505.34	89.12
505.557	99.12
505.773	86.12
505.99	87.12
506.207	96.12
506.423	81.12
506.64	83.12
506.856	78.12
507.073	88.12
507.289	77.12
507.506	93.12
507.722	91.12
507.939	84.12
508.155	78.12
508.372	83.12
508.588	95.12
508.805	84.12
509.021	95.12
509.238	77.12
509.454	103.12
509.67	89.12
509.887	93.12
510.103	88.12
510.319	92.12
510.536	93.12
510.752	97.12
510.968	75.12
511.184	92.12
511.401	81.12
511.617	79.12
511.833	81.12
512.049	93.12
512.265	75.12
512.481	86.12
512.698	83.12
512.914	87.12
513.13	84.12
513.346	86.12
513.562	75.12
513.778	77.12
513.994	77.12
514.21	77.12
514.426	81.12
514.642	87.12
514.858	91.12
515.074	86.12
515.29	88.12
515.506	97.12
515.721	80.12
515.937	91.12
516.153	79.12
516.369	75.12
516.585	73.12
516.801	92.12
517.016	85.12
517.232	76.12
517.448	80.12
517.664	89.12
517.879	75.12
518.095	98.12
518.311	83.12
518.527	84.12
518.742	95.12
518.958	82.12
519.173	74.12
519.389	92.12
