Data from 17600_3_HRD10591_00004.txt Node
Date: Mon Jan 19 14:09:25 EST 2026
User: Yrep
Spectrometer: HR+D1059
Trigger mode: 1
Integration Time (sec): 1.000000E-1
Scans to average: 1
Electric dark correction enabled: true
Nonlinearity correction enabled: false
Boxcar width: 0
XAxis mode: Wavelengths
Number of Pixels in Spectrum: 2048
>>>>>Begin Spectral Data<<<<<
223.165	-8.94
223.4	-8.94
223.635	-8.94
223.869	-15.94
224.104	-18.94
224.338	0.06
224.573	-12.94
224.808	-13.94
225.042	-9.94
225.277	-7.94
225.511	-16.94
225.746	-8.94
225.98	3.06
226.215	11.06
226.449	6.06
226.683	32.06
226.918	31.06
227.152	31.06
227.387	31.06
227.621	52.06
227.856	53.06
228.09	35.06
228.324	36.06
228.559	53.06
228.793	53.06
229.027	70.06
229.262	64.06
229.496	63.06
229.73	74.06
229.964	72.06
230.199	70.06
230.433	69.06
230.667	70.06
230.901	88.06
231.136	88.06
231.37	89.06
231.604	84.06
231.838	74.06
232.072	80.06
232.306	72.06
232.541	66.06
232.775	84.06
233.009	84.06
233.243	72.06
233.477	92.06
233.711	87.06
233.945	82.06
234.179	86.06
234.413	78.06
234.647	85.06
234.881	69.06
235.115	72.06
235.349	82.06
235.583	84.06
235.817	78.06
236.051	81.06
236.285	86.06
236.519	71.06
236.753	60.06
236.987	82.06
237.221	81.06
237.455	72.06
237.689	83.06
237.922	70.06
238.156	65.06
238.39	74.06
238.624	66.06
238.858	80.06
239.091	79.06
239.325	73.06
239.559	80.06
239.793	80.06
240.027	82.06
240.26	85.06
240.494	62.06
240.728	61.06
240.961	72.06
241.195	78.06
241.429	82.06
241.662	81.06
241.896	69.06
242.13	68.06
242.363	81.06
242.597	76.06
242.83	68.06
243.064	74.06
243.298	83.06
243.531	71.06
243.765	78.06
243.998	80.06
244.232	88.06
244.465	70.06
244.699	70.06
244.932	62.06
245.166	70.06
245.399	80.06
245.633	76.06
245.866	84.06
246.099	90.06
246.333	64.06
246.566	79.06
246.8	78.06
247.033	78.06
247.266	81.06
247.5	81.06
247.733	68.06
247.966	81.06
248.2	64.06
248.433	85.06
248.666	75.06
248.899	77.06
249.133	82.06
249.366	72.06
249.599	69.06
249.832	83.06
250.066	74.06
250.299	90.06
250.532	68.06
250.765	71.06
250.998	79.06
251.231	64.06
251.465	85.06
251.698	92.06
251.931	76.06
252.164	94.06
252.397	75.06
252.63	93.06
252.863	79.06
253.096	77.06
253.329	66.06
253.562	75.06
253.795	73.06
254.028	75.06
254.261	76.06
254.494	74.06
254.727	82.06
254.96	70.06
255.193	80.06
255.426	70.06
255.659	78.06
255.892	73.06
256.124	74.06
256.357	77.06
256.59	67.06
256.823	78.06
257.056	92.06
257.289	72.06
257.521	79.06
257.754	70.06
257.987	72.06
258.22	90.06
258.452	69.06
258.685	81.06
258.918	76.06
259.151	72.06
259.383	76.06
259.616	79.06
259.849	66.06
260.081	86.06
260.314	85.06
260.547	80.06
260.779	84.06
261.012	89.06
261.244	85.06
261.477	82.06
261.71	92.06
261.942	89.06
262.175	73.06
262.407	84.06
262.64	84.06
262.872	86.06
263.105	89.06
263.337	97.06
263.57	71.06
263.802	70.06
264.035	84.06
264.267	76.06
264.499	92.06
264.732	90.06
264.964	76.06
265.197	79.06
265.429	68.06
265.661	80.06
265.894	70.06
266.126	85.06
266.358	79.06
266.591	77.06
266.823	87.06
267.055	91.06
267.287	80.06
267.52	68.06
267.752	80.06
267.984	76.06
268.216	76.06
268.448	84.06
268.681	74.06
268.913	79.06
269.145	55.06
269.377	80.06
269.609	77.06
269.841	88.06
270.073	67.06
270.306	67.06
270.538	87.06
270.77	74.06
271.002	63.06
271.234	81.06
271.466	90.06
271.698	73.06
271.93	88.06
272.162	86.06
272.394	70.06
272.626	70.06
272.858	69.06
273.09	71.06
273.322	79.06
273.553	80.06
273.785	82.06
274.017	80.06
274.249	81.06
274.481	81.06
274.713	85.06
274.945	96.06
275.176	94.06
275.408	84.06
275.64	77.06
275.872	88.06
276.104	76.06
276.335	83.06
276.567	87.06
276.799	66.06
277.031	74.06
277.262	86.06
277.494	77.06
277.726	100.06
277.957	88.06
278.189	70.06
278.421	74.06
278.652	66.06
278.884	84.06
279.115	86.06
279.347	77.06
279.579	84.06
279.81	86.06
280.042	94.06
280.273	96.06
280.505	94.06
280.736	72.06
280.968	72.06
281.199	85.06
281.431	80.06
281.662	82.06
281.894	96.06
282.125	63.06
282.356	85.06
282.588	78.06
282.819	86.06
283.051	73.06
283.282	84.06
283.513	83.06
283.745	93.06
283.976	88.06
284.207	76.06
284.439	80.06
284.67	89.06
284.901	89.06
285.132	81.06
285.364	84.06
285.595	88.06
285.826	83.06
286.057	86.06
286.288	90.06
286.52	77.06
286.751	89.06
286.982	88.06
287.213	80.06
287.444	89.06
287.675	86.06
287.906	88.06
288.138	87.06
288.369	84.06
288.6	97.06
288.831	85.06
289.062	82.06
289.293	89.06
289.524	95.06
289.755	87.06
289.986	80.06
290.217	81.06
290.448	75.06
290.679	82.06
290.91	86.06
291.141	95.06
291.371	81.06
291.602	87.06
291.833	96.06
292.064	74.06
292.295	100.06
292.526	84.06
292.757	89.06
292.987	73.06
293.218	90.06
293.449	80.06
293.68	80.06
293.91	82.06
294.141	87.06
294.372	92.06
294.603	87.06
294.833	79.06
295.064	89.06
295.295	84.06
295.525	95.06
295.756	85.06
295.987	84.06
296.217	95.06
296.448	93.06
296.679	91.06
296.909	84.06
297.14	82.06
297.37	86.06
297.601	86.06
297.831	80.06
298.062	77.06
298.292	98.06
298.523	84.06
298.753	92.06
298.984	83.06
299.214	86.06
299.445	79.06
299.675	96.06
299.905	93.06
300.136	81.06
300.366	90.06
300.597	68.06
300.827	95.06
301.057	92.06
301.288	92.06
301.518	86.06
301.748	73.06
301.979	96.06
302.209	86.06
302.439	84.06
302.669	82.06
302.9	82.06
303.13	99.06
303.36	88.06
303.59	90.06
303.82	87.06
304.051	94.06
304.281	80.06
304.511	80.06
304.741	75.06
304.971	97.06
305.201	85.06
305.431	76.06
305.661	76.06
305.891	86.06
306.121	74.06
306.352	79.06
306.582	74.06
306.812	73.06
307.042	93.06
307.272	90.06
307.502	70.06
307.731	89.06
307.961	84.06
308.191	86.06
308.421	98.06
308.651	65.06
308.881	81.06
309.111	94.06
309.341	100.06
309.571	96.06
309.8	69.06
310.03	92.06
310.26	75.06
310.49	84.06
310.72	72.06
310.949	76.06
311.179	76.06
311.409	94.06
311.639	96.06
311.868	72.06
312.098	89.06
312.328	82.06
312.557	78.06
312.787	92.06
313.017	81.06
313.246	84.06
313.476	92.06
313.706	93.06
313.935	100.06
314.165	79.06
314.394	80.06
314.624	87.06
314.853	107.06
315.083	86.06
315.312	76.06
315.542	92.06
315.771	104.06
316.001	96.06
316.23	92.06
316.46	89.06
316.689	77.06
316.919	77.06
317.148	94.06
317.377	89.06
317.607	93.06
317.836	93.06
318.065	105.06
318.295	114.06
318.524	84.06
318.753	82.06
318.983	76.06
319.212	82.06
319.441	87.06
319.67	89.06
319.9	82.06
320.129	98.06
320.358	88.06
320.587	85.06
320.816	89.06
321.046	95.06
321.275	87.06
321.504	101.06
321.733	92.06
321.962	85.06
322.191	84.06
322.42	88.06
322.649	95.06
322.878	89.06
323.108	98.06
323.337	101.06
323.566	97.06
323.795	88.06
324.024	82.06
324.253	96.06
324.482	90.06
324.71	92.06
324.939	88.06
325.168	78.06
325.397	102.06
325.626	95.06
325.855	97.06
326.084	95.06
326.313	98.06
326.542	87.06
326.77	88.06
326.999	80.06
327.228	92.06
327.457	80.06
327.686	84.06
327.914	73.06
328.143	82.06
328.372	82.06
328.6	100.06
328.829	82.06
329.058	75.06
329.287	97.06
329.515	85.06
329.744	96.06
329.972	97.06
330.201	88.06
330.43	90.06
330.658	79.06
330.887	96.06
331.115	90.06
331.344	92.06
331.572	95.06
331.801	82.06
332.03	94.06
332.258	80.06
332.486	80.06
332.715	85.06
332.943	94.06
333.172	78.06
333.4	92.06
333.629	90.06
333.857	85.06
334.085	87.06
334.314	91.06
334.542	105.06
334.771	90.06
334.999	103.06
335.227	93.06
335.455	99.06
335.684	93.06
335.912	97.06
336.14	106.06
336.369	99.06
336.597	95.06
336.825	90.06
337.053	84.06
337.281	89.06
337.51	87.06
337.738	74.06
337.966	89.06
338.194	99.06
338.422	79.06
338.65	82.06
338.878	79.06
339.106	75.06
339.334	90.06
339.562	90.06
339.79	75.06
340.018	86.06
340.246	83.06
340.474	96.06
340.702	92.06
340.93	87.06
341.158	86.06
341.386	80.06
341.614	81.06
341.842	82.06
342.07	75.06
342.298	74.06
342.526	75.06
342.754	82.06
342.981	93.06
343.209	84.06
343.437	110.06
343.665	83.06
343.893	86.06
344.12	95.06
344.348	83.06
344.576	97.06
344.804	92.06
345.031	89.06
345.259	84.06
345.487	97.06
345.714	76.06
345.942	90.06
346.17	84.06
346.397	82.06
346.625	82.06
346.853	104.06
347.08	75.06
347.308	96.06
347.535	83.06
347.763	83.06
347.99	78.06
348.218	98.06
348.445	71.06
348.673	100.06
348.9	97.06
349.128	80.06
349.355	92.06
349.583	95.06
349.81	96.06
350.037	98.06
350.265	88.06
350.492	94.06
350.72	90.06
350.947	102.06
351.174	86.06
351.402	87.06
351.629	89.06
351.856	75.06
352.083	84.06
352.311	91.06
352.538	66.06
352.765	87.06
352.992	95.06
353.22	88.06
353.447	76.06
353.674	103.06
353.901	98.06
354.128	88.06
354.355	88.06
354.583	85.06
354.81	78.06
355.037	107.06
355.264	88.06
355.491	95.06
355.718	84.06
355.945	100.06
356.172	95.06
356.399	98.06
356.626	112.06
356.853	92.06
357.08	92.06
357.307	104.06
357.534	97.06
357.761	98.06
357.988	113.06
358.215	109.06
358.441	92.06
358.668	89.06
358.895	86.06
359.122	90.06
359.349	90.06
359.576	88.06
359.802	92.06
360.029	98.06
360.256	96.06
360.483	81.06
360.709	85.06
360.936	87.06
361.163	93.06
361.39	66.06
361.616	95.06
361.843	96.06
362.07	100.06
362.296	99.06
362.523	123.06
362.749	116.06
362.976	124.06
363.203	149.06
363.429	120.06
363.656	92.06
363.882	100.06
364.109	104.06
364.335	153.06
364.562	155.06
364.788	119.06
365.015	109.06
365.241	95.06
365.468	98.06
365.694	90.06
365.92	89.06
366.147	81.06
366.373	80.06
366.599	89.06
366.826	80.06
367.052	90.06
367.278	97.06
367.505	94.06
367.731	87.06
367.957	97.06
368.184	76.06
368.41	90.06
368.636	85.06
368.862	93.06
369.089	80.06
369.315	94.06
369.541	92.06
369.767	102.06
369.993	85.06
370.219	98.06
370.445	103.06
370.672	104.06
370.898	103.06
371.124	79.06
371.35	85.06
371.576	100.06
371.802	100.06
372.028	106.06
372.254	92.06
372.48	94.06
372.706	106.06
372.932	98.06
373.158	88.06
373.384	124.06
373.61	128.06
373.835	133.06
374.061	104.06
374.287	105.06
374.513	101.06
374.739	96.06
374.965	104.06
375.191	100.06
375.416	101.06
375.642	100.06
375.868	95.06
376.094	87.06
376.319	96.06
376.545	101.06
376.771	82.06
376.997	77.06
377.222	84.06
377.448	100.06
377.674	81.06
377.899	82.06
378.125	85.06
378.35	85.06
378.576	83.06
378.802	76.06
379.027	83.06
379.253	82.06
379.478	82.06
379.704	81.06
379.929	88.06
380.155	88.06
380.38	96.06
380.606	76.06
380.831	86.06
381.057	88.06
381.282	78.06
381.507	96.06
381.733	93.06
381.958	89.06
382.184	97.06
382.409	75.06
382.634	118.06
382.86	103.06
383.085	102.06
383.31	99.06
383.535	106.06
383.761	120.06
383.986	113.06
384.211	116.06
384.436	85.06
384.662	86.06
384.887	97.06
385.112	89.06
385.337	108.06
385.562	99.06
385.787	92.06
386.013	118.06
386.238	116.06
386.463	93.06
386.688	101.06
386.913	86.06
387.138	117.06
387.363	96.06
387.588	98.06
387.813	118.06
388.038	116.06
388.263	105.06
388.488	104.06
388.713	112.06
388.938	101.06
389.163	78.06
389.387	88.06
389.612	98.06
389.837	92.06
390.062	94.06
390.287	95.06
390.512	102.06
390.736	102.06
390.961	95.06
391.186	89.06
391.411	88.06
391.636	101.06
391.86	91.06
392.085	97.06
392.31	113.06
392.534	117.06
392.759	142.06
392.984	213.06
393.208	394.06
393.433	568.06
393.658	454.06
393.882	207.06
394.107	142.06
394.331	153.06
394.556	157.06
394.78	121.06
395.005	97.06
395.229	103.06
395.454	105.06
395.678	123.06
395.903	144.06
396.127	170.06
396.352	207.06
396.576	238.06
396.801	382.06
397.025	457.06
397.249	240.06
397.474	136.06
397.698	127.06
397.922	102.06
398.147	89.06
398.371	94.06
398.595	86.06
398.82	102.06
399.044	99.06
399.268	88.06
399.492	83.06
399.717	93.06
399.941	92.06
400.165	90.06
400.389	80.06
400.613	73.06
400.837	94.06
401.062	85.06
401.286	88.06
401.51	78.06
401.734	82.06
401.958	99.06
402.182	78.06
402.406	81.06
402.63	93.06
402.854	92.06
403.078	101.06
403.302	94.06
403.526	116.06
403.75	108.06
403.974	98.06
404.198	96.06
404.422	95.06
404.645	98.06
404.869	92.06
405.093	87.06
405.317	104.06
405.541	73.06
405.765	81.06
405.988	87.06
406.212	86.06
406.436	108.06
406.66	99.06
406.883	82.06
407.107	101.06
407.331	90.06
407.555	99.06
407.778	147.06
408.002	156.06
408.226	91.06
408.449	95.06
408.673	92.06
408.896	83.06
409.12	93.06
409.344	110.06
409.567	111.06
409.791	99.06
410.014	101.06
410.238	106.06
410.461	93.06
410.685	97.06
410.908	92.06
411.132	94.06
411.355	94.06
411.578	89.06
411.802	89.06
412.025	98.06
412.249	93.06
412.472	86.06
412.695	100.06
412.919	99.06
413.142	86.06
413.365	94.06
413.589	79.06
413.812	92.06
414.035	89.06
414.258	87.06
414.482	90.06
414.705	75.06
414.928	84.06
415.151	79.06
415.374	93.06
415.597	82.06
415.821	83.06
416.044	78.06
416.267	88.06
416.49	70.06
416.713	88.06
416.936	84.06
417.159	93.06
417.382	87.06
417.605	91.06
417.828	82.06
418.051	92.06
418.274	85.06
418.497	87.06
418.72	91.06
418.943	93.06
419.166	78.06
419.389	79.06
419.611	86.06
419.834	101.06
420.057	94.06
420.28	101.06
420.503	90.06
420.726	119.06
420.948	88.06
421.171	100.06
421.394	118.06
421.617	149.06
421.839	166.06
422.062	142.06
422.285	190.06
422.507	307.06
422.73	485.06
422.953	432.06
423.175	242.06
423.398	154.06
423.621	128.06
423.843	113.06
424.066	105.06
424.288	115.06
424.511	97.06
424.733	84.06
424.956	101.06
425.178	108.06
425.401	100.06
425.623	84.06
425.846	82.06
426.068	91.06
426.291	86.06
426.513	92.06
426.735	96.06
426.958	98.06
427.18	101.06
427.402	101.06
427.625	89.06
427.847	95.06
428.069	111.06
428.292	143.06
428.514	145.06
428.736	125.06
428.958	144.06
429.181	161.06
429.403	107.06
429.625	104.06
429.847	148.06
430.069	184.06
430.292	200.06
430.514	195.06
430.736	154.06
430.958	160.06
431.18	104.06
431.402	88.06
431.624	94.06
431.846	127.06
432.068	156.06
432.29	97.06
432.512	112.06
432.734	103.06
432.956	95.06
433.178	95.06
433.4	84.06
433.622	86.06
433.844	74.06
434.066	85.06
434.287	86.06
434.509	93.06
434.731	82.06
434.953	87.06
435.175	66.06
435.397	103.06
435.618	94.06
435.84	109.06
436.062	101.06
436.284	92.06
436.505	85.06
436.727	81.06
436.949	83.06
437.17	84.06
437.392	88.06
437.614	76.06
437.835	76.06
438.057	95.06
438.278	79.06
438.5	116.06
438.721	100.06
438.943	90.06
439.165	100.06
439.386	87.06
439.608	78.06
439.829	78.06
440.05	85.06
440.272	72.06
440.493	99.06
440.715	95.06
440.936	81.06
441.158	87.06
441.379	95.06
441.6	81.06
441.822	94.06
442.043	90.06
442.264	94.06
442.486	137.06
442.707	208.06
442.928	142.06
443.149	113.06
443.371	163.06
443.592	318.06
443.813	265.06
444.034	128.06
444.255	93.06
444.476	95.06
444.698	96.06
444.919	89.06
445.14	173.06
445.361	209.06
445.582	366.06
445.803	314.06
446.024	148.06
446.245	112.06
446.466	96.06
446.687	86.06
446.908	86.06
447.129	81.06
447.35	76.06
447.571	78.06
447.792	81.06
448.013	88.06
448.234	84.06
448.455	85.06
448.675	89.06
448.896	93.06
449.117	91.06
449.338	89.06
449.559	86.06
449.779	86.06
450	82.06
450.221	96.06
450.442	96.06
450.662	80.06
450.883	70.06
451.104	82.06
451.324	79.06
451.545	92.06
451.766	89.06
451.986	98.06
452.207	102.06
452.428	92.06
452.648	106.06
452.869	116.06
453.089	115.06
453.31	103.06
453.53	100.06
453.751	78.06
453.971	89.06
454.192	86.06
454.412	93.06
454.633	94.06
454.853	89.06
455.073	90.06
455.294	82.06
455.514	100.06
455.734	84.06
455.955	106.06
456.175	92.06
456.395	73.06
456.616	71.06
456.836	71.06
457.056	87.06
457.276	74.06
457.497	84.06
457.717	95.06
457.937	103.06
458.157	122.06
458.377	140.06
458.598	127.06
458.818	172.06
459.038	118.06
459.258	84.06
459.478	90.06
459.698	105.06
459.918	82.06
460.138	87.06
460.358	95.06
460.578	103.06
460.798	135.06
461.018	135.06
461.238	106.06
461.458	96.06
461.678	83.06
461.898	79.06
462.118	92.06
462.338	106.06
462.558	98.06
462.777	88.06
462.997	81.06
463.217	83.06
463.437	79.06
463.657	86.06
463.876	75.06
464.096	85.06
464.316	82.06
464.536	80.06
464.755	88.06
464.975	92.06
465.195	84.06
465.414	83.06
465.634	83.06
465.854	84.06
466.073	83.06
466.293	89.06
466.512	89.06
466.732	79.06
466.951	96.06
467.171	77.06
467.391	85.06
467.61	89.06
467.829	80.06
468.049	87.06
468.268	93.06
468.488	93.06
468.707	91.06
468.927	87.06
469.146	94.06
469.365	72.06
469.585	85.06
469.804	96.06
470.023	76.06
470.243	76.06
470.462	81.06
470.681	76.06
470.901	84.06
471.12	85.06
471.339	75.06
471.558	93.06
471.777	89.06
471.997	88.06
472.216	85.06
472.435	88.06
472.654	82.06
472.873	102.06
473.092	87.06
473.311	69.06
473.53	87.06
473.749	78.06
473.968	82.06
474.187	85.06
474.406	81.06
474.625	83.06
474.844	72.06
475.063	81.06
475.282	82.06
475.501	103.06
475.72	92.06
475.939	75.06
476.158	85.06
476.377	95.06
476.596	87.06
476.814	82.06
477.033	82.06
477.252	92.06
477.471	87.06
477.69	86.06
477.908	92.06
478.127	85.06
478.346	89.06
478.564	92.06
478.783	80.06
479.002	72.06
479.22	82.06
479.439	95.06
479.658	83.06
479.876	86.06
480.095	104.06
480.313	89.06
480.532	73.06
480.751	70.06
480.969	83.06
481.188	86.06
481.406	88.06
481.624	100.06
481.843	83.06
482.061	92.06
482.28	96.06
482.498	88.06
482.717	89.06
482.935	92.06
483.153	101.06
483.372	97.06
483.59	90.06
483.808	85.06
484.027	108.06
484.245	87.06
484.463	89.06
484.681	93.06
484.9	73.06
485.118	95.06
485.336	79.06
485.554	82.06
485.772	96.06
485.99	86.06
486.209	88.06
486.427	98.06
486.645	96.06
486.863	90.06
487.081	100.06
487.299	96.06
487.517	111.06
487.735	138.06
487.953	217.06
488.171	173.06
488.389	103.06
488.607	88.06
488.825	87.06
489.043	96.06
489.261	112.06
489.479	88.06
489.696	100.06
489.914	103.06
490.132	89.06
490.35	87.06
490.568	91.06
490.786	83.06
491.003	90.06
491.221	92.06
491.439	88.06
491.657	93.06
491.874	86.06
492.092	92.06
492.31	84.06
492.527	93.06
492.745	94.06
492.963	90.06
493.18	100.06
493.398	83.06
493.615	95.06
493.833	88.06
494.05	74.06
494.268	80.06
494.485	90.06
494.703	96.06
494.92	91.06
495.138	91.06
495.355	97.06
495.573	94.06
495.79	100.06
496.008	96.06
496.225	94.06
496.442	96.06
496.66	101.06
496.877	83.06
497.094	99.06
497.312	98.06
497.529	86.06
497.746	82.06
497.963	98.06
498.181	101.06
498.398	114.06
498.615	104.06
498.832	84.06
499.049	101.06
499.267	106.06
499.484	85.06
499.701	98.06
499.918	100.06
500.135	92.06
500.352	95.06
500.569	86.06
500.786	94.06
501.003	88.06
501.22	85.06
501.437	107.06
501.654	96.06
501.871	88.06
502.088	92.06
502.305	90.06
502.522	90.06
502.739	110.06
502.956	93.06
503.172	83.06
503.389	100.06
503.606	88.06
503.823	95.06
504.04	101.06
504.256	159.06
504.473	174.06
504.69	106.06
504.907	91.06
505.123	99.06
505.34	97.06
505.557	89.06
505.773	94.06
505.99	89.06
506.207	94.06
506.423	92.06
506.64	91.06
506.856	85.06
507.073	73.06
507.289	94.06
507.506	98.06
507.722	95.06
507.939	91.06
508.155	79.06
508.372	87.06
508.588	85.06
508.805	94.06
509.021	96.06
509.238	94.06
509.454	85.06
509.67	108.06
509.887	86.06
510.103	96.06
510.319	80.06
510.536	102.06
510.752	71.06
510.968	88.06
511.184	106.06
511.401	92.06
511.617	97.06
511.833	80.06
512.049	84.06
512.265	103.06
512.481	82.06
512.698	95.06
512.914	104.06
513.13	86.06
513.346	84.06
513.562	104.06
513.778	66.06
513.994	88.06
514.21	92.06
514.426	92.06
514.642	93.06
514.858	80.06
515.074	92.06
515.29	114.06
515.506	96.06
515.721	89.06
515.937	82.06
516.153	97.06
516.369	91.06
516.585	94.06
516.801	84.06
517.016	88.06
