Data from 17600_3_HRD10591_00035.txt Node
Date: Mon Jan 19 14:09:41 EST 2026
User: Yrep
Spectrometer: HR+D1059
Trigger mode: 1
Integration Time (sec): 1.000000E-1
Scans to average: 1
Electric dark correction enabled: true
Nonlinearity correction enabled: false
Boxcar width: 0
XAxis mode: Wavelengths
Number of Pixels in Spectrum: 2048
>>>>>Begin Spectral Data<<<<<
223.165	-8.19
223.4	-8.19
223.635	-8.19
223.869	-19.19
224.104	-12.19
224.338	-30.19
224.573	-4.19
224.808	-9.19
225.042	-4.19
225.277	-7.19
225.511	-3.19
225.746	9.81
225.98	3.81
226.215	-2.19
226.449	2.81
226.683	30.81
226.918	20.81
227.152	31.81
227.387	35.81
227.621	37.81
227.856	45.81
228.09	54.81
228.324	49.81
228.559	54.81
228.793	59.81
229.027	54.81
229.262	64.81
229.496	59.81
229.73	55.81
229.964	68.81
230.199	74.81
230.433	66.81
230.667	73.81
230.901	73.81
231.136	84.81
231.37	72.81
231.604	78.81
231.838	81.81
232.072	68.81
232.306	83.81
232.541	88.81
232.775	74.81
233.009	83.81
233.243	82.81
233.477	85.81
233.711	80.81
233.945	83.81
234.179	78.81
234.413	74.81
234.647	78.81
234.881	93.81
235.115	64.81
235.349	75.81
235.583	80.81
235.817	76.81
236.051	74.81
236.285	72.81
236.519	71.81
236.753	70.81
236.987	78.81
237.221	83.81
237.455	80.81
237.689	66.81
237.922	59.81
238.156	71.81
238.39	93.81
238.624	73.81
238.858	74.81
239.091	72.81
239.325	75.81
239.559	82.81
239.793	77.81
240.027	93.81
240.26	76.81
240.494	73.81
240.728	70.81
240.961	69.81
241.195	76.81
241.429	70.81
241.662	85.81
241.896	96.81
242.13	72.81
242.363	88.81
242.597	73.81
242.83	78.81
243.064	72.81
243.298	80.81
243.531	75.81
243.765	70.81
243.998	75.81
244.232	82.81
244.465	72.81
244.699	72.81
244.932	72.81
245.166	81.81
245.399	91.81
245.633	84.81
245.866	88.81
246.099	75.81
246.333	91.81
246.566	64.81
246.8	73.81
247.033	81.81
247.266	66.81
247.5	85.81
247.733	75.81
247.966	77.81
248.2	74.81
248.433	59.81
248.666	63.81
248.899	78.81
249.133	90.81
249.366	75.81
249.599	87.81
249.832	66.81
250.066	85.81
250.299	87.81
250.532	82.81
250.765	74.81
250.998	73.81
251.231	77.81
251.465	73.81
251.698	95.81
251.931	81.81
252.164	79.81
252.397	78.81
252.63	73.81
252.863	69.81
253.096	70.81
253.329	79.81
253.562	99.81
253.795	78.81
254.028	88.81
254.261	83.81
254.494	83.81
254.727	67.81
254.96	72.81
255.193	83.81
255.426	72.81
255.659	81.81
255.892	79.81
256.124	64.81
256.357	71.81
256.59	73.81
256.823	68.81
257.056	79.81
257.289	65.81
257.521	78.81
257.754	87.81
257.987	85.81
258.22	101.81
258.452	90.81
258.685	76.81
258.918	92.81
259.151	77.81
259.383	81.81
259.616	80.81
259.849	88.81
260.081	75.81
260.314	91.81
260.547	81.81
260.779	71.81
261.012	73.81
261.244	74.81
261.477	85.81
261.71	66.81
261.942	91.81
262.175	72.81
262.407	79.81
262.64	76.81
262.872	87.81
263.105	99.81
263.337	81.81
263.57	69.81
263.802	80.81
264.035	72.81
264.267	87.81
264.499	75.81
264.732	96.81
264.964	74.81
265.197	71.81
265.429	87.81
265.661	77.81
265.894	78.81
266.126	83.81
266.358	79.81
266.591	76.81
266.823	78.81
267.055	77.81
267.287	71.81
267.52	75.81
267.752	76.81
267.984	84.81
268.216	89.81
268.448	80.81
268.681	77.81
268.913	106.81
269.145	97.81
269.377	90.81
269.609	77.81
269.841	76.81
270.073	74.81
270.306	78.81
270.538	85.81
270.77	77.81
271.002	101.81
271.234	81.81
271.466	93.81
271.698	78.81
271.93	83.81
272.162	90.81
272.394	73.81
272.626	81.81
272.858	81.81
273.09	76.81
273.322	83.81
273.553	90.81
273.785	93.81
274.017	88.81
274.249	71.81
274.481	79.81
274.713	83.81
274.945	92.81
275.176	67.81
275.408	88.81
275.64	94.81
275.872	81.81
276.104	76.81
276.335	73.81
276.567	70.81
276.799	81.81
277.031	84.81
277.262	89.81
277.494	81.81
277.726	93.81
277.957	78.81
278.189	71.81
278.421	89.81
278.652	77.81
278.884	94.81
279.115	87.81
279.347	91.81
279.579	81.81
279.81	81.81
280.042	84.81
280.273	68.81
280.505	82.81
280.736	72.81
280.968	74.81
281.199	87.81
281.431	89.81
281.662	91.81
281.894	87.81
282.125	82.81
282.356	79.81
282.588	86.81
282.819	79.81
283.051	86.81
283.282	75.81
283.513	91.81
283.745	78.81
283.976	71.81
284.207	72.81
284.439	77.81
284.67	98.81
284.901	78.81
285.132	66.81
285.364	85.81
285.595	93.81
285.826	75.81
286.057	86.81
286.288	87.81
286.52	88.81
286.751	100.81
286.982	94.81
287.213	80.81
287.444	87.81
287.675	74.81
287.906	87.81
288.138	97.81
288.369	97.81
288.6	78.81
288.831	76.81
289.062	83.81
289.293	83.81
289.524	75.81
289.755	96.81
289.986	85.81
290.217	84.81
290.448	98.81
290.679	73.81
290.91	94.81
291.141	89.81
291.371	75.81
291.602	89.81
291.833	67.81
292.064	78.81
292.295	77.81
292.526	96.81
292.757	84.81
292.987	90.81
293.218	78.81
293.449	95.81
293.68	95.81
293.91	82.81
294.141	92.81
294.372	83.81
294.603	82.81
294.833	82.81
295.064	82.81
295.295	96.81
295.525	78.81
295.756	84.81
295.987	103.81
296.217	74.81
296.448	86.81
296.679	91.81
296.909	81.81
297.14	81.81
297.37	89.81
297.601	98.81
297.831	87.81
298.062	67.81
298.292	85.81
298.523	89.81
298.753	81.81
298.984	91.81
299.214	71.81
299.445	77.81
299.675	81.81
299.905	81.81
300.136	92.81
300.366	80.81
300.597	77.81
300.827	87.81
301.057	92.81
301.288	84.81
301.518	95.81
301.748	86.81
301.979	91.81
302.209	86.81
302.439	91.81
302.669	78.81
302.9	81.81
303.13	86.81
303.36	88.81
303.59	89.81
303.82	75.81
304.051	95.81
304.281	80.81
304.511	90.81
304.741	89.81
304.971	85.81
305.201	81.81
305.431	86.81
305.661	90.81
305.891	90.81
306.121	85.81
306.352	86.81
306.582	78.81
306.812	85.81
307.042	99.81
307.272	86.81
307.502	74.81
307.731	91.81
307.961	89.81
308.191	68.81
308.421	92.81
308.651	88.81
308.881	89.81
309.111	82.81
309.341	76.81
309.571	88.81
309.8	85.81
310.03	91.81
310.26	79.81
310.49	85.81
310.72	83.81
310.949	93.81
311.179	87.81
311.409	93.81
311.639	87.81
311.868	87.81
312.098	78.81
312.328	95.81
312.557	78.81
312.787	83.81
313.017	78.81
313.246	83.81
313.476	81.81
313.706	81.81
313.935	82.81
314.165	93.81
314.394	85.81
314.624	88.81
314.853	68.81
315.083	89.81
315.312	78.81
315.542	88.81
315.771	74.81
316.001	88.81
316.23	76.81
316.46	80.81
316.689	72.81
316.919	84.81
317.148	86.81
317.377	92.81
317.607	91.81
317.836	93.81
318.065	72.81
318.295	91.81
318.524	94.81
318.753	83.81
318.983	77.81
319.212	87.81
319.441	76.81
319.67	85.81
319.9	73.81
320.129	93.81
320.358	83.81
320.587	78.81
320.816	71.81
321.046	85.81
321.275	81.81
321.504	92.81
321.733	89.81
321.962	82.81
322.191	85.81
322.42	75.81
322.649	95.81
322.878	88.81
323.108	88.81
323.337	92.81
323.566	86.81
323.795	98.81
324.024	84.81
324.253	75.81
324.482	87.81
324.71	82.81
324.939	81.81
325.168	79.81
325.397	87.81
325.626	79.81
325.855	76.81
326.084	83.81
326.313	91.81
326.542	96.81
326.77	83.81
326.999	95.81
327.228	85.81
327.457	87.81
327.686	76.81
327.914	87.81
328.143	77.81
328.372	75.81
328.6	75.81
328.829	85.81
329.058	88.81
329.287	80.81
329.515	77.81
329.744	69.81
329.972	75.81
330.201	88.81
330.43	82.81
330.658	75.81
330.887	79.81
331.115	77.81
331.344	93.81
331.572	77.81
331.801	89.81
332.03	86.81
332.258	108.81
332.486	75.81
332.715	88.81
332.943	94.81
333.172	83.81
333.4	87.81
333.629	81.81
333.857	83.81
334.085	92.81
334.314	96.81
334.542	98.81
334.771	95.81
334.999	86.81
335.227	106.81
335.455	85.81
335.684	92.81
335.912	79.81
336.14	77.81
336.369	85.81
336.597	92.81
336.825	78.81
337.053	89.81
337.281	78.81
337.51	80.81
337.738	72.81
337.966	65.81
338.194	68.81
338.422	92.81
338.65	79.81
338.878	74.81
339.106	78.81
339.334	67.81
339.562	91.81
339.79	85.81
340.018	75.81
340.246	83.81
340.474	86.81
340.702	91.81
340.93	77.81
341.158	90.81
341.386	73.81
341.614	82.81
341.842	87.81
342.07	95.81
342.298	81.81
342.526	80.81
342.754	89.81
342.981	85.81
343.209	80.81
343.437	100.81
343.665	88.81
343.893	89.81
344.12	91.81
344.348	81.81
344.576	83.81
344.804	84.81
345.031	80.81
345.259	90.81
345.487	86.81
345.714	82.81
345.942	81.81
346.17	84.81
346.397	99.81
346.625	81.81
346.853	90.81
347.08	70.81
347.308	92.81
347.535	95.81
347.763	83.81
347.99	89.81
348.218	81.81
348.445	69.81
348.673	93.81
348.9	96.81
349.128	87.81
349.355	87.81
349.583	82.81
349.81	80.81
350.037	101.81
350.265	94.81
350.492	88.81
350.72	83.81
350.947	82.81
351.174	97.81
351.402	77.81
351.629	80.81
351.856	79.81
352.083	88.81
352.311	87.81
352.538	87.81
352.765	87.81
352.992	89.81
353.22	91.81
353.447	87.81
353.674	74.81
353.901	76.81
354.128	89.81
354.355	81.81
354.583	80.81
354.81	90.81
355.037	87.81
355.264	83.81
355.491	72.81
355.718	73.81
355.945	91.81
356.172	81.81
356.399	87.81
356.626	92.81
356.853	87.81
357.08	73.81
357.307	80.81
357.534	97.81
357.761	86.81
357.988	96.81
358.215	83.81
358.441	78.81
358.668	79.81
358.895	74.81
359.122	77.81
359.349	75.81
359.576	76.81
359.802	93.81
360.029	97.81
360.256	69.81
360.483	69.81
360.709	81.81
360.936	100.81
361.163	84.81
361.39	88.81
361.616	65.81
361.843	83.81
362.07	89.81
362.296	83.81
362.523	76.81
362.749	83.81
362.976	95.81
363.203	92.81
363.429	77.81
363.656	82.81
363.882	89.81
364.109	91.81
364.335	92.81
364.562	75.81
364.788	87.81
365.015	82.81
365.241	80.81
365.468	89.81
365.694	94.81
365.92	71.81
366.147	86.81
366.373	80.81
366.599	80.81
366.826	74.81
367.052	90.81
367.278	74.81
367.505	90.81
367.731	102.81
367.957	80.81
368.184	83.81
368.41	84.81
368.636	81.81
368.862	86.81
369.089	77.81
369.315	91.81
369.541	92.81
369.767	92.81
369.993	80.81
370.219	75.81
370.445	81.81
370.672	75.81
370.898	93.81
371.124	93.81
371.35	75.81
371.576	88.81
371.802	96.81
372.028	93.81
372.254	82.81
372.48	71.81
372.706	81.81
372.932	97.81
373.158	66.81
373.384	83.81
373.61	95.81
373.835	101.81
374.061	84.81
374.287	81.81
374.513	75.81
374.739	89.81
374.965	82.81
375.191	81.81
375.416	81.81
375.642	85.81
375.868	91.81
376.094	85.81
376.319	72.81
376.545	87.81
376.771	84.81
376.997	89.81
377.222	67.81
377.448	87.81
377.674	84.81
377.899	85.81
378.125	86.81
378.35	92.81
378.576	65.81
378.802	77.81
379.027	81.81
379.253	89.81
379.478	94.81
379.704	76.81
379.929	82.81
380.155	93.81
380.38	91.81
380.606	71.81
380.831	85.81
381.057	93.81
381.282	92.81
381.507	98.81
381.733	93.81
381.958	92.81
382.184	85.81
382.409	84.81
382.634	95.81
382.86	78.81
383.085	85.81
383.31	72.81
383.535	75.81
383.761	74.81
383.986	89.81
384.211	85.81
384.436	87.81
384.662	75.81
384.887	78.81
385.112	71.81
385.337	76.81
385.562	81.81
385.787	72.81
386.013	77.81
386.238	85.81
386.463	88.81
386.688	109.81
386.913	90.81
387.138	85.81
387.363	93.81
387.588	76.81
387.813	88.81
388.038	80.81
388.263	89.81
388.488	85.81
388.713	65.81
388.938	86.81
389.163	82.81
389.387	88.81
389.612	62.81
389.837	74.81
390.062	82.81
390.287	83.81
390.512	85.81
390.736	77.81
390.961	86.81
391.186	84.81
391.411	83.81
391.636	68.81
391.86	83.81
392.085	69.81
392.31	94.81
392.534	90.81
392.759	89.81
392.984	104.81
393.208	113.81
393.433	114.81
393.658	106.81
393.882	102.81
394.107	85.81
394.331	89.81
394.556	100.81
394.78	86.81
395.005	92.81
395.229	80.81
395.454	71.81
395.678	85.81
395.903	87.81
396.127	78.81
396.352	95.81
396.576	109.81
396.801	103.81
397.025	109.81
397.249	94.81
397.474	83.81
397.698	83.81
397.922	69.81
398.147	83.81
398.371	93.81
398.595	86.81
398.82	85.81
399.044	81.81
399.268	74.81
399.492	76.81
399.717	88.81
399.941	93.81
400.165	79.81
400.389	83.81
400.613	77.81
400.837	97.81
401.062	76.81
401.286	82.81
401.51	66.81
401.734	82.81
401.958	86.81
402.182	88.81
402.406	76.81
402.63	79.81
402.854	77.81
403.078	75.81
403.302	72.81
403.526	89.81
403.75	99.81
403.974	90.81
404.198	81.81
404.422	85.81
404.645	77.81
404.869	83.81
405.093	86.81
405.317	75.81
405.541	92.81
405.765	83.81
405.988	85.81
406.212	78.81
406.436	82.81
406.66	73.81
406.883	77.81
407.107	84.81
407.331	75.81
407.555	75.81
407.778	83.81
408.002	92.81
408.226	70.81
408.449	71.81
408.673	86.81
408.896	76.81
409.12	77.81
409.344	69.81
409.567	77.81
409.791	84.81
410.014	87.81
410.238	93.81
410.461	80.81
410.685	81.81
410.908	86.81
411.132	94.81
411.355	76.81
411.578	82.81
411.802	79.81
412.025	69.81
412.249	90.81
412.472	75.81
412.695	77.81
412.919	76.81
413.142	103.81
413.365	72.81
413.589	79.81
413.812	74.81
414.035	88.81
414.258	77.81
414.482	75.81
414.705	89.81
414.928	85.81
415.151	89.81
415.374	89.81
415.597	89.81
415.821	75.81
416.044	86.81
416.267	85.81
416.49	79.81
416.713	87.81
416.936	81.81
417.159	89.81
417.382	78.81
417.605	79.81
417.828	85.81
418.051	80.81
418.274	77.81
418.497	89.81
418.72	77.81
418.943	83.81
419.166	77.81
419.389	74.81
419.611	77.81
419.834	81.81
420.057	71.81
420.28	80.81
420.503	74.81
420.726	92.81
420.948	80.81
421.171	83.81
421.394	81.81
421.617	93.81
421.839	84.81
422.062	84.81
422.285	91.81
422.507	99.81
422.73	133.81
422.953	115.81
423.175	89.81
423.398	88.81
423.621	87.81
423.843	87.81
424.066	84.81
424.288	81.81
424.511	83.81
424.733	81.81
424.956	93.81
425.178	95.81
425.401	92.81
425.623	83.81
425.846	62.81
426.068	91.81
426.291	94.81
426.513	71.81
426.735	80.81
426.958	81.81
427.18	75.81
427.402	81.81
427.625	83.81
427.847	87.81
428.069	74.81
428.292	90.81
428.514	89.81
428.736	82.81
428.958	92.81
429.181	92.81
429.403	76.81
429.625	85.81
429.847	85.81
430.069	77.81
430.292	102.81
430.514	89.81
430.736	82.81
430.958	97.81
431.18	85.81
431.402	83.81
431.624	80.81
431.846	93.81
432.068	97.81
432.29	83.81
432.512	85.81
432.734	87.81
432.956	92.81
433.178	71.81
433.4	89.81
433.622	101.81
433.844	77.81
434.066	99.81
434.287	77.81
434.509	74.81
434.731	85.81
434.953	79.81
435.175	77.81
435.397	94.81
435.618	81.81
435.84	88.81
436.062	77.81
436.284	80.81
436.505	84.81
436.727	97.81
436.949	86.81
437.17	76.81
437.392	75.81
437.614	82.81
437.835	70.81
438.057	74.81
438.278	83.81
438.5	87.81
438.721	79.81
438.943	86.81
439.165	78.81
439.386	85.81
439.608	68.81
439.829	79.81
440.05	85.81
440.272	75.81
440.493	76.81
440.715	90.81
440.936	100.81
441.158	82.81
441.379	81.81
441.6	73.81
441.822	75.81
442.043	101.81
442.264	73.81
442.486	76.81
442.707	84.81
442.928	86.81
443.149	80.81
443.371	105.81
443.592	86.81
443.813	88.81
444.034	75.81
444.255	83.81
444.476	83.81
444.698	79.81
444.919	88.81
445.14	133.81
445.361	108.81
445.582	105.81
445.803	98.81
446.024	68.81
446.245	81.81
446.466	83.81
446.687	73.81
446.908	86.81
447.129	95.81
447.35	76.81
447.571	69.81
447.792	64.81
448.013	78.81
448.234	71.81
448.455	91.81
448.675	74.81
448.896	81.81
449.117	69.81
449.338	75.81
449.559	80.81
449.779	86.81
450	80.81
450.221	78.81
450.442	85.81
450.662	96.81
450.883	97.81
451.104	83.81
451.324	80.81
451.545	82.81
451.766	93.81
451.986	84.81
452.207	75.81
452.428	88.81
452.648	87.81
452.869	84.81
453.089	89.81
453.31	84.81
453.53	79.81
453.751	85.81
453.971	87.81
454.192	76.81
454.412	75.81
454.633	74.81
454.853	78.81
455.073	69.81
455.294	83.81
455.514	75.81
455.734	82.81
455.955	84.81
456.175	99.81
456.395	87.81
456.616	75.81
456.836	87.81
457.056	76.81
457.276	81.81
457.497	94.81
457.717	92.81
457.937	89.81
458.157	73.81
458.377	85.81
458.598	83.81
458.818	85.81
459.038	86.81
459.258	79.81
459.478	82.81
459.698	83.81
459.918	89.81
460.138	90.81
460.358	74.81
460.578	101.81
460.798	80.81
461.018	88.81
461.238	87.81
461.458	83.81
461.678	101.81
461.898	83.81
462.118	88.81
462.338	92.81
462.558	75.81
462.777	102.81
462.997	93.81
463.217	85.81
463.437	89.81
463.657	71.81
463.876	79.81
464.096	75.81
464.316	85.81
464.536	81.81
464.755	72.81
464.975	82.81
465.195	99.81
465.414	89.81
465.634	78.81
465.854	83.81
466.073	77.81
466.293	76.81
466.512	63.81
466.732	90.81
466.951	84.81
467.171	88.81
467.391	77.81
467.61	84.81
467.829	86.81
468.049	83.81
468.268	98.81
468.488	83.81
468.707	80.81
468.927	88.81
469.146	82.81
469.365	80.81
469.585	90.81
469.804	89.81
470.023	86.81
470.243	85.81
470.462	75.81
470.681	87.81
470.901	89.81
471.12	88.81
471.339	80.81
471.558	84.81
471.777	76.81
471.997	85.81
472.216	79.81
472.435	78.81
472.654	85.81
472.873	87.81
473.092	85.81
473.311	84.81
473.53	89.81
473.749	86.81
473.968	83.81
474.187	80.81
474.406	79.81
474.625	85.81
474.844	80.81
475.063	75.81
475.282	78.81
475.501	85.81
475.72	100.81
475.939	70.81
476.158	71.81
476.377	66.81
476.596	78.81
476.814	79.81
477.033	91.81
477.252	81.81
477.471	73.81
477.69	81.81
477.908	64.81
478.127	87.81
478.346	85.81
478.564	77.81
478.783	76.81
479.002	69.81
479.22	74.81
479.439	93.81
479.658	98.81
479.876	84.81
480.095	70.81
480.313	69.81
480.532	75.81
480.751	83.81
480.969	85.81
481.188	92.81
481.406	83.81
481.624	83.81
481.843	81.81
482.061	87.81
482.28	82.81
482.498	78.81
482.717	77.81
482.935	89.81
483.153	87.81
483.372	74.81
483.59	71.81
483.808	78.81
484.027	87.81
484.245	93.81
484.463	85.81
484.681	102.81
484.9	89.81
485.118	74.81
485.336	90.81
485.554	75.81
485.772	87.81
485.99	81.81
486.209	88.81
486.427	86.81
486.645	91.81
486.863	88.81
487.081	83.81
487.299	68.81
487.517	85.81
487.735	86.81
487.953	85.81
488.171	77.81
488.389	77.81
488.607	80.81
488.825	74.81
489.043	90.81
489.261	86.81
489.479	80.81
489.696	68.81
489.914	81.81
490.132	96.81
490.35	77.81
490.568	78.81
490.786	69.81
491.003	97.81
491.221	81.81
491.439	88.81
491.657	80.81
491.874	85.81
492.092	85.81
492.31	96.81
492.527	80.81
492.745	87.81
492.963	89.81
493.18	88.81
493.398	86.81
493.615	75.81
493.833	80.81
494.05	90.81
494.268	94.81
494.485	84.81
494.703	88.81
494.92	98.81
495.138	81.81
495.355	81.81
495.573	67.81
495.79	95.81
496.008	83.81
496.225	92.81
496.442	93.81
496.66	97.81
496.877	82.81
497.094	96.81
497.312	87.81
497.529	84.81
497.746	85.81
497.963	70.81
498.181	77.81
498.398	83.81
498.615	84.81
498.832	85.81
499.049	84.81
499.267	80.81
499.484	85.81
499.701	76.81
499.918	73.81
500.135	81.81
500.352	85.81
500.569	90.81
500.786	78.81
501.003	83.81
501.22	68.81
501.437	86.81
501.654	86.81
501.871	87.81
502.088	92.81
502.305	89.81
502.522	77.81
502.739	87.81
502.956	85.81
503.172	80.81
503.389	87.81
503.606	81.81
503.823	81.81
504.04	84.81
504.256	86.81
504.473	85.81
504.69	86.81
504.907	82.81
505.123	87.81
505.34	77.81
505.557	83.81
505.773	92.81
505.99	70.81
506.207	68.81
506.423	75.81
506.64	83.81
506.856	69.81
507.073	75.81
507.289	73.81
507.506	101.81
507.722	71.81
507.939	85.81
508.155	96.81
508.372	84.81
508.588	89.81
508.805	90.81
509.021	87.81
509.238	72.81
509.454	93.81
509.67	93.81
509.887	81.81
510.103	82.81
510.319	91.81
510.536	82.81
510.752	91.81
510.968	84.81
511.184	83.81
511.401	75.81
511.617	93.81
511.833	81.81
512.049	83.81
512.265	63.81
512.481	97.81
512.698	78.81
512.914	75.81
513.13	87.81
513.346	91.81
513.562	89.81
513.778	86.81
513.994	84.81
514.21	76.81
514.426	83.81
514.642	96.81
514.858	83.81
515.074	88.81
515.29	91.81
515.506	72.81
515.721	90.81
515.937	81.81
516.153	80.81
516.369	100.81
516.585	90.81
516.801	73.81
517.016	93.81
517.232	87.81
517.448	85.81
517.664	85.81
517.879	82.81
518.095	82.81
518.311	83.81
518.527	86.81
518.742	85.81
518.958	93.81
519.173	94.81
519.389	88.81
519.605	68.81
519.82	75.81
