Data from 17600_3_HRD10591_00001.txt Node
Date: Mon Jan 19 14:09:24 EST 2026
User: Yrep
Spectrometer: HR+D1059
Trigger mode: 1
Integration Time (sec): 1.000000E-1
Scans to average: 1
Electric dark correction enabled: true
Nonlinearity correction enabled: false
Boxcar width: 0
XAxis mode: Wavelengths
Number of Pixels in Spectrum: 2048
>>>>>Begin Spectral Data<<<<<
223.165	-16.69
223.4	-16.69
223.635	-16.69
223.869	-8.69
224.104	-42.69
224.338	-6.69
224.573	-6.69
224.808	-7.69
225.042	-5.69
225.277	-14.69
225.511	-5.69
225.746	5.31
225.98	4.31
226.215	16.31
226.449	13.31
226.683	31.31
226.918	16.31
227.152	28.31
227.387	46.31
227.621	36.31
227.856	43.31
228.09	47.31
228.324	40.31
228.559	54.31
228.793	53.31
229.027	71.31
229.262	69.31
229.496	68.31
229.73	66.31
229.964	63.31
230.199	62.31
230.433	69.31
230.667	81.31
230.901	73.31
231.136	84.31
231.37	98.31
231.604	77.31
231.838	79.31
232.072	99.31
232.306	81.31
232.541	74.31
232.775	89.31
233.009	87.31
233.243	86.31
233.477	90.31
233.711	85.31
233.945	83.31
234.179	76.31
234.413	91.31
234.647	71.31
234.881	75.31
235.115	85.31
235.349	75.31
235.583	77.31
235.817	73.31
236.051	76.31
236.285	64.31
236.519	82.31
236.753	70.31
236.987	90.31
237.221	84.31
237.455	69.31
237.689	74.31
237.922	68.31
238.156	90.31
238.39	77.31
238.624	81.31
238.858	76.31
239.091	80.31
239.325	86.31
239.559	68.31
239.793	73.31
240.027	82.31
240.26	80.31
240.494	71.31
240.728	68.31
240.961	81.31
241.195	84.31
241.429	70.31
241.662	82.31
241.896	83.31
242.13	96.31
242.363	65.31
242.597	86.31
242.83	68.31
243.064	64.31
243.298	77.31
243.531	81.31
243.765	87.31
243.998	82.31
244.232	75.31
244.465	83.31
244.699	100.31
244.932	78.31
245.166	68.31
245.399	87.31
245.633	74.31
245.866	87.31
246.099	74.31
246.333	85.31
246.566	68.31
246.8	86.31
247.033	87.31
247.266	82.31
247.5	75.31
247.733	76.31
247.966	77.31
248.2	72.31
248.433	83.31
248.666	75.31
248.899	82.31
249.133	77.31
249.366	83.31
249.599	83.31
249.832	85.31
250.066	83.31
250.299	72.31
250.532	84.31
250.765	72.31
250.998	78.31
251.231	87.31
251.465	80.31
251.698	58.31
251.931	82.31
252.164	75.31
252.397	72.31
252.63	81.31
252.863	82.31
253.096	74.31
253.329	84.31
253.562	85.31
253.795	90.31
254.028	86.31
254.261	84.31
254.494	88.31
254.727	82.31
254.96	77.31
255.193	94.31
255.426	77.31
255.659	62.31
255.892	96.31
256.124	83.31
256.357	68.31
256.59	72.31
256.823	74.31
257.056	80.31
257.289	86.31
257.521	90.31
257.754	77.31
257.987	82.31
258.22	85.31
258.452	73.31
258.685	92.31
258.918	81.31
259.151	75.31
259.383	87.31
259.616	87.31
259.849	82.31
260.081	83.31
260.314	84.31
260.547	77.31
260.779	81.31
261.012	76.31
261.244	80.31
261.477	86.31
261.71	87.31
261.942	86.31
262.175	90.31
262.407	72.31
262.64	84.31
262.872	79.31
263.105	88.31
263.337	86.31
263.57	68.31
263.802	83.31
264.035	66.31
264.267	76.31
264.499	80.31
264.732	82.31
264.964	98.31
265.197	88.31
265.429	78.31
265.661	67.31
265.894	61.31
266.126	87.31
266.358	87.31
266.591	78.31
266.823	86.31
267.055	80.31
267.287	88.31
267.52	89.31
267.752	80.31
267.984	80.31
268.216	95.31
268.448	71.31
268.681	91.31
268.913	81.31
269.145	91.31
269.377	84.31
269.609	78.31
269.841	90.31
270.073	76.31
270.306	87.31
270.538	85.31
270.77	81.31
271.002	82.31
271.234	88.31
271.466	102.31
271.698	78.31
271.93	85.31
272.162	81.31
272.394	96.31
272.626	88.31
272.858	88.31
273.09	106.31
273.322	88.31
273.553	73.31
273.785	87.31
274.017	79.31
274.249	88.31
274.481	65.31
274.713	100.31
274.945	81.31
275.176	82.31
275.408	91.31
275.64	90.31
275.872	86.31
276.104	86.31
276.335	76.31
276.567	89.31
276.799	82.31
277.031	86.31
277.262	84.31
277.494	103.31
277.726	99.31
277.957	98.31
278.189	79.31
278.421	72.31
278.652	72.31
278.884	88.31
279.115	100.31
279.347	85.31
279.579	93.31
279.81	90.31
280.042	91.31
280.273	84.31
280.505	79.31
280.736	88.31
280.968	82.31
281.199	86.31
281.431	66.31
281.662	96.31
281.894	98.31
282.125	94.31
282.356	75.31
282.588	94.31
282.819	91.31
283.051	77.31
283.282	93.31
283.513	83.31
283.745	87.31
283.976	90.31
284.207	75.31
284.439	91.31
284.67	87.31
284.901	98.31
285.132	98.31
285.364	90.31
285.595	91.31
285.826	92.31
286.057	88.31
286.288	92.31
286.52	90.31
286.751	86.31
286.982	76.31
287.213	89.31
287.444	96.31
287.675	86.31
287.906	82.31
288.138	85.31
288.369	98.31
288.6	80.31
288.831	83.31
289.062	91.31
289.293	86.31
289.524	92.31
289.755	77.31
289.986	76.31
290.217	80.31
290.448	88.31
290.679	97.31
290.91	86.31
291.141	83.31
291.371	92.31
291.602	104.31
291.833	84.31
292.064	84.31
292.295	79.31
292.526	94.31
292.757	81.31
292.987	87.31
293.218	93.31
293.449	76.31
293.68	81.31
293.91	78.31
294.141	80.31
294.372	82.31
294.603	94.31
294.833	93.31
295.064	87.31
295.295	93.31
295.525	85.31
295.756	102.31
295.987	100.31
296.217	74.31
296.448	76.31
296.679	83.31
296.909	79.31
297.14	73.31
297.37	88.31
297.601	82.31
297.831	89.31
298.062	86.31
298.292	90.31
298.523	72.31
298.753	95.31
298.984	87.31
299.214	89.31
299.445	90.31
299.675	103.31
299.905	82.31
300.136	96.31
300.366	88.31
300.597	104.31
300.827	121.31
301.057	84.31
301.288	82.31
301.518	83.31
301.748	83.31
301.979	80.31
302.209	100.31
302.439	100.31
302.669	89.31
302.9	86.31
303.13	75.31
303.36	75.31
303.59	80.31
303.82	84.31
304.051	96.31
304.281	88.31
304.511	77.31
304.741	103.31
304.971	91.31
305.201	96.31
305.431	95.31
305.661	84.31
305.891	96.31
306.121	95.31
306.352	89.31
306.582	90.31
306.812	82.31
307.042	92.31
307.272	98.31
307.502	90.31
307.731	93.31
307.961	101.31
308.191	94.31
308.421	106.31
308.651	91.31
308.881	100.31
309.111	93.31
309.341	121.31
309.571	106.31
309.8	85.31
310.03	82.31
310.26	84.31
310.49	60.31
310.72	80.31
310.949	83.31
311.179	99.31
311.409	85.31
311.639	89.31
311.868	98.31
312.098	95.31
312.328	91.31
312.557	99.31
312.787	87.31
313.017	80.31
313.246	103.31
313.476	82.31
313.706	85.31
313.935	82.31
314.165	85.31
314.394	81.31
314.624	80.31
314.853	88.31
315.083	94.31
315.312	84.31
315.542	90.31
315.771	94.31
316.001	102.31
316.23	102.31
316.46	91.31
316.689	82.31
316.919	94.31
317.148	105.31
317.377	86.31
317.607	93.31
317.836	104.31
318.065	132.31
318.295	108.31
318.524	87.31
318.753	75.31
318.983	90.31
319.212	84.31
319.441	92.31
319.67	82.31
319.9	95.31
320.129	97.31
320.358	84.31
320.587	106.31
320.816	97.31
321.046	86.31
321.275	93.31
321.504	111.31
321.733	83.31
321.962	93.31
322.191	102.31
322.42	98.31
322.649	96.31
322.878	97.31
323.108	114.31
323.337	86.31
323.566	77.31
323.795	84.31
324.024	88.31
324.253	88.31
324.482	91.31
324.71	90.31
324.939	83.31
325.168	91.31
325.397	86.31
325.626	85.31
325.855	102.31
326.084	104.31
326.313	92.31
326.542	90.31
326.77	80.31
326.999	105.31
327.228	80.31
327.457	90.31
327.686	90.31
327.914	79.31
328.143	90.31
328.372	83.31
328.6	97.31
328.829	98.31
329.058	86.31
329.287	78.31
329.515	72.31
329.744	95.31
329.972	80.31
330.201	94.31
330.43	95.31
330.658	91.31
330.887	103.31
331.115	90.31
331.344	91.31
331.572	93.31
331.801	90.31
332.03	81.31
332.258	100.31
332.486	102.31
332.715	96.31
332.943	87.31
333.172	84.31
333.4	110.31
333.629	93.31
333.857	88.31
334.085	94.31
334.314	105.31
334.542	95.31
334.771	98.31
334.999	106.31
335.227	114.31
335.455	102.31
335.684	111.31
335.912	116.31
336.14	114.31
336.369	115.31
336.597	104.31
336.825	94.31
337.053	98.31
337.281	98.31
337.51	91.31
337.738	109.31
337.966	91.31
338.194	97.31
338.422	94.31
338.65	92.31
338.878	94.31
339.106	79.31
339.334	86.31
339.562	96.31
339.79	76.31
340.018	91.31
340.246	100.31
340.474	78.31
340.702	105.31
340.93	102.31
341.158	94.31
341.386	84.31
341.614	74.31
341.842	85.31
342.07	74.31
342.298	100.31
342.526	93.31
342.754	99.31
342.981	92.31
343.209	95.31
343.437	100.31
343.665	84.31
343.893	95.31
344.12	106.31
344.348	106.31
344.576	97.31
344.804	96.31
345.031	88.31
345.259	89.31
345.487	97.31
345.714	84.31
345.942	85.31
346.17	90.31
346.397	74.31
346.625	91.31
346.853	73.31
347.08	90.31
347.308	94.31
347.535	83.31
347.763	103.31
347.99	91.31
348.218	76.31
348.445	82.31
348.673	84.31
348.9	92.31
349.128	94.31
349.355	94.31
349.583	100.31
349.81	81.31
350.037	89.31
350.265	88.31
350.492	91.31
350.72	91.31
350.947	83.31
351.174	95.31
351.402	91.31
351.629	83.31
351.856	76.31
352.083	85.31
352.311	101.31
352.538	88.31
352.765	80.31
352.992	93.31
353.22	84.31
353.447	86.31
353.674	103.31
353.901	98.31
354.128	100.31
354.355	87.31
354.583	96.31
354.81	90.31
355.037	90.31
355.264	92.31
355.491	85.31
355.718	92.31
355.945	79.31
356.172	94.31
356.399	104.31
356.626	103.31
356.853	101.31
357.08	103.31
357.307	112.31
357.534	88.31
357.761	99.31
357.988	97.31
358.215	118.31
358.441	99.31
358.668	98.31
358.895	80.31
359.122	98.31
359.349	90.31
359.576	99.31
359.802	96.31
360.029	89.31
360.256	92.31
360.483	95.31
360.709	88.31
360.936	93.31
361.163	110.31
361.39	95.31
361.616	99.31
361.843	118.31
362.07	118.31
362.296	117.31
362.523	124.31
362.749	138.31
362.976	140.31
363.203	159.31
363.429	121.31
363.656	94.31
363.882	112.31
364.109	156.31
364.335	164.31
364.562	177.31
364.788	118.31
365.015	115.31
365.241	83.31
365.468	108.31
365.694	94.31
365.92	98.31
366.147	89.31
366.373	99.31
366.599	84.31
366.826	89.31
367.052	93.31
367.278	94.31
367.505	98.31
367.731	104.31
367.957	82.31
368.184	100.31
368.41	86.31
368.636	104.31
368.862	94.31
369.089	90.31
369.315	83.31
369.541	94.31
369.767	95.31
369.993	90.31
370.219	102.31
370.445	97.31
370.672	126.31
370.898	103.31
371.124	85.31
371.35	98.31
371.576	85.31
371.802	102.31
372.028	118.31
372.254	101.31
372.48	91.31
372.706	99.31
372.932	98.31
373.158	92.31
373.384	114.31
373.61	150.31
373.835	120.31
374.061	100.31
374.287	106.31
374.513	99.31
374.739	104.31
374.965	115.31
375.191	102.31
375.416	108.31
375.642	110.31
375.868	96.31
376.094	102.31
376.319	91.31
376.545	87.31
376.771	94.31
376.997	96.31
377.222	92.31
377.448	96.31
377.674	86.31
377.899	88.31
378.125	103.31
378.35	95.31
378.576	105.31
378.802	95.31
379.027	107.31
379.253	102.31
379.478	98.31
379.704	105.31
379.929	105.31
380.155	90.31
380.38	92.31
380.606	97.31
380.831	101.31
381.057	100.31
381.282	79.31
381.507	106.31
381.733	106.31
381.958	106.31
382.184	97.31
382.409	115.31
382.634	122.31
382.86	122.31
383.085	103.31
383.31	106.31
383.535	138.31
383.761	123.31
383.986	123.31
384.211	106.31
384.436	98.31
384.662	93.31
384.887	99.31
385.112	87.31
385.337	105.31
385.562	104.31
385.787	103.31
386.013	107.31
386.238	112.31
386.463	118.31
386.688	104.31
386.913	94.31
387.138	100.31
387.363	106.31
387.588	96.31
387.813	123.31
388.038	104.31
388.263	111.31
388.488	102.31
388.713	100.31
388.938	97.31
389.163	104.31
389.387	95.31
389.612	110.31
389.837	89.31
390.062	106.31
390.287	107.31
390.512	104.31
390.736	119.31
390.961	87.31
391.186	95.31
391.411	114.31
391.636	111.31
391.86	100.31
392.085	114.31
392.31	119.31
392.534	122.31
392.759	139.31
392.984	228.31
393.208	405.31
393.433	560.31
393.658	433.31
393.882	198.31
394.107	139.31
394.331	160.31
394.556	168.31
394.78	128.31
395.005	125.31
395.229	109.31
395.454	101.31
395.678	134.31
395.903	150.31
396.127	190.31
396.352	224.31
396.576	266.31
396.801	395.31
397.025	448.31
397.249	256.31
397.474	153.31
397.698	138.31
397.922	101.31
398.147	98.31
398.371	91.31
398.595	102.31
398.82	84.31
399.044	98.31
399.268	90.31
399.492	95.31
399.717	87.31
399.941	91.31
400.165	99.31
400.389	98.31
400.613	86.31
400.837	98.31
401.062	107.31
401.286	91.31
401.51	82.31
401.734	87.31
401.958	99.31
402.182	86.31
402.406	83.31
402.63	104.31
402.854	114.31
403.078	95.31
403.302	89.31
403.526	102.31
403.75	107.31
403.974	104.31
404.198	99.31
404.422	112.31
404.645	105.31
404.869	108.31
405.093	92.31
405.317	91.31
405.541	91.31
405.765	96.31
405.988	105.31
406.212	108.31
406.436	95.31
406.66	110.31
406.883	98.31
407.107	94.31
407.331	97.31
407.555	128.31
407.778	153.31
408.002	140.31
408.226	114.31
408.449	91.31
408.673	99.31
408.896	124.31
409.12	105.31
409.344	113.31
409.567	124.31
409.791	127.31
410.014	133.31
410.238	115.31
410.461	121.31
410.685	90.31
410.908	85.31
411.132	107.31
411.355	103.31
411.578	104.31
411.802	106.31
412.025	94.31
412.249	104.31
412.472	88.31
412.695	86.31
412.919	86.31
413.142	89.31
413.365	91.31
413.589	94.31
413.812	82.31
414.035	113.31
414.258	102.31
414.482	99.31
414.705	102.31
414.928	82.31
415.151	86.31
415.374	83.31
415.597	108.31
415.821	88.31
416.044	91.31
416.267	103.31
416.49	98.31
416.713	96.31
416.936	107.31
417.159	97.31
417.382	94.31
417.605	97.31
417.828	81.31
418.051	90.31
418.274	86.31
418.497	94.31
418.72	97.31
418.943	93.31
419.166	86.31
419.389	101.31
419.611	106.31
419.834	98.31
420.057	84.31
420.28	99.31
420.503	88.31
420.726	116.31
420.948	123.31
421.171	110.31
421.394	126.31
421.617	162.31
421.839	173.31
422.062	177.31
422.285	246.31
422.507	382.31
422.73	496.31
422.953	471.31
423.175	295.31
423.398	190.31
423.621	152.31
423.843	112.31
424.066	119.31
424.288	108.31
424.511	112.31
424.733	100.31
424.956	104.31
425.178	86.31
425.401	101.31
425.623	88.31
425.846	106.31
426.068	95.31
426.291	88.31
426.513	103.31
426.735	119.31
426.958	94.31
427.18	103.31
427.402	111.31
427.625	97.31
427.847	84.31
428.069	122.31
428.292	134.31
428.514	178.31
428.736	121.31
428.958	152.31
429.181	167.31
429.403	123.31
429.625	110.31
429.847	135.31
430.069	204.31
430.292	234.31
430.514	227.31
430.736	166.31
430.958	167.31
431.18	128.31
431.402	101.31
431.624	113.31
431.846	159.31
432.068	169.31
432.29	115.31
432.512	102.31
432.734	95.31
432.956	96.31
433.178	103.31
433.4	102.31
433.622	104.31
433.844	66.31
434.066	94.31
434.287	89.31
434.509	104.31
434.731	91.31
434.953	116.31
435.175	91.31
435.397	112.31
435.618	108.31
435.84	100.31
436.062	105.31
436.284	106.31
436.505	100.31
436.727	103.31
436.949	95.31
437.17	91.31
437.392	96.31
437.614	104.31
437.835	89.31
438.057	96.31
438.278	101.31
438.5	102.31
438.721	104.31
438.943	100.31
439.165	88.31
439.386	99.31
439.608	106.31
439.829	80.31
440.05	109.31
440.272	78.31
440.493	99.31
440.715	102.31
440.936	97.31
441.158	105.31
441.379	99.31
441.6	98.31
441.822	87.31
442.043	89.31
442.264	105.31
442.486	177.31
442.707	256.31
442.928	164.31
443.149	120.31
443.371	204.31
443.592	386.31
443.813	326.31
444.034	154.31
444.255	104.31
444.476	110.31
444.698	110.31
444.919	118.31
445.14	238.31
445.361	290.31
445.582	445.31
445.803	392.31
446.024	159.31
446.245	105.31
446.466	110.31
446.687	107.31
446.908	103.31
447.129	103.31
447.35	85.31
447.571	87.31
447.792	91.31
448.013	68.31
448.234	85.31
448.455	89.31
448.675	87.31
448.896	101.31
449.117	88.31
449.338	79.31
449.559	84.31
449.779	97.31
450	94.31
450.221	89.31
450.442	87.31
450.662	71.31
450.883	91.31
451.104	96.31
451.324	95.31
451.545	91.31
451.766	81.31
451.986	85.31
452.207	95.31
452.428	104.31
452.648	114.31
452.869	126.31
453.089	118.31
453.31	92.31
453.53	94.31
453.751	102.31
453.971	99.31
454.192	93.31
454.412	89.31
454.633	95.31
454.853	90.31
455.073	91.31
455.294	95.31
455.514	100.31
455.734	88.31
455.955	91.31
456.175	86.31
456.395	95.31
456.616	86.31
456.836	85.31
457.056	91.31
457.276	76.31
457.497	84.31
457.717	98.31
457.937	134.31
458.157	158.31
458.377	167.31
458.598	175.31
458.818	184.31
459.038	120.31
459.258	92.31
459.478	90.31
459.698	91.31
459.918	96.31
460.138	85.31
460.358	80.31
460.578	108.31
460.798	158.31
461.018	147.31
461.238	89.31
461.458	90.31
461.678	96.31
461.898	96.31
462.118	86.31
462.338	80.31
462.558	91.31
462.777	102.31
462.997	97.31
463.217	85.31
463.437	99.31
463.657	89.31
463.876	93.31
464.096	79.31
464.316	97.31
464.536	87.31
464.755	105.31
464.975	94.31
465.195	100.31
465.414	87.31
465.634	86.31
465.854	76.31
466.073	90.31
466.293	91.31
466.512	85.31
466.732	90.31
466.951	92.31
467.171	83.31
467.391	90.31
467.61	84.31
467.829	103.31
468.049	82.31
468.268	96.31
468.488	105.31
468.707	110.31
468.927	94.31
469.146	83.31
469.365	79.31
469.585	98.31
469.804	85.31
470.023	84.31
470.243	90.31
470.462	88.31
470.681	92.31
470.901	90.31
471.12	87.31
471.339	84.31
471.558	97.31
471.777	105.31
471.997	75.31
472.216	89.31
472.435	91.31
472.654	74.31
472.873	84.31
473.092	92.31
473.311	83.31
473.53	100.31
473.749	94.31
473.968	95.31
474.187	94.31
474.406	86.31
474.625	98.31
474.844	89.31
475.063	101.31
475.282	92.31
475.501	82.31
475.72	90.31
475.939	99.31
476.158	86.31
476.377	91.31
476.596	88.31
476.814	74.31
477.033	90.31
477.252	99.31
477.471	85.31
477.69	102.31
477.908	99.31
478.127	92.31
478.346	94.31
478.564	101.31
478.783	90.31
479.002	94.31
479.22	90.31
479.439	90.31
479.658	86.31
479.876	88.31
480.095	79.31
480.313	94.31
480.532	92.31
480.751	92.31
480.969	78.31
481.188	93.31
481.406	108.31
481.624	102.31
481.843	111.31
482.061	93.31
482.28	114.31
482.498	116.31
482.717	105.31
482.935	105.31
483.153	98.31
483.372	102.31
483.59	94.31
483.808	84.31
484.027	101.31
484.245	97.31
484.463	104.31
484.681	113.31
484.9	92.31
485.118	96.31
485.336	91.31
485.554	99.31
485.772	95.31
485.99	86.31
486.209	86.31
486.427	100.31
486.645	102.31
486.863	110.31
487.081	107.31
487.299	112.31
487.517	113.31
487.735	138.31
487.953	309.31
488.171	224.31
488.389	116.31
488.607	99.31
488.825	101.31
489.043	96.31
489.261	106.31
489.479	87.31
489.696	87.31
489.914	112.31
490.132	95.31
490.35	96.31
490.568	108.31
490.786	91.31
491.003	97.31
491.221	100.31
491.439	91.31
491.657	102.31
491.874	84.31
492.092	93.31
492.31	98.31
492.527	96.31
492.745	86.31
492.963	112.31
493.18	106.31
493.398	105.31
493.615	108.31
493.833	88.31
494.05	73.31
494.268	95.31
494.485	104.31
494.703	94.31
494.92	98.31
495.138	102.31
495.355	84.31
495.573	93.31
495.79	107.31
496.008	102.31
496.225	105.31
496.442	120.31
496.66	98.31
496.877	90.31
497.094	103.31
497.312	91.31
497.529	90.31
497.746	100.31
497.963	80.31
498.181	97.31
498.398	123.31
498.615	115.31
498.832	104.31
499.049	104.31
499.267	104.31
499.484	111.31
499.701	104.31
499.918	99.31
500.135	104.31
500.352	101.31
500.569	95.31
500.786	108.31
501.003	116.31
501.22	99.31
501.437	97.31
501.654	87.31
501.871	114.31
502.088	98.31
502.305	87.31
502.522	101.31
502.739	103.31
502.956	104.31
503.172	91.31
503.389	107.31
503.606	115.31
503.823	122.31
504.04	130.31
504.256	209.31
504.473	207.31
504.69	117.31
504.907	112.31
505.123	91.31
505.34	105.31
505.557	91.31
505.773	96.31
505.99	92.31
506.207	81.31
506.423	102.31
506.64	105.31
506.856	93.31
507.073	94.31
507.289	88.31
507.506	92.31
507.722	81.31
507.939	90.31
508.155	101.31
508.372	84.31
508.588	84.31
508.805	97.31
509.021	93.31
509.238	94.31
509.454	90.31
509.67	71.31
509.887	88.31
510.103	108.31
510.319	95.31
510.536	102.31
510.752	92.31
510.968	77.31
511.184	96.31
511.401	93.31
511.617	88.31
511.833	74.31
512.049	90.31
512.265	95.31
512.481	102.31
512.698	95.31
512.914	79.31
513.13	108.31
513.346	103.31
513.562	94.31
513.778	100.31
513.994	102.31
514.21	94.31
514.426	98.31
514.642	82.31
