Data from 17600_3_HRD10591_00006.txt Node
Date: Mon Jan 19 14:09:26 EST 2026
User: Yrep
Spectrometer: HR+D1059
Trigger mode: 1
Integration Time (sec): 1.000000E-1
Scans to average: 1
Electric dark correction enabled: true
Nonlinearity correction enabled: false
Boxcar width: 0
XAxis mode: Wavelengths
Number of Pixels in Spectrum: 2048
>>>>>Begin Spectral Data<<<<<
223.165	-20.88
223.4	-20.88
223.635	-20.88
223.869	-8.88
224.104	-19.88
224.338	-14.88
224.573	-27.88
224.808	-7.88
225.042	-16.88
225.277	-16.88
225.511	-1.88
225.746	6.12
225.98	15.12
226.215	9.12
226.449	4.12
226.683	12.12
226.918	37.12
227.152	52.12
227.387	33.12
227.621	37.12
227.856	42.12
228.09	53.12
228.324	60.12
228.559	47.12
228.793	63.12
229.027	67.12
229.262	59.12
229.496	49.12
229.73	74.12
229.964	72.12
230.199	65.12
230.433	75.12
230.667	85.12
230.901	74.12
231.136	71.12
231.37	84.12
231.604	71.12
231.838	83.12
232.072	79.12
232.306	89.12
232.541	75.12
232.775	83.12
233.009	75.12
233.243	98.12
233.477	68.12
233.711	89.12
233.945	73.12
234.179	90.12
234.413	87.12
234.647	94.12
234.881	97.12
235.115	89.12
235.349	83.12
235.583	80.12
235.817	77.12
236.051	74.12
236.285	76.12
236.519	84.12
236.753	72.12
236.987	85.12
237.221	72.12
237.455	91.12
237.689	79.12
237.922	67.12
238.156	79.12
238.39	79.12
238.624	92.12
238.858	77.12
239.091	87.12
239.325	78.12
239.559	81.12
239.793	82.12
240.027	80.12
240.26	73.12
240.494	66.12
240.728	75.12
240.961	85.12
241.195	87.12
241.429	72.12
241.662	77.12
241.896	82.12
242.13	82.12
242.363	76.12
242.597	72.12
242.83	77.12
243.064	60.12
243.298	87.12
243.531	75.12
243.765	83.12
243.998	77.12
244.232	85.12
244.465	81.12
244.699	68.12
244.932	66.12
245.166	77.12
245.399	91.12
245.633	77.12
245.866	76.12
246.099	82.12
246.333	78.12
246.566	81.12
246.8	74.12
247.033	83.12
247.266	75.12
247.5	80.12
247.733	75.12
247.966	87.12
248.2	84.12
248.433	81.12
248.666	73.12
248.899	82.12
249.133	75.12
249.366	73.12
249.599	75.12
249.832	80.12
250.066	77.12
250.299	79.12
250.532	83.12
250.765	88.12
250.998	81.12
251.231	78.12
251.465	78.12
251.698	81.12
251.931	77.12
252.164	88.12
252.397	77.12
252.63	73.12
252.863	85.12
253.096	84.12
253.329	89.12
253.562	86.12
253.795	78.12
254.028	80.12
254.261	80.12
254.494	82.12
254.727	69.12
254.96	81.12
255.193	72.12
255.426	73.12
255.659	95.12
255.892	88.12
256.124	81.12
256.357	79.12
256.59	82.12
256.823	76.12
257.056	81.12
257.289	81.12
257.521	85.12
257.754	83.12
257.987	76.12
258.22	83.12
258.452	81.12
258.685	73.12
258.918	79.12
259.151	77.12
259.383	78.12
259.616	82.12
259.849	72.12
260.081	92.12
260.314	72.12
260.547	80.12
260.779	70.12
261.012	92.12
261.244	71.12
261.477	92.12
261.71	87.12
261.942	77.12
262.175	81.12
262.407	92.12
262.64	91.12
262.872	95.12
263.105	67.12
263.337	89.12
263.57	95.12
263.802	76.12
264.035	63.12
264.267	73.12
264.499	80.12
264.732	85.12
264.964	88.12
265.197	85.12
265.429	70.12
265.661	88.12
265.894	76.12
266.126	83.12
266.358	89.12
266.591	80.12
266.823	82.12
267.055	78.12
267.287	87.12
267.52	97.12
267.752	89.12
267.984	85.12
268.216	69.12
268.448	71.12
268.681	78.12
268.913	76.12
269.145	78.12
269.377	95.12
269.609	84.12
269.841	85.12
270.073	85.12
270.306	84.12
270.538	84.12
270.77	76.12
271.002	74.12
271.234	93.12
271.466	72.12
271.698	86.12
271.93	65.12
272.162	87.12
272.394	68.12
272.626	95.12
272.858	86.12
273.09	90.12
273.322	74.12
273.553	85.12
273.785	78.12
274.017	92.12
274.249	101.12
274.481	83.12
274.713	90.12
274.945	90.12
275.176	94.12
275.408	73.12
275.64	88.12
275.872	90.12
276.104	87.12
276.335	87.12
276.567	81.12
276.799	74.12
277.031	87.12
277.262	84.12
277.494	98.12
277.726	95.12
277.957	80.12
278.189	87.12
278.421	74.12
278.652	73.12
278.884	95.12
279.115	90.12
279.347	83.12
279.579	82.12
279.81	86.12
280.042	93.12
280.273	87.12
280.505	92.12
280.736	85.12
280.968	90.12
281.199	72.12
281.431	87.12
281.662	75.12
281.894	86.12
282.125	79.12
282.356	97.12
282.588	86.12
282.819	87.12
283.051	91.12
283.282	86.12
283.513	80.12
283.745	93.12
283.976	67.12
284.207	81.12
284.439	90.12
284.67	87.12
284.901	97.12
285.132	85.12
285.364	97.12
285.595	76.12
285.826	94.12
286.057	100.12
286.288	69.12
286.52	83.12
286.751	79.12
286.982	72.12
287.213	75.12
287.444	87.12
287.675	68.12
287.906	89.12
288.138	87.12
288.369	85.12
288.6	71.12
288.831	90.12
289.062	87.12
289.293	94.12
289.524	85.12
289.755	81.12
289.986	92.12
290.217	84.12
290.448	85.12
290.679	89.12
290.91	82.12
291.141	73.12
291.371	77.12
291.602	78.12
291.833	91.12
292.064	87.12
292.295	100.12
292.526	96.12
292.757	86.12
292.987	75.12
293.218	71.12
293.449	87.12
293.68	85.12
293.91	88.12
294.141	88.12
294.372	70.12
294.603	74.12
294.833	89.12
295.064	106.12
295.295	83.12
295.525	88.12
295.756	76.12
295.987	106.12
296.217	77.12
296.448	92.12
296.679	83.12
296.909	79.12
297.14	88.12
297.37	90.12
297.601	74.12
297.831	82.12
298.062	86.12
298.292	90.12
298.523	89.12
298.753	79.12
298.984	80.12
299.214	81.12
299.445	90.12
299.675	91.12
299.905	88.12
300.136	92.12
300.366	79.12
300.597	103.12
300.827	91.12
301.057	95.12
301.288	87.12
301.518	81.12
301.748	82.12
301.979	91.12
302.209	98.12
302.439	89.12
302.669	79.12
302.9	88.12
303.13	88.12
303.36	70.12
303.59	83.12
303.82	90.12
304.051	92.12
304.281	82.12
304.511	92.12
304.741	94.12
304.971	87.12
305.201	98.12
305.431	92.12
305.661	95.12
305.891	95.12
306.121	103.12
306.352	95.12
306.582	89.12
306.812	79.12
307.042	80.12
307.272	92.12
307.502	96.12
307.731	92.12
307.961	92.12
308.191	99.12
308.421	106.12
308.651	89.12
308.881	89.12
309.111	96.12
309.341	99.12
309.571	107.12
309.8	98.12
310.03	84.12
310.26	85.12
310.49	86.12
310.72	89.12
310.949	85.12
311.179	83.12
311.409	93.12
311.639	92.12
311.868	99.12
312.098	87.12
312.328	63.12
312.557	90.12
312.787	69.12
313.017	85.12
313.246	96.12
313.476	93.12
313.706	86.12
313.935	90.12
314.165	85.12
314.394	77.12
314.624	78.12
314.853	87.12
315.083	79.12
315.312	89.12
315.542	103.12
315.771	99.12
316.001	98.12
316.23	98.12
316.46	88.12
316.689	95.12
316.919	81.12
317.148	79.12
317.377	92.12
317.607	106.12
317.836	97.12
318.065	110.12
318.295	103.12
318.524	97.12
318.753	100.12
318.983	86.12
319.212	91.12
319.441	95.12
319.67	99.12
319.9	77.12
320.129	75.12
320.358	89.12
320.587	82.12
320.816	81.12
321.046	93.12
321.275	84.12
321.504	86.12
321.733	96.12
321.962	88.12
322.191	92.12
322.42	93.12
322.649	86.12
322.878	94.12
323.108	90.12
323.337	76.12
323.566	102.12
323.795	80.12
324.024	93.12
324.253	103.12
324.482	95.12
324.71	76.12
324.939	83.12
325.168	95.12
325.397	95.12
325.626	83.12
325.855	94.12
326.084	67.12
326.313	76.12
326.542	73.12
326.77	81.12
326.999	91.12
327.228	86.12
327.457	101.12
327.686	88.12
327.914	84.12
328.143	89.12
328.372	100.12
328.6	86.12
328.829	81.12
329.058	101.12
329.287	98.12
329.515	88.12
329.744	98.12
329.972	89.12
330.201	78.12
330.43	86.12
330.658	90.12
330.887	95.12
331.115	87.12
331.344	78.12
331.572	95.12
331.801	80.12
332.03	95.12
332.258	96.12
332.486	88.12
332.715	95.12
332.943	92.12
333.172	99.12
333.4	82.12
333.629	102.12
333.857	98.12
334.085	95.12
334.314	100.12
334.542	80.12
334.771	95.12
334.999	98.12
335.227	87.12
335.455	111.12
335.684	97.12
335.912	99.12
336.14	100.12
336.369	97.12
336.597	86.12
336.825	74.12
337.053	93.12
337.281	92.12
337.51	100.12
337.738	104.12
337.966	92.12
338.194	91.12
338.422	91.12
338.65	95.12
338.878	99.12
339.106	84.12
339.334	93.12
339.562	76.12
339.79	87.12
340.018	90.12
340.246	92.12
340.474	88.12
340.702	92.12
340.93	89.12
341.158	96.12
341.386	89.12
341.614	69.12
341.842	91.12
342.07	98.12
342.298	85.12
342.526	72.12
342.754	74.12
342.981	88.12
343.209	86.12
343.437	92.12
343.665	89.12
343.893	90.12
344.12	101.12
344.348	95.12
344.576	103.12
344.804	93.12
345.031	86.12
345.259	98.12
345.487	84.12
345.714	85.12
345.942	98.12
346.17	104.12
346.397	100.12
346.625	94.12
346.853	98.12
347.08	88.12
347.308	89.12
347.535	86.12
347.763	85.12
347.99	89.12
348.218	91.12
348.445	90.12
348.673	105.12
348.9	91.12
349.128	96.12
349.355	90.12
349.583	92.12
349.81	76.12
350.037	92.12
350.265	78.12
350.492	98.12
350.72	81.12
350.947	87.12
351.174	78.12
351.402	88.12
351.629	78.12
351.856	89.12
352.083	77.12
352.311	93.12
352.538	104.12
352.765	99.12
352.992	94.12
353.22	77.12
353.447	81.12
353.674	75.12
353.901	99.12
354.128	96.12
354.355	90.12
354.583	77.12
354.81	86.12
355.037	84.12
355.264	93.12
355.491	74.12
355.718	85.12
355.945	83.12
356.172	95.12
356.399	88.12
356.626	98.12
356.853	113.12
357.08	85.12
357.307	86.12
357.534	88.12
357.761	106.12
357.988	99.12
358.215	111.12
358.441	102.12
358.668	92.12
358.895	92.12
359.122	95.12
359.349	93.12
359.576	93.12
359.802	80.12
360.029	94.12
360.256	82.12
360.483	80.12
360.709	78.12
360.936	103.12
361.163	102.12
361.39	95.12
361.616	108.12
361.843	90.12
362.07	117.12
362.296	97.12
362.523	110.12
362.749	116.12
362.976	116.12
363.203	140.12
363.429	120.12
363.656	112.12
363.882	104.12
364.109	119.12
364.335	141.12
364.562	189.12
364.788	130.12
365.015	115.12
365.241	94.12
365.468	94.12
365.694	101.12
365.92	76.12
366.147	98.12
366.373	87.12
366.599	93.12
366.826	82.12
367.052	91.12
367.278	98.12
367.505	93.12
367.731	100.12
367.957	105.12
368.184	71.12
368.41	90.12
368.636	96.12
368.862	89.12
369.089	81.12
369.315	65.12
369.541	81.12
369.767	88.12
369.993	85.12
370.219	91.12
370.445	102.12
370.672	101.12
370.898	97.12
371.124	88.12
371.35	87.12
371.576	103.12
371.802	88.12
372.028	95.12
372.254	96.12
372.48	81.12
372.706	100.12
372.932	94.12
373.158	116.12
373.384	106.12
373.61	129.12
373.835	136.12
374.061	96.12
374.287	107.12
374.513	102.12
374.739	104.12
374.965	105.12
375.191	91.12
375.416	96.12
375.642	112.12
375.868	91.12
376.094	98.12
376.319	95.12
376.545	108.12
376.771	98.12
376.997	91.12
377.222	105.12
377.448	100.12
377.674	95.12
377.899	83.12
378.125	83.12
378.35	91.12
378.576	79.12
378.802	83.12
379.027	93.12
379.253	100.12
379.478	97.12
379.704	100.12
379.929	96.12
380.155	78.12
380.38	97.12
380.606	95.12
380.831	90.12
381.057	87.12
381.282	104.12
381.507	93.12
381.733	106.12
381.958	100.12
382.184	104.12
382.409	99.12
382.634	120.12
382.86	99.12
383.085	116.12
383.31	110.12
383.535	108.12
383.761	115.12
383.986	128.12
384.211	99.12
384.436	99.12
384.662	98.12
384.887	102.12
385.112	93.12
385.337	97.12
385.562	98.12
385.787	120.12
386.013	113.12
386.238	112.12
386.463	106.12
386.688	101.12
386.913	98.12
387.138	95.12
387.363	113.12
387.588	118.12
387.813	113.12
388.038	101.12
388.263	112.12
388.488	103.12
388.713	119.12
388.938	101.12
389.163	101.12
389.387	83.12
389.612	91.12
389.837	92.12
390.062	104.12
390.287	103.12
390.512	103.12
390.736	84.12
390.961	92.12
391.186	88.12
391.411	102.12
391.636	109.12
391.86	114.12
392.085	101.12
392.31	116.12
392.534	114.12
392.759	140.12
392.984	199.12
393.208	358.12
393.433	506.12
393.658	403.12
393.882	164.12
394.107	129.12
394.331	120.12
394.556	135.12
394.78	119.12
395.005	104.12
395.229	103.12
395.454	106.12
395.678	114.12
395.903	146.12
396.127	167.12
396.352	188.12
396.576	224.12
396.801	363.12
397.025	431.12
397.249	235.12
397.474	161.12
397.698	117.12
397.922	95.12
398.147	106.12
398.371	107.12
398.595	102.12
398.82	98.12
399.044	98.12
399.268	78.12
399.492	91.12
399.717	79.12
399.941	88.12
400.165	89.12
400.389	78.12
400.613	88.12
400.837	103.12
401.062	89.12
401.286	83.12
401.51	88.12
401.734	90.12
401.958	97.12
402.182	81.12
402.406	83.12
402.63	78.12
402.854	87.12
403.078	100.12
403.302	92.12
403.526	104.12
403.75	82.12
403.974	93.12
404.198	91.12
404.422	114.12
404.645	121.12
404.869	100.12
405.093	95.12
405.317	86.12
405.541	80.12
405.765	88.12
405.988	84.12
406.212	99.12
406.436	82.12
406.66	95.12
406.883	90.12
407.107	101.12
407.331	108.12
407.555	97.12
407.778	136.12
408.002	140.12
408.226	91.12
408.449	93.12
408.673	94.12
408.896	89.12
409.12	97.12
409.344	93.12
409.567	96.12
409.791	124.12
410.014	113.12
410.238	112.12
410.461	97.12
410.685	100.12
410.908	92.12
411.132	104.12
411.355	103.12
411.578	84.12
411.802	99.12
412.025	96.12
412.249	79.12
412.472	84.12
412.695	83.12
412.919	99.12
413.142	81.12
413.365	82.12
413.589	79.12
413.812	98.12
414.035	90.12
414.258	96.12
414.482	95.12
414.705	99.12
414.928	91.12
415.151	95.12
415.374	95.12
415.597	103.12
415.821	107.12
416.044	107.12
416.267	81.12
416.49	79.12
416.713	83.12
416.936	103.12
417.159	101.12
417.382	85.12
417.605	84.12
417.828	88.12
418.051	77.12
418.274	99.12
418.497	99.12
418.72	101.12
418.943	80.12
419.166	85.12
419.389	76.12
419.611	89.12
419.834	103.12
420.057	102.12
420.28	101.12
420.503	108.12
420.726	104.12
420.948	97.12
421.171	96.12
421.394	132.12
421.617	151.12
421.839	166.12
422.062	154.12
422.285	231.12
422.507	342.12
422.73	475.12
422.953	442.12
423.175	273.12
423.398	186.12
423.621	144.12
423.843	126.12
424.066	112.12
424.288	100.12
424.511	104.12
424.733	96.12
424.956	93.12
425.178	100.12
425.401	91.12
425.623	100.12
425.846	95.12
426.068	99.12
426.291	90.12
426.513	96.12
426.735	95.12
426.958	95.12
427.18	103.12
427.402	106.12
427.625	105.12
427.847	113.12
428.069	115.12
428.292	127.12
428.514	157.12
428.736	105.12
428.958	139.12
429.181	161.12
429.403	106.12
429.625	104.12
429.847	146.12
430.069	192.12
430.292	223.12
430.514	218.12
430.736	170.12
430.958	185.12
431.18	113.12
431.402	111.12
431.624	102.12
431.846	129.12
432.068	149.12
432.29	118.12
432.512	88.12
432.734	102.12
432.956	91.12
433.178	104.12
433.4	69.12
433.622	87.12
433.844	95.12
434.066	81.12
434.287	88.12
434.509	104.12
434.731	97.12
434.953	86.12
435.175	87.12
435.397	106.12
435.618	109.12
435.84	103.12
436.062	118.12
436.284	87.12
436.505	89.12
436.727	83.12
436.949	77.12
437.17	95.12
437.392	90.12
437.614	103.12
437.835	91.12
438.057	84.12
438.278	87.12
438.5	105.12
438.721	103.12
438.943	86.12
439.165	87.12
439.386	84.12
439.608	91.12
439.829	93.12
440.05	84.12
440.272	82.12
440.493	106.12
440.715	94.12
440.936	91.12
441.158	83.12
441.379	97.12
441.6	99.12
441.822	88.12
442.043	106.12
442.264	119.12
442.486	154.12
442.707	214.12
442.928	153.12
443.149	115.12
443.371	185.12
443.592	330.12
443.813	274.12
444.034	116.12
444.255	107.12
444.476	99.12
444.698	98.12
444.919	122.12
445.14	213.12
445.361	232.12
445.582	377.12
445.803	333.12
446.024	148.12
446.245	113.12
446.466	104.12
446.687	103.12
446.908	85.12
447.129	83.12
447.35	94.12
447.571	77.12
447.792	90.12
448.013	77.12
448.234	78.12
448.455	98.12
448.675	91.12
448.896	85.12
449.117	80.12
449.338	86.12
449.559	89.12
449.779	93.12
450	95.12
450.221	83.12
450.442	88.12
450.662	88.12
450.883	89.12
451.104	88.12
451.324	95.12
451.545	89.12
451.766	85.12
451.986	89.12
452.207	100.12
452.428	99.12
452.648	105.12
452.869	129.12
453.089	97.12
453.31	103.12
453.53	113.12
453.751	98.12
453.971	83.12
454.192	91.12
454.412	88.12
454.633	83.12
454.853	85.12
455.073	104.12
455.294	106.12
455.514	98.12
455.734	86.12
455.955	103.12
456.175	81.12
456.395	93.12
456.616	96.12
456.836	98.12
457.056	98.12
457.276	91.12
457.497	83.12
457.717	102.12
457.937	140.12
458.157	163.12
458.377	157.12
458.598	162.12
458.818	167.12
459.038	106.12
459.258	102.12
459.478	92.12
459.698	86.12
459.918	87.12
460.138	96.12
460.358	99.12
460.578	116.12
460.798	157.12
461.018	144.12
461.238	102.12
461.458	84.12
461.678	87.12
461.898	91.12
462.118	90.12
462.338	95.12
462.558	79.12
462.777	85.12
462.997	80.12
463.217	83.12
463.437	91.12
463.657	92.12
463.876	83.12
464.096	91.12
464.316	78.12
464.536	100.12
464.755	87.12
464.975	84.12
465.195	93.12
465.414	87.12
465.634	91.12
465.854	97.12
466.073	71.12
466.293	95.12
466.512	90.12
466.732	86.12
466.951	93.12
467.171	84.12
467.391	104.12
467.61	80.12
467.829	95.12
468.049	89.12
468.268	83.12
468.488	86.12
468.707	98.12
468.927	104.12
469.146	99.12
469.365	95.12
469.585	86.12
469.804	92.12
470.023	99.12
470.243	103.12
470.462	81.12
470.681	83.12
470.901	95.12
471.12	88.12
471.339	74.12
471.558	73.12
471.777	91.12
471.997	87.12
472.216	91.12
472.435	99.12
472.654	96.12
472.873	101.12
473.092	90.12
473.311	84.12
473.53	83.12
473.749	90.12
473.968	97.12
474.187	86.12
474.406	88.12
474.625	98.12
474.844	95.12
475.063	95.12
475.282	89.12
475.501	85.12
475.72	98.12
475.939	84.12
476.158	89.12
476.377	86.12
476.596	93.12
476.814	78.12
477.033	101.12
477.252	104.12
477.471	95.12
477.69	84.12
477.908	91.12
478.127	80.12
478.346	95.12
478.564	96.12
478.783	82.12
479.002	95.12
479.22	98.12
479.439	100.12
479.658	92.12
479.876	85.12
480.095	84.12
480.313	91.12
480.532	96.12
480.751	86.12
480.969	101.12
481.188	101.12
481.406	111.12
481.624	90.12
481.843	93.12
482.061	76.12
482.28	81.12
482.498	91.12
482.717	98.12
482.935	92.12
483.153	97.12
483.372	91.12
483.59	96.12
483.808	105.12
484.027	98.12
484.245	87.12
484.463	91.12
484.681	114.12
484.9	97.12
485.118	103.12
485.336	89.12
485.554	99.12
485.772	88.12
485.99	101.12
486.209	100.12
486.427	93.12
486.645	93.12
486.863	89.12
487.081	103.12
487.299	100.12
487.517	127.12
487.735	145.12
487.953	244.12
488.171	202.12
488.389	124.12
488.607	90.12
488.825	99.12
489.043	103.12
489.261	107.12
489.479	105.12
489.696	99.12
489.914	97.12
490.132	80.12
490.35	94.12
490.568	87.12
490.786	86.12
491.003	95.12
491.221	100.12
491.439	81.12
491.657	102.12
491.874	102.12
492.092	103.12
492.31	90.12
492.527	85.12
492.745	80.12
492.963	92.12
493.18	111.12
493.398	76.12
493.615	99.12
493.833	95.12
494.05	97.12
494.268	77.12
494.485	101.12
494.703	93.12
494.92	97.12
495.138	91.12
495.355	87.12
495.573	84.12
495.79	98.12
496.008	98.12
496.225	101.12
496.442	105.12
496.66	100.12
496.877	91.12
497.094	90.12
497.312	98.12
497.529	85.12
497.746	101.12
497.963	99.12
498.181	98.12
498.398	101.12
498.615	88.12
498.832	97.12
499.049	95.12
499.267	112.12
499.484	89.12
499.701	102.12
499.918	87.12
500.135	104.12
500.352	105.12
500.569	84.12
500.786	92.12
501.003	105.12
501.22	104.12
501.437	92.12
501.654	98.12
501.871	106.12
502.088	96.12
502.305	89.12
502.522	103.12
502.739	96.12
502.956	108.12
503.172	91.12
503.389	74.12
503.606	96.12
503.823	115.12
504.04	126.12
504.256	181.12
504.473	197.12
504.69	120.12
504.907	103.12
505.123	91.12
505.34	89.12
505.557	92.12
505.773	87.12
505.99	84.12
506.207	103.12
506.423	102.12
506.64	96.12
506.856	100.12
507.073	88.12
507.289	106.12
507.506	84.12
507.722	88.12
507.939	84.12
508.155	106.12
508.372	86.12
508.588	90.12
508.805	92.12
509.021	95.12
509.238	87.12
509.454	97.12
509.67	80.12
509.887	74.12
510.103	82.12
510.319	95.12
510.536	82.12
510.752	77.12
510.968	101.12
511.184	96.12
511.401	95.12
511.617	105.12
511.833	106.12
512.049	113.12
512.265	93.12
512.481	86.12
512.698	98.12
512.914	81.12
513.13	85.12
513.346	109.12
513.562	85.12
513.778	95.12
513.994	112.12
514.21	119.12
514.426	83.12
514.642	103.12
514.858	100.12
515.074	83.12
515.29	106.12
515.506	101.12
515.721	100.12
