Data from Circ_2018_H10_HRD10591_00088.txt Node
Date: Wed Jan 03 09:56:19 EST 2024
User: Yrep
Spectrometer: HR+D1059
Trigger mode: 1
Integration Time (sec): 1.000000E-1
Scans to average: 1
Electric dark correction enabled: true
Nonlinearity correction enabled: false
Boxcar width: 0
XAxis mode: Wavelengths
Number of Pixels in Spectrum: 2048
>>>>>Begin Spectral Data<<<<<
223.165	-17
223.4	-17
223.635	-17
223.869	-20
224.104	-17
224.338	-2
224.573	-23
224.808	-14
225.042	-8
225.277	6
225.511	-10
225.746	6
225.98	-2
226.215	16
226.449	16
226.683	19
226.918	26
227.152	24
227.387	35
227.621	43
227.856	50
228.09	34
228.324	48
228.559	41
228.793	62
229.027	73
229.262	63
229.496	79
229.73	91
229.964	91
230.199	81
230.433	60
230.667	78
230.901	67
231.136	79
231.37	69
231.604	75
231.838	84
232.072	93
232.306	80
232.541	84
232.775	86
233.009	79
233.243	70
233.477	90
233.711	83
233.945	84
234.179	66
234.413	76
234.647	76
234.881	84
235.115	67
235.349	61
235.583	73
235.817	89
236.051	79
236.285	63
236.519	69
236.753	75
236.987	62
237.221	74
237.455	90
237.689	87
237.922	75
238.156	63
238.39	86
238.624	79
238.858	76
239.091	86
239.325	71
239.559	67
239.793	89
240.027	84
240.26	71
240.494	73
240.728	87
240.961	70
241.195	81
241.429	91
241.662	68
241.896	82
242.13	90
242.363	67
242.597	71
242.83	75
243.064	85
243.298	92
243.531	71
243.765	90
243.998	77
244.232	75
244.465	74
244.699	72
244.932	71
245.166	86
245.399	88
245.633	83
245.866	80
246.099	62
246.333	78
246.566	86
246.8	76
247.033	67
247.266	73
247.5	75
247.733	76
247.966	92
248.2	76
248.433	82
248.666	84
248.899	81
249.133	86
249.366	92
249.599	91
249.832	68
250.066	86
250.299	80
250.532	73
250.765	73
250.998	76
251.231	88
251.465	78
251.698	67
251.931	85
252.164	87
252.397	75
252.63	84
252.863	77
253.096	83
253.329	90
253.562	60
253.795	71
254.028	70
254.261	85
254.494	89
254.727	84
254.96	85
255.193	79
255.426	86
255.659	84
255.892	88
256.124	81
256.357	82
256.59	75
256.823	76
257.056	74
257.289	80
257.521	79
257.754	77
257.987	85
258.22	86
258.452	86
258.685	80
258.918	80
259.151	88
259.383	81
259.616	86
259.849	86
260.081	91
260.314	66
260.547	71
260.779	88
261.012	81
261.244	82
261.477	76
261.71	85
261.942	112
262.175	107
262.407	92
262.64	77
262.872	93
263.105	87
263.337	90
263.57	85
263.802	91
264.035	72
264.267	84
264.499	86
264.732	71
264.964	91
265.197	91
265.429	70
265.661	76
265.894	79
266.126	82
266.358	78
266.591	73
266.823	73
267.055	76
267.287	75
267.52	79
267.752	78
267.984	86
268.216	72
268.448	90
268.681	72
268.913	82
269.145	80
269.377	92
269.609	94
269.841	80
270.073	87
270.306	94
270.538	82
270.77	72
271.002	88
271.234	84
271.466	84
271.698	95
271.93	73
272.162	82
272.394	89
272.626	79
272.858	76
273.09	87
273.322	86
273.553	74
273.785	80
274.017	84
274.249	88
274.481	90
274.713	93
274.945	99
275.176	88
275.408	88
275.64	87
275.872	81
276.104	97
276.335	87
276.567	108
276.799	106
277.031	115
277.262	96
277.494	82
277.726	89
277.957	68
278.189	90
278.421	86
278.652	90
278.884	66
279.115	89
279.347	90
279.579	94
279.81	81
280.042	82
280.273	92
280.505	98
280.736	91
280.968	81
281.199	88
281.431	93
281.662	82
281.894	98
282.125	99
282.356	119
282.588	147
282.819	108
283.051	68
283.282	79
283.513	74
283.745	86
283.976	76
284.207	91
284.439	93
284.67	91
284.901	89
285.132	81
285.364	71
285.595	89
285.826	95
286.057	77
286.288	83
286.52	87
286.751	69
286.982	84
287.213	87
287.444	90
287.675	86
287.906	102
288.138	88
288.369	89
288.6	82
288.831	72
289.062	84
289.293	92
289.524	88
289.755	77
289.986	83
290.217	80
290.448	80
290.679	86
290.91	79
291.141	88
291.371	97
291.602	93
291.833	85
292.064	102
292.295	85
292.526	78
292.757	91
292.987	85
293.218	75
293.449	76
293.68	79
293.91	78
294.141	89
294.372	85
294.603	88
294.833	80
295.064	78
295.295	79
295.525	87
295.756	100
295.987	99
296.217	138
296.448	116
296.679	91
296.909	88
297.14	67
297.37	76
297.601	79
297.831	93
298.062	85
298.292	87
298.523	93
298.753	83
298.984	92
299.214	86
299.445	80
299.675	96
299.905	91
300.136	80
300.366	86
300.597	68
300.827	99
301.057	85
301.288	97
301.518	92
301.748	89
301.979	87
302.209	95
302.439	82
302.669	76
302.9	70
303.13	79
303.36	90
303.59	93
303.82	104
304.051	91
304.281	93
304.511	70
304.741	90
304.971	91
305.201	84
305.431	68
305.661	89
305.891	96
306.121	79
306.352	88
306.582	110
306.812	94
307.042	97
307.272	93
307.502	119
307.731	98
307.961	92
308.191	87
308.421	89
308.651	78
308.881	87
309.111	97
309.341	95
309.571	99
309.8	111
310.03	110
310.26	82
310.49	98
310.72	100
310.949	94
311.179	80
311.409	97
311.639	99
311.868	92
312.098	102
312.328	92
312.557	97
312.787	106
313.017	105
313.246	98
313.476	86
313.706	94
313.935	98
314.165	111
314.394	75
314.624	85
314.853	88
315.083	95
315.312	87
315.542	103
315.771	88
316.001	94
316.23	79
316.46	97
316.689	96
316.919	90
317.148	95
317.377	92
317.607	106
317.836	98
318.065	111
318.295	109
318.524	105
318.753	92
318.983	101
319.212	101
319.441	106
319.67	101
319.9	92
320.129	93
320.358	101
320.587	99
320.816	96
321.046	92
321.275	82
321.504	91
321.733	89
321.962	92
322.191	106
322.42	103
322.649	98
322.878	120
323.108	110
323.337	118
323.566	145
323.795	136
324.024	198
324.253	403
324.482	803
324.71	1611
324.939	2135
325.168	797
325.397	241
325.626	150
325.855	133
326.084	134
326.313	130
326.542	152
326.77	222
326.999	433
327.228	896
327.457	1586
327.686	1302
327.914	366
328.143	191
328.372	163
328.6	139
328.829	137
329.058	147
329.287	128
329.515	112
329.744	101
329.972	109
330.201	133
330.43	161
330.658	140
330.887	145
331.115	120
331.344	105
331.572	105
331.801	106
332.03	107
332.258	87
332.486	105
332.715	103
332.943	85
333.172	94
333.4	96
333.629	80
333.857	107
334.085	116
334.314	124
334.542	167
334.771	174
334.999	99
335.227	93
335.455	84
335.684	89
335.912	104
336.14	91
336.369	97
336.597	105
336.825	94
337.053	103
337.281	85
337.51	94
337.738	84
337.966	77
338.194	104
338.422	102
338.65	99
338.878	93
339.106	91
339.334	84
339.562	84
339.79	82
340.018	95
340.246	91
340.474	90
340.702	86
340.93	83
341.158	92
341.386	102
341.614	106
341.842	103
342.07	104
342.298	101
342.526	84
342.754	76
342.981	95
343.209	92
343.437	91
343.665	96
343.893	78
344.12	83
344.348	90
344.576	85
344.804	86
345.031	87
345.259	95
345.487	90
345.714	98
345.942	91
346.17	96
346.397	99
346.625	90
346.853	86
347.08	90
347.308	90
347.535	87
347.763	102
347.99	111
348.218	102
348.445	105
348.673	88
348.9	99
349.128	94
349.355	90
349.583	90
349.81	88
350.037	103
350.265	83
350.492	84
350.72	102
350.947	97
351.174	110
351.402	113
351.629	97
351.856	114
352.083	106
352.311	123
352.538	98
352.765	107
352.992	102
353.22	109
353.447	104
353.674	91
353.901	94
354.128	98
354.355	93
354.583	91
354.81	100
355.037	92
355.264	106
355.491	88
355.718	88
355.945	88
356.172	84
356.399	88
356.626	78
356.853	88
357.08	103
357.307	94
357.534	95
357.761	94
357.988	84
358.215	103
358.441	86
358.668	99
358.895	86
359.122	85
359.349	92
359.576	100
359.802	102
360.029	100
360.256	95
360.483	98
360.709	77
360.936	98
361.163	88
361.39	87
361.616	93
361.843	79
362.07	86
362.296	82
362.523	94
362.749	86
362.976	80
363.203	88
363.429	75
363.656	85
363.882	99
364.109	93
364.335	90
364.562	85
364.788	93
365.015	74
365.241	98
365.468	112
365.694	110
365.92	85
366.147	100
366.373	104
366.599	95
366.826	86
367.052	87
367.278	108
367.505	91
367.731	97
367.957	90
368.184	95
368.41	103
368.636	127
368.862	123
369.089	117
369.315	83
369.541	84
369.767	99
369.993	79
370.219	82
370.445	78
370.672	92
370.898	79
371.124	92
371.35	68
371.576	84
371.802	78
372.028	86
372.254	70
372.48	92
372.706	68
372.932	78
373.158	94
373.384	87
373.61	94
373.835	94
374.061	96
374.287	95
374.513	87
374.739	86
374.965	75
375.191	91
375.416	100
375.642	91
375.868	85
376.094	90
376.319	90
376.545	76
376.771	80
376.997	73
377.222	94
377.448	90
377.674	88
377.899	96
378.125	89
378.35	72
378.576	74
378.802	84
379.027	81
379.253	94
379.478	84
379.704	90
379.929	88
380.155	96
380.38	99
380.606	81
380.831	95
381.057	85
381.282	91
381.507	95
381.733	83
381.958	103
382.184	94
382.409	90
382.634	99
382.86	84
383.085	94
383.31	106
383.535	93
383.761	89
383.986	85
384.211	103
384.436	88
384.662	101
384.887	85
385.112	95
385.337	94
385.562	113
385.787	107
386.013	110
386.238	126
386.463	108
386.688	90
386.913	96
387.138	108
387.363	96
387.588	86
387.813	98
388.038	87
388.263	112
388.488	98
388.713	106
388.938	93
389.163	90
389.387	88
389.612	98
389.837	82
390.062	92
390.287	95
390.512	90
390.736	94
390.961	92
391.186	104
391.411	96
391.636	86
391.86	91
392.085	81
392.31	83
392.534	92
392.759	90
392.984	81
393.208	77
393.433	81
393.658	85
393.882	86
394.107	86
394.331	64
394.556	79
394.78	95
395.005	86
395.229	79
395.454	100
395.678	88
395.903	75
396.127	101
396.352	87
396.576	90
396.801	76
397.025	75
397.249	83
397.474	85
397.698	69
397.922	86
398.147	85
398.371	91
398.595	73
398.82	82
399.044	80
399.268	80
399.492	80
399.717	87
399.941	90
400.165	96
400.389	89
400.613	73
400.837	86
401.062	89
401.286	94
401.51	81
401.734	93
401.958	97
402.182	119
402.406	147
402.63	121
402.854	90
403.078	74
403.302	75
403.526	79
403.75	76
403.974	91
404.198	98
404.422	91
404.645	95
404.869	96
405.093	94
405.317	100
405.541	90
405.765	100
405.988	110
406.212	185
406.436	242
406.66	159
406.883	103
407.107	103
407.331	90
407.555	99
407.778	92
408.002	82
408.226	94
408.449	91
408.673	89
408.896	79
409.12	99
409.344	90
409.567	96
409.791	98
410.014	87
410.238	89
410.461	88
410.685	81
410.908	104
411.132	101
411.355	77
411.578	82
411.802	94
412.025	79
412.249	89
412.472	94
412.695	94
412.919	98
413.142	76
413.365	88
413.589	99
413.812	95
414.035	99
414.258	78
414.482	99
414.705	81
414.928	90
415.151	96
415.374	94
415.597	81
415.821	91
416.044	102
416.267	97
416.49	89
416.713	86
416.936	105
417.159	80
417.382	86
417.605	93
417.828	91
418.051	87
418.274	90
418.497	82
418.72	81
418.943	90
419.166	83
419.389	83
419.611	89
419.834	87
420.057	80
420.28	75
420.503	89
420.726	64
420.948	94
421.171	99
421.394	87
421.617	95
421.839	91
422.062	93
422.285	86
422.507	99
422.73	114
422.953	100
423.175	86
423.398	86
423.621	95
423.843	78
424.066	96
424.288	84
424.511	82
424.733	113
424.956	105
425.178	86
425.401	93
425.623	94
425.846	96
426.068	75
426.291	86
426.513	83
426.735	90
426.958	101
427.18	107
427.402	148
427.625	166
427.847	138
428.069	104
428.292	104
428.514	79
428.736	80
428.958	81
429.181	87
429.403	96
429.625	83
429.847	89
430.069	94
430.292	91
430.514	91
430.736	82
430.958	86
431.18	94
431.402	82
431.624	84
431.846	75
432.068	75
432.29	85
432.512	93
432.734	79
432.956	75
433.178	71
433.4	78
433.622	99
433.844	87
434.066	85
434.287	97
434.509	96
434.731	84
434.953	79
435.175	87
435.397	89
435.618	89
435.84	104
436.062	110
436.284	104
436.505	97
436.727	98
436.949	94
437.17	96
437.392	100
437.614	85
437.835	116
438.057	114
438.278	102
438.5	96
438.721	121
438.943	95
439.165	94
439.386	95
439.608	85
439.829	94
440.05	122
440.272	141
440.493	105
440.715	94
440.936	89
441.158	99
441.379	77
441.6	91
441.822	107
442.043	99
442.264	95
442.486	109
442.707	80
442.928	102
443.149	121
443.371	122
443.592	105
443.813	117
444.034	104
444.255	98
444.476	83
444.698	82
444.919	93
445.14	117
445.361	124
445.582	105
445.803	149
446.024	138
446.245	128
446.466	111
446.687	91
446.908	78
447.129	81
447.35	89
447.571	80
447.792	102
448.013	110
448.234	103
448.455	99
448.675	116
448.896	112
449.117	105
449.338	102
449.559	123
449.779	143
450	110
450.221	84
450.442	98
450.662	89
450.883	95
451.104	101
451.324	87
451.545	84
451.766	73
451.986	84
452.207	89
452.428	86
452.648	91
452.869	106
453.089	114
453.31	102
453.53	101
453.751	101
453.971	114
454.192	110
454.412	97
454.633	84
454.853	87
455.073	87
455.294	91
455.514	94
455.734	85
455.955	80
456.175	89
456.395	78
456.616	70
456.836	86
457.056	68
457.276	80
457.497	84
457.717	99
457.937	83
458.157	71
458.377	93
458.598	117
458.818	151
459.038	172
459.258	117
459.478	99
459.698	91
459.918	89
460.138	78
460.358	81
460.578	84
460.798	90
461.018	89
461.238	86
461.458	78
461.678	89
461.898	96
462.118	92
462.338	85
462.558	81
462.777	69
462.997	89
463.217	77
463.437	87
463.657	76
463.876	94
464.096	78
464.316	88
464.536	88
464.755	88
464.975	114
465.195	163
465.414	151
465.634	89
465.854	85
466.073	81
466.293	89
466.512	91
466.732	86
466.951	88
467.171	87
467.391	109
467.61	106
467.829	94
468.049	102
468.268	128
468.488	86
468.707	81
468.927	86
469.146	76
469.365	101
469.585	93
469.804	84
470.023	98
470.243	84
470.462	102
470.681	112
470.901	92
471.12	86
471.339	90
471.558	96
471.777	73
471.997	87
472.216	142
472.435	198
472.654	100
472.873	95
473.092	77
473.311	83
473.53	80
473.749	95
473.968	86
474.187	97
474.406	88
474.625	87
474.844	71
475.063	89
475.282	100
475.501	71
475.72	79
475.939	86
476.158	71
476.377	90
476.596	98
476.814	80
477.033	82
477.252	95
477.471	86
477.69	90
477.908	80
478.127	98
478.346	89
478.564	89
478.783	99
479.002	99
479.22	89
479.439	92
479.658	99
479.876	96
480.095	94
480.313	86
480.532	104
480.751	101
480.969	125
481.188	289
481.406	210
481.624	113
481.843	87
482.061	96
482.28	80
482.498	79
482.717	91
482.935	88
483.153	80
483.372	73
483.59	97
483.808	84
484.027	96
484.245	95
484.463	97
484.681	83
484.9	93
485.118	101
485.336	95
485.554	95
485.772	90
485.99	105
486.209	91
486.427	112
486.645	106
486.863	108
487.081	104
487.299	87
487.517	90
487.735	93
487.953	83
488.171	74
488.389	92
488.607	107
488.825	86
489.043	91
489.261	89
489.479	96
489.696	88
489.914	83
490.132	95
490.35	80
490.568	90
490.786	90
491.003	73
491.221	87
491.439	97
491.657	93
491.874	89
492.092	101
492.31	91
492.527	79
492.745	85
492.963	89
493.18	103
493.398	91
493.615	109
493.833	90
494.05	88
494.268	87
494.485	101
494.703	69
494.92	75
495.138	83
495.355	97
495.573	97
495.79	88
496.008	84
496.225	100
496.442	94
496.66	95
496.877	82
497.094	87
497.312	91
497.529	77
497.746	94
497.963	93
498.181	88
498.398	90
498.615	101
498.832	98
499.049	83
499.267	86
499.484	87
499.701	95
499.918	98
500.135	83
500.352	92
500.569	94
500.786	94
501.003	85
501.22	92
501.437	76
501.654	81
501.871	121
502.088	90
502.305	96
502.522	84
502.739	87
502.956	82
503.172	96
503.389	83
503.606	99
503.823	96
504.04	86
504.256	103
504.473	88
504.69	90
504.907	87
505.123	97
505.34	85
505.557	85
505.773	87
505.99	70
506.207	92
506.423	76
506.64	82
506.856	87
507.073	89
507.289	95
507.506	94
507.722	116
507.939	114
508.155	98
508.372	98
508.588	86
508.805	96
509.021	94
509.238	97
509.454	73
509.67	111
509.887	98
510.103	132
510.319	218
510.536	789
510.752	2698
510.968	762
511.184	153
511.401	102
511.617	100
511.833	89
512.049	90
512.265	89
512.481	95
512.698	90
512.914	80
513.13	88
513.346	103
513.562	81
513.778	97
513.994	91
514.21	90
514.426	108
514.642	125
514.858	120
515.074	165
515.29	496
515.506	1689
515.721	638
515.937	160
516.153	112
516.369	103
516.585	93
516.801	80
517.016	77
517.232	98
517.448	100
517.664	95
517.879	109
518.095	96
518.311	95
518.527	93
518.742	87
518.958	84
519.173	103
519.389	98
519.605	91
519.82	104
520.036	90
520.251	123
520.467	104
520.682	108
520.898	104
521.113	103
521.329	156
521.544	210
521.76	596
521.975	2734
522.19	1715
522.406	352
522.621	144
522.836	99
523.052	95
523.267	94
523.482	92
523.698	92
523.913	115
524.128	114
524.343	82
524.559	94
524.774	97
524.989	98
525.204	106
525.419	91
525.634	102
525.849	86
526.064	77
526.28	94
526.495	102
526.71	91
526.925	91
527.14	99
527.355	90
527.57	81
527.785	88
527.999	73
528.214	85
528.429	84
528.644	88
528.859	84
529.074	91
529.289	116
529.503	188
529.718	105
529.933	113
530.148	90
530.363	80
530.577	82
530.792	85
531.007	96
531.221	89
531.436	88
531.651	83
531.865	87
532.08	103
532.295	92
532.509	94
532.724	105
532.938	100
533.153	93
533.367	91
533.582	81
533.796	81
534.011	81
534.225	74
534.44	84
534.654	83
534.868	83
535.083	93
535.297	93
535.511	94
535.726	89
535.94	103
536.154	99
536.369	92
536.583	88
536.797	92
537.011	79
537.225	82
537.44	94
537.654	88
537.868	101
538.082	85
538.296	89
538.51	91
538.724	95
538.938	87
539.153	91
539.367	87
539.581	101
539.795	94
540.009	84
540.222	80
540.436	80
540.65	83
540.864	104
541.078	90
541.292	86
541.506	77
541.72	68
541.934	82
542.147	78
542.361	89
542.575	90
542.789	86
543.002	87
543.216	91
543.43	92
543.644	79
543.857	86
544.071	77
544.285	96
544.498	88
544.712	81
544.925	84
545.139	78
545.352	73
545.566	91
545.779	78
545.993	80
546.206	97
546.42	88
546.633	90
546.847	85
547.06	100
547.274	86
547.487	68
547.7	75
547.914	82
548.127	88
548.34	93
548.554	89
548.767	86
548.98	99
549.193	84
549.407	80
549.62	60
549.833	69
550.046	85
550.259	101
550.473	87
550.686	82
550.899	102
551.112	84
551.325	88
551.538	96
551.751	79
551.964	73
552.177	98
552.39	86
552.603	87
552.816	91
553.029	86
553.242	80
553.455	93
553.667	97
553.88	106
554.093	97
554.306	111
554.519	90
554.732	102
554.944	88
555.157	75
555.37	91
555.583	92
555.795	82
556.008	84
556.221	92
556.433	88
556.646	91
556.859	85
557.071	87
557.284	84
557.496	102
557.709	89
557.921	100
558.134	92
558.346	79
558.559	92
558.771	83
558.984	87
559.196	89
559.409	83
559.621	88
559.833	99
560.046	75
560.258	82
560.47	92
560.683	80
560.895	91
561.107	77
561.32	94
561.532	80
561.744	99
561.956	88
562.168	103
562.381	99
562.593	97
562.805	78
563.017	82
563.229	88
563.441	96
563.653	80
563.865	84
564.077	84
564.289	90
564.501	72
564.713	95
564.925	93
565.137	99
565.349	82
565.561	76
565.773	87
565.985	90
566.197	70
566.408	93
566.62	87
566.832	79
567.044	92
567.255	91
567.467	84
567.679	89
567.891	94
568.102	83
568.314	89
568.526	98
568.737	83
568.949	98
569.161	78
569.372	87
569.584	89
569.795	76
570.007	113
570.218	248
570.43	146
570.641	95
570.853	96
571.064	96
571.276	89
571.487	85
571.698	82
571.91	96
572.121	89
572.333	80
572.544	96
572.755	81
572.966	91
573.178	95
573.389	82
573.6	103
573.811	81
574.023	77
574.234	77
574.445	87
574.656	88
574.867	75
575.078	97
575.289	93
575.501	98
575.712	90
575.923	81
576.134	80
576.345	98
576.556	85
576.767	84
576.978	99
577.188	73
577.399	87
577.61	103
577.821	103
578.032	130
578.243	284
578.454	862
578.665	226
578.875	115
579.086	98
579.297	83
579.508	97
579.718	95
579.929	95
580.14	73
580.35	81
580.561	70
580.772	84
580.982	79
581.193	82
581.403	79
581.614	75
581.825	74
582.035	80
582.246	90
582.456	83
582.667	81
582.877	87
583.087	86
583.298	85
583.508	81
583.719	82
583.929	87
584.139	70
584.35	81
584.56	88
584.77	99
584.981	94
585.191	88
