Data from Circ_2018_H10_HRD10591_00085.txt Node
Date: Wed Jan 03 09:56:19 EST 2024
User: Yrep
Spectrometer: HR+D1059
Trigger mode: 1
Integration Time (sec): 1.000000E-1
Scans to average: 1
Electric dark correction enabled: true
Nonlinearity correction enabled: false
Boxcar width: 0
XAxis mode: Wavelengths
Number of Pixels in Spectrum: 2048
>>>>>Begin Spectral Data<<<<<
223.165	-9.5
223.4	-9.5
223.635	-9.5
223.869	-18.5
224.104	-29.5
224.338	-13.5
224.573	-16.5
224.808	-15.5
225.042	-0.5
225.277	-8.5
225.511	-16.5
225.746	0.5
225.98	13.5
226.215	16.5
226.449	25.5
226.683	16.5
226.918	28.5
227.152	27.5
227.387	26.5
227.621	30.5
227.856	35.5
228.09	48.5
228.324	54.5
228.559	49.5
228.793	49.5
229.027	52.5
229.262	75.5
229.496	63.5
229.73	97.5
229.964	89.5
230.199	81.5
230.433	75.5
230.667	79.5
230.901	66.5
231.136	72.5
231.37	85.5
231.604	71.5
231.838	90.5
232.072	89.5
232.306	82.5
232.541	87.5
232.775	73.5
233.009	66.5
233.243	83.5
233.477	86.5
233.711	71.5
233.945	80.5
234.179	74.5
234.413	70.5
234.647	73.5
234.881	65.5
235.115	65.5
235.349	85.5
235.583	73.5
235.817	68.5
236.051	79.5
236.285	74.5
236.519	67.5
236.753	69.5
236.987	87.5
237.221	83.5
237.455	84.5
237.689	87.5
237.922	72.5
238.156	71.5
238.39	78.5
238.624	76.5
238.858	63.5
239.091	65.5
239.325	78.5
239.559	86.5
239.793	77.5
240.027	69.5
240.26	58.5
240.494	78.5
240.728	61.5
240.961	80.5
241.195	71.5
241.429	79.5
241.662	74.5
241.896	80.5
242.13	67.5
242.363	87.5
242.597	75.5
242.83	83.5
243.064	60.5
243.298	62.5
243.531	74.5
243.765	87.5
243.998	71.5
244.232	84.5
244.465	87.5
244.699	73.5
244.932	78.5
245.166	67.5
245.399	72.5
245.633	74.5
245.866	69.5
246.099	79.5
246.333	90.5
246.566	74.5
246.8	73.5
247.033	85.5
247.266	72.5
247.5	80.5
247.733	68.5
247.966	75.5
248.2	77.5
248.433	79.5
248.666	74.5
248.899	84.5
249.133	82.5
249.366	104.5
249.599	104.5
249.832	85.5
250.066	82.5
250.299	85.5
250.532	78.5
250.765	81.5
250.998	71.5
251.231	76.5
251.465	73.5
251.698	82.5
251.931	70.5
252.164	72.5
252.397	69.5
252.63	73.5
252.863	83.5
253.096	78.5
253.329	85.5
253.562	69.5
253.795	81.5
254.028	70.5
254.261	82.5
254.494	82.5
254.727	83.5
254.96	80.5
255.193	74.5
255.426	81.5
255.659	73.5
255.892	88.5
256.124	77.5
256.357	71.5
256.59	67.5
256.823	85.5
257.056	85.5
257.289	74.5
257.521	85.5
257.754	86.5
257.987	79.5
258.22	85.5
258.452	81.5
258.685	71.5
258.918	91.5
259.151	78.5
259.383	85.5
259.616	78.5
259.849	72.5
260.081	75.5
260.314	95.5
260.547	81.5
260.779	86.5
261.012	78.5
261.244	73.5
261.477	98.5
261.71	100.5
261.942	119.5
262.175	132.5
262.407	99.5
262.64	89.5
262.872	81.5
263.105	75.5
263.337	86.5
263.57	89.5
263.802	76.5
264.035	77.5
264.267	78.5
264.499	78.5
264.732	73.5
264.964	90.5
265.197	97.5
265.429	72.5
265.661	76.5
265.894	81.5
266.126	79.5
266.358	89.5
266.591	74.5
266.823	59.5
267.055	74.5
267.287	81.5
267.52	78.5
267.752	81.5
267.984	85.5
268.216	84.5
268.448	89.5
268.681	78.5
268.913	89.5
269.145	77.5
269.377	72.5
269.609	77.5
269.841	78.5
270.073	77.5
270.306	90.5
270.538	69.5
270.77	84.5
271.002	79.5
271.234	82.5
271.466	83.5
271.698	95.5
271.93	86.5
272.162	85.5
272.394	95.5
272.626	84.5
272.858	77.5
273.09	75.5
273.322	100.5
273.553	83.5
273.785	80.5
274.017	80.5
274.249	81.5
274.481	67.5
274.713	78.5
274.945	76.5
275.176	87.5
275.408	89.5
275.64	80.5
275.872	75.5
276.104	74.5
276.335	85.5
276.567	110.5
276.799	123.5
277.031	115.5
277.262	101.5
277.494	81.5
277.726	102.5
277.957	87.5
278.189	85.5
278.421	78.5
278.652	92.5
278.884	78.5
279.115	88.5
279.347	79.5
279.579	73.5
279.81	82.5
280.042	96.5
280.273	90.5
280.505	87.5
280.736	81.5
280.968	70.5
281.199	76.5
281.431	89.5
281.662	79.5
281.894	88.5
282.125	100.5
282.356	127.5
282.588	164.5
282.819	127.5
283.051	93.5
283.282	86.5
283.513	84.5
283.745	75.5
283.976	79.5
284.207	92.5
284.439	73.5
284.67	86.5
284.901	79.5
285.132	97.5
285.364	77.5
285.595	76.5
285.826	84.5
286.057	78.5
286.288	96.5
286.52	75.5
286.751	77.5
286.982	64.5
287.213	73.5
287.444	85.5
287.675	86.5
287.906	81.5
288.138	89.5
288.369	93.5
288.6	93.5
288.831	89.5
289.062	79.5
289.293	82.5
289.524	81.5
289.755	75.5
289.986	70.5
290.217	79.5
290.448	85.5
290.679	87.5
290.91	79.5
291.141	86.5
291.371	77.5
291.602	81.5
291.833	79.5
292.064	84.5
292.295	86.5
292.526	100.5
292.757	89.5
292.987	74.5
293.218	96.5
293.449	84.5
293.68	82.5
293.91	88.5
294.141	90.5
294.372	89.5
294.603	80.5
294.833	93.5
295.064	86.5
295.295	98.5
295.525	92.5
295.756	88.5
295.987	119.5
296.217	144.5
296.448	133.5
296.679	95.5
296.909	105.5
297.14	96.5
297.37	85.5
297.601	93.5
297.831	96.5
298.062	92.5
298.292	94.5
298.523	99.5
298.753	73.5
298.984	90.5
299.214	90.5
299.445	89.5
299.675	94.5
299.905	105.5
300.136	81.5
300.366	89.5
300.597	84.5
300.827	104.5
301.057	99.5
301.288	97.5
301.518	89.5
301.748	95.5
301.979	95.5
302.209	88.5
302.439	81.5
302.669	93.5
302.9	100.5
303.13	89.5
303.36	97.5
303.59	104.5
303.82	102.5
304.051	89.5
304.281	85.5
304.511	89.5
304.741	103.5
304.971	78.5
305.201	93.5
305.431	82.5
305.661	94.5
305.891	98.5
306.121	99.5
306.352	110.5
306.582	99.5
306.812	97.5
307.042	86.5
307.272	92.5
307.502	100.5
307.731	88.5
307.961	101.5
308.191	85.5
308.421	94.5
308.651	94.5
308.881	100.5
309.111	95.5
309.341	102.5
309.571	109.5
309.8	95.5
310.03	96.5
310.26	101.5
310.49	100.5
310.72	97.5
310.949	95.5
311.179	110.5
311.409	94.5
311.639	79.5
311.868	97.5
312.098	87.5
312.328	87.5
312.557	85.5
312.787	122.5
313.017	98.5
313.246	91.5
313.476	93.5
313.706	95.5
313.935	106.5
314.165	97.5
314.394	97.5
314.624	112.5
314.853	99.5
315.083	89.5
315.312	76.5
315.542	86.5
315.771	87.5
316.001	76.5
316.23	73.5
316.46	85.5
316.689	94.5
316.919	88.5
317.148	103.5
317.377	97.5
317.607	98.5
317.836	81.5
318.065	92.5
318.295	93.5
318.524	71.5
318.753	95.5
318.983	96.5
319.212	101.5
319.441	120.5
319.67	108.5
319.9	84.5
320.129	76.5
320.358	93.5
320.587	90.5
320.816	102.5
321.046	90.5
321.275	90.5
321.504	92.5
321.733	99.5
321.962	92.5
322.191	94.5
322.42	115.5
322.649	100.5
322.878	113.5
323.108	119.5
323.337	133.5
323.566	148.5
323.795	168.5
324.024	215.5
324.253	430.5
324.482	937.5
324.71	1892.5
324.939	2533.5
325.168	934.5
325.397	271.5
325.626	160.5
325.855	134.5
326.084	142.5
326.313	132.5
326.542	160.5
326.77	227.5
326.999	503.5
327.228	1029.5
327.457	1837.5
327.686	1514.5
327.914	425.5
328.143	248.5
328.372	218.5
328.6	144.5
328.829	145.5
329.058	150.5
329.287	154.5
329.515	117.5
329.744	120.5
329.972	133.5
330.201	179.5
330.43	214.5
330.658	181.5
330.887	162.5
331.115	150.5
331.344	125.5
331.572	109.5
331.801	109.5
332.03	110.5
332.258	101.5
332.486	97.5
332.715	106.5
332.943	87.5
333.172	98.5
333.4	112.5
333.629	113.5
333.857	130.5
334.085	132.5
334.314	188.5
334.542	282.5
334.771	250.5
334.999	145.5
335.227	104.5
335.455	108.5
335.684	81.5
335.912	94.5
336.14	90.5
336.369	93.5
336.597	95.5
336.825	91.5
337.053	89.5
337.281	97.5
337.51	93.5
337.738	82.5
337.966	96.5
338.194	106.5
338.422	98.5
338.65	95.5
338.878	95.5
339.106	97.5
339.334	105.5
339.562	95.5
339.79	101.5
340.018	75.5
340.246	88.5
340.474	98.5
340.702	88.5
340.93	84.5
341.158	86.5
341.386	112.5
341.614	108.5
341.842	91.5
342.07	99.5
342.298	96.5
342.526	91.5
342.754	95.5
342.981	97.5
343.209	91.5
343.437	100.5
343.665	73.5
343.893	102.5
344.12	87.5
344.348	77.5
344.576	93.5
344.804	88.5
345.031	101.5
345.259	89.5
345.487	107.5
345.714	98.5
345.942	90.5
346.17	92.5
346.397	82.5
346.625	89.5
346.853	92.5
347.08	102.5
347.308	104.5
347.535	101.5
347.763	98.5
347.99	98.5
348.218	104.5
348.445	127.5
348.673	102.5
348.9	97.5
349.128	104.5
349.355	94.5
349.583	87.5
349.81	86.5
350.037	92.5
350.265	96.5
350.492	100.5
350.72	93.5
350.947	104.5
351.174	122.5
351.402	113.5
351.629	113.5
351.856	104.5
352.083	93.5
352.311	109.5
352.538	126.5
352.765	128.5
352.992	128.5
353.22	114.5
353.447	111.5
353.674	103.5
353.901	98.5
354.128	91.5
354.355	100.5
354.583	92.5
354.81	94.5
355.037	90.5
355.264	96.5
355.491	97.5
355.718	82.5
355.945	100.5
356.172	86.5
356.399	94.5
356.626	86.5
356.853	102.5
357.08	93.5
357.307	94.5
357.534	84.5
357.761	95.5
357.988	94.5
358.215	89.5
358.441	81.5
358.668	103.5
358.895	101.5
359.122	79.5
359.349	87.5
359.576	90.5
359.802	88.5
360.029	116.5
360.256	136.5
360.483	101.5
360.709	84.5
360.936	91.5
361.163	96.5
361.39	96.5
361.616	102.5
361.843	99.5
362.07	98.5
362.296	105.5
362.523	87.5
362.749	82.5
362.976	99.5
363.203	83.5
363.429	94.5
363.656	92.5
363.882	92.5
364.109	85.5
364.335	91.5
364.562	92.5
364.788	84.5
365.015	80.5
365.241	110.5
365.468	97.5
365.694	102.5
365.92	95.5
366.147	90.5
366.373	94.5
366.599	97.5
366.826	85.5
367.052	100.5
367.278	82.5
367.505	82.5
367.731	95.5
367.957	95.5
368.184	88.5
368.41	96.5
368.636	123.5
368.862	134.5
369.089	110.5
369.315	103.5
369.541	76.5
369.767	87.5
369.993	84.5
370.219	83.5
370.445	82.5
370.672	95.5
370.898	81.5
371.124	84.5
371.35	96.5
371.576	91.5
371.802	77.5
372.028	78.5
372.254	88.5
372.48	80.5
372.706	81.5
372.932	86.5
373.158	81.5
373.384	89.5
373.61	79.5
373.835	92.5
374.061	96.5
374.287	98.5
374.513	95.5
374.739	72.5
374.965	87.5
375.191	89.5
375.416	82.5
375.642	84.5
375.868	78.5
376.094	90.5
376.319	81.5
376.545	78.5
376.771	96.5
376.997	93.5
377.222	93.5
377.448	105.5
377.674	84.5
377.899	97.5
378.125	90.5
378.35	90.5
378.576	96.5
378.802	81.5
379.027	83.5
379.253	90.5
379.478	104.5
379.704	97.5
379.929	97.5
380.155	94.5
380.38	87.5
380.606	95.5
380.831	84.5
381.057	79.5
381.282	90.5
381.507	89.5
381.733	80.5
381.958	106.5
382.184	110.5
382.409	105.5
382.634	86.5
382.86	98.5
383.085	102.5
383.31	93.5
383.535	93.5
383.761	92.5
383.986	96.5
384.211	91.5
384.436	95.5
384.662	94.5
384.887	97.5
385.112	97.5
385.337	112.5
385.562	92.5
385.787	86.5
386.013	97.5
386.238	119.5
386.463	100.5
386.688	108.5
386.913	113.5
387.138	103.5
387.363	79.5
387.588	100.5
387.813	94.5
388.038	102.5
388.263	107.5
388.488	100.5
388.713	99.5
388.938	80.5
389.163	96.5
389.387	103.5
389.612	93.5
389.837	92.5
390.062	93.5
390.287	92.5
390.512	91.5
390.736	91.5
390.961	93.5
391.186	90.5
391.411	92.5
391.636	80.5
391.86	82.5
392.085	90.5
392.31	70.5
392.534	89.5
392.759	73.5
392.984	84.5
393.208	82.5
393.433	73.5
393.658	80.5
393.882	87.5
394.107	85.5
394.331	90.5
394.556	66.5
394.78	66.5
395.005	95.5
395.229	80.5
395.454	69.5
395.678	80.5
395.903	76.5
396.127	84.5
396.352	87.5
396.576	82.5
396.801	87.5
397.025	94.5
397.249	93.5
397.474	99.5
397.698	82.5
397.922	67.5
398.147	83.5
398.371	94.5
398.595	79.5
398.82	80.5
399.044	81.5
399.268	92.5
399.492	65.5
399.717	84.5
399.941	89.5
400.165	70.5
400.389	92.5
400.613	90.5
400.837	83.5
401.062	85.5
401.286	95.5
401.51	84.5
401.734	79.5
401.958	113.5
402.182	143.5
402.406	188.5
402.63	158.5
402.854	98.5
403.078	97.5
403.302	87.5
403.526	91.5
403.75	80.5
403.974	93.5
404.198	82.5
404.422	92.5
404.645	82.5
404.869	95.5
405.093	101.5
405.317	108.5
405.541	121.5
405.765	90.5
405.988	147.5
406.212	202.5
406.436	293.5
406.66	175.5
406.883	102.5
407.107	88.5
407.331	106.5
407.555	103.5
407.778	101.5
408.002	95.5
408.226	90.5
408.449	80.5
408.673	93.5
408.896	99.5
409.12	97.5
409.344	91.5
409.567	91.5
409.791	84.5
410.014	93.5
410.238	86.5
410.461	95.5
410.685	90.5
410.908	99.5
411.132	94.5
411.355	96.5
411.578	79.5
411.802	74.5
412.025	86.5
412.249	94.5
412.472	84.5
412.695	106.5
412.919	100.5
413.142	81.5
413.365	85.5
413.589	89.5
413.812	90.5
414.035	86.5
414.258	101.5
414.482	93.5
414.705	86.5
414.928	101.5
415.151	98.5
415.374	83.5
415.597	80.5
415.821	80.5
416.044	94.5
416.267	88.5
416.49	83.5
416.713	89.5
416.936	96.5
417.159	100.5
417.382	82.5
417.605	95.5
417.828	91.5
418.051	100.5
418.274	80.5
418.497	92.5
418.72	85.5
418.943	80.5
419.166	85.5
419.389	78.5
419.611	90.5
419.834	83.5
420.057	81.5
420.28	86.5
420.503	81.5
420.726	95.5
420.948	87.5
421.171	80.5
421.394	102.5
421.617	78.5
421.839	95.5
422.062	97.5
422.285	102.5
422.507	101.5
422.73	113.5
422.953	87.5
423.175	104.5
423.398	88.5
423.621	92.5
423.843	78.5
424.066	85.5
424.288	88.5
424.511	87.5
424.733	97.5
424.956	92.5
425.178	110.5
425.401	104.5
425.623	97.5
425.846	79.5
426.068	105.5
426.291	87.5
426.513	89.5
426.735	88.5
426.958	79.5
427.18	105.5
427.402	157.5
427.625	194.5
427.847	181.5
428.069	126.5
428.292	93.5
428.514	82.5
428.736	92.5
428.958	78.5
429.181	87.5
429.403	78.5
429.625	84.5
429.847	90.5
430.069	81.5
430.292	96.5
430.514	76.5
430.736	84.5
430.958	89.5
431.18	86.5
431.402	92.5
431.624	83.5
431.846	79.5
432.068	88.5
432.29	79.5
432.512	77.5
432.734	81.5
432.956	90.5
433.178	108.5
433.4	103.5
433.622	94.5
433.844	95.5
434.066	89.5
434.287	83.5
434.509	71.5
434.731	94.5
434.953	98.5
435.175	87.5
435.397	89.5
435.618	108.5
435.84	105.5
436.062	126.5
436.284	114.5
436.505	102.5
436.727	108.5
436.949	78.5
437.17	90.5
437.392	82.5
437.614	81.5
437.835	111.5
438.057	129.5
438.278	125.5
438.5	97.5
438.721	127.5
438.943	85.5
439.165	104.5
439.386	89.5
439.608	92.5
439.829	120.5
440.05	128.5
440.272	164.5
440.493	103.5
440.715	98.5
440.936	74.5
441.158	104.5
441.379	83.5
441.6	94.5
441.822	104.5
442.043	102.5
442.264	105.5
442.486	104.5
442.707	100.5
442.928	85.5
443.149	150.5
443.371	159.5
443.592	113.5
443.813	115.5
444.034	111.5
444.255	90.5
444.476	86.5
444.698	88.5
444.919	82.5
445.14	137.5
445.361	129.5
445.582	110.5
445.803	168.5
446.024	150.5
446.245	147.5
446.466	105.5
446.687	88.5
446.908	93.5
447.129	79.5
447.35	94.5
447.571	78.5
447.792	84.5
448.013	93.5
448.234	105.5
448.455	103.5
448.675	117.5
448.896	134.5
449.117	96.5
449.338	108.5
449.559	128.5
449.779	133.5
450	91.5
450.221	96.5
450.442	95.5
450.662	110.5
450.883	112.5
451.104	129.5
451.324	92.5
451.545	94.5
451.766	89.5
451.986	92.5
452.207	92.5
452.428	79.5
452.648	98.5
452.869	121.5
453.089	126.5
453.31	132.5
453.53	97.5
453.751	87.5
453.971	109.5
454.192	124.5
454.412	89.5
454.633	79.5
454.853	72.5
455.073	81.5
455.294	97.5
455.514	112.5
455.734	86.5
455.955	78.5
456.175	85.5
456.395	79.5
456.616	88.5
456.836	75.5
457.056	61.5
457.276	86.5
457.497	88.5
457.717	83.5
457.937	85.5
458.157	87.5
458.377	86.5
458.598	109.5
458.818	172.5
459.038	197.5
459.258	145.5
459.478	93.5
459.698	87.5
459.918	78.5
460.138	88.5
460.358	75.5
460.578	88.5
460.798	85.5
461.018	85.5
461.238	73.5
461.458	87.5
461.678	82.5
461.898	83.5
462.118	92.5
462.338	84.5
462.558	75.5
462.777	86.5
462.997	83.5
463.217	85.5
463.437	77.5
463.657	85.5
463.876	92.5
464.096	94.5
464.316	85.5
464.536	99.5
464.755	100.5
464.975	126.5
465.195	209.5
465.414	204.5
465.634	124.5
465.854	85.5
466.073	94.5
466.293	84.5
466.512	86.5
466.732	86.5
466.951	78.5
467.171	97.5
467.391	95.5
467.61	111.5
467.829	105.5
468.049	124.5
468.268	131.5
468.488	88.5
468.707	81.5
468.927	87.5
469.146	85.5
469.365	80.5
469.585	93.5
469.804	99.5
470.023	102.5
470.243	92.5
470.462	95.5
470.681	119.5
470.901	93.5
471.12	99.5
471.339	85.5
471.558	87.5
471.777	83.5
471.997	82.5
472.216	169.5
472.435	301.5
472.654	130.5
472.873	89.5
473.092	89.5
473.311	92.5
473.53	96.5
473.749	81.5
473.968	98.5
474.187	120.5
474.406	103.5
474.625	88.5
474.844	84.5
475.063	100.5
475.282	98.5
475.501	78.5
475.72	82.5
475.939	80.5
476.158	86.5
476.377	80.5
476.596	81.5
476.814	96.5
477.033	109.5
477.252	93.5
477.471	80.5
477.69	87.5
477.908	85.5
478.127	88.5
478.346	81.5
478.564	85.5
478.783	89.5
479.002	96.5
479.22	79.5
479.439	114.5
479.658	110.5
479.876	101.5
480.095	95.5
480.313	110.5
480.532	101.5
480.751	120.5
480.969	188.5
481.188	456.5
481.406	321.5
481.624	124.5
481.843	95.5
482.061	99.5
482.28	91.5
482.498	79.5
482.717	85.5
482.935	93.5
483.153	79.5
483.372	93.5
483.59	85.5
483.808	91.5
484.027	85.5
484.245	78.5
484.463	95.5
484.681	113.5
484.9	83.5
485.118	87.5
485.336	76.5
485.554	95.5
485.772	95.5
485.99	77.5
486.209	99.5
486.427	98.5
486.645	116.5
486.863	105.5
487.081	117.5
487.299	108.5
487.517	86.5
487.735	85.5
487.953	91.5
488.171	107.5
488.389	100.5
488.607	94.5
488.825	87.5
489.043	77.5
489.261	89.5
489.479	95.5
489.696	91.5
489.914	77.5
490.132	72.5
490.35	89.5
490.568	77.5
490.786	85.5
491.003	77.5
491.221	88.5
491.439	84.5
491.657	90.5
491.874	92.5
492.092	92.5
492.31	87.5
492.527	96.5
492.745	93.5
492.963	99.5
493.18	96.5
493.398	88.5
493.615	98.5
493.833	82.5
494.05	91.5
494.268	85.5
494.485	79.5
494.703	91.5
494.92	88.5
495.138	93.5
495.355	92.5
495.573	92.5
495.79	92.5
496.008	87.5
496.225	86.5
496.442	77.5
496.66	83.5
496.877	84.5
497.094	103.5
497.312	96.5
497.529	90.5
497.746	97.5
497.963	94.5
498.181	88.5
498.398	92.5
498.615	112.5
498.832	101.5
499.049	92.5
499.267	99.5
499.484	81.5
499.701	88.5
499.918	92.5
500.135	79.5
500.352	89.5
500.569	88.5
500.786	109.5
501.003	105.5
501.22	82.5
501.437	81.5
501.654	96.5
501.871	132.5
502.088	102.5
502.305	87.5
502.522	93.5
502.739	93.5
502.956	72.5
503.172	83.5
503.389	90.5
503.606	114.5
503.823	85.5
504.04	84.5
504.256	85.5
504.473	93.5
504.69	95.5
504.907	95.5
505.123	103.5
505.34	86.5
505.557	89.5
505.773	93.5
505.99	76.5
506.207	94.5
506.423	79.5
506.64	92.5
506.856	89.5
507.073	89.5
507.289	103.5
507.506	92.5
507.722	121.5
507.939	121.5
508.155	108.5
508.372	78.5
508.588	92.5
508.805	89.5
509.021	99.5
509.238	101.5
509.454	105.5
509.67	110.5
509.887	120.5
510.103	157.5
510.319	253.5
510.536	908.5
510.752	3174.5
510.968	901.5
511.184	179.5
511.401	128.5
511.617	104.5
511.833	97.5
512.049	95.5
512.265	99.5
512.481	98.5
512.698	93.5
512.914	100.5
513.13	82.5
513.346	95.5
513.562	99.5
513.778	106.5
513.994	104.5
514.21	106.5
514.426	122.5
514.642	169.5
514.858	164.5
515.074	178.5
515.29	599.5
515.506	2210.5
515.721	812.5
515.937	205.5
516.153	131.5
516.369	124.5
516.585	95.5
516.801	96.5
517.016	102.5
517.232	92.5
517.448	106.5
517.664	92.5
517.879	96.5
518.095	101.5
518.311	89.5
518.527	81.5
518.742	93.5
518.958	93.5
519.173	84.5
519.389	81.5
519.605	88.5
519.82	95.5
520.036	108.5
520.251	140.5
520.467	125.5
520.682	105.5
520.898	108.5
521.113	126.5
521.329	146.5
521.544	250.5
521.76	795.5
521.975	3605.5
522.19	2275.5
522.406	450.5
522.621	138.5
522.836	85.5
523.052	102.5
523.267	105.5
523.482	101.5
523.698	103.5
523.913	130.5
524.128	98.5
524.343	92.5
524.559	107.5
524.774	94.5
524.989	98.5
525.204	122.5
525.419	109.5
525.634	93.5
525.849	97.5
526.064	102.5
526.28	92.5
526.495	92.5
526.71	82.5
526.925	85.5
527.14	91.5
527.355	97.5
527.57	105.5
527.785	94.5
527.999	75.5
528.214	89.5
528.429	85.5
528.644	100.5
528.859	91.5
529.074	100.5
529.289	137.5
529.503	226.5
529.718	122.5
529.933	87.5
530.148	94.5
530.363	90.5
530.577	99.5
530.792	87.5
531.007	85.5
531.221	96.5
531.436	84.5
531.651	102.5
531.865	97.5
532.08	87.5
532.295	84.5
532.509	87.5
532.724	114.5
532.938	101.5
533.153	99.5
533.367	89.5
533.582	93.5
533.796	89.5
534.011	98.5
534.225	83.5
534.44	103.5
534.654	93.5
534.868	80.5
