Data from Circ_2018_H10_HRD10591_00059.txt Node
Date: Wed Jan 03 09:56:13 EST 2024
User: Yrep
Spectrometer: HR+D1059
Trigger mode: 1
Integration Time (sec): 1.000000E-1
Scans to average: 1
Electric dark correction enabled: true
Nonlinearity correction enabled: false
Boxcar width: 0
XAxis mode: Wavelengths
Number of Pixels in Spectrum: 2048
>>>>>Begin Spectral Data<<<<<
223.165	-5.12
223.4	-5.12
223.635	-5.12
223.869	-25.12
224.104	-23.12
224.338	-18.12
224.573	-12.12
224.808	-26.12
225.042	-12.12
225.277	-1.12
225.511	-0.12
225.746	4.88
225.98	11.88
226.215	8.88
226.449	15.88
226.683	23.88
226.918	25.88
227.152	31.88
227.387	35.88
227.621	34.88
227.856	35.88
228.09	32.88
228.324	53.88
228.559	60.88
228.793	55.88
229.027	64.88
229.262	76.88
229.496	67.88
229.73	81.88
229.964	85.88
230.199	73.88
230.433	71.88
230.667	71.88
230.901	81.88
231.136	76.88
231.37	83.88
231.604	75.88
231.838	70.88
232.072	71.88
232.306	75.88
232.541	71.88
232.775	99.88
233.009	83.88
233.243	65.88
233.477	85.88
233.711	80.88
233.945	70.88
234.179	76.88
234.413	98.88
234.647	65.88
234.881	83.88
235.115	79.88
235.349	62.88
235.583	60.88
235.817	69.88
236.051	69.88
236.285	59.88
236.519	67.88
236.753	71.88
236.987	80.88
237.221	81.88
237.455	73.88
237.689	60.88
237.922	74.88
238.156	63.88
238.39	63.88
238.624	70.88
238.858	74.88
239.091	60.88
239.325	81.88
239.559	89.88
239.793	64.88
240.027	62.88
240.26	83.88
240.494	71.88
240.728	78.88
240.961	84.88
241.195	63.88
241.429	69.88
241.662	67.88
241.896	60.88
242.13	83.88
242.363	73.88
242.597	80.88
242.83	82.88
243.064	78.88
243.298	67.88
243.531	68.88
243.765	82.88
243.998	81.88
244.232	66.88
244.465	84.88
244.699	80.88
244.932	52.88
245.166	68.88
245.399	80.88
245.633	73.88
245.866	68.88
246.099	73.88
246.333	58.88
246.566	76.88
246.8	74.88
247.033	87.88
247.266	77.88
247.5	86.88
247.733	70.88
247.966	86.88
248.2	82.88
248.433	85.88
248.666	80.88
248.899	77.88
249.133	91.88
249.366	91.88
249.599	96.88
249.832	67.88
250.066	82.88
250.299	68.88
250.532	71.88
250.765	88.88
250.998	73.88
251.231	73.88
251.465	69.88
251.698	67.88
251.931	70.88
252.164	65.88
252.397	67.88
252.63	71.88
252.863	84.88
253.096	80.88
253.329	78.88
253.562	86.88
253.795	71.88
254.028	82.88
254.261	83.88
254.494	76.88
254.727	95.88
254.96	75.88
255.193	78.88
255.426	78.88
255.659	82.88
255.892	88.88
256.124	85.88
256.357	71.88
256.59	75.88
256.823	76.88
257.056	83.88
257.289	68.88
257.521	83.88
257.754	66.88
257.987	71.88
258.22	82.88
258.452	75.88
258.685	69.88
258.918	82.88
259.151	84.88
259.383	78.88
259.616	73.88
259.849	74.88
260.081	62.88
260.314	84.88
260.547	75.88
260.779	71.88
261.012	82.88
261.244	85.88
261.477	98.88
261.71	91.88
261.942	118.88
262.175	130.88
262.407	103.88
262.64	92.88
262.872	92.88
263.105	79.88
263.337	82.88
263.57	78.88
263.802	64.88
264.035	85.88
264.267	78.88
264.499	75.88
264.732	89.88
264.964	77.88
265.197	69.88
265.429	82.88
265.661	88.88
265.894	81.88
266.126	79.88
266.358	83.88
266.591	94.88
266.823	71.88
267.055	75.88
267.287	78.88
267.52	80.88
267.752	76.88
267.984	78.88
268.216	79.88
268.448	87.88
268.681	80.88
268.913	81.88
269.145	79.88
269.377	83.88
269.609	79.88
269.841	70.88
270.073	62.88
270.306	87.88
270.538	84.88
270.77	71.88
271.002	76.88
271.234	75.88
271.466	80.88
271.698	82.88
271.93	82.88
272.162	94.88
272.394	98.88
272.626	85.88
272.858	76.88
273.09	83.88
273.322	84.88
273.553	74.88
273.785	83.88
274.017	85.88
274.249	97.88
274.481	83.88
274.713	79.88
274.945	86.88
275.176	83.88
275.408	76.88
275.64	93.88
275.872	86.88
276.104	96.88
276.335	86.88
276.567	85.88
276.799	131.88
277.031	90.88
277.262	83.88
277.494	92.88
277.726	88.88
277.957	100.88
278.189	79.88
278.421	80.88
278.652	82.88
278.884	72.88
279.115	84.88
279.347	86.88
279.579	99.88
279.81	90.88
280.042	87.88
280.273	99.88
280.505	78.88
280.736	73.88
280.968	77.88
281.199	92.88
281.431	97.88
281.662	93.88
281.894	90.88
282.125	91.88
282.356	130.88
282.588	159.88
282.819	112.88
283.051	90.88
283.282	85.88
283.513	91.88
283.745	57.88
283.976	74.88
284.207	98.88
284.439	92.88
284.67	79.88
284.901	74.88
285.132	76.88
285.364	85.88
285.595	83.88
285.826	89.88
286.057	94.88
286.288	109.88
286.52	79.88
286.751	85.88
286.982	74.88
287.213	88.88
287.444	100.88
287.675	90.88
287.906	76.88
288.138	90.88
288.369	96.88
288.6	87.88
288.831	98.88
289.062	80.88
289.293	96.88
289.524	78.88
289.755	83.88
289.986	85.88
290.217	82.88
290.448	91.88
290.679	81.88
290.91	94.88
291.141	75.88
291.371	96.88
291.602	81.88
291.833	89.88
292.064	86.88
292.295	79.88
292.526	84.88
292.757	87.88
292.987	92.88
293.218	78.88
293.449	76.88
293.68	90.88
293.91	74.88
294.141	93.88
294.372	77.88
294.603	67.88
294.833	80.88
295.064	75.88
295.295	79.88
295.525	88.88
295.756	100.88
295.987	115.88
296.217	156.88
296.448	140.88
296.679	87.88
296.909	107.88
297.14	89.88
297.37	82.88
297.601	88.88
297.831	102.88
298.062	95.88
298.292	83.88
298.523	99.88
298.753	82.88
298.984	92.88
299.214	83.88
299.445	77.88
299.675	81.88
299.905	99.88
300.136	101.88
300.366	76.88
300.597	73.88
300.827	95.88
301.057	97.88
301.288	114.88
301.518	93.88
301.748	80.88
301.979	96.88
302.209	90.88
302.439	91.88
302.669	91.88
302.9	95.88
303.13	81.88
303.36	95.88
303.59	88.88
303.82	105.88
304.051	93.88
304.281	82.88
304.511	97.88
304.741	85.88
304.971	83.88
305.201	81.88
305.431	92.88
305.661	95.88
305.891	113.88
306.121	84.88
306.352	72.88
306.582	106.88
306.812	90.88
307.042	89.88
307.272	98.88
307.502	96.88
307.731	94.88
307.961	98.88
308.191	73.88
308.421	84.88
308.651	89.88
308.881	100.88
309.111	95.88
309.341	83.88
309.571	119.88
309.8	89.88
310.03	90.88
310.26	93.88
310.49	83.88
310.72	107.88
310.949	96.88
311.179	92.88
311.409	87.88
311.639	81.88
311.868	96.88
312.098	100.88
312.328	98.88
312.557	114.88
312.787	111.88
313.017	87.88
313.246	93.88
313.476	90.88
313.706	72.88
313.935	89.88
314.165	95.88
314.394	115.88
314.624	98.88
314.853	95.88
315.083	94.88
315.312	92.88
315.542	102.88
315.771	81.88
316.001	80.88
316.23	88.88
316.46	81.88
316.689	80.88
316.919	83.88
317.148	84.88
317.377	88.88
317.607	97.88
317.836	95.88
318.065	99.88
318.295	92.88
318.524	77.88
318.753	87.88
318.983	98.88
319.212	103.88
319.441	111.88
319.67	113.88
319.9	103.88
320.129	82.88
320.358	102.88
320.587	84.88
320.816	105.88
321.046	100.88
321.275	96.88
321.504	90.88
321.733	84.88
321.962	94.88
322.191	85.88
322.42	109.88
322.649	110.88
322.878	125.88
323.108	118.88
323.337	120.88
323.566	149.88
323.795	173.88
324.024	223.88
324.253	447.88
324.482	923.88
324.71	1923.88
324.939	2515.88
325.168	909.88
325.397	268.88
325.626	155.88
325.855	134.88
326.084	119.88
326.313	134.88
326.542	164.88
326.77	244.88
326.999	485.88
327.228	1004.88
327.457	1872.88
327.686	1470.88
327.914	438.88
328.143	209.88
328.372	167.88
328.6	135.88
328.829	128.88
329.058	150.88
329.287	133.88
329.515	119.88
329.744	91.88
329.972	109.88
330.201	135.88
330.43	171.88
330.658	151.88
330.887	159.88
331.115	142.88
331.344	115.88
331.572	94.88
331.801	102.88
332.03	101.88
332.258	101.88
332.486	75.88
332.715	93.88
332.943	97.88
333.172	93.88
333.4	90.88
333.629	122.88
333.857	118.88
334.085	129.88
334.314	152.88
334.542	180.88
334.771	184.88
334.999	99.88
335.227	110.88
335.455	95.88
335.684	109.88
335.912	76.88
336.14	95.88
336.369	103.88
336.597	100.88
336.825	96.88
337.053	89.88
337.281	92.88
337.51	105.88
337.738	113.88
337.966	92.88
338.194	105.88
338.422	99.88
338.65	98.88
338.878	100.88
339.106	79.88
339.334	94.88
339.562	101.88
339.79	84.88
340.018	80.88
340.246	83.88
340.474	92.88
340.702	99.88
340.93	99.88
341.158	83.88
341.386	86.88
341.614	95.88
341.842	101.88
342.07	94.88
342.298	80.88
342.526	83.88
342.754	75.88
342.981	79.88
343.209	92.88
343.437	90.88
343.665	93.88
343.893	84.88
344.12	94.88
344.348	97.88
344.576	79.88
344.804	86.88
345.031	91.88
345.259	100.88
345.487	91.88
345.714	91.88
345.942	94.88
346.17	96.88
346.397	91.88
346.625	86.88
346.853	96.88
347.08	79.88
347.308	97.88
347.535	101.88
347.763	88.88
347.99	96.88
348.218	100.88
348.445	111.88
348.673	96.88
348.9	85.88
349.128	92.88
349.355	107.88
349.583	99.88
349.81	110.88
350.037	101.88
350.265	103.88
350.492	105.88
350.72	101.88
350.947	105.88
351.174	114.88
351.402	107.88
351.629	94.88
351.856	92.88
352.083	106.88
352.311	111.88
352.538	116.88
352.765	100.88
352.992	113.88
353.22	109.88
353.447	104.88
353.674	94.88
353.901	92.88
354.128	101.88
354.355	93.88
354.583	90.88
354.81	91.88
355.037	76.88
355.264	88.88
355.491	103.88
355.718	80.88
355.945	98.88
356.172	95.88
356.399	98.88
356.626	101.88
356.853	76.88
357.08	79.88
357.307	85.88
357.534	84.88
357.761	95.88
357.988	88.88
358.215	88.88
358.441	84.88
358.668	101.88
358.895	74.88
359.122	71.88
359.349	78.88
359.576	78.88
359.802	102.88
360.029	111.88
360.256	117.88
360.483	112.88
360.709	95.88
360.936	90.88
361.163	92.88
361.39	101.88
361.616	92.88
361.843	101.88
362.07	89.88
362.296	88.88
362.523	82.88
362.749	87.88
362.976	80.88
363.203	89.88
363.429	86.88
363.656	89.88
363.882	76.88
364.109	88.88
364.335	106.88
364.562	93.88
364.788	101.88
365.015	95.88
365.241	105.88
365.468	108.88
365.694	101.88
365.92	97.88
366.147	90.88
366.373	87.88
366.599	79.88
366.826	85.88
367.052	95.88
367.278	103.88
367.505	107.88
367.731	94.88
367.957	91.88
368.184	84.88
368.41	99.88
368.636	126.88
368.862	139.88
369.089	118.88
369.315	85.88
369.541	87.88
369.767	95.88
369.993	89.88
370.219	81.88
370.445	87.88
370.672	88.88
370.898	78.88
371.124	85.88
371.35	90.88
371.576	75.88
371.802	101.88
372.028	88.88
372.254	84.88
372.48	82.88
372.706	88.88
372.932	82.88
373.158	70.88
373.384	79.88
373.61	93.88
373.835	87.88
374.061	94.88
374.287	89.88
374.513	93.88
374.739	80.88
374.965	81.88
375.191	85.88
375.416	65.88
375.642	95.88
375.868	80.88
376.094	70.88
376.319	92.88
376.545	75.88
376.771	82.88
376.997	85.88
377.222	91.88
377.448	91.88
377.674	95.88
377.899	91.88
378.125	96.88
378.35	90.88
378.576	87.88
378.802	84.88
379.027	79.88
379.253	91.88
379.478	98.88
379.704	79.88
379.929	84.88
380.155	95.88
380.38	91.88
380.606	91.88
380.831	103.88
381.057	107.88
381.282	82.88
381.507	101.88
381.733	100.88
381.958	88.88
382.184	90.88
382.409	103.88
382.634	107.88
382.86	102.88
383.085	106.88
383.31	87.88
383.535	108.88
383.761	88.88
383.986	93.88
384.211	96.88
384.436	91.88
384.662	72.88
384.887	93.88
385.112	92.88
385.337	94.88
385.562	108.88
385.787	111.88
386.013	87.88
386.238	107.88
386.463	103.88
386.688	100.88
386.913	102.88
387.138	115.88
387.363	106.88
387.588	108.88
387.813	100.88
388.038	103.88
388.263	108.88
388.488	106.88
388.713	96.88
388.938	87.88
389.163	87.88
389.387	103.88
389.612	69.88
389.837	94.88
390.062	98.88
390.287	80.88
390.512	87.88
390.736	80.88
390.961	91.88
391.186	90.88
391.411	88.88
391.636	79.88
391.86	77.88
392.085	71.88
392.31	82.88
392.534	83.88
392.759	84.88
392.984	71.88
393.208	84.88
393.433	82.88
393.658	95.88
393.882	72.88
394.107	89.88
394.331	90.88
394.556	84.88
394.78	84.88
395.005	98.88
395.229	81.88
395.454	80.88
395.678	76.88
395.903	85.88
396.127	85.88
396.352	80.88
396.576	81.88
396.801	92.88
397.025	82.88
397.249	75.88
397.474	82.88
397.698	79.88
397.922	83.88
398.147	80.88
398.371	82.88
398.595	79.88
398.82	72.88
399.044	98.88
399.268	84.88
399.492	78.88
399.717	82.88
399.941	79.88
400.165	90.88
400.389	91.88
400.613	81.88
400.837	96.88
401.062	79.88
401.286	76.88
401.51	78.88
401.734	95.88
401.958	95.88
402.182	143.88
402.406	177.88
402.63	129.88
402.854	94.88
403.078	85.88
403.302	75.88
403.526	78.88
403.75	98.88
403.974	78.88
404.198	87.88
404.422	65.88
404.645	79.88
404.869	81.88
405.093	111.88
405.317	98.88
405.541	97.88
405.765	111.88
405.988	136.88
406.212	185.88
406.436	276.88
406.66	166.88
406.883	98.88
407.107	79.88
407.331	98.88
407.555	95.88
407.778	93.88
408.002	93.88
408.226	78.88
408.449	82.88
408.673	92.88
408.896	91.88
409.12	96.88
409.344	80.88
409.567	92.88
409.791	101.88
410.014	92.88
410.238	76.88
410.461	80.88
410.685	101.88
410.908	80.88
411.132	113.88
411.355	93.88
411.578	101.88
411.802	78.88
412.025	86.88
412.249	82.88
412.472	92.88
412.695	100.88
412.919	97.88
413.142	82.88
413.365	79.88
413.589	95.88
413.812	88.88
414.035	99.88
414.258	92.88
414.482	94.88
414.705	76.88
414.928	95.88
415.151	94.88
415.374	90.88
415.597	86.88
415.821	78.88
416.044	80.88
416.267	87.88
416.49	82.88
416.713	99.88
416.936	83.88
417.159	84.88
417.382	76.88
417.605	83.88
417.828	93.88
418.051	88.88
418.274	80.88
418.497	78.88
418.72	89.88
418.943	84.88
419.166	73.88
419.389	90.88
419.611	76.88
419.834	77.88
420.057	90.88
420.28	92.88
420.503	75.88
420.726	95.88
420.948	86.88
421.171	92.88
421.394	86.88
421.617	106.88
421.839	71.88
422.062	94.88
422.285	85.88
422.507	102.88
422.73	96.88
422.953	96.88
423.175	93.88
423.398	87.88
423.621	104.88
423.843	90.88
424.066	80.88
424.288	91.88
424.511	81.88
424.733	90.88
424.956	109.88
425.178	95.88
425.401	106.88
425.623	106.88
425.846	76.88
426.068	92.88
426.291	90.88
426.513	85.88
426.735	70.88
426.958	98.88
427.18	126.88
427.402	163.88
427.625	206.88
427.847	154.88
428.069	102.88
428.292	100.88
428.514	87.88
428.736	85.88
428.958	77.88
429.181	75.88
429.403	84.88
429.625	83.88
429.847	82.88
430.069	90.88
430.292	84.88
430.514	93.88
430.736	70.88
430.958	75.88
431.18	97.88
431.402	71.88
431.624	63.88
431.846	78.88
432.068	83.88
432.29	79.88
432.512	81.88
432.734	83.88
432.956	100.88
433.178	102.88
433.4	93.88
433.622	94.88
433.844	99.88
434.066	98.88
434.287	80.88
434.509	79.88
434.731	88.88
434.953	90.88
435.175	105.88
435.397	106.88
435.618	91.88
435.84	101.88
436.062	114.88
436.284	119.88
436.505	97.88
436.727	87.88
436.949	93.88
437.17	84.88
437.392	76.88
437.614	84.88
437.835	107.88
438.057	113.88
438.278	109.88
438.5	105.88
438.721	114.88
438.943	101.88
439.165	95.88
439.386	86.88
439.608	86.88
439.829	90.88
440.05	126.88
440.272	158.88
440.493	105.88
440.715	85.88
440.936	88.88
441.158	82.88
441.379	90.88
441.6	83.88
441.822	92.88
442.043	88.88
442.264	96.88
442.486	101.88
442.707	99.88
442.928	114.88
443.149	142.88
443.371	138.88
443.592	130.88
443.813	103.88
444.034	107.88
444.255	105.88
444.476	80.88
444.698	89.88
444.919	80.88
445.14	126.88
445.361	136.88
445.582	117.88
445.803	143.88
446.024	141.88
446.245	134.88
446.466	111.88
446.687	82.88
446.908	94.88
447.129	82.88
447.35	99.88
447.571	89.88
447.792	98.88
448.013	89.88
448.234	101.88
448.455	92.88
448.675	126.88
448.896	133.88
449.117	104.88
449.338	91.88
449.559	144.88
449.779	144.88
450	90.88
450.221	104.88
450.442	90.88
450.662	101.88
450.883	110.88
451.104	123.88
451.324	86.88
451.545	95.88
451.766	96.88
451.986	79.88
452.207	87.88
452.428	97.88
452.648	93.88
452.869	110.88
453.089	123.88
453.31	106.88
453.53	93.88
453.751	94.88
453.971	103.88
454.192	117.88
454.412	98.88
454.633	86.88
454.853	83.88
455.073	68.88
455.294	77.88
455.514	103.88
455.734	88.88
455.955	89.88
456.175	78.88
456.395	82.88
456.616	77.88
456.836	87.88
457.056	88.88
457.276	79.88
457.497	75.88
457.717	81.88
457.937	89.88
458.157	80.88
458.377	87.88
458.598	124.88
458.818	178.88
459.038	182.88
459.258	129.88
459.478	99.88
459.698	84.88
459.918	79.88
460.138	61.88
460.358	83.88
460.578	83.88
460.798	92.88
461.018	95.88
461.238	63.88
461.458	92.88
461.678	74.88
461.898	80.88
462.118	81.88
462.338	73.88
462.558	77.88
462.777	76.88
462.997	80.88
463.217	81.88
463.437	91.88
463.657	90.88
463.876	95.88
464.096	82.88
464.316	87.88
464.536	87.88
464.755	86.88
464.975	106.88
465.195	178.88
465.414	199.88
465.634	103.88
465.854	80.88
466.073	80.88
466.293	81.88
466.512	88.88
466.732	88.88
466.951	83.88
467.171	83.88
467.391	94.88
467.61	96.88
467.829	112.88
468.049	119.88
468.268	125.88
468.488	87.88
468.707	72.88
468.927	74.88
469.146	70.88
469.365	89.88
469.585	88.88
469.804	78.88
470.023	99.88
470.243	92.88
470.462	85.88
470.681	98.88
470.901	94.88
471.12	80.88
471.339	93.88
471.558	71.88
471.777	90.88
471.997	83.88
472.216	133.88
472.435	208.88
472.654	116.88
472.873	94.88
473.092	82.88
473.311	83.88
473.53	71.88
473.749	78.88
473.968	88.88
474.187	98.88
474.406	106.88
474.625	90.88
474.844	82.88
475.063	89.88
475.282	90.88
475.501	79.88
475.72	90.88
475.939	85.88
476.158	90.88
476.377	91.88
476.596	81.88
476.814	90.88
477.033	103.88
477.252	86.88
477.471	82.88
477.69	69.88
477.908	74.88
478.127	69.88
478.346	89.88
478.564	85.88
478.783	107.88
479.002	85.88
479.22	90.88
479.439	94.88
479.658	102.88
479.876	85.88
480.095	90.88
480.313	95.88
480.532	80.88
480.751	106.88
480.969	150.88
481.188	314.88
481.406	247.88
481.624	96.88
481.843	94.88
482.061	72.88
482.28	94.88
482.498	82.88
482.717	97.88
482.935	80.88
483.153	94.88
483.372	83.88
483.59	79.88
483.808	79.88
484.027	91.88
484.245	79.88
484.463	91.88
484.681	88.88
484.9	93.88
485.118	97.88
485.336	91.88
485.554	92.88
485.772	72.88
485.99	89.88
486.209	103.88
486.427	98.88
486.645	98.88
486.863	111.88
487.081	98.88
487.299	87.88
487.517	99.88
487.735	91.88
487.953	102.88
488.171	91.88
488.389	101.88
488.607	95.88
488.825	83.88
489.043	83.88
489.261	94.88
489.479	80.88
489.696	92.88
489.914	84.88
490.132	84.88
490.35	89.88
490.568	97.88
490.786	97.88
491.003	83.88
491.221	75.88
491.439	83.88
491.657	76.88
491.874	84.88
492.092	97.88
492.31	77.88
492.527	85.88
492.745	91.88
492.963	72.88
493.18	69.88
493.398	90.88
493.615	94.88
493.833	103.88
494.05	89.88
494.268	80.88
494.485	84.88
494.703	83.88
494.92	85.88
495.138	93.88
495.355	93.88
495.573	94.88
495.79	99.88
496.008	97.88
496.225	95.88
496.442	99.88
496.66	103.88
496.877	79.88
497.094	85.88
497.312	87.88
497.529	88.88
497.746	80.88
497.963	80.88
498.181	92.88
498.398	89.88
498.615	98.88
498.832	105.88
499.049	88.88
499.267	88.88
499.484	99.88
499.701	90.88
499.918	90.88
500.135	90.88
500.352	86.88
500.569	94.88
500.786	103.88
501.003	87.88
501.22	82.88
501.437	91.88
501.654	96.88
501.871	108.88
502.088	86.88
502.305	78.88
502.522	85.88
502.739	79.88
502.956	85.88
503.172	89.88
503.389	96.88
503.606	107.88
503.823	87.88
504.04	78.88
504.256	74.88
504.473	85.88
504.69	86.88
504.907	108.88
505.123	85.88
505.34	85.88
505.557	84.88
505.773	81.88
505.99	70.88
506.207	87.88
506.423	84.88
506.64	95.88
506.856	87.88
507.073	88.88
507.289	87.88
507.506	83.88
507.722	117.88
507.939	125.88
508.155	95.88
508.372	94.88
508.588	79.88
508.805	98.88
509.021	91.88
509.238	93.88
509.454	90.88
509.67	110.88
509.887	121.88
510.103	134.88
510.319	235.88
510.536	942.88
510.752	3226.88
510.968	876.88
511.184	179.88
511.401	105.88
511.617	95.88
511.833	86.88
512.049	84.88
512.265	88.88
512.481	91.88
512.698	86.88
512.914	87.88
513.13	94.88
513.346	84.88
513.562	89.88
513.778	96.88
513.994	91.88
514.21	127.88
514.426	126.88
514.642	152.88
514.858	135.88
515.074	194.88
515.29	606.88
515.506	2151.88
515.721	772.88
515.937	207.88
