Data from Circ_2018_H10_HRD10591_00056.txt Node
Date: Wed Jan 03 09:56:13 EST 2024
User: Yrep
Spectrometer: HR+D1059
Trigger mode: 1
Integration Time (sec): 1.000000E-1
Scans to average: 1
Electric dark correction enabled: true
Nonlinearity correction enabled: false
Boxcar width: 0
XAxis mode: Wavelengths
Number of Pixels in Spectrum: 2048
>>>>>Begin Spectral Data<<<<<
223.165	-9.69
223.4	-9.69
223.635	-9.69
223.869	-15.69
224.104	-13.69
224.338	-17.69
224.573	-5.69
224.808	-14.69
225.042	11.31
225.277	-1.69
225.511	-8.69
225.746	-1.69
225.98	-7.69
226.215	14.31
226.449	12.31
226.683	7.31
226.918	14.31
227.152	37.31
227.387	39.31
227.621	40.31
227.856	46.31
228.09	56.31
228.324	39.31
228.559	32.31
228.793	45.31
229.027	50.31
229.262	71.31
229.496	64.31
229.73	88.31
229.964	80.31
230.199	67.31
230.433	74.31
230.667	82.31
230.901	63.31
231.136	80.31
231.37	89.31
231.604	82.31
231.838	77.31
232.072	79.31
232.306	72.31
232.541	74.31
232.775	80.31
233.009	87.31
233.243	93.31
233.477	83.31
233.711	73.31
233.945	81.31
234.179	86.31
234.413	87.31
234.647	80.31
234.881	70.31
235.115	71.31
235.349	80.31
235.583	75.31
235.817	86.31
236.051	93.31
236.285	73.31
236.519	78.31
236.753	81.31
236.987	81.31
237.221	89.31
237.455	86.31
237.689	69.31
237.922	85.31
238.156	77.31
238.39	69.31
238.624	86.31
238.858	68.31
239.091	83.31
239.325	95.31
239.559	82.31
239.793	75.31
240.027	81.31
240.26	74.31
240.494	71.31
240.728	65.31
240.961	73.31
241.195	71.31
241.429	75.31
241.662	68.31
241.896	64.31
242.13	81.31
242.363	86.31
242.597	81.31
242.83	77.31
243.064	84.31
243.298	73.31
243.531	76.31
243.765	68.31
243.998	81.31
244.232	81.31
244.465	81.31
244.699	77.31
244.932	90.31
245.166	87.31
245.399	74.31
245.633	82.31
245.866	88.31
246.099	69.31
246.333	90.31
246.566	71.31
246.8	83.31
247.033	77.31
247.266	76.31
247.5	86.31
247.733	73.31
247.966	85.31
248.2	66.31
248.433	79.31
248.666	76.31
248.899	85.31
249.133	89.31
249.366	82.31
249.599	105.31
249.832	84.31
250.066	63.31
250.299	74.31
250.532	78.31
250.765	83.31
250.998	81.31
251.231	73.31
251.465	75.31
251.698	70.31
251.931	79.31
252.164	76.31
252.397	92.31
252.63	72.31
252.863	80.31
253.096	88.31
253.329	82.31
253.562	76.31
253.795	87.31
254.028	86.31
254.261	80.31
254.494	73.31
254.727	85.31
254.96	80.31
255.193	79.31
255.426	84.31
255.659	74.31
255.892	85.31
256.124	80.31
256.357	81.31
256.59	87.31
256.823	95.31
257.056	81.31
257.289	72.31
257.521	71.31
257.754	71.31
257.987	75.31
258.22	77.31
258.452	82.31
258.685	87.31
258.918	74.31
259.151	83.31
259.383	84.31
259.616	79.31
259.849	76.31
260.081	90.31
260.314	78.31
260.547	76.31
260.779	70.31
261.012	74.31
261.244	95.31
261.477	92.31
261.71	103.31
261.942	133.31
262.175	136.31
262.407	86.31
262.64	81.31
262.872	84.31
263.105	82.31
263.337	85.31
263.57	84.31
263.802	80.31
264.035	66.31
264.267	84.31
264.499	84.31
264.732	85.31
264.964	81.31
265.197	74.31
265.429	90.31
265.661	92.31
265.894	87.31
266.126	99.31
266.358	95.31
266.591	75.31
266.823	94.31
267.055	92.31
267.287	90.31
267.52	87.31
267.752	78.31
267.984	87.31
268.216	83.31
268.448	86.31
268.681	82.31
268.913	73.31
269.145	91.31
269.377	77.31
269.609	87.31
269.841	88.31
270.073	83.31
270.306	86.31
270.538	91.31
270.77	84.31
271.002	101.31
271.234	82.31
271.466	83.31
271.698	71.31
271.93	74.31
272.162	94.31
272.394	104.31
272.626	94.31
272.858	81.31
273.09	94.31
273.322	75.31
273.553	89.31
273.785	83.31
274.017	81.31
274.249	85.31
274.481	89.31
274.713	91.31
274.945	78.31
275.176	85.31
275.408	69.31
275.64	88.31
275.872	83.31
276.104	81.31
276.335	88.31
276.567	111.31
276.799	115.31
277.031	118.31
277.262	104.31
277.494	76.31
277.726	77.31
277.957	93.31
278.189	87.31
278.421	84.31
278.652	90.31
278.884	90.31
279.115	102.31
279.347	83.31
279.579	93.31
279.81	78.31
280.042	89.31
280.273	90.31
280.505	97.31
280.736	84.31
280.968	83.31
281.199	100.31
281.431	86.31
281.662	80.31
281.894	90.31
282.125	107.31
282.356	133.31
282.588	158.31
282.819	147.31
283.051	87.31
283.282	85.31
283.513	86.31
283.745	79.31
283.976	81.31
284.207	85.31
284.439	84.31
284.67	76.31
284.901	93.31
285.132	96.31
285.364	85.31
285.595	83.31
285.826	81.31
286.057	82.31
286.288	69.31
286.52	68.31
286.751	73.31
286.982	86.31
287.213	79.31
287.444	81.31
287.675	74.31
287.906	90.31
288.138	94.31
288.369	82.31
288.6	99.31
288.831	93.31
289.062	88.31
289.293	76.31
289.524	89.31
289.755	77.31
289.986	94.31
290.217	84.31
290.448	95.31
290.679	80.31
290.91	89.31
291.141	90.31
291.371	90.31
291.602	95.31
291.833	73.31
292.064	92.31
292.295	82.31
292.526	76.31
292.757	90.31
292.987	84.31
293.218	76.31
293.449	76.31
293.68	70.31
293.91	82.31
294.141	89.31
294.372	81.31
294.603	87.31
294.833	94.31
295.064	85.31
295.295	86.31
295.525	99.31
295.756	118.31
295.987	126.31
296.217	162.31
296.448	137.31
296.679	105.31
296.909	87.31
297.14	93.31
297.37	77.31
297.601	91.31
297.831	88.31
298.062	89.31
298.292	94.31
298.523	95.31
298.753	88.31
298.984	76.31
299.214	72.31
299.445	81.31
299.675	91.31
299.905	97.31
300.136	86.31
300.366	92.31
300.597	88.31
300.827	92.31
301.057	100.31
301.288	113.31
301.518	105.31
301.748	90.31
301.979	83.31
302.209	82.31
302.439	84.31
302.669	89.31
302.9	87.31
303.13	91.31
303.36	93.31
303.59	105.31
303.82	119.31
304.051	104.31
304.281	100.31
304.511	83.31
304.741	90.31
304.971	83.31
305.201	91.31
305.431	81.31
305.661	87.31
305.891	106.31
306.121	77.31
306.352	109.31
306.582	117.31
306.812	105.31
307.042	106.31
307.272	103.31
307.502	101.31
307.731	94.31
307.961	103.31
308.191	97.31
308.421	77.31
308.651	87.31
308.881	99.31
309.111	68.31
309.341	92.31
309.571	108.31
309.8	104.31
310.03	107.31
310.26	99.31
310.49	87.31
310.72	99.31
310.949	104.31
311.179	115.31
311.409	100.31
311.639	90.31
311.868	92.31
312.098	85.31
312.328	103.31
312.557	120.31
312.787	114.31
313.017	112.31
313.246	83.31
313.476	87.31
313.706	97.31
313.935	95.31
314.165	91.31
314.394	99.31
314.624	110.31
314.853	110.31
315.083	94.31
315.312	83.31
315.542	85.31
315.771	96.31
316.001	87.31
316.23	95.31
316.46	103.31
316.689	94.31
316.919	104.31
317.148	94.31
317.377	104.31
317.607	94.31
317.836	88.31
318.065	99.31
318.295	97.31
318.524	82.31
318.753	95.31
318.983	92.31
319.212	104.31
319.441	107.31
319.67	106.31
319.9	90.31
320.129	104.31
320.358	86.31
320.587	95.31
320.816	105.31
321.046	83.31
321.275	90.31
321.504	98.31
321.733	92.31
321.962	94.31
322.191	101.31
322.42	114.31
322.649	116.31
322.878	115.31
323.108	126.31
323.337	141.31
323.566	156.31
323.795	172.31
324.024	247.31
324.253	497.31
324.482	1067.31
324.71	2212.31
324.939	2893.31
325.168	1030.31
325.397	293.31
325.626	166.31
325.855	140.31
326.084	138.31
326.313	147.31
326.542	171.31
326.77	275.31
326.999	574.31
327.228	1186.31
327.457	2063.31
327.686	1672.31
327.914	464.31
328.143	242.31
328.372	198.31
328.6	148.31
328.829	138.31
329.058	147.31
329.287	150.31
329.515	128.31
329.744	112.31
329.972	117.31
330.201	132.31
330.43	199.31
330.658	158.31
330.887	181.31
331.115	141.31
331.344	102.31
331.572	94.31
331.801	110.31
332.03	99.31
332.258	108.31
332.486	97.31
332.715	117.31
332.943	93.31
333.172	98.31
333.4	107.31
333.629	118.31
333.857	122.31
334.085	107.31
334.314	132.31
334.542	187.31
334.771	159.31
334.999	119.31
335.227	95.31
335.455	113.31
335.684	96.31
335.912	94.31
336.14	98.31
336.369	96.31
336.597	98.31
336.825	98.31
337.053	98.31
337.281	94.31
337.51	97.31
337.738	101.31
337.966	83.31
338.194	96.31
338.422	96.31
338.65	85.31
338.878	98.31
339.106	97.31
339.334	93.31
339.562	89.31
339.79	94.31
340.018	97.31
340.246	85.31
340.474	111.31
340.702	99.31
340.93	92.31
341.158	101.31
341.386	88.31
341.614	95.31
341.842	107.31
342.07	95.31
342.298	95.31
342.526	94.31
342.754	98.31
342.981	87.31
343.209	101.31
343.437	104.31
343.665	94.31
343.893	103.31
344.12	82.31
344.348	72.31
344.576	95.31
344.804	85.31
345.031	104.31
345.259	112.31
345.487	103.31
345.714	113.31
345.942	96.31
346.17	87.31
346.397	94.31
346.625	103.31
346.853	101.31
347.08	97.31
347.308	110.31
347.535	113.31
347.763	113.31
347.99	106.31
348.218	102.31
348.445	113.31
348.673	100.31
348.9	89.31
349.128	110.31
349.355	80.31
349.583	104.31
349.81	73.31
350.037	97.31
350.265	80.31
350.492	93.31
350.72	88.31
350.947	107.31
351.174	112.31
351.402	116.31
351.629	117.31
351.856	111.31
352.083	99.31
352.311	115.31
352.538	104.31
352.765	108.31
352.992	125.31
353.22	117.31
353.447	106.31
353.674	99.31
353.901	104.31
354.128	97.31
354.355	110.31
354.583	91.31
354.81	97.31
355.037	85.31
355.264	84.31
355.491	103.31
355.718	92.31
355.945	81.31
356.172	104.31
356.399	88.31
356.626	106.31
356.853	94.31
357.08	97.31
357.307	85.31
357.534	95.31
357.761	101.31
357.988	91.31
358.215	92.31
358.441	97.31
358.668	91.31
358.895	94.31
359.122	84.31
359.349	91.31
359.576	92.31
359.802	118.31
360.029	138.31
360.256	124.31
360.483	106.31
360.709	97.31
360.936	82.31
361.163	95.31
361.39	88.31
361.616	110.31
361.843	105.31
362.07	110.31
362.296	104.31
362.523	89.31
362.749	103.31
362.976	98.31
363.203	105.31
363.429	91.31
363.656	87.31
363.882	81.31
364.109	97.31
364.335	92.31
364.562	94.31
364.788	102.31
365.015	104.31
365.241	100.31
365.468	129.31
365.694	121.31
365.92	99.31
366.147	103.31
366.373	89.31
366.599	85.31
366.826	91.31
367.052	83.31
367.278	85.31
367.505	96.31
367.731	96.31
367.957	106.31
368.184	92.31
368.41	98.31
368.636	135.31
368.862	132.31
369.089	141.31
369.315	101.31
369.541	104.31
369.767	84.31
369.993	91.31
370.219	101.31
370.445	104.31
370.672	101.31
370.898	95.31
371.124	96.31
371.35	101.31
371.576	75.31
371.802	97.31
372.028	76.31
372.254	94.31
372.48	87.31
372.706	98.31
372.932	81.31
373.158	81.31
373.384	90.31
373.61	105.31
373.835	101.31
374.061	86.31
374.287	96.31
374.513	97.31
374.739	87.31
374.965	82.31
375.191	89.31
375.416	99.31
375.642	90.31
375.868	100.31
376.094	94.31
376.319	82.31
376.545	94.31
376.771	84.31
376.997	97.31
377.222	81.31
377.448	83.31
377.674	84.31
377.899	91.31
378.125	82.31
378.35	90.31
378.576	86.31
378.802	90.31
379.027	98.31
379.253	90.31
379.478	96.31
379.704	83.31
379.929	94.31
380.155	97.31
380.38	94.31
380.606	90.31
380.831	97.31
381.057	96.31
381.282	95.31
381.507	96.31
381.733	100.31
381.958	91.31
382.184	90.31
382.409	113.31
382.634	123.31
382.86	96.31
383.085	90.31
383.31	96.31
383.535	84.31
383.761	97.31
383.986	103.31
384.211	88.31
384.436	94.31
384.662	89.31
384.887	104.31
385.112	100.31
385.337	91.31
385.562	103.31
385.787	110.31
386.013	100.31
386.238	112.31
386.463	119.31
386.688	106.31
386.913	100.31
387.138	102.31
387.363	95.31
387.588	110.31
387.813	101.31
388.038	113.31
388.263	131.31
388.488	110.31
388.713	107.31
388.938	78.31
389.163	94.31
389.387	92.31
389.612	90.31
389.837	95.31
390.062	101.31
390.287	88.31
390.512	89.31
390.736	88.31
390.961	91.31
391.186	91.31
391.411	102.31
391.636	84.31
391.86	87.31
392.085	97.31
392.31	90.31
392.534	81.31
392.759	95.31
392.984	92.31
393.208	90.31
393.433	85.31
393.658	94.31
393.882	85.31
394.107	101.31
394.331	94.31
394.556	81.31
394.78	97.31
395.005	84.31
395.229	90.31
395.454	79.31
395.678	87.31
395.903	84.31
396.127	88.31
396.352	94.31
396.576	73.31
396.801	68.31
397.025	88.31
397.249	86.31
397.474	88.31
397.698	85.31
397.922	87.31
398.147	82.31
398.371	70.31
398.595	66.31
398.82	96.31
399.044	85.31
399.268	80.31
399.492	94.31
399.717	102.31
399.941	91.31
400.165	106.31
400.389	96.31
400.613	76.31
400.837	77.31
401.062	84.31
401.286	88.31
401.51	97.31
401.734	96.31
401.958	115.31
402.182	140.31
402.406	202.31
402.63	148.31
402.854	104.31
403.078	91.31
403.302	75.31
403.526	93.31
403.75	97.31
403.974	82.31
404.198	84.31
404.422	84.31
404.645	97.31
404.869	98.31
405.093	93.31
405.317	106.31
405.541	101.31
405.765	110.31
405.988	133.31
406.212	214.31
406.436	318.31
406.66	179.31
406.883	112.31
407.107	111.31
407.331	91.31
407.555	103.31
407.778	93.31
408.002	94.31
408.226	85.31
408.449	85.31
408.673	99.31
408.896	101.31
409.12	89.31
409.344	84.31
409.567	96.31
409.791	91.31
410.014	97.31
410.238	96.31
410.461	98.31
410.685	94.31
410.908	90.31
411.132	109.31
411.355	106.31
411.578	103.31
411.802	86.31
412.025	90.31
412.249	77.31
412.472	107.31
412.695	90.31
412.919	85.31
413.142	91.31
413.365	93.31
413.589	76.31
413.812	94.31
414.035	83.31
414.258	93.31
414.482	87.31
414.705	105.31
414.928	101.31
415.151	89.31
415.374	77.31
415.597	91.31
415.821	85.31
416.044	79.31
416.267	96.31
416.49	84.31
416.713	83.31
416.936	99.31
417.159	71.31
417.382	81.31
417.605	88.31
417.828	96.31
418.051	102.31
418.274	90.31
418.497	97.31
418.72	93.31
418.943	82.31
419.166	87.31
419.389	99.31
419.611	75.31
419.834	79.31
420.057	86.31
420.28	102.31
420.503	101.31
420.726	93.31
420.948	81.31
421.171	97.31
421.394	85.31
421.617	93.31
421.839	90.31
422.062	92.31
422.285	100.31
422.507	105.31
422.73	96.31
422.953	89.31
423.175	82.31
423.398	88.31
423.621	79.31
423.843	72.31
424.066	97.31
424.288	96.31
424.511	89.31
424.733	98.31
424.956	111.31
425.178	89.31
425.401	112.31
425.623	104.31
425.846	88.31
426.068	84.31
426.291	98.31
426.513	90.31
426.735	98.31
426.958	114.31
427.18	115.31
427.402	145.31
427.625	199.31
427.847	156.31
428.069	123.31
428.292	96.31
428.514	105.31
428.736	97.31
428.958	84.31
429.181	93.31
429.403	84.31
429.625	88.31
429.847	103.31
430.069	109.31
430.292	83.31
430.514	83.31
430.736	97.31
430.958	88.31
431.18	86.31
431.402	92.31
431.624	89.31
431.846	88.31
432.068	93.31
432.29	102.31
432.512	74.31
432.734	76.31
432.956	87.31
433.178	87.31
433.4	89.31
433.622	95.31
433.844	90.31
434.066	100.31
434.287	87.31
434.509	91.31
434.731	90.31
434.953	79.31
435.175	64.31
435.397	80.31
435.618	102.31
435.84	106.31
436.062	128.31
436.284	113.31
436.505	110.31
436.727	114.31
436.949	101.31
437.17	91.31
437.392	97.31
437.614	107.31
437.835	128.31
438.057	119.31
438.278	115.31
438.5	112.31
438.721	128.31
438.943	108.31
439.165	92.31
439.386	93.31
439.608	100.31
439.829	112.31
440.05	128.31
440.272	159.31
440.493	107.31
440.715	93.31
440.936	83.31
441.158	86.31
441.379	97.31
441.6	86.31
441.822	91.31
442.043	103.31
442.264	117.31
442.486	96.31
442.707	102.31
442.928	123.31
443.149	150.31
443.371	158.31
443.592	127.31
443.813	112.31
444.034	106.31
444.255	85.31
444.476	90.31
444.698	76.31
444.919	107.31
445.14	125.31
445.361	135.31
445.582	115.31
445.803	152.31
446.024	158.31
446.245	163.31
446.466	127.31
446.687	88.31
446.908	75.31
447.129	101.31
447.35	99.31
447.571	97.31
447.792	87.31
448.013	94.31
448.234	120.31
448.455	129.31
448.675	120.31
448.896	132.31
449.117	103.31
449.338	116.31
449.559	137.31
449.779	142.31
450	104.31
450.221	96.31
450.442	96.31
450.662	108.31
450.883	113.31
451.104	114.31
451.324	113.31
451.545	95.31
451.766	84.31
451.986	84.31
452.207	89.31
452.428	85.31
452.648	99.31
452.869	128.31
453.089	132.31
453.31	134.31
453.53	106.31
453.751	90.31
453.971	110.31
454.192	127.31
454.412	90.31
454.633	79.31
454.853	73.31
455.073	91.31
455.294	98.31
455.514	96.31
455.734	92.31
455.955	93.31
456.175	92.31
456.395	92.31
456.616	77.31
456.836	83.31
457.056	98.31
457.276	86.31
457.497	91.31
457.717	89.31
457.937	72.31
458.157	94.31
458.377	98.31
458.598	139.31
458.818	188.31
459.038	201.31
459.258	136.31
459.478	94.31
459.698	92.31
459.918	89.31
460.138	94.31
460.358	75.31
460.578	84.31
460.798	83.31
461.018	85.31
461.238	82.31
461.458	78.31
461.678	71.31
461.898	90.31
462.118	94.31
462.338	82.31
462.558	73.31
462.777	79.31
462.997	82.31
463.217	84.31
463.437	93.31
463.657	91.31
463.876	92.31
464.096	100.31
464.316	91.31
464.536	117.31
464.755	115.31
464.975	113.31
465.195	217.31
465.414	213.31
465.634	101.31
465.854	84.31
466.073	98.31
466.293	84.31
466.512	89.31
466.732	84.31
466.951	83.31
467.171	92.31
467.391	99.31
467.61	107.31
467.829	100.31
468.049	130.31
468.268	134.31
468.488	95.31
468.707	96.31
468.927	75.31
469.146	83.31
469.365	90.31
469.585	92.31
469.804	98.31
470.023	106.31
470.243	90.31
470.462	100.31
470.681	119.31
470.901	99.31
471.12	100.31
471.339	93.31
471.558	85.31
471.777	89.31
471.997	88.31
472.216	144.31
472.435	192.31
472.654	100.31
472.873	81.31
473.092	86.31
473.311	91.31
473.53	89.31
473.749	85.31
473.968	91.31
474.187	115.31
474.406	97.31
474.625	88.31
474.844	80.31
475.063	86.31
475.282	94.31
475.501	89.31
475.72	99.31
475.939	93.31
476.158	71.31
476.377	89.31
476.596	88.31
476.814	86.31
477.033	99.31
477.252	92.31
477.471	98.31
477.69	90.31
477.908	87.31
478.127	84.31
478.346	89.31
478.564	97.31
478.783	100.31
479.002	94.31
479.22	101.31
479.439	120.31
479.658	124.31
479.876	94.31
480.095	91.31
480.313	81.31
480.532	97.31
480.751	101.31
480.969	157.31
481.188	330.31
481.406	235.31
481.624	106.31
481.843	75.31
482.061	84.31
482.28	95.31
482.498	112.31
482.717	84.31
482.935	97.31
483.153	95.31
483.372	94.31
483.59	85.31
483.808	100.31
484.027	80.31
484.245	103.31
484.463	98.31
484.681	97.31
484.9	91.31
485.118	86.31
485.336	99.31
485.554	81.31
485.772	96.31
485.99	103.31
486.209	99.31
486.427	96.31
486.645	108.31
486.863	119.31
487.081	99.31
487.299	83.31
487.517	96.31
487.735	101.31
487.953	99.31
488.171	83.31
488.389	95.31
488.607	106.31
488.825	103.31
489.043	83.31
489.261	85.31
489.479	90.31
489.696	92.31
489.914	92.31
490.132	76.31
490.35	85.31
490.568	91.31
490.786	86.31
491.003	89.31
491.221	97.31
491.439	89.31
491.657	86.31
491.874	81.31
492.092	85.31
492.31	104.31
492.527	89.31
492.745	86.31
492.963	95.31
493.18	90.31
493.398	94.31
493.615	102.31
493.833	94.31
494.05	97.31
494.268	83.31
494.485	97.31
494.703	85.31
494.92	86.31
495.138	77.31
495.355	87.31
495.573	107.31
495.79	97.31
496.008	91.31
496.225	100.31
496.442	91.31
496.66	90.31
496.877	81.31
497.094	95.31
497.312	86.31
497.529	91.31
497.746	94.31
497.963	99.31
498.181	92.31
498.398	99.31
498.615	129.31
498.832	110.31
499.049	93.31
499.267	86.31
499.484	88.31
499.701	90.31
499.918	98.31
500.135	92.31
500.352	70.31
500.569	83.31
500.786	89.31
501.003	79.31
501.22	85.31
501.437	94.31
501.654	106.31
501.871	123.31
502.088	111.31
502.305	76.31
502.522	87.31
502.739	97.31
502.956	104.31
503.172	86.31
503.389	97.31
503.606	118.31
503.823	98.31
504.04	97.31
504.256	100.31
504.473	79.31
504.69	87.31
504.907	90.31
505.123	96.31
505.34	82.31
505.557	95.31
505.773	95.31
505.99	99.31
506.207	104.31
506.423	87.31
506.64	103.31
506.856	86.31
507.073	86.31
507.289	89.31
507.506	93.31
507.722	115.31
507.939	124.31
508.155	94.31
508.372	99.31
508.588	94.31
508.805	104.31
509.021	102.31
509.238	100.31
509.454	110.31
509.67	112.31
509.887	109.31
510.103	164.31
510.319	266.31
510.536	1032.31
510.752	3574.31
510.968	967.31
511.184	187.31
511.401	130.31
511.617	102.31
511.833	97.31
512.049	98.31
512.265	103.31
512.481	90.31
512.698	82.31
512.914	90.31
513.13	87.31
513.346	91.31
513.562	106.31
513.778	97.31
513.994	114.31
514.21	108.31
514.426	137.31
514.642	162.31
