Data from Circ_2018_H10_HRD10591_00042.txt Node
Date: Wed Jan 03 09:56:10 EST 2024
User: Yrep
Spectrometer: HR+D1059
Trigger mode: 1
Integration Time (sec): 1.000000E-1
Scans to average: 1
Electric dark correction enabled: true
Nonlinearity correction enabled: false
Boxcar width: 0
XAxis mode: Wavelengths
Number of Pixels in Spectrum: 2048
>>>>>Begin Spectral Data<<<<<
223.165	-22.06
223.4	-22.06
223.635	-22.06
223.869	-29.06
224.104	-5.06
224.338	-14.06
224.573	-11.06
224.808	-22.06
225.042	-19.06
225.277	-3.06
225.511	-8.06
225.746	5.94
225.98	16.94
226.215	8.94
226.449	12.94
226.683	31.94
226.918	25.94
227.152	30.94
227.387	46.94
227.621	42.94
227.856	33.94
228.09	48.94
228.324	44.94
228.559	52.94
228.793	167.94
229.027	441.94
229.262	534.94
229.496	616.94
229.73	796.94
229.964	818.94
230.199	569.94
230.433	489.94
230.667	489.94
230.901	468.94
231.136	458.94
231.37	459.94
231.604	466.94
231.838	452.94
232.072	450.94
232.306	475.94
232.541	471.94
232.775	455.94
233.009	451.94
233.243	483.94
233.477	478.94
233.711	480.94
233.945	513.94
234.179	531.94
234.413	516.94
234.647	513.94
234.881	516.94
235.115	535.94
235.349	548.94
235.583	579.94
235.817	616.94
236.051	631.94
236.285	615.94
236.519	619.94
236.753	692.94
236.987	930.94
237.221	1418.94
237.455	1524.94
237.689	904.94
237.922	766.94
238.156	722.94
238.39	680.94
238.624	674.94
238.858	667.94
239.091	665.94
239.325	677.94
239.559	705.94
239.793	711.94
240.027	782.94
240.26	931.94
240.494	981.94
240.728	966.94
240.961	947.94
241.195	831.94
241.429	798.94
241.662	786.94
241.896	781.94
242.13	765.94
242.363	780.94
242.597	800.94
242.83	838.94
243.064	844.94
243.298	818.94
243.531	822.94
243.765	846.94
243.998	835.94
244.232	837.94
244.465	928.94
244.699	900.94
244.932	902.94
245.166	899.94
245.399	936.94
245.633	908.94
245.866	910.94
246.099	914.94
246.333	965.94
246.566	988.94
246.8	995.94
247.033	1032.94
247.266	1063.94
247.5	1088.94
247.733	1166.94
247.966	1171.94
248.2	1142.94
248.433	1193.94
248.666	1218.94
248.899	1343.94
249.133	1484.94
249.366	1464.94
249.599	1381.94
249.832	1253.94
250.066	1283.94
250.299	1424.94
250.532	1587.94
250.765	1693.94
250.998	1799.94
251.231	1678.94
251.465	1543.94
251.698	1457.94
251.931	1372.94
252.164	1392.94
252.397	1439.94
252.63	1456.94
252.863	1586.94
253.096	1684.94
253.329	1734.94
253.562	1648.94
253.795	1549.94
254.028	1599.94
254.261	1668.94
254.494	1834.94
254.727	2182.94
254.96	2279.94
255.193	1976.94
255.426	1787.94
255.659	1776.94
255.892	1918.94
256.124	2087.94
256.357	1922.94
256.59	1754.94
256.823	1624.94
257.056	1575.94
257.289	1587.94
257.521	1632.94
257.754	1590.94
257.987	1540.94
258.22	1537.94
258.452	1539.94
258.685	1541.94
258.918	1595.94
259.151	1621.94
259.383	1737.94
259.616	1700.94
259.849	1791.94
260.081	1938.94
260.314	2112.94
260.547	2033.94
260.779	1848.94
261.012	1810.94
261.244	1748.94
261.477	1716.94
261.71	1740.94
261.942	1847.94
262.175	1872.94
262.407	1754.94
262.64	1715.94
262.872	1710.94
263.105	1649.94
263.337	1689.94
263.57	1687.94
263.802	1724.94
264.035	1716.94
264.267	1723.94
264.499	1716.94
264.732	1720.94
264.964	1714.94
265.197	1714.94
265.429	1728.94
265.661	1745.94
265.894	1788.94
266.126	1808.94
266.358	1787.94
266.591	1776.94
266.823	1888.94
267.055	1885.94
267.287	1923.94
267.52	1835.94
267.752	1824.94
267.984	1912.94
268.216	1938.94
268.448	1947.94
268.681	2034.94
268.913	2190.94
269.145	2384.94
269.377	2357.94
269.609	2322.94
269.841	2277.94
270.073	2416.94
270.306	2642.94
270.538	2830.94
270.77	2704.94
271.002	2508.94
271.234	2503.94
271.466	2627.94
271.698	2734.94
271.93	2828.94
272.162	2822.94
272.394	2699.94
272.626	2548.94
272.858	2418.94
273.09	2371.94
273.322	2363.94
273.553	2313.94
273.785	2266.94
274.017	2243.94
274.249	2308.94
274.481	2323.94
274.713	2335.94
274.945	2364.94
275.176	2328.94
275.408	2300.94
275.64	2358.94
275.872	2326.94
276.104	2375.94
276.335	2387.94
276.567	2496.94
276.799	2683.94
277.031	2892.94
277.262	2998.94
277.494	2829.94
277.726	2644.94
277.957	2549.94
278.189	2463.94
278.421	2447.94
278.652	2433.94
278.884	2440.94
279.115	2438.94
279.347	2433.94
279.579	2414.94
279.81	2440.94
280.042	2455.94
280.273	2507.94
280.505	2512.94
280.736	2475.94
280.968	2501.94
281.199	2468.94
281.431	2490.94
281.662	2524.94
281.894	2555.94
282.125	2578.94
282.356	2779.94
282.588	2940.94
282.819	2818.94
283.051	2585.94
283.282	2591.94
283.513	2593.94
283.745	2665.94
283.976	2653.94
284.207	2696.94
284.439	2713.94
284.67	2683.94
284.901	2673.94
285.132	2678.94
285.364	2662.94
285.595	2686.94
285.826	2704.94
286.057	2716.94
286.288	2714.94
286.52	2742.94
286.751	2698.94
286.982	2784.94
287.213	2798.94
287.444	2821.94
287.675	2880.94
287.906	2946.94
288.138	3020.94
288.369	3002.94
288.6	2987.94
288.831	2930.94
289.062	2901.94
289.293	2899.94
289.524	2921.94
289.755	2878.94
289.986	2848.94
290.217	2881.94
290.448	2865.94
290.679	2870.94
290.91	2849.94
291.141	2853.94
291.371	2886.94
291.602	2923.94
291.833	2876.94
292.064	2836.94
292.295	2898.94
292.526	2933.94
292.757	2908.94
292.987	2892.94
293.218	2913.94
293.449	2905.94
293.68	2939.94
293.91	2939.94
294.141	2903.94
294.372	2899.94
294.603	3020.94
294.833	2919.94
295.064	2933.94
295.295	2963.94
295.525	2910.94
295.756	3016.94
295.987	3107.94
296.217	3298.94
296.448	3241.94
296.679	3016.94
296.909	3033.94
297.14	3042.94
297.37	3084.94
297.601	3111.94
297.831	3111.94
298.062	3113.94
298.292	3173.94
298.523	3241.94
298.753	3194.94
298.984	3161.94
299.214	3196.94
299.445	3188.94
299.675	3153.94
299.905	3215.94
300.136	3224.94
300.366	3176.94
300.597	3213.94
300.827	3369.94
301.057	3466.94
301.288	3440.94
301.518	3402.94
301.748	3454.94
301.979	3490.94
302.209	3521.94
302.439	3490.94
302.669	3433.94
302.9	3322.94
303.13	3430.94
303.36	3450.94
303.59	3433.94
303.82	3530.94
304.051	3458.94
304.281	3420.94
304.511	3342.94
304.741	3365.94
304.971	3356.94
305.201	3348.94
305.431	3320.94
305.661	3332.94
305.891	3348.94
306.121	3372.94
306.352	3433.94
306.582	3372.94
306.812	3280.94
307.042	3342.94
307.272	3366.94
307.502	3371.94
307.731	3393.94
307.961	3421.94
308.191	3372.94
308.421	3333.94
308.651	3407.94
308.881	3414.94
309.111	3409.94
309.341	3440.94
309.571	3549.94
309.8	3626.94
310.03	3713.94
310.26	3718.94
310.49	3696.94
310.72	3878.94
310.949	3907.94
311.179	3871.94
311.409	3767.94
311.639	3830.94
311.868	3808.94
312.098	3835.94
312.328	3962.94
312.557	4057.94
312.787	4214.94
313.017	4039.94
313.246	3917.94
313.476	3801.94
313.706	3898.94
313.935	3999.94
314.165	4130.94
314.394	4109.94
314.624	4024.94
314.853	3982.94
315.083	3934.94
315.312	3861.94
315.542	3861.94
315.771	3762.94
316.001	3792.94
316.23	3755.94
316.46	3778.94
316.689	3815.94
316.919	3876.94
317.148	3911.94
317.377	3824.94
317.607	3835.94
317.836	3855.94
318.065	3775.94
318.295	3762.94
318.524	3746.94
318.753	3751.94
318.983	3801.94
319.212	3793.94
319.441	3847.94
319.67	3895.94
319.9	3765.94
320.129	3776.94
320.358	3832.94
320.587	3860.94
320.816	3897.94
321.046	4026.94
321.275	3957.94
321.504	3951.94
321.733	3992.94
321.962	4043.94
322.191	4204.94
322.42	4298.94
322.649	4362.94
322.878	4435.94
323.108	4577.94
323.337	4780.94
323.566	5005.94
323.795	5351.94
324.024	6026.94
324.253	8135.94
324.482	12347.94
324.71	15596.94
324.939	15596.94
325.168	13867.94
325.397	7079.94
325.626	5521.94
325.855	5190.94
326.084	5022.94
326.313	5087.94
326.542	5186.94
326.77	6079.94
326.999	7820.94
327.228	11557.94
327.457	15238.94
327.686	14560.94
327.914	8105.94
328.143	6586.94
328.372	6137.94
328.6	5799.94
328.829	5693.94
329.058	5894.94
329.287	5895.94
329.515	5424.94
329.744	5211.94
329.972	5492.94
330.201	5945.94
330.43	6377.94
330.658	6324.94
330.887	6467.94
331.115	5858.94
331.344	5224.94
331.572	5121.94
331.801	5232.94
332.03	5267.94
332.258	5165.94
332.486	5185.94
332.715	5200.94
332.943	5464.94
333.172	5534.94
333.4	5801.94
333.629	5982.94
333.857	6204.94
334.085	6398.94
334.314	6700.94
334.542	7191.94
334.771	6962.94
334.999	5991.94
335.227	5618.94
335.455	5454.94
335.684	5223.94
335.912	5248.94
336.14	5143.94
336.369	5093.94
336.597	5184.94
336.825	5178.94
337.053	4946.94
337.281	4893.94
337.51	4915.94
337.738	4858.94
337.966	4859.94
338.194	4849.94
338.422	4818.94
338.65	4686.94
338.878	4758.94
339.106	4688.94
339.334	4632.94
339.562	4600.94
339.79	4532.94
340.018	4564.94
340.246	4525.94
340.474	4564.94
340.702	4524.94
340.93	4598.94
341.158	4513.94
341.386	4535.94
341.614	4543.94
341.842	4450.94
342.07	4415.94
342.298	4421.94
342.526	4409.94
342.754	4400.94
342.981	4414.94
343.209	4528.94
343.437	4779.94
343.665	5070.94
343.893	5264.94
344.12	5300.94
344.348	5113.94
344.576	4817.94
344.804	4835.94
345.031	4778.94
345.259	4805.94
345.487	4613.94
345.714	4549.94
345.942	4382.94
346.17	4381.94
346.397	4327.94
346.625	4362.94
346.853	4318.94
347.08	4330.94
347.308	4401.94
347.535	4512.94
347.763	4482.94
347.99	4437.94
348.218	4481.94
348.445	4500.94
348.673	4418.94
348.9	4321.94
349.128	4243.94
349.355	4191.94
349.583	4146.94
349.81	4178.94
350.037	4118.94
350.265	4113.94
350.492	4148.94
350.72	4167.94
350.947	4206.94
351.174	4332.94
351.402	4461.94
351.629	4309.94
351.856	4342.94
352.083	4397.94
352.311	4409.94
352.538	4465.94
352.765	4383.94
352.992	4285.94
353.22	4235.94
353.447	4228.94
353.674	4137.94
353.901	4058.94
354.128	4071.94
354.355	4063.94
354.583	4065.94
354.81	4126.94
355.037	4057.94
355.264	4019.94
355.491	3983.94
355.718	4094.94
355.945	4049.94
356.172	4066.94
356.399	4030.94
356.626	4067.94
356.853	4048.94
357.08	3979.94
357.307	4026.94
357.534	4015.94
357.761	4135.94
357.988	4051.94
358.215	4065.94
358.441	4069.94
358.668	4143.94
358.895	4225.94
359.122	4180.94
359.349	4337.94
359.576	4414.94
359.802	4726.94
360.029	4896.94
360.256	4848.94
360.483	4647.94
360.709	4401.94
360.936	4277.94
361.163	4348.94
361.39	4342.94
361.616	4411.94
361.843	4342.94
362.07	4368.94
362.296	4383.94
362.523	4310.94
362.749	4362.94
362.976	4244.94
363.203	4169.94
363.429	4151.94
363.656	4251.94
363.882	4191.94
364.109	4132.94
364.335	4150.94
364.562	4144.94
364.788	4220.94
365.015	4209.94
365.241	4135.94
365.468	4286.94
365.694	4274.94
365.92	4209.94
366.147	4165.94
366.373	4188.94
366.599	4157.94
366.826	4164.94
367.052	4170.94
367.278	4214.94
367.505	4151.94
367.731	4212.94
367.957	4162.94
368.184	4243.94
368.41	4264.94
368.636	4408.94
368.862	4360.94
369.089	4283.94
369.315	4221.94
369.541	4180.94
369.767	4254.94
369.993	4286.94
370.219	4327.94
370.445	4355.94
370.672	4376.94
370.898	4321.94
371.124	4389.94
371.35	4486.94
371.576	4455.94
371.802	4388.94
372.028	4340.94
372.254	4425.94
372.48	4413.94
372.706	4556.94
372.932	4567.94
373.158	4482.94
373.384	4441.94
373.61	4494.94
373.835	4439.94
374.061	4480.94
374.287	4524.94
374.513	4628.94
374.739	4780.94
374.965	4862.94
375.191	4843.94
375.416	4706.94
375.642	4671.94
375.868	4594.94
376.094	4550.94
376.319	4469.94
376.545	4453.94
376.771	4492.94
376.997	4448.94
377.222	4421.94
377.448	4426.94
377.674	4413.94
377.899	4329.94
378.125	4337.94
378.35	4313.94
378.576	4380.94
378.802	4384.94
379.027	4359.94
379.253	4427.94
379.478	4293.94
379.704	4323.94
379.929	4379.94
380.155	4436.94
380.38	4363.94
380.606	4429.94
380.831	4369.94
381.057	4455.94
381.282	4409.94
381.507	4441.94
381.733	4512.94
381.958	4505.94
382.184	4559.94
382.409	4617.94
382.634	4662.94
382.86	4638.94
383.085	4698.94
383.31	4768.94
383.535	4844.94
383.761	4923.94
383.986	4913.94
384.211	5047.94
384.436	5122.94
384.662	5172.94
384.887	5288.94
385.112	5317.94
385.337	5320.94
385.562	5288.94
385.787	5378.94
386.013	5466.94
386.238	5479.94
386.463	5454.94
386.688	5367.94
386.913	5337.94
387.138	5216.94
387.363	5254.94
387.588	5174.94
387.813	5227.94
388.038	5276.94
388.263	5251.94
388.488	5376.94
388.713	5264.94
388.938	5233.94
389.163	5165.94
389.387	5251.94
389.612	5167.94
389.837	5238.94
390.062	5142.94
390.287	5220.94
390.512	5180.94
390.736	5245.94
390.961	5360.94
391.186	5459.94
391.411	5551.94
391.636	5661.94
391.86	5917.94
392.085	5944.94
392.31	5831.94
392.534	5715.94
392.759	5632.94
392.984	5525.94
393.208	5463.94
393.433	5461.94
393.658	5476.94
393.882	5444.94
394.107	5505.94
394.331	5572.94
394.556	5597.94
394.78	5619.94
395.005	5647.94
395.229	5636.94
395.454	5839.94
395.678	5966.94
395.903	5928.94
396.127	6001.94
396.352	5787.94
396.576	5646.94
396.801	5558.94
397.025	5631.94
397.249	5790.94
397.474	5911.94
397.698	5919.94
397.922	6085.94
398.147	6239.94
398.371	6276.94
398.595	6439.94
398.82	6764.94
399.044	7338.94
399.268	8069.94
399.492	9275.94
399.717	9905.94
399.941	9594.94
400.165	8932.94
400.389	8256.94
400.613	7472.94
400.837	6986.94
401.062	6788.94
401.286	6692.94
401.51	6658.94
401.734	6691.94
401.958	6830.94
402.182	6960.94
402.406	7168.94
402.63	7071.94
402.854	7237.94
403.078	7236.94
403.302	7352.94
403.526	7530.94
403.75	7653.94
403.974	7656.94
404.198	7628.94
404.422	7778.94
404.645	7637.94
404.869	7764.94
405.093	8025.94
405.317	8188.94
405.541	8222.94
405.765	7622.94
405.988	7588.94
406.212	7704.94
406.436	7963.94
406.66	7954.94
406.883	8048.94
407.107	8617.94
407.331	9141.94
407.555	9646.94
407.778	9308.94
408.002	8553.94
408.226	8066.94
408.449	7955.94
408.673	7841.94
408.896	7996.94
409.12	8056.94
409.344	7751.94
409.567	7334.94
409.791	7294.94
410.014	7191.94
410.238	7089.94
410.461	7211.94
410.685	7239.94
410.908	7265.94
411.132	7548.94
411.355	7550.94
411.578	7124.94
411.802	6960.94
412.025	7030.94
412.249	7251.94
412.472	7422.94
412.695	7590.94
412.919	7180.94
413.142	6912.94
413.365	6803.94
413.589	6718.94
413.812	6544.94
414.035	6485.94
414.258	6522.94
414.482	6620.94
414.705	6680.94
414.928	6552.94
415.151	6599.94
415.374	6528.94
415.597	6504.94
415.821	6396.94
416.044	6473.94
416.267	6396.94
416.49	6379.94
416.713	6385.94
416.936	6560.94
417.159	6389.94
417.382	6565.94
417.605	6631.94
417.828	6724.94
418.051	6820.94
418.274	6680.94
418.497	6557.94
418.72	6694.94
418.943	6708.94
419.166	7110.94
419.389	7474.94
419.611	7343.94
419.834	7162.94
420.057	7048.94
420.28	6982.94
420.503	6846.94
420.726	6775.94
420.948	6918.94
421.171	7353.94
421.394	7220.94
421.617	6711.94
421.839	6644.94
422.062	6808.94
422.285	6952.94
422.507	7562.94
422.73	8110.94
422.953	7524.94
423.175	7182.94
423.398	7244.94
423.621	7201.94
423.843	7455.94
424.066	7385.94
424.288	7384.94
424.511	7409.94
424.733	7938.94
424.956	8517.94
425.178	8010.94
425.401	8149.94
425.623	7968.94
425.846	6986.94
426.068	6898.94
426.291	6738.94
426.513	6769.94
426.735	6788.94
426.958	7354.94
427.18	8114.94
427.402	9313.94
427.625	9478.94
427.847	8218.94
428.069	7432.94
428.292	6762.94
428.514	6304.94
428.736	6209.94
428.958	6169.94
429.181	5941.94
429.403	5956.94
429.625	6173.94
429.847	6502.94
430.069	7004.94
430.292	6526.94
430.514	6030.94
430.736	5964.94
430.958	5911.94
431.18	5788.94
431.402	5841.94
431.624	5765.94
431.846	5844.94
432.068	5863.94
432.29	6020.94
432.512	5832.94
432.734	5967.94
432.956	5896.94
433.178	6001.94
433.4	5954.94
433.622	5859.94
433.844	5919.94
434.066	5955.94
434.287	6029.94
434.509	6288.94
434.731	6476.94
434.953	6633.94
435.175	6828.94
435.397	6902.94
435.618	6826.94
435.84	7126.94
436.062	8006.94
436.284	7882.94
436.505	6706.94
436.727	6470.94
436.949	6184.94
437.17	6018.94
437.392	5979.94
437.614	6159.94
437.835	6679.94
438.057	7649.94
438.278	8208.94
438.5	8181.94
438.721	8889.94
438.943	7815.94
439.165	6663.94
439.386	6333.94
439.608	6474.94
439.829	6656.94
440.05	6943.94
440.272	7379.94
440.493	6678.94
440.715	6384.94
440.936	6242.94
441.158	6372.94
441.379	6503.94
441.6	6809.94
441.822	7110.94
442.043	7544.94
442.264	8279.94
442.486	7977.94
442.707	7127.94
442.928	6968.94
443.149	7254.94
443.371	7484.94
443.592	8043.94
443.813	8967.94
444.034	8793.94
444.255	7619.94
444.476	7501.94
444.698	7758.94
444.919	7910.94
445.14	7600.94
445.361	7459.94
445.582	7791.94
445.803	8458.94
446.024	9047.94
446.245	8702.94
446.466	7720.94
446.687	6669.94
446.908	6290.94
447.129	5982.94
447.35	5890.94
447.571	5823.94
447.792	5751.94
448.013	5761.94
448.234	5973.94
448.455	6724.94
448.675	7954.94
448.896	8333.94
449.117	6862.94
449.338	7175.94
449.559	8440.94
449.779	8647.94
450	6674.94
450.221	5938.94
450.442	5684.94
450.662	5618.94
450.883	5740.94
451.104	5943.94
451.324	5690.94
451.545	5476.94
451.766	5383.94
451.986	5240.94
452.207	5182.94
452.428	5221.94
452.648	5219.94
452.869	5273.94
453.089	5319.94
453.31	5500.94
453.53	5210.94
453.751	5217.94
453.971	5260.94
454.192	5452.94
454.412	5179.94
454.633	5067.94
454.853	5026.94
455.073	5147.94
455.294	5526.94
455.514	6055.94
455.734	5582.94
455.955	4979.94
456.175	4816.94
456.395	4845.94
456.616	4738.94
456.836	4748.94
457.056	4702.94
457.276	4710.94
457.497	4860.94
457.717	4840.94
457.937	4886.94
458.157	5096.94
458.377	5117.94
458.598	5489.94
458.818	6375.94
459.038	7188.94
459.258	6962.94
459.478	6199.94
459.698	6037.94
459.918	6039.94
460.138	6307.94
460.358	6488.94
460.578	6507.94
460.798	6629.94
461.018	6613.94
461.238	6432.94
461.458	6373.94
461.678	6310.94
461.898	6537.94
462.118	6578.94
462.338	6901.94
462.558	7073.94
462.777	7358.94
462.997	7942.94
463.217	8384.94
463.437	8143.94
463.657	7587.94
463.876	7470.94
464.096	7386.94
464.316	7461.94
464.536	7424.94
464.755	7268.94
464.975	7144.94
465.195	7514.94
465.414	7584.94
465.634	6580.94
465.854	6092.94
466.073	5823.94
466.293	5636.94
466.512	5528.94
466.732	5408.94
466.951	5422.94
467.171	5410.94
467.391	5498.94
467.61	5552.94
467.829	5464.94
468.049	5475.94
468.268	5419.94
468.488	5253.94
468.707	5142.94
468.927	5187.94
469.146	5156.94
469.365	5309.94
469.585	5236.94
469.804	5402.94
470.023	5642.94
470.243	5660.94
470.462	5742.94
470.681	5971.94
470.901	5846.94
471.12	5564.94
471.339	5454.94
471.558	5447.94
471.777	5401.94
471.997	5310.94
472.216	5483.94
472.435	5960.94
472.654	5654.94
472.873	5275.94
473.092	5237.94
473.311	5173.94
473.53	5245.94
473.749	5318.94
473.968	5935.94
474.187	6908.94
474.406	6412.94
474.625	5513.94
474.844	5191.94
475.063	5139.94
475.282	5137.94
475.501	5199.94
475.72	5322.94
475.939	5282.94
476.158	5339.94
476.377	5319.94
476.596	5368.94
476.814	5547.94
477.033	5536.94
477.252	5601.94
477.471	5742.94
477.69	5721.94
477.908	5828.94
478.127	6111.94
478.346	6191.94
478.564	6270.94
478.783	6346.94
479.002	6506.94
479.22	6522.94
479.439	6645.94
479.658	6824.94
479.876	6828.94
480.095	7034.94
480.313	7459.94
480.532	7363.94
480.751	7249.94
480.969	7400.94
481.188	8262.94
481.406	8194.94
481.624	7102.94
481.843	6591.94
482.061	6472.94
482.28	6328.94
482.498	6142.94
482.717	6092.94
482.935	6100.94
483.153	6033.94
483.372	6063.94
483.59	6025.94
483.808	6058.94
484.027	6064.94
484.245	6140.94
484.463	6153.94
484.681	6240.94
484.9	6224.94
485.118	6330.94
485.336	6311.94
485.554	6300.94
485.772	6395.94
485.99	6403.94
486.209	6484.94
486.427	6511.94
486.645	6575.94
486.863	6686.94
487.081	6621.94
487.299	6583.94
487.517	6507.94
487.735	6465.94
487.953	6496.94
