Data from Circ_2018_H10_HRD10591_00037.txt Node
Date: Wed Jan 03 09:56:09 EST 2024
User: Yrep
Spectrometer: HR+D1059
Trigger mode: 1
Integration Time (sec): 1.000000E-1
Scans to average: 1
Electric dark correction enabled: true
Nonlinearity correction enabled: false
Boxcar width: 0
XAxis mode: Wavelengths
Number of Pixels in Spectrum: 2048
>>>>>Begin Spectral Data<<<<<
223.165	-31.75
223.4	-31.75
223.635	-31.75
223.869	-12.75
224.104	-14.75
224.338	-8.75
224.573	-4.75
224.808	-6.75
225.042	-20.75
225.277	-0.75
225.511	-9.75
225.746	-6.75
225.98	12.25
226.215	1.25
226.449	23.25
226.683	22.25
226.918	34.25
227.152	24.25
227.387	40.25
227.621	44.25
227.856	42.25
228.09	53.25
228.324	52.25
228.559	72.25
228.793	55.25
229.027	65.25
229.262	73.25
229.496	79.25
229.73	80.25
229.964	88.25
230.199	74.25
230.433	74.25
230.667	78.25
230.901	71.25
231.136	83.25
231.37	93.25
231.604	65.25
231.838	72.25
232.072	91.25
232.306	88.25
232.541	84.25
232.775	83.25
233.009	89.25
233.243	74.25
233.477	87.25
233.711	82.25
233.945	84.25
234.179	75.25
234.413	84.25
234.647	69.25
234.881	79.25
235.115	87.25
235.349	87.25
235.583	83.25
235.817	68.25
236.051	81.25
236.285	74.25
236.519	76.25
236.753	81.25
236.987	75.25
237.221	81.25
237.455	89.25
237.689	76.25
237.922	79.25
238.156	86.25
238.39	96.25
238.624	68.25
238.858	70.25
239.091	71.25
239.325	77.25
239.559	88.25
239.793	83.25
240.027	91.25
240.26	91.25
240.494	85.25
240.728	78.25
240.961	76.25
241.195	76.25
241.429	82.25
241.662	80.25
241.896	68.25
242.13	76.25
242.363	86.25
242.597	82.25
242.83	81.25
243.064	78.25
243.298	75.25
243.531	82.25
243.765	80.25
243.998	72.25
244.232	99.25
244.465	93.25
244.699	92.25
244.932	78.25
245.166	79.25
245.399	79.25
245.633	83.25
245.866	77.25
246.099	80.25
246.333	78.25
246.566	84.25
246.8	84.25
247.033	84.25
247.266	86.25
247.5	82.25
247.733	89.25
247.966	89.25
248.2	82.25
248.433	90.25
248.666	79.25
248.899	80.25
249.133	93.25
249.366	84.25
249.599	97.25
249.832	67.25
250.066	69.25
250.299	83.25
250.532	82.25
250.765	73.25
250.998	88.25
251.231	80.25
251.465	81.25
251.698	81.25
251.931	89.25
252.164	80.25
252.397	67.25
252.63	91.25
252.863	80.25
253.096	86.25
253.329	75.25
253.562	74.25
253.795	76.25
254.028	88.25
254.261	87.25
254.494	96.25
254.727	77.25
254.96	80.25
255.193	76.25
255.426	82.25
255.659	88.25
255.892	79.25
256.124	83.25
256.357	94.25
256.59	78.25
256.823	88.25
257.056	80.25
257.289	81.25
257.521	93.25
257.754	84.25
257.987	87.25
258.22	83.25
258.452	88.25
258.685	70.25
258.918	94.25
259.151	96.25
259.383	83.25
259.616	94.25
259.849	82.25
260.081	80.25
260.314	85.25
260.547	78.25
260.779	79.25
261.012	85.25
261.244	76.25
261.477	91.25
261.71	103.25
261.942	129.25
262.175	117.25
262.407	109.25
262.64	86.25
262.872	86.25
263.105	89.25
263.337	88.25
263.57	99.25
263.802	84.25
264.035	85.25
264.267	80.25
264.499	98.25
264.732	79.25
264.964	85.25
265.197	82.25
265.429	92.25
265.661	80.25
265.894	85.25
266.126	72.25
266.358	90.25
266.591	74.25
266.823	82.25
267.055	85.25
267.287	97.25
267.52	77.25
267.752	83.25
267.984	85.25
268.216	86.25
268.448	106.25
268.681	85.25
268.913	94.25
269.145	88.25
269.377	86.25
269.609	81.25
269.841	85.25
270.073	82.25
270.306	90.25
270.538	103.25
270.77	91.25
271.002	81.25
271.234	91.25
271.466	95.25
271.698	79.25
271.93	101.25
272.162	81.25
272.394	92.25
272.626	88.25
272.858	68.25
273.09	86.25
273.322	104.25
273.553	95.25
273.785	79.25
274.017	91.25
274.249	86.25
274.481	77.25
274.713	101.25
274.945	82.25
275.176	78.25
275.408	91.25
275.64	93.25
275.872	93.25
276.104	87.25
276.335	79.25
276.567	99.25
276.799	122.25
277.031	114.25
277.262	103.25
277.494	102.25
277.726	90.25
277.957	101.25
278.189	88.25
278.421	81.25
278.652	73.25
278.884	91.25
279.115	89.25
279.347	99.25
279.579	90.25
279.81	95.25
280.042	98.25
280.273	89.25
280.505	94.25
280.736	106.25
280.968	91.25
281.199	79.25
281.431	82.25
281.662	95.25
281.894	97.25
282.125	115.25
282.356	143.25
282.588	155.25
282.819	116.25
283.051	104.25
283.282	94.25
283.513	86.25
283.745	86.25
283.976	80.25
284.207	89.25
284.439	79.25
284.67	95.25
284.901	82.25
285.132	63.25
285.364	80.25
285.595	84.25
285.826	88.25
286.057	80.25
286.288	92.25
286.52	82.25
286.751	89.25
286.982	88.25
287.213	90.25
287.444	85.25
287.675	105.25
287.906	79.25
288.138	89.25
288.369	106.25
288.6	99.25
288.831	79.25
289.062	87.25
289.293	95.25
289.524	93.25
289.755	85.25
289.986	81.25
290.217	90.25
290.448	79.25
290.679	88.25
290.91	81.25
291.141	85.25
291.371	75.25
291.602	87.25
291.833	86.25
292.064	93.25
292.295	78.25
292.526	87.25
292.757	86.25
292.987	94.25
293.218	83.25
293.449	91.25
293.68	80.25
293.91	100.25
294.141	92.25
294.372	90.25
294.603	86.25
294.833	79.25
295.064	74.25
295.295	92.25
295.525	94.25
295.756	116.25
295.987	127.25
296.217	168.25
296.448	132.25
296.679	100.25
296.909	105.25
297.14	79.25
297.37	83.25
297.601	100.25
297.831	86.25
298.062	105.25
298.292	103.25
298.523	98.25
298.753	105.25
298.984	90.25
299.214	107.25
299.445	94.25
299.675	96.25
299.905	110.25
300.136	93.25
300.366	85.25
300.597	94.25
300.827	95.25
301.057	107.25
301.288	99.25
301.518	115.25
301.748	94.25
301.979	102.25
302.209	100.25
302.439	96.25
302.669	100.25
302.9	85.25
303.13	100.25
303.36	98.25
303.59	115.25
303.82	111.25
304.051	101.25
304.281	89.25
304.511	92.25
304.741	95.25
304.971	93.25
305.201	103.25
305.431	115.25
305.661	98.25
305.891	96.25
306.121	91.25
306.352	107.25
306.582	97.25
306.812	90.25
307.042	91.25
307.272	96.25
307.502	102.25
307.731	93.25
307.961	71.25
308.191	93.25
308.421	99.25
308.651	91.25
308.881	78.25
309.111	98.25
309.341	99.25
309.571	106.25
309.8	116.25
310.03	99.25
310.26	88.25
310.49	94.25
310.72	98.25
310.949	123.25
311.179	96.25
311.409	98.25
311.639	103.25
311.868	91.25
312.098	106.25
312.328	87.25
312.557	109.25
312.787	123.25
313.017	121.25
313.246	96.25
313.476	85.25
313.706	95.25
313.935	103.25
314.165	111.25
314.394	109.25
314.624	78.25
314.853	98.25
315.083	101.25
315.312	87.25
315.542	91.25
315.771	97.25
316.001	90.25
316.23	100.25
316.46	103.25
316.689	87.25
316.919	95.25
317.148	111.25
317.377	110.25
317.607	83.25
317.836	103.25
318.065	88.25
318.295	108.25
318.524	98.25
318.753	85.25
318.983	92.25
319.212	118.25
319.441	119.25
319.67	102.25
319.9	95.25
320.129	94.25
320.358	104.25
320.587	100.25
320.816	115.25
321.046	114.25
321.275	86.25
321.504	98.25
321.733	98.25
321.962	88.25
322.191	106.25
322.42	101.25
322.649	117.25
322.878	107.25
323.108	134.25
323.337	148.25
323.566	157.25
323.795	170.25
324.024	230.25
324.253	461.25
324.482	969.25
324.71	1908.25
324.939	2527.25
325.168	932.25
325.397	296.25
325.626	179.25
325.855	131.25
326.084	127.25
326.313	129.25
326.542	151.25
326.77	255.25
326.999	516.25
327.228	1011.25
327.457	1870.25
327.686	1477.25
327.914	415.25
328.143	224.25
328.372	184.25
328.6	152.25
328.829	145.25
329.058	137.25
329.287	124.25
329.515	127.25
329.744	110.25
329.972	111.25
330.201	140.25
330.43	135.25
330.658	156.25
330.887	162.25
331.115	134.25
331.344	112.25
331.572	108.25
331.801	108.25
332.03	110.25
332.258	94.25
332.486	95.25
332.715	105.25
332.943	104.25
333.172	91.25
333.4	103.25
333.629	110.25
333.857	126.25
334.085	124.25
334.314	128.25
334.542	161.25
334.771	142.25
334.999	111.25
335.227	103.25
335.455	90.25
335.684	96.25
335.912	95.25
336.14	88.25
336.369	98.25
336.597	102.25
336.825	106.25
337.053	103.25
337.281	104.25
337.51	104.25
337.738	94.25
337.966	103.25
338.194	107.25
338.422	87.25
338.65	107.25
338.878	102.25
339.106	81.25
339.334	96.25
339.562	106.25
339.79	106.25
340.018	88.25
340.246	92.25
340.474	97.25
340.702	94.25
340.93	92.25
341.158	102.25
341.386	116.25
341.614	117.25
341.842	103.25
342.07	107.25
342.298	75.25
342.526	84.25
342.754	93.25
342.981	84.25
343.209	89.25
343.437	120.25
343.665	97.25
343.893	103.25
344.12	103.25
344.348	84.25
344.576	95.25
344.804	89.25
345.031	104.25
345.259	112.25
345.487	91.25
345.714	105.25
345.942	93.25
346.17	91.25
346.397	102.25
346.625	86.25
346.853	91.25
347.08	106.25
347.308	99.25
347.535	109.25
347.763	109.25
347.99	96.25
348.218	105.25
348.445	124.25
348.673	93.25
348.9	98.25
349.128	109.25
349.355	93.25
349.583	83.25
349.81	87.25
350.037	93.25
350.265	83.25
350.492	102.25
350.72	106.25
350.947	118.25
351.174	128.25
351.402	121.25
351.629	94.25
351.856	107.25
352.083	111.25
352.311	122.25
352.538	126.25
352.765	125.25
352.992	133.25
353.22	120.25
353.447	109.25
353.674	94.25
353.901	105.25
354.128	98.25
354.355	105.25
354.583	99.25
354.81	102.25
355.037	98.25
355.264	97.25
355.491	99.25
355.718	108.25
355.945	98.25
356.172	85.25
356.399	93.25
356.626	86.25
356.853	106.25
357.08	102.25
357.307	85.25
357.534	95.25
357.761	94.25
357.988	104.25
358.215	105.25
358.441	92.25
358.668	98.25
358.895	85.25
359.122	85.25
359.349	87.25
359.576	102.25
359.802	119.25
360.029	130.25
360.256	108.25
360.483	107.25
360.709	93.25
360.936	94.25
361.163	95.25
361.39	97.25
361.616	96.25
361.843	93.25
362.07	106.25
362.296	108.25
362.523	98.25
362.749	100.25
362.976	103.25
363.203	106.25
363.429	92.25
363.656	92.25
363.882	80.25
364.109	86.25
364.335	101.25
364.562	109.25
364.788	99.25
365.015	99.25
365.241	114.25
365.468	120.25
365.694	117.25
365.92	111.25
366.147	88.25
366.373	87.25
366.599	77.25
366.826	78.25
367.052	108.25
367.278	101.25
367.505	103.25
367.731	105.25
367.957	77.25
368.184	107.25
368.41	105.25
368.636	128.25
368.862	133.25
369.089	109.25
369.315	102.25
369.541	103.25
369.767	92.25
369.993	98.25
370.219	107.25
370.445	89.25
370.672	102.25
370.898	80.25
371.124	76.25
371.35	93.25
371.576	83.25
371.802	90.25
372.028	82.25
372.254	84.25
372.48	84.25
372.706	95.25
372.932	89.25
373.158	95.25
373.384	93.25
373.61	86.25
373.835	87.25
374.061	92.25
374.287	96.25
374.513	99.25
374.739	101.25
374.965	97.25
375.191	72.25
375.416	86.25
375.642	81.25
375.868	92.25
376.094	94.25
376.319	92.25
376.545	91.25
376.771	86.25
376.997	84.25
377.222	93.25
377.448	103.25
377.674	99.25
377.899	100.25
378.125	84.25
378.35	98.25
378.576	92.25
378.802	86.25
379.027	85.25
379.253	91.25
379.478	101.25
379.704	83.25
379.929	96.25
380.155	86.25
380.38	94.25
380.606	92.25
380.831	107.25
381.057	103.25
381.282	97.25
381.507	96.25
381.733	88.25
381.958	95.25
382.184	101.25
382.409	107.25
382.634	112.25
382.86	90.25
383.085	99.25
383.31	103.25
383.535	84.25
383.761	107.25
383.986	117.25
384.211	116.25
384.436	119.25
384.662	102.25
384.887	102.25
385.112	103.25
385.337	102.25
385.562	106.25
385.787	111.25
386.013	120.25
386.238	131.25
386.463	125.25
386.688	107.25
386.913	109.25
387.138	103.25
387.363	105.25
387.588	105.25
387.813	102.25
388.038	111.25
388.263	109.25
388.488	117.25
388.713	114.25
388.938	93.25
389.163	92.25
389.387	111.25
389.612	99.25
389.837	93.25
390.062	111.25
390.287	90.25
390.512	98.25
390.736	87.25
390.961	79.25
391.186	95.25
391.411	98.25
391.636	96.25
391.86	90.25
392.085	85.25
392.31	72.25
392.534	79.25
392.759	99.25
392.984	100.25
393.208	100.25
393.433	93.25
393.658	99.25
393.882	88.25
394.107	88.25
394.331	88.25
394.556	76.25
394.78	98.25
395.005	93.25
395.229	82.25
395.454	94.25
395.678	88.25
395.903	96.25
396.127	83.25
396.352	81.25
396.576	100.25
396.801	106.25
397.025	99.25
397.249	91.25
397.474	101.25
397.698	87.25
397.922	74.25
398.147	85.25
398.371	103.25
398.595	95.25
398.82	97.25
399.044	85.25
399.268	98.25
399.492	89.25
399.717	103.25
399.941	93.25
400.165	86.25
400.389	81.25
400.613	80.25
400.837	90.25
401.062	83.25
401.286	101.25
401.51	118.25
401.734	90.25
401.958	102.25
402.182	147.25
402.406	206.25
402.63	143.25
402.854	98.25
403.078	93.25
403.302	85.25
403.526	90.25
403.75	87.25
403.974	85.25
404.198	87.25
404.422	101.25
404.645	94.25
404.869	81.25
405.093	107.25
405.317	107.25
405.541	110.25
405.765	102.25
405.988	134.25
406.212	224.25
406.436	293.25
406.66	170.25
406.883	106.25
407.107	107.25
407.331	89.25
407.555	108.25
407.778	122.25
408.002	91.25
408.226	101.25
408.449	100.25
408.673	90.25
408.896	92.25
409.12	107.25
409.344	85.25
409.567	91.25
409.791	91.25
410.014	95.25
410.238	92.25
410.461	98.25
410.685	95.25
410.908	104.25
411.132	110.25
411.355	96.25
411.578	95.25
411.802	99.25
412.025	83.25
412.249	97.25
412.472	100.25
412.695	83.25
412.919	104.25
413.142	90.25
413.365	94.25
413.589	102.25
413.812	93.25
414.035	98.25
414.258	90.25
414.482	88.25
414.705	106.25
414.928	100.25
415.151	85.25
415.374	89.25
415.597	88.25
415.821	91.25
416.044	91.25
416.267	89.25
416.49	106.25
416.713	86.25
416.936	80.25
417.159	85.25
417.382	97.25
417.605	90.25
417.828	100.25
418.051	101.25
418.274	95.25
418.497	110.25
418.72	95.25
418.943	98.25
419.166	95.25
419.389	90.25
419.611	86.25
419.834	92.25
420.057	103.25
420.28	95.25
420.503	86.25
420.726	103.25
420.948	90.25
421.171	79.25
421.394	92.25
421.617	102.25
421.839	105.25
422.062	91.25
422.285	86.25
422.507	105.25
422.73	105.25
422.953	85.25
423.175	91.25
423.398	93.25
423.621	85.25
423.843	101.25
424.066	104.25
424.288	87.25
424.511	95.25
424.733	112.25
424.956	106.25
425.178	100.25
425.401	99.25
425.623	107.25
425.846	101.25
426.068	91.25
426.291	91.25
426.513	107.25
426.735	92.25
426.958	98.25
427.18	107.25
427.402	140.25
427.625	213.25
427.847	165.25
428.069	125.25
428.292	86.25
428.514	78.25
428.736	92.25
428.958	88.25
429.181	93.25
429.403	95.25
429.625	82.25
429.847	101.25
430.069	107.25
430.292	112.25
430.514	90.25
430.736	82.25
430.958	75.25
431.18	90.25
431.402	87.25
431.624	84.25
431.846	78.25
432.068	88.25
432.29	89.25
432.512	98.25
432.734	100.25
432.956	95.25
433.178	86.25
433.4	103.25
433.622	99.25
433.844	96.25
434.066	99.25
434.287	95.25
434.509	103.25
434.731	84.25
434.953	84.25
435.175	83.25
435.397	90.25
435.618	101.25
435.84	115.25
436.062	119.25
436.284	121.25
436.505	102.25
436.727	106.25
436.949	94.25
437.17	82.25
437.392	85.25
437.614	95.25
437.835	141.25
438.057	126.25
438.278	123.25
438.5	110.25
438.721	111.25
438.943	101.25
439.165	88.25
439.386	103.25
439.608	100.25
439.829	107.25
440.05	130.25
440.272	160.25
440.493	110.25
440.715	98.25
440.936	102.25
441.158	105.25
441.379	83.25
441.6	108.25
441.822	104.25
442.043	89.25
442.264	114.25
442.486	116.25
442.707	96.25
442.928	119.25
443.149	139.25
443.371	143.25
443.592	130.25
443.813	118.25
444.034	118.25
444.255	105.25
444.476	92.25
444.698	106.25
444.919	90.25
445.14	131.25
445.361	124.25
445.582	130.25
445.803	143.25
446.024	141.25
446.245	144.25
446.466	135.25
446.687	85.25
446.908	79.25
447.129	107.25
447.35	97.25
447.571	109.25
447.792	103.25
448.013	100.25
448.234	118.25
448.455	114.25
448.675	114.25
448.896	112.25
449.117	99.25
449.338	110.25
449.559	141.25
449.779	153.25
450	101.25
450.221	90.25
450.442	97.25
450.662	102.25
450.883	119.25
451.104	138.25
451.324	120.25
451.545	96.25
451.766	84.25
451.986	75.25
452.207	102.25
452.428	117.25
452.648	107.25
452.869	127.25
453.089	109.25
453.31	138.25
453.53	100.25
453.751	106.25
453.971	122.25
454.192	119.25
454.412	112.25
454.633	105.25
454.853	79.25
455.073	93.25
455.294	104.25
455.514	119.25
455.734	97.25
455.955	95.25
456.175	88.25
456.395	89.25
456.616	101.25
456.836	92.25
457.056	85.25
457.276	84.25
457.497	74.25
457.717	94.25
457.937	95.25
458.157	98.25
458.377	101.25
458.598	131.25
458.818	184.25
459.038	203.25
459.258	128.25
459.478	109.25
459.698	85.25
459.918	91.25
460.138	72.25
460.358	85.25
460.578	92.25
460.798	97.25
461.018	88.25
461.238	84.25
461.458	92.25
461.678	84.25
461.898	102.25
462.118	98.25
462.338	83.25
462.558	100.25
462.777	83.25
462.997	70.25
463.217	84.25
463.437	88.25
463.657	90.25
463.876	87.25
464.096	97.25
464.316	99.25
464.536	94.25
464.755	88.25
464.975	118.25
465.195	201.25
465.414	201.25
465.634	114.25
465.854	97.25
466.073	101.25
466.293	85.25
466.512	75.25
466.732	99.25
466.951	87.25
467.171	103.25
467.391	99.25
467.61	124.25
467.829	113.25
468.049	118.25
468.268	104.25
468.488	99.25
468.707	94.25
468.927	91.25
469.146	80.25
469.365	94.25
469.585	104.25
469.804	98.25
470.023	103.25
470.243	90.25
470.462	109.25
470.681	119.25
470.901	100.25
471.12	88.25
471.339	100.25
471.558	94.25
471.777	96.25
471.997	104.25
472.216	119.25
472.435	153.25
472.654	100.25
472.873	109.25
473.092	93.25
473.311	84.25
473.53	92.25
473.749	80.25
473.968	83.25
474.187	106.25
474.406	103.25
474.625	106.25
474.844	103.25
475.063	83.25
475.282	85.25
475.501	90.25
475.72	94.25
475.939	94.25
476.158	87.25
476.377	91.25
476.596	87.25
476.814	101.25
477.033	103.25
477.252	83.25
477.471	96.25
477.69	87.25
477.908	87.25
478.127	96.25
478.346	82.25
478.564	102.25
478.783	101.25
479.002	100.25
479.22	111.25
479.439	99.25
479.658	114.25
479.876	110.25
480.095	101.25
480.313	99.25
480.532	104.25
480.751	99.25
480.969	129.25
481.188	218.25
481.406	180.25
481.624	106.25
481.843	86.25
482.061	87.25
482.28	92.25
482.498	106.25
482.717	99.25
482.935	94.25
483.153	90.25
483.372	87.25
483.59	92.25
483.808	96.25
484.027	99.25
484.245	97.25
484.463	104.25
484.681	107.25
484.9	102.25
485.118	102.25
485.336	107.25
485.554	100.25
485.772	108.25
485.99	104.25
486.209	115.25
486.427	106.25
486.645	109.25
486.863	120.25
487.081	105.25
487.299	103.25
487.517	92.25
487.735	98.25
487.953	88.25
488.171	94.25
488.389	90.25
488.607	110.25
488.825	103.25
489.043	94.25
489.261	90.25
489.479	91.25
489.696	110.25
489.914	94.25
490.132	95.25
490.35	106.25
490.568	101.25
490.786	94.25
491.003	93.25
491.221	80.25
491.439	92.25
491.657	90.25
491.874	87.25
492.092	93.25
492.31	90.25
492.527	90.25
492.745	103.25
492.963	92.25
493.18	86.25
493.398	95.25
493.615	85.25
493.833	88.25
494.05	93.25
494.268	90.25
494.485	88.25
494.703	99.25
494.92	84.25
495.138	116.25
495.355	100.25
495.573	105.25
495.79	92.25
496.008	102.25
496.225	87.25
496.442	95.25
496.66	96.25
496.877	84.25
497.094	98.25
497.312	98.25
497.529	89.25
497.746	79.25
497.963	80.25
498.181	95.25
498.398	93.25
498.615	124.25
498.832	106.25
499.049	95.25
499.267	104.25
499.484	99.25
499.701	87.25
499.918	109.25
500.135	99.25
500.352	85.25
500.569	84.25
500.786	81.25
501.003	100.25
501.22	94.25
501.437	106.25
501.654	100.25
501.871	119.25
502.088	108.25
502.305	107.25
502.522	103.25
502.739	95.25
502.956	101.25
503.172	92.25
503.389	107.25
503.606	119.25
503.823	109.25
504.04	81.25
504.256	95.25
504.473	100.25
504.69	99.25
504.907	112.25
505.123	88.25
505.34	94.25
505.557	88.25
505.773	95.25
505.99	87.25
506.207	99.25
506.423	92.25
506.64	97.25
506.856	95.25
507.073	98.25
507.289	111.25
507.506	103.25
507.722	119.25
507.939	117.25
508.155	108.25
508.372	98.25
508.588	108.25
508.805	98.25
509.021	104.25
509.238	118.25
509.454	99.25
509.67	118.25
509.887	118.25
510.103	160.25
510.319	249.25
510.536	1010.25
510.752	3339.25
510.968	926.25
511.184	194.25
511.401	123.25
511.617	109.25
511.833	104.25
512.049	106.25
512.265	97.25
512.481	91.25
512.698	92.25
512.914	92.25
513.13	90.25
