Data from Circ_2018_H10_HRD10591_00055.txt Node
Date: Wed Jan 03 09:56:13 EST 2024
User: Yrep
Spectrometer: HR+D1059
Trigger mode: 1
Integration Time (sec): 1.000000E-1
Scans to average: 1
Electric dark correction enabled: true
Nonlinearity correction enabled: false
Boxcar width: 0
XAxis mode: Wavelengths
Number of Pixels in Spectrum: 2048
>>>>>Begin Spectral Data<<<<<
223.165	-13.31
223.4	-13.31
223.635	-13.31
223.869	-16.31
224.104	-15.31
224.338	-13.31
224.573	-16.31
224.808	-11.31
225.042	-0.31
225.277	-12.31
225.511	-1.31
225.746	-0.31
225.98	6.69
226.215	4.69
226.449	7.69
226.683	22.69
226.918	25.69
227.152	32.69
227.387	34.69
227.621	46.69
227.856	49.69
228.09	49.69
228.324	50.69
228.559	65.69
228.793	62.69
229.027	70.69
229.262	56.69
229.496	96.69
229.73	94.69
229.964	92.69
230.199	67.69
230.433	79.69
230.667	84.69
230.901	70.69
231.136	84.69
231.37	82.69
231.604	80.69
231.838	75.69
232.072	79.69
232.306	73.69
232.541	67.69
232.775	82.69
233.009	87.69
233.243	76.69
233.477	85.69
233.711	96.69
233.945	88.69
234.179	88.69
234.413	80.69
234.647	77.69
234.881	80.69
235.115	82.69
235.349	91.69
235.583	78.69
235.817	89.69
236.051	64.69
236.285	87.69
236.519	77.69
236.753	71.69
236.987	90.69
237.221	77.69
237.455	87.69
237.689	77.69
237.922	67.69
238.156	73.69
238.39	62.69
238.624	70.69
238.858	57.69
239.091	81.69
239.325	84.69
239.559	83.69
239.793	74.69
240.027	88.69
240.26	71.69
240.494	66.69
240.728	66.69
240.961	70.69
241.195	66.69
241.429	83.69
241.662	78.69
241.896	79.69
242.13	86.69
242.363	80.69
242.597	78.69
242.83	83.69
243.064	75.69
243.298	71.69
243.531	66.69
243.765	66.69
243.998	67.69
244.232	88.69
244.465	85.69
244.699	68.69
244.932	80.69
245.166	88.69
245.399	62.69
245.633	80.69
245.866	74.69
246.099	73.69
246.333	80.69
246.566	77.69
246.8	89.69
247.033	80.69
247.266	81.69
247.5	75.69
247.733	87.69
247.966	99.69
248.2	83.69
248.433	68.69
248.666	89.69
248.899	74.69
249.133	82.69
249.366	107.69
249.599	98.69
249.832	90.69
250.066	71.69
250.299	77.69
250.532	75.69
250.765	87.69
250.998	74.69
251.231	60.69
251.465	85.69
251.698	88.69
251.931	82.69
252.164	76.69
252.397	70.69
252.63	84.69
252.863	91.69
253.096	83.69
253.329	86.69
253.562	69.69
253.795	89.69
254.028	78.69
254.261	76.69
254.494	82.69
254.727	83.69
254.96	80.69
255.193	79.69
255.426	74.69
255.659	81.69
255.892	84.69
256.124	83.69
256.357	84.69
256.59	76.69
256.823	81.69
257.056	80.69
257.289	82.69
257.521	76.69
257.754	75.69
257.987	82.69
258.22	103.69
258.452	76.69
258.685	87.69
258.918	74.69
259.151	64.69
259.383	89.69
259.616	68.69
259.849	88.69
260.081	94.69
260.314	77.69
260.547	86.69
260.779	86.69
261.012	87.69
261.244	88.69
261.477	94.69
261.71	98.69
261.942	137.69
262.175	136.69
262.407	110.69
262.64	99.69
262.872	87.69
263.105	93.69
263.337	95.69
263.57	103.69
263.802	98.69
264.035	87.69
264.267	80.69
264.499	92.69
264.732	78.69
264.964	83.69
265.197	79.69
265.429	85.69
265.661	81.69
265.894	88.69
266.126	65.69
266.358	74.69
266.591	84.69
266.823	76.69
267.055	80.69
267.287	86.69
267.52	83.69
267.752	87.69
267.984	81.69
268.216	72.69
268.448	87.69
268.681	71.69
268.913	80.69
269.145	91.69
269.377	77.69
269.609	82.69
269.841	97.69
270.073	89.69
270.306	92.69
270.538	88.69
270.77	73.69
271.002	87.69
271.234	80.69
271.466	80.69
271.698	72.69
271.93	90.69
272.162	82.69
272.394	90.69
272.626	92.69
272.858	81.69
273.09	89.69
273.322	72.69
273.553	86.69
273.785	87.69
274.017	99.69
274.249	82.69
274.481	98.69
274.713	73.69
274.945	95.69
275.176	73.69
275.408	74.69
275.64	92.69
275.872	89.69
276.104	75.69
276.335	100.69
276.567	132.69
276.799	149.69
277.031	126.69
277.262	101.69
277.494	88.69
277.726	87.69
277.957	89.69
278.189	75.69
278.421	85.69
278.652	101.69
278.884	97.69
279.115	75.69
279.347	79.69
279.579	95.69
279.81	101.69
280.042	90.69
280.273	100.69
280.505	87.69
280.736	84.69
280.968	91.69
281.199	92.69
281.431	87.69
281.662	80.69
281.894	94.69
282.125	91.69
282.356	134.69
282.588	183.69
282.819	131.69
283.051	105.69
283.282	81.69
283.513	77.69
283.745	90.69
283.976	74.69
284.207	85.69
284.439	80.69
284.67	70.69
284.901	81.69
285.132	90.69
285.364	79.69
285.595	82.69
285.826	80.69
286.057	95.69
286.288	82.69
286.52	74.69
286.751	80.69
286.982	91.69
287.213	94.69
287.444	87.69
287.675	84.69
287.906	100.69
288.138	93.69
288.369	101.69
288.6	89.69
288.831	79.69
289.062	88.69
289.293	82.69
289.524	79.69
289.755	78.69
289.986	89.69
290.217	84.69
290.448	81.69
290.679	76.69
290.91	80.69
291.141	95.69
291.371	93.69
291.602	88.69
291.833	89.69
292.064	82.69
292.295	88.69
292.526	85.69
292.757	81.69
292.987	80.69
293.218	86.69
293.449	96.69
293.68	83.69
293.91	71.69
294.141	86.69
294.372	93.69
294.603	100.69
294.833	73.69
295.064	94.69
295.295	88.69
295.525	95.69
295.756	110.69
295.987	151.69
296.217	175.69
296.448	156.69
296.679	95.69
296.909	87.69
297.14	89.69
297.37	89.69
297.601	91.69
297.831	89.69
298.062	95.69
298.292	81.69
298.523	101.69
298.753	86.69
298.984	89.69
299.214	93.69
299.445	93.69
299.675	98.69
299.905	104.69
300.136	82.69
300.366	100.69
300.597	89.69
300.827	100.69
301.057	99.69
301.288	118.69
301.518	97.69
301.748	92.69
301.979	110.69
302.209	82.69
302.439	98.69
302.669	76.69
302.9	98.69
303.13	76.69
303.36	113.69
303.59	118.69
303.82	127.69
304.051	99.69
304.281	95.69
304.511	87.69
304.741	92.69
304.971	85.69
305.201	89.69
305.431	85.69
305.661	86.69
305.891	103.69
306.121	101.69
306.352	110.69
306.582	123.69
306.812	105.69
307.042	94.69
307.272	97.69
307.502	109.69
307.731	94.69
307.961	102.69
308.191	101.69
308.421	99.69
308.651	91.69
308.881	97.69
309.111	110.69
309.341	114.69
309.571	114.69
309.8	104.69
310.03	115.69
310.26	86.69
310.49	120.69
310.72	115.69
310.949	121.69
311.179	128.69
311.409	109.69
311.639	83.69
311.868	107.69
312.098	106.69
312.328	94.69
312.557	115.69
312.787	134.69
313.017	112.69
313.246	104.69
313.476	110.69
313.706	97.69
313.935	103.69
314.165	119.69
314.394	115.69
314.624	102.69
314.853	98.69
315.083	103.69
315.312	102.69
315.542	94.69
315.771	104.69
316.001	86.69
316.23	90.69
316.46	90.69
316.689	87.69
316.919	86.69
317.148	108.69
317.377	107.69
317.607	114.69
317.836	103.69
318.065	88.69
318.295	89.69
318.524	97.69
318.753	87.69
318.983	111.69
319.212	129.69
319.441	131.69
319.67	121.69
319.9	93.69
320.129	81.69
320.358	78.69
320.587	100.69
320.816	110.69
321.046	101.69
321.275	92.69
321.504	98.69
321.733	101.69
321.962	117.69
322.191	92.69
322.42	110.69
322.649	115.69
322.878	113.69
323.108	138.69
323.337	166.69
323.566	178.69
323.795	203.69
324.024	286.69
324.253	591.69
324.482	1302.69
324.71	2747.69
324.939	3638.69
325.168	1277.69
325.397	349.69
325.626	196.69
325.855	162.69
326.084	140.69
326.313	166.69
326.542	198.69
326.77	332.69
326.999	663.69
327.228	1391.69
327.457	2586.69
327.686	2019.69
327.914	532.69
328.143	275.69
328.372	242.69
328.6	162.69
328.829	142.69
329.058	187.69
329.287	196.69
329.515	123.69
329.744	125.69
329.972	124.69
330.201	162.69
330.43	214.69
330.658	201.69
330.887	201.69
331.115	180.69
331.344	110.69
331.572	112.69
331.801	115.69
332.03	118.69
332.258	103.69
332.486	95.69
332.715	92.69
332.943	99.69
333.172	99.69
333.4	105.69
333.629	119.69
333.857	135.69
334.085	143.69
334.314	176.69
334.542	215.69
334.771	227.69
334.999	150.69
335.227	120.69
335.455	94.69
335.684	97.69
335.912	99.69
336.14	113.69
336.369	108.69
336.597	111.69
336.825	106.69
337.053	97.69
337.281	98.69
337.51	87.69
337.738	113.69
337.966	107.69
338.194	98.69
338.422	100.69
338.65	103.69
338.878	99.69
339.106	94.69
339.334	80.69
339.562	75.69
339.79	86.69
340.018	83.69
340.246	101.69
340.474	91.69
340.702	100.69
340.93	98.69
341.158	96.69
341.386	111.69
341.614	114.69
341.842	113.69
342.07	98.69
342.298	92.69
342.526	85.69
342.754	98.69
342.981	93.69
343.209	88.69
343.437	94.69
343.665	94.69
343.893	99.69
344.12	73.69
344.348	99.69
344.576	100.69
344.804	100.69
345.031	103.69
345.259	109.69
345.487	99.69
345.714	89.69
345.942	96.69
346.17	88.69
346.397	89.69
346.625	98.69
346.853	95.69
347.08	97.69
347.308	99.69
347.535	100.69
347.763	119.69
347.99	96.69
348.218	102.69
348.445	119.69
348.673	110.69
348.9	117.69
349.128	100.69
349.355	80.69
349.583	76.69
349.81	103.69
350.037	106.69
350.265	95.69
350.492	105.69
350.72	95.69
350.947	112.69
351.174	111.69
351.402	124.69
351.629	119.69
351.856	118.69
352.083	119.69
352.311	115.69
352.538	123.69
352.765	123.69
352.992	131.69
353.22	136.69
353.447	129.69
353.674	113.69
353.901	95.69
354.128	98.69
354.355	97.69
354.583	107.69
354.81	99.69
355.037	106.69
355.264	85.69
355.491	95.69
355.718	90.69
355.945	86.69
356.172	96.69
356.399	100.69
356.626	96.69
356.853	103.69
357.08	98.69
357.307	102.69
357.534	81.69
357.761	85.69
357.988	94.69
358.215	85.69
358.441	96.69
358.668	96.69
358.895	95.69
359.122	107.69
359.349	85.69
359.576	97.69
359.802	127.69
360.029	138.69
360.256	134.69
360.483	121.69
360.709	97.69
360.936	93.69
361.163	80.69
361.39	96.69
361.616	113.69
361.843	102.69
362.07	105.69
362.296	113.69
362.523	103.69
362.749	104.69
362.976	104.69
363.203	101.69
363.429	91.69
363.656	84.69
363.882	87.69
364.109	83.69
364.335	89.69
364.562	83.69
364.788	85.69
365.015	102.69
365.241	117.69
365.468	130.69
365.694	114.69
365.92	94.69
366.147	97.69
366.373	91.69
366.599	88.69
366.826	89.69
367.052	88.69
367.278	91.69
367.505	90.69
367.731	107.69
367.957	99.69
368.184	103.69
368.41	103.69
368.636	136.69
368.862	130.69
369.089	118.69
369.315	73.69
369.541	108.69
369.767	91.69
369.993	94.69
370.219	107.69
370.445	90.69
370.672	90.69
370.898	76.69
371.124	94.69
371.35	87.69
371.576	87.69
371.802	86.69
372.028	79.69
372.254	78.69
372.48	88.69
372.706	84.69
372.932	86.69
373.158	88.69
373.384	81.69
373.61	86.69
373.835	101.69
374.061	90.69
374.287	101.69
374.513	89.69
374.739	86.69
374.965	80.69
375.191	86.69
375.416	99.69
375.642	89.69
375.868	85.69
376.094	80.69
376.319	96.69
376.545	83.69
376.771	87.69
376.997	77.69
377.222	82.69
377.448	97.69
377.674	95.69
377.899	88.69
378.125	83.69
378.35	102.69
378.576	82.69
378.802	79.69
379.027	82.69
379.253	90.69
379.478	102.69
379.704	77.69
379.929	93.69
380.155	101.69
380.38	94.69
380.606	82.69
380.831	94.69
381.057	102.69
381.282	99.69
381.507	97.69
381.733	85.69
381.958	96.69
382.184	95.69
382.409	99.69
382.634	115.69
382.86	100.69
383.085	98.69
383.31	99.69
383.535	107.69
383.761	106.69
383.986	98.69
384.211	86.69
384.436	99.69
384.662	88.69
384.887	93.69
385.112	107.69
385.337	97.69
385.562	109.69
385.787	114.69
386.013	108.69
386.238	121.69
386.463	101.69
386.688	109.69
386.913	104.69
387.138	93.69
387.363	89.69
387.588	85.69
387.813	97.69
388.038	100.69
388.263	113.69
388.488	102.69
388.713	90.69
388.938	91.69
389.163	80.69
389.387	103.69
389.612	90.69
389.837	93.69
390.062	86.69
390.287	89.69
390.512	87.69
390.736	95.69
390.961	91.69
391.186	85.69
391.411	87.69
391.636	96.69
391.86	86.69
392.085	88.69
392.31	66.69
392.534	91.69
392.759	76.69
392.984	78.69
393.208	78.69
393.433	92.69
393.658	78.69
393.882	82.69
394.107	77.69
394.331	81.69
394.556	68.69
394.78	87.69
395.005	82.69
395.229	87.69
395.454	89.69
395.678	92.69
395.903	96.69
396.127	92.69
396.352	83.69
396.576	79.69
396.801	80.69
397.025	96.69
397.249	87.69
397.474	85.69
397.698	83.69
397.922	83.69
398.147	99.69
398.371	82.69
398.595	97.69
398.82	87.69
399.044	85.69
399.268	83.69
399.492	88.69
399.717	78.69
399.941	101.69
400.165	94.69
400.389	92.69
400.613	89.69
400.837	94.69
401.062	88.69
401.286	82.69
401.51	98.69
401.734	91.69
401.958	131.69
402.182	167.69
402.406	237.69
402.63	174.69
402.854	101.69
403.078	92.69
403.302	99.69
403.526	87.69
403.75	87.69
403.974	83.69
404.198	104.69
404.422	86.69
404.645	86.69
404.869	93.69
405.093	107.69
405.317	110.69
405.541	110.69
405.765	111.69
405.988	144.69
406.212	262.69
406.436	383.69
406.66	227.69
406.883	121.69
407.107	103.69
407.331	99.69
407.555	101.69
407.778	102.69
408.002	85.69
408.226	82.69
408.449	87.69
408.673	75.69
408.896	89.69
409.12	92.69
409.344	90.69
409.567	87.69
409.791	85.69
410.014	89.69
410.238	89.69
410.461	91.69
410.685	93.69
410.908	99.69
411.132	102.69
411.355	98.69
411.578	96.69
411.802	81.69
412.025	95.69
412.249	99.69
412.472	108.69
412.695	95.69
412.919	87.69
413.142	85.69
413.365	80.69
413.589	74.69
413.812	88.69
414.035	96.69
414.258	86.69
414.482	86.69
414.705	87.69
414.928	96.69
415.151	84.69
415.374	115.69
415.597	87.69
415.821	102.69
416.044	99.69
416.267	83.69
416.49	80.69
416.713	84.69
416.936	89.69
417.159	96.69
417.382	95.69
417.605	110.69
417.828	111.69
418.051	100.69
418.274	88.69
418.497	80.69
418.72	88.69
418.943	92.69
419.166	84.69
419.389	91.69
419.611	95.69
419.834	80.69
420.057	98.69
420.28	82.69
420.503	66.69
420.726	73.69
420.948	83.69
421.171	88.69
421.394	108.69
421.617	99.69
421.839	89.69
422.062	87.69
422.285	89.69
422.507	110.69
422.73	126.69
422.953	97.69
423.175	90.69
423.398	90.69
423.621	87.69
423.843	78.69
424.066	76.69
424.288	90.69
424.511	93.69
424.733	100.69
424.956	130.69
425.178	128.69
425.401	107.69
425.623	122.69
425.846	88.69
426.068	83.69
426.291	90.69
426.513	94.69
426.735	88.69
426.958	106.69
427.18	113.69
427.402	186.69
427.625	262.69
427.847	195.69
428.069	138.69
428.292	103.69
428.514	103.69
428.736	80.69
428.958	85.69
429.181	97.69
429.403	87.69
429.625	87.69
429.847	90.69
430.069	116.69
430.292	96.69
430.514	91.69
430.736	91.69
430.958	92.69
431.18	82.69
431.402	89.69
431.624	84.69
431.846	88.69
432.068	83.69
432.29	88.69
432.512	72.69
432.734	89.69
432.956	98.69
433.178	97.69
433.4	103.69
433.622	91.69
433.844	93.69
434.066	100.69
434.287	81.69
434.509	99.69
434.731	98.69
434.953	96.69
435.175	88.69
435.397	77.69
435.618	102.69
435.84	112.69
436.062	157.69
436.284	121.69
436.505	114.69
436.727	116.69
436.949	100.69
437.17	93.69
437.392	101.69
437.614	98.69
437.835	136.69
438.057	152.69
438.278	126.69
438.5	117.69
438.721	154.69
438.943	107.69
439.165	97.69
439.386	102.69
439.608	92.69
439.829	109.69
440.05	144.69
440.272	190.69
440.493	115.69
440.715	96.69
440.936	106.69
441.158	88.69
441.379	92.69
441.6	99.69
441.822	96.69
442.043	95.69
442.264	117.69
442.486	115.69
442.707	107.69
442.928	130.69
443.149	168.69
443.371	184.69
443.592	112.69
443.813	122.69
444.034	131.69
444.255	80.69
444.476	90.69
444.698	98.69
444.919	99.69
445.14	134.69
445.361	130.69
445.582	137.69
445.803	182.69
446.024	169.69
446.245	190.69
446.466	133.69
446.687	89.69
446.908	86.69
447.129	100.69
447.35	91.69
447.571	94.69
447.792	97.69
448.013	112.69
448.234	147.69
448.455	119.69
448.675	128.69
448.896	152.69
449.117	103.69
449.338	107.69
449.559	157.69
449.779	167.69
450	104.69
450.221	91.69
450.442	91.69
450.662	104.69
450.883	137.69
451.104	128.69
451.324	104.69
451.545	90.69
451.766	90.69
451.986	87.69
452.207	94.69
452.428	98.69
452.648	116.69
452.869	140.69
453.089	148.69
453.31	152.69
453.53	117.69
453.751	94.69
453.971	116.69
454.192	155.69
454.412	98.69
454.633	79.69
454.853	84.69
455.073	91.69
455.294	97.69
455.514	106.69
455.734	94.69
455.955	84.69
456.175	72.69
456.395	88.69
456.616	81.69
456.836	97.69
457.056	91.69
457.276	65.69
457.497	77.69
457.717	97.69
457.937	101.69
458.157	87.69
458.377	115.69
458.598	147.69
458.818	230.69
459.038	255.69
459.258	158.69
459.478	111.69
459.698	88.69
459.918	83.69
460.138	86.69
460.358	86.69
460.578	93.69
460.798	99.69
461.018	89.69
461.238	89.69
461.458	84.69
461.678	89.69
461.898	95.69
462.118	91.69
462.338	73.69
462.558	89.69
462.777	102.69
462.997	77.69
463.217	84.69
463.437	91.69
463.657	87.69
463.876	92.69
464.096	88.69
464.316	95.69
464.536	95.69
464.755	99.69
464.975	134.69
465.195	255.69
465.414	241.69
465.634	130.69
465.854	93.69
466.073	74.69
466.293	80.69
466.512	84.69
466.732	99.69
466.951	87.69
467.171	107.69
467.391	105.69
467.61	123.69
467.829	116.69
468.049	116.69
468.268	139.69
468.488	84.69
468.707	99.69
468.927	92.69
469.146	80.69
469.365	73.69
469.585	80.69
469.804	102.69
470.023	107.69
470.243	90.69
470.462	112.69
470.681	148.69
470.901	96.69
471.12	76.69
471.339	75.69
471.558	85.69
471.777	90.69
471.997	116.69
472.216	167.69
472.435	261.69
472.654	118.69
472.873	89.69
473.092	75.69
473.311	95.69
473.53	86.69
473.749	92.69
473.968	104.69
474.187	119.69
474.406	113.69
474.625	86.69
474.844	91.69
475.063	87.69
475.282	83.69
475.501	94.69
475.72	96.69
475.939	88.69
476.158	90.69
476.377	75.69
476.596	89.69
476.814	103.69
477.033	87.69
477.252	95.69
477.471	95.69
477.69	81.69
477.908	92.69
478.127	78.69
478.346	86.69
478.564	87.69
478.783	106.69
479.002	110.69
479.22	94.69
479.439	110.69
479.658	119.69
479.876	130.69
480.095	96.69
480.313	91.69
480.532	80.69
480.751	102.69
480.969	154.69
481.188	386.69
481.406	279.69
481.624	126.69
481.843	81.69
482.061	79.69
482.28	81.69
482.498	92.69
482.717	87.69
482.935	67.69
483.153	94.69
483.372	82.69
483.59	89.69
483.808	90.69
484.027	106.69
484.245	103.69
484.463	87.69
484.681	102.69
484.9	96.69
485.118	103.69
485.336	92.69
485.554	84.69
485.772	86.69
485.99	88.69
486.209	97.69
486.427	99.69
486.645	126.69
486.863	123.69
487.081	103.69
487.299	100.69
487.517	98.69
487.735	96.69
487.953	94.69
488.171	111.69
488.389	106.69
488.607	102.69
488.825	80.69
489.043	91.69
489.261	90.69
489.479	94.69
489.696	82.69
489.914	81.69
490.132	82.69
490.35	97.69
490.568	91.69
490.786	83.69
491.003	82.69
491.221	72.69
491.439	85.69
491.657	112.69
491.874	96.69
492.092	99.69
492.31	84.69
492.527	90.69
492.745	97.69
492.963	93.69
493.18	87.69
493.398	98.69
493.615	90.69
493.833	101.69
494.05	119.69
494.268	85.69
494.485	89.69
494.703	80.69
494.92	96.69
495.138	91.69
495.355	94.69
495.573	103.69
495.79	99.69
496.008	77.69
496.225	83.69
496.442	89.69
496.66	98.69
496.877	94.69
497.094	91.69
497.312	86.69
497.529	80.69
497.746	76.69
497.963	91.69
498.181	87.69
498.398	107.69
498.615	122.69
498.832	112.69
499.049	74.69
499.267	84.69
499.484	97.69
499.701	102.69
499.918	89.69
500.135	91.69
500.352	90.69
500.569	90.69
500.786	92.69
501.003	102.69
501.22	78.69
501.437	92.69
501.654	96.69
501.871	129.69
502.088	94.69
502.305	108.69
502.522	93.69
502.739	106.69
502.956	93.69
503.172	84.69
503.389	126.69
503.606	114.69
503.823	112.69
504.04	106.69
504.256	78.69
504.473	93.69
504.69	96.69
504.907	83.69
505.123	92.69
505.34	86.69
505.557	100.69
505.773	100.69
505.99	92.69
506.207	101.69
506.423	99.69
506.64	84.69
506.856	83.69
507.073	100.69
507.289	96.69
507.506	119.69
507.722	134.69
507.939	139.69
508.155	111.69
508.372	102.69
508.588	98.69
508.805	102.69
509.021	90.69
509.238	106.69
509.454	104.69
509.67	104.69
509.887	114.69
510.103	173.69
510.319	303.69
510.536	1236.69
510.752	4301.69
510.968	1160.69
511.184	234.69
511.401	149.69
511.617	107.69
511.833	111.69
512.049	89.69
512.265	89.69
512.481	105.69
512.698	92.69
512.914	86.69
513.13	86.69
513.346	99.69
513.562	91.69
513.778	105.69
513.994	105.69
