Data from Circ_2018_H10_HRD10591_00046.txt Node
Date: Wed Jan 03 09:56:11 EST 2024
User: Yrep
Spectrometer: HR+D1059
Trigger mode: 1
Integration Time (sec): 1.000000E-1
Scans to average: 1
Electric dark correction enabled: true
Nonlinearity correction enabled: false
Boxcar width: 0
XAxis mode: Wavelengths
Number of Pixels in Spectrum: 2048
>>>>>Begin Spectral Data<<<<<
223.165	-28.62
223.4	-28.62
223.635	-28.62
223.869	-23.62
224.104	-31.62
224.338	-8.62
224.573	-14.62
224.808	-22.62
225.042	-7.62
225.277	-11.62
225.511	-4.62
225.746	6.38
225.98	14.38
226.215	17.38
226.449	26.38
226.683	25.38
226.918	32.38
227.152	31.38
227.387	31.38
227.621	34.38
227.856	39.38
228.09	36.38
228.324	51.38
228.559	60.38
228.793	57.38
229.027	68.38
229.262	67.38
229.496	66.38
229.73	82.38
229.964	84.38
230.199	81.38
230.433	77.38
230.667	74.38
230.901	98.38
231.136	92.38
231.37	73.38
231.604	75.38
231.838	80.38
232.072	74.38
232.306	86.38
232.541	93.38
232.775	82.38
233.009	92.38
233.243	95.38
233.477	74.38
233.711	85.38
233.945	86.38
234.179	92.38
234.413	71.38
234.647	79.38
234.881	88.38
235.115	81.38
235.349	72.38
235.583	70.38
235.817	73.38
236.051	81.38
236.285	73.38
236.519	80.38
236.753	78.38
236.987	90.38
237.221	92.38
237.455	94.38
237.689	79.38
237.922	87.38
238.156	79.38
238.39	79.38
238.624	71.38
238.858	77.38
239.091	91.38
239.325	79.38
239.559	89.38
239.793	73.38
240.027	66.38
240.26	78.38
240.494	83.38
240.728	74.38
240.961	78.38
241.195	73.38
241.429	84.38
241.662	71.38
241.896	74.38
242.13	64.38
242.363	82.38
242.597	79.38
242.83	74.38
243.064	79.38
243.298	74.38
243.531	70.38
243.765	81.38
243.998	88.38
244.232	86.38
244.465	74.38
244.699	84.38
244.932	73.38
245.166	67.38
245.399	76.38
245.633	82.38
245.866	81.38
246.099	83.38
246.333	83.38
246.566	68.38
246.8	86.38
247.033	85.38
247.266	91.38
247.5	87.38
247.733	77.38
247.966	90.38
248.2	81.38
248.433	79.38
248.666	67.38
248.899	82.38
249.133	88.38
249.366	95.38
249.599	91.38
249.832	88.38
250.066	91.38
250.299	91.38
250.532	81.38
250.765	75.38
250.998	86.38
251.231	96.38
251.465	83.38
251.698	59.38
251.931	69.38
252.164	92.38
252.397	75.38
252.63	96.38
252.863	74.38
253.096	77.38
253.329	83.38
253.562	77.38
253.795	77.38
254.028	82.38
254.261	74.38
254.494	68.38
254.727	84.38
254.96	93.38
255.193	78.38
255.426	79.38
255.659	101.38
255.892	84.38
256.124	82.38
256.357	79.38
256.59	87.38
256.823	93.38
257.056	86.38
257.289	84.38
257.521	78.38
257.754	80.38
257.987	71.38
258.22	79.38
258.452	79.38
258.685	82.38
258.918	82.38
259.151	77.38
259.383	90.38
259.616	77.38
259.849	79.38
260.081	79.38
260.314	83.38
260.547	90.38
260.779	86.38
261.012	84.38
261.244	86.38
261.477	83.38
261.71	88.38
261.942	129.38
262.175	131.38
262.407	93.38
262.64	87.38
262.872	81.38
263.105	74.38
263.337	75.38
263.57	84.38
263.802	74.38
264.035	92.38
264.267	80.38
264.499	86.38
264.732	90.38
264.964	84.38
265.197	83.38
265.429	78.38
265.661	79.38
265.894	102.38
266.126	97.38
266.358	78.38
266.591	80.38
266.823	90.38
267.055	70.38
267.287	75.38
267.52	92.38
267.752	82.38
267.984	80.38
268.216	96.38
268.448	86.38
268.681	80.38
268.913	83.38
269.145	77.38
269.377	84.38
269.609	83.38
269.841	81.38
270.073	87.38
270.306	80.38
270.538	81.38
270.77	90.38
271.002	77.38
271.234	93.38
271.466	91.38
271.698	77.38
271.93	82.38
272.162	82.38
272.394	101.38
272.626	99.38
272.858	91.38
273.09	86.38
273.322	90.38
273.553	80.38
273.785	89.38
274.017	91.38
274.249	85.38
274.481	75.38
274.713	89.38
274.945	75.38
275.176	86.38
275.408	84.38
275.64	91.38
275.872	89.38
276.104	92.38
276.335	97.38
276.567	102.38
276.799	118.38
277.031	106.38
277.262	98.38
277.494	91.38
277.726	84.38
277.957	74.38
278.189	91.38
278.421	88.38
278.652	87.38
278.884	91.38
279.115	81.38
279.347	86.38
279.579	91.38
279.81	95.38
280.042	88.38
280.273	87.38
280.505	99.38
280.736	81.38
280.968	87.38
281.199	97.38
281.431	82.38
281.662	91.38
281.894	71.38
282.125	99.38
282.356	121.38
282.588	143.38
282.819	123.38
283.051	93.38
283.282	86.38
283.513	93.38
283.745	100.38
283.976	86.38
284.207	87.38
284.439	86.38
284.67	103.38
284.901	93.38
285.132	100.38
285.364	76.38
285.595	84.38
285.826	88.38
286.057	90.38
286.288	93.38
286.52	82.38
286.751	81.38
286.982	96.38
287.213	87.38
287.444	81.38
287.675	82.38
287.906	84.38
288.138	100.38
288.369	104.38
288.6	103.38
288.831	88.38
289.062	85.38
289.293	91.38
289.524	84.38
289.755	91.38
289.986	93.38
290.217	84.38
290.448	84.38
290.679	85.38
290.91	92.38
291.141	83.38
291.371	98.38
291.602	83.38
291.833	93.38
292.064	95.38
292.295	78.38
292.526	97.38
292.757	101.38
292.987	84.38
293.218	90.38
293.449	92.38
293.68	91.38
293.91	83.38
294.141	81.38
294.372	88.38
294.603	87.38
294.833	106.38
295.064	89.38
295.295	85.38
295.525	88.38
295.756	123.38
295.987	131.38
296.217	155.38
296.448	140.38
296.679	90.38
296.909	97.38
297.14	82.38
297.37	89.38
297.601	90.38
297.831	75.38
298.062	99.38
298.292	98.38
298.523	80.38
298.753	87.38
298.984	90.38
299.214	90.38
299.445	92.38
299.675	98.38
299.905	97.38
300.136	96.38
300.366	95.38
300.597	94.38
300.827	92.38
301.057	102.38
301.288	105.38
301.518	98.38
301.748	109.38
301.979	102.38
302.209	99.38
302.439	83.38
302.669	95.38
302.9	80.38
303.13	91.38
303.36	79.38
303.59	106.38
303.82	109.38
304.051	104.38
304.281	85.38
304.511	82.38
304.741	88.38
304.971	110.38
305.201	93.38
305.431	89.38
305.661	87.38
305.891	92.38
306.121	106.38
306.352	103.38
306.582	107.38
306.812	107.38
307.042	99.38
307.272	98.38
307.502	97.38
307.731	97.38
307.961	94.38
308.191	89.38
308.421	76.38
308.651	86.38
308.881	96.38
309.111	92.38
309.341	84.38
309.571	122.38
309.8	102.38
310.03	105.38
310.26	99.38
310.49	108.38
310.72	103.38
310.949	103.38
311.179	112.38
311.409	104.38
311.639	83.38
311.868	106.38
312.098	103.38
312.328	100.38
312.557	116.38
312.787	107.38
313.017	96.38
313.246	92.38
313.476	95.38
313.706	84.38
313.935	99.38
314.165	110.38
314.394	108.38
314.624	89.38
314.853	106.38
315.083	97.38
315.312	92.38
315.542	101.38
315.771	96.38
316.001	98.38
316.23	95.38
316.46	91.38
316.689	107.38
316.919	96.38
317.148	104.38
317.377	104.38
317.607	105.38
317.836	108.38
318.065	85.38
318.295	92.38
318.524	84.38
318.753	108.38
318.983	93.38
319.212	105.38
319.441	114.38
319.67	127.38
319.9	106.38
320.129	91.38
320.358	94.38
320.587	99.38
320.816	101.38
321.046	117.38
321.275	113.38
321.504	110.38
321.733	102.38
321.962	101.38
322.191	95.38
322.42	105.38
322.649	104.38
322.878	122.38
323.108	113.38
323.337	132.38
323.566	150.38
323.795	181.38
324.024	237.38
324.253	458.38
324.482	950.38
324.71	1879.38
324.939	2472.38
325.168	937.38
325.397	270.38
325.626	156.38
325.855	131.38
326.084	135.38
326.313	165.38
326.542	156.38
326.77	232.38
326.999	496.38
327.228	1033.38
327.457	1847.38
327.686	1456.38
327.914	415.38
328.143	223.38
328.372	193.38
328.6	146.38
328.829	130.38
329.058	147.38
329.287	147.38
329.515	110.38
329.744	94.38
329.972	113.38
330.201	156.38
330.43	160.38
330.658	157.38
330.887	165.38
331.115	136.38
331.344	104.38
331.572	96.38
331.801	108.38
332.03	108.38
332.258	101.38
332.486	95.38
332.715	90.38
332.943	93.38
333.172	102.38
333.4	102.38
333.629	96.38
333.857	133.38
334.085	108.38
334.314	120.38
334.542	159.38
334.771	147.38
334.999	114.38
335.227	118.38
335.455	112.38
335.684	99.38
335.912	99.38
336.14	95.38
336.369	103.38
336.597	110.38
336.825	112.38
337.053	115.38
337.281	95.38
337.51	86.38
337.738	97.38
337.966	97.38
338.194	98.38
338.422	93.38
338.65	102.38
338.878	106.38
339.106	94.38
339.334	103.38
339.562	76.38
339.79	97.38
340.018	102.38
340.246	92.38
340.474	99.38
340.702	88.38
340.93	91.38
341.158	98.38
341.386	95.38
341.614	97.38
341.842	102.38
342.07	99.38
342.298	90.38
342.526	90.38
342.754	89.38
342.981	93.38
343.209	88.38
343.437	92.38
343.665	97.38
343.893	95.38
344.12	85.38
344.348	87.38
344.576	77.38
344.804	97.38
345.031	104.38
345.259	100.38
345.487	88.38
345.714	95.38
345.942	91.38
346.17	100.38
346.397	90.38
346.625	113.38
346.853	98.38
347.08	103.38
347.308	96.38
347.535	100.38
347.763	104.38
347.99	92.38
348.218	100.38
348.445	122.38
348.673	106.38
348.9	114.38
349.128	111.38
349.355	83.38
349.583	91.38
349.81	91.38
350.037	88.38
350.265	108.38
350.492	96.38
350.72	113.38
350.947	99.38
351.174	113.38
351.402	110.38
351.629	103.38
351.856	116.38
352.083	100.38
352.311	121.38
352.538	104.38
352.765	116.38
352.992	121.38
353.22	115.38
353.447	109.38
353.674	97.38
353.901	91.38
354.128	92.38
354.355	89.38
354.583	110.38
354.81	104.38
355.037	83.38
355.264	93.38
355.491	93.38
355.718	99.38
355.945	89.38
356.172	102.38
356.399	93.38
356.626	96.38
356.853	104.38
357.08	102.38
357.307	99.38
357.534	80.38
357.761	80.38
357.988	100.38
358.215	103.38
358.441	92.38
358.668	82.38
358.895	98.38
359.122	97.38
359.349	90.38
359.576	95.38
359.802	93.38
360.029	128.38
360.256	121.38
360.483	106.38
360.709	97.38
360.936	91.38
361.163	99.38
361.39	93.38
361.616	91.38
361.843	80.38
362.07	81.38
362.296	105.38
362.523	96.38
362.749	92.38
362.976	95.38
363.203	104.38
363.429	80.38
363.656	92.38
363.882	83.38
364.109	88.38
364.335	86.38
364.562	79.38
364.788	100.38
365.015	116.38
365.241	106.38
365.468	105.38
365.694	100.38
365.92	102.38
366.147	75.38
366.373	86.38
366.599	114.38
366.826	99.38
367.052	76.38
367.278	97.38
367.505	100.38
367.731	96.38
367.957	76.38
368.184	108.38
368.41	106.38
368.636	117.38
368.862	135.38
369.089	117.38
369.315	97.38
369.541	84.38
369.767	86.38
369.993	98.38
370.219	95.38
370.445	75.38
370.672	92.38
370.898	93.38
371.124	84.38
371.35	81.38
371.576	85.38
371.802	80.38
372.028	92.38
372.254	88.38
372.48	80.38
372.706	88.38
372.932	75.38
373.158	96.38
373.384	92.38
373.61	78.38
373.835	88.38
374.061	103.38
374.287	89.38
374.513	85.38
374.739	94.38
374.965	96.38
375.191	81.38
375.416	88.38
375.642	89.38
375.868	94.38
376.094	83.38
376.319	102.38
376.545	85.38
376.771	97.38
376.997	87.38
377.222	82.38
377.448	86.38
377.674	83.38
377.899	86.38
378.125	96.38
378.35	109.38
378.576	94.38
378.802	90.38
379.027	98.38
379.253	97.38
379.478	90.38
379.704	95.38
379.929	98.38
380.155	92.38
380.38	106.38
380.606	100.38
380.831	88.38
381.057	93.38
381.282	97.38
381.507	96.38
381.733	91.38
381.958	96.38
382.184	101.38
382.409	101.38
382.634	94.38
382.86	85.38
383.085	91.38
383.31	103.38
383.535	107.38
383.761	105.38
383.986	100.38
384.211	105.38
384.436	96.38
384.662	97.38
384.887	99.38
385.112	119.38
385.337	103.38
385.562	93.38
385.787	115.38
386.013	112.38
386.238	127.38
386.463	101.38
386.688	125.38
386.913	97.38
387.138	97.38
387.363	108.38
387.588	105.38
387.813	109.38
388.038	108.38
388.263	107.38
388.488	99.38
388.713	86.38
388.938	95.38
389.163	92.38
389.387	102.38
389.612	101.38
389.837	70.38
390.062	96.38
390.287	103.38
390.512	106.38
390.736	100.38
390.961	84.38
391.186	81.38
391.411	74.38
391.636	90.38
391.86	103.38
392.085	99.38
392.31	96.38
392.534	92.38
392.759	80.38
392.984	94.38
393.208	70.38
393.433	90.38
393.658	93.38
393.882	94.38
394.107	96.38
394.331	74.38
394.556	74.38
394.78	85.38
395.005	94.38
395.229	83.38
395.454	90.38
395.678	80.38
395.903	81.38
396.127	88.38
396.352	75.38
396.576	72.38
396.801	95.38
397.025	91.38
397.249	90.38
397.474	95.38
397.698	86.38
397.922	103.38
398.147	76.38
398.371	78.38
398.595	83.38
398.82	88.38
399.044	75.38
399.268	88.38
399.492	79.38
399.717	82.38
399.941	98.38
400.165	91.38
400.389	86.38
400.613	89.38
400.837	69.38
401.062	79.38
401.286	93.38
401.51	84.38
401.734	95.38
401.958	99.38
402.182	134.38
402.406	188.38
402.63	139.38
402.854	113.38
403.078	83.38
403.302	83.38
403.526	102.38
403.75	88.38
403.974	82.38
404.198	91.38
404.422	83.38
404.645	100.38
404.869	96.38
405.093	88.38
405.317	95.38
405.541	104.38
405.765	105.38
405.988	134.38
406.212	203.38
406.436	273.38
406.66	187.38
406.883	125.38
407.107	102.38
407.331	93.38
407.555	99.38
407.778	95.38
408.002	80.38
408.226	89.38
408.449	83.38
408.673	90.38
408.896	89.38
409.12	75.38
409.344	98.38
409.567	74.38
409.791	95.38
410.014	104.38
410.238	86.38
410.461	85.38
410.685	85.38
410.908	99.38
411.132	107.38
411.355	113.38
411.578	92.38
411.802	81.38
412.025	95.38
412.249	95.38
412.472	100.38
412.695	108.38
412.919	87.38
413.142	92.38
413.365	90.38
413.589	90.38
413.812	85.38
414.035	82.38
414.258	90.38
414.482	87.38
414.705	95.38
414.928	89.38
415.151	94.38
415.374	97.38
415.597	98.38
415.821	83.38
416.044	83.38
416.267	87.38
416.49	83.38
416.713	79.38
416.936	80.38
417.159	103.38
417.382	95.38
417.605	75.38
417.828	103.38
418.051	97.38
418.274	81.38
418.497	79.38
418.72	83.38
418.943	79.38
419.166	79.38
419.389	75.38
419.611	93.38
419.834	87.38
420.057	96.38
420.28	89.38
420.503	90.38
420.726	90.38
420.948	85.38
421.171	96.38
421.394	100.38
421.617	91.38
421.839	88.38
422.062	94.38
422.285	96.38
422.507	112.38
422.73	91.38
422.953	89.38
423.175	97.38
423.398	82.38
423.621	90.38
423.843	85.38
424.066	88.38
424.288	88.38
424.511	111.38
424.733	101.38
424.956	115.38
425.178	115.38
425.401	96.38
425.623	97.38
425.846	91.38
426.068	99.38
426.291	91.38
426.513	91.38
426.735	94.38
426.958	84.38
427.18	114.38
427.402	153.38
427.625	192.38
427.847	158.38
428.069	112.38
428.292	79.38
428.514	87.38
428.736	83.38
428.958	70.38
429.181	90.38
429.403	79.38
429.625	97.38
429.847	84.38
430.069	113.38
430.292	92.38
430.514	80.38
430.736	102.38
430.958	93.38
431.18	76.38
431.402	78.38
431.624	84.38
431.846	93.38
432.068	109.38
432.29	75.38
432.512	94.38
432.734	86.38
432.956	77.38
433.178	91.38
433.4	115.38
433.622	93.38
433.844	83.38
434.066	92.38
434.287	92.38
434.509	75.38
434.731	88.38
434.953	85.38
435.175	90.38
435.397	84.38
435.618	97.38
435.84	101.38
436.062	117.38
436.284	114.38
436.505	91.38
436.727	98.38
436.949	78.38
437.17	95.38
437.392	99.38
437.614	93.38
437.835	106.38
438.057	124.38
438.278	123.38
438.5	93.38
438.721	131.38
438.943	126.38
439.165	97.38
439.386	86.38
439.608	96.38
439.829	101.38
440.05	109.38
440.272	157.38
440.493	96.38
440.715	84.38
440.936	98.38
441.158	95.38
441.379	95.38
441.6	101.38
441.822	93.38
442.043	94.38
442.264	118.38
442.486	98.38
442.707	95.38
442.928	108.38
443.149	152.38
443.371	134.38
443.592	117.38
443.813	107.38
444.034	95.38
444.255	84.38
444.476	84.38
444.698	99.38
444.919	88.38
445.14	129.38
445.361	112.38
445.582	126.38
445.803	158.38
446.024	145.38
446.245	148.38
446.466	117.38
446.687	103.38
446.908	75.38
447.129	94.38
447.35	85.38
447.571	105.38
447.792	108.38
448.013	104.38
448.234	107.38
448.455	101.38
448.675	105.38
448.896	131.38
449.117	101.38
449.338	99.38
449.559	133.38
449.779	132.38
450	88.38
450.221	99.38
450.442	95.38
450.662	105.38
450.883	98.38
451.104	107.38
451.324	95.38
451.545	80.38
451.766	92.38
451.986	92.38
452.207	98.38
452.428	83.38
452.648	101.38
452.869	112.38
453.089	123.38
453.31	127.38
453.53	96.38
453.751	108.38
453.971	103.38
454.192	118.38
454.412	74.38
454.633	79.38
454.853	88.38
455.073	72.38
455.294	92.38
455.514	105.38
455.734	87.38
455.955	69.38
456.175	84.38
456.395	82.38
456.616	78.38
456.836	80.38
457.056	79.38
457.276	87.38
457.497	79.38
457.717	85.38
457.937	90.38
458.157	91.38
458.377	80.38
458.598	100.38
458.818	173.38
459.038	182.38
459.258	129.38
459.478	90.38
459.698	91.38
459.918	95.38
460.138	83.38
460.358	82.38
460.578	82.38
460.798	89.38
461.018	100.38
461.238	88.38
461.458	92.38
461.678	82.38
461.898	95.38
462.118	82.38
462.338	84.38
462.558	87.38
462.777	85.38
462.997	72.38
463.217	86.38
463.437	86.38
463.657	97.38
463.876	89.38
464.096	101.38
464.316	88.38
464.536	89.38
464.755	80.38
464.975	113.38
465.195	205.38
465.414	211.38
465.634	104.38
465.854	97.38
466.073	83.38
466.293	74.38
466.512	78.38
466.732	98.38
466.951	82.38
467.171	96.38
467.391	102.38
467.61	112.38
467.829	111.38
468.049	112.38
468.268	114.38
468.488	66.38
468.707	71.38
468.927	89.38
469.146	69.38
469.365	92.38
469.585	88.38
469.804	94.38
470.023	90.38
470.243	91.38
470.462	97.38
470.681	122.38
470.901	99.38
471.12	77.38
471.339	84.38
471.558	107.38
471.777	83.38
471.997	91.38
472.216	137.38
472.435	183.38
472.654	108.38
472.873	105.38
473.092	90.38
473.311	87.38
473.53	99.38
473.749	76.38
473.968	86.38
474.187	104.38
474.406	104.38
474.625	84.38
474.844	94.38
475.063	81.38
475.282	96.38
475.501	80.38
475.72	91.38
475.939	80.38
476.158	86.38
476.377	77.38
476.596	89.38
476.814	101.38
477.033	100.38
477.252	92.38
477.471	83.38
477.69	85.38
477.908	88.38
478.127	81.38
478.346	88.38
478.564	88.38
478.783	113.38
479.002	92.38
479.22	102.38
479.439	109.38
479.658	103.38
479.876	91.38
480.095	95.38
480.313	104.38
480.532	94.38
480.751	91.38
480.969	136.38
481.188	262.38
481.406	196.38
481.624	103.38
481.843	89.38
482.061	83.38
482.28	95.38
482.498	93.38
482.717	92.38
482.935	91.38
483.153	93.38
483.372	79.38
483.59	90.38
483.808	79.38
484.027	77.38
484.245	94.38
484.463	90.38
484.681	84.38
484.9	85.38
485.118	98.38
485.336	94.38
485.554	94.38
485.772	102.38
485.99	109.38
486.209	109.38
486.427	93.38
486.645	120.38
486.863	121.38
487.081	107.38
487.299	103.38
487.517	107.38
487.735	79.38
487.953	94.38
488.171	90.38
488.389	95.38
488.607	97.38
488.825	84.38
489.043	97.38
489.261	83.38
489.479	87.38
489.696	90.38
489.914	72.38
490.132	92.38
490.35	88.38
490.568	75.38
490.786	89.38
491.003	93.38
491.221	89.38
491.439	85.38
491.657	85.38
491.874	103.38
492.092	101.38
492.31	93.38
492.527	92.38
492.745	100.38
492.963	104.38
493.18	97.38
493.398	95.38
493.615	101.38
493.833	89.38
494.05	90.38
494.268	89.38
494.485	94.38
494.703	79.38
494.92	88.38
495.138	79.38
495.355	76.38
495.573	88.38
495.79	103.38
496.008	92.38
496.225	105.38
496.442	74.38
496.66	89.38
496.877	97.38
497.094	100.38
497.312	79.38
497.529	85.38
497.746	105.38
497.963	91.38
498.181	93.38
498.398	87.38
498.615	116.38
498.832	99.38
499.049	87.38
499.267	103.38
499.484	92.38
499.701	88.38
499.918	87.38
500.135	100.38
500.352	91.38
500.569	94.38
500.786	92.38
501.003	84.38
501.22	86.38
501.437	87.38
501.654	98.38
501.871	127.38
502.088	87.38
502.305	96.38
502.522	92.38
502.739	99.38
502.956	83.38
503.172	83.38
503.389	86.38
503.606	116.38
503.823	103.38
504.04	87.38
504.256	84.38
504.473	74.38
504.69	99.38
504.907	93.38
505.123	96.38
505.34	91.38
505.557	81.38
505.773	98.38
505.99	78.38
506.207	93.38
506.423	87.38
506.64	99.38
506.856	92.38
507.073	89.38
507.289	87.38
507.506	104.38
507.722	128.38
507.939	123.38
508.155	106.38
508.372	98.38
508.588	99.38
508.805	105.38
509.021	96.38
509.238	107.38
509.454	96.38
509.67	113.38
509.887	113.38
510.103	160.38
510.319	244.38
510.536	968.38
510.752	3340.38
510.968	913.38
511.184	206.38
511.401	148.38
511.617	116.38
511.833	90.38
512.049	85.38
512.265	92.38
512.481	102.38
512.698	99.38
512.914	96.38
513.13	93.38
513.346	95.38
513.562	91.38
513.778	100.38
513.994	109.38
514.21	104.38
514.426	140.38
514.642	160.38
