Data from Circ_2018_H10_HRD10591_00024.txt Node
Date: Wed Jan 03 09:56:06 EST 2024
User: Yrep
Spectrometer: HR+D1059
Trigger mode: 1
Integration Time (sec): 1.000000E-1
Scans to average: 1
Electric dark correction enabled: true
Nonlinearity correction enabled: false
Boxcar width: 0
XAxis mode: Wavelengths
Number of Pixels in Spectrum: 2048
>>>>>Begin Spectral Data<<<<<
223.165	-19.19
223.4	-19.19
223.635	-19.19
223.869	-21.19
224.104	-29.19
224.338	-5.19
224.573	-17.19
224.808	-15.19
225.042	-1.19
225.277	-9.19
225.511	-9.19
225.746	6.81
225.98	0.81
226.215	11.81
226.449	12.81
226.683	30.81
226.918	26.81
227.152	36.81
227.387	26.81
227.621	37.81
227.856	54.81
228.09	56.81
228.324	38.81
228.559	65.81
228.793	78.81
229.027	72.81
229.262	68.81
229.496	76.81
229.73	91.81
229.964	85.81
230.199	77.81
230.433	81.81
230.667	84.81
230.901	92.81
231.136	87.81
231.37	81.81
231.604	74.81
231.838	65.81
232.072	83.81
232.306	77.81
232.541	72.81
232.775	71.81
233.009	87.81
233.243	80.81
233.477	85.81
233.711	76.81
233.945	76.81
234.179	74.81
234.413	83.81
234.647	83.81
234.881	76.81
235.115	105.81
235.349	72.81
235.583	81.81
235.817	99.81
236.051	80.81
236.285	80.81
236.519	76.81
236.753	62.81
236.987	72.81
237.221	91.81
237.455	79.81
237.689	73.81
237.922	84.81
238.156	77.81
238.39	76.81
238.624	73.81
238.858	85.81
239.091	78.81
239.325	76.81
239.559	87.81
239.793	81.81
240.027	75.81
240.26	84.81
240.494	89.81
240.728	80.81
240.961	75.81
241.195	68.81
241.429	75.81
241.662	84.81
241.896	81.81
242.13	87.81
242.363	75.81
242.597	76.81
242.83	71.81
243.064	68.81
243.298	66.81
243.531	78.81
243.765	86.81
243.998	65.81
244.232	78.81
244.465	89.81
244.699	91.81
244.932	90.81
245.166	76.81
245.399	83.81
245.633	66.81
245.866	80.81
246.099	85.81
246.333	72.81
246.566	83.81
246.8	80.81
247.033	62.81
247.266	78.81
247.5	78.81
247.733	77.81
247.966	89.81
248.2	78.81
248.433	88.81
248.666	87.81
248.899	99.81
249.133	96.81
249.366	107.81
249.599	98.81
249.832	75.81
250.066	84.81
250.299	71.81
250.532	82.81
250.765	71.81
250.998	78.81
251.231	75.81
251.465	82.81
251.698	73.81
251.931	85.81
252.164	93.81
252.397	79.81
252.63	89.81
252.863	81.81
253.096	76.81
253.329	76.81
253.562	82.81
253.795	78.81
254.028	97.81
254.261	91.81
254.494	86.81
254.727	82.81
254.96	95.81
255.193	93.81
255.426	68.81
255.659	81.81
255.892	87.81
256.124	73.81
256.357	81.81
256.59	73.81
256.823	67.81
257.056	64.81
257.289	76.81
257.521	87.81
257.754	85.81
257.987	83.81
258.22	94.81
258.452	92.81
258.685	70.81
258.918	86.81
259.151	94.81
259.383	85.81
259.616	82.81
259.849	82.81
260.081	74.81
260.314	75.81
260.547	75.81
260.779	91.81
261.012	91.81
261.244	89.81
261.477	81.81
261.71	99.81
261.942	122.81
262.175	129.81
262.407	87.81
262.64	86.81
262.872	76.81
263.105	79.81
263.337	94.81
263.57	91.81
263.802	90.81
264.035	63.81
264.267	82.81
264.499	89.81
264.732	87.81
264.964	82.81
265.197	99.81
265.429	87.81
265.661	83.81
265.894	82.81
266.126	80.81
266.358	74.81
266.591	79.81
266.823	74.81
267.055	72.81
267.287	84.81
267.52	92.81
267.752	88.81
267.984	83.81
268.216	89.81
268.448	74.81
268.681	89.81
268.913	88.81
269.145	79.81
269.377	87.81
269.609	80.81
269.841	75.81
270.073	90.81
270.306	90.81
270.538	87.81
270.77	72.81
271.002	76.81
271.234	69.81
271.466	78.81
271.698	87.81
271.93	89.81
272.162	98.81
272.394	96.81
272.626	90.81
272.858	80.81
273.09	76.81
273.322	86.81
273.553	86.81
273.785	96.81
274.017	98.81
274.249	90.81
274.481	97.81
274.713	93.81
274.945	98.81
275.176	80.81
275.408	83.81
275.64	80.81
275.872	92.81
276.104	91.81
276.335	79.81
276.567	107.81
276.799	99.81
277.031	98.81
277.262	100.81
277.494	99.81
277.726	79.81
277.957	85.81
278.189	98.81
278.421	75.81
278.652	72.81
278.884	90.81
279.115	96.81
279.347	95.81
279.579	87.81
279.81	90.81
280.042	89.81
280.273	90.81
280.505	81.81
280.736	68.81
280.968	81.81
281.199	90.81
281.431	76.81
281.662	91.81
281.894	98.81
282.125	97.81
282.356	143.81
282.588	173.81
282.819	128.81
283.051	110.81
283.282	89.81
283.513	90.81
283.745	93.81
283.976	84.81
284.207	84.81
284.439	95.81
284.67	92.81
284.901	94.81
285.132	100.81
285.364	79.81
285.595	95.81
285.826	93.81
286.057	92.81
286.288	80.81
286.52	87.81
286.751	86.81
286.982	97.81
287.213	90.81
287.444	87.81
287.675	86.81
287.906	88.81
288.138	87.81
288.369	96.81
288.6	87.81
288.831	91.81
289.062	84.81
289.293	90.81
289.524	91.81
289.755	85.81
289.986	86.81
290.217	97.81
290.448	83.81
290.679	81.81
290.91	84.81
291.141	74.81
291.371	90.81
291.602	92.81
291.833	88.81
292.064	90.81
292.295	92.81
292.526	95.81
292.757	100.81
292.987	95.81
293.218	85.81
293.449	80.81
293.68	102.81
293.91	94.81
294.141	86.81
294.372	75.81
294.603	101.81
294.833	96.81
295.064	107.81
295.295	83.81
295.525	98.81
295.756	117.81
295.987	126.81
296.217	155.81
296.448	125.81
296.679	92.81
296.909	96.81
297.14	100.81
297.37	88.81
297.601	94.81
297.831	84.81
298.062	96.81
298.292	81.81
298.523	93.81
298.753	79.81
298.984	72.81
299.214	96.81
299.445	80.81
299.675	90.81
299.905	96.81
300.136	112.81
300.366	83.81
300.597	94.81
300.827	97.81
301.057	99.81
301.288	102.81
301.518	88.81
301.748	73.81
301.979	104.81
302.209	82.81
302.439	103.81
302.669	97.81
302.9	84.81
303.13	88.81
303.36	90.81
303.59	96.81
303.82	106.81
304.051	100.81
304.281	84.81
304.511	96.81
304.741	92.81
304.971	84.81
305.201	91.81
305.431	97.81
305.661	89.81
305.891	84.81
306.121	98.81
306.352	108.81
306.582	116.81
306.812	75.81
307.042	94.81
307.272	110.81
307.502	90.81
307.731	97.81
307.961	103.81
308.191	91.81
308.421	68.81
308.651	90.81
308.881	84.81
309.111	88.81
309.341	101.81
309.571	98.81
309.8	102.81
310.03	101.81
310.26	104.81
310.49	116.81
310.72	93.81
310.949	106.81
311.179	114.81
311.409	88.81
311.639	102.81
311.868	91.81
312.098	93.81
312.328	86.81
312.557	103.81
312.787	118.81
313.017	96.81
313.246	100.81
313.476	98.81
313.706	95.81
313.935	80.81
314.165	99.81
314.394	113.81
314.624	85.81
314.853	97.81
315.083	88.81
315.312	91.81
315.542	80.81
315.771	88.81
316.001	93.81
316.23	97.81
316.46	85.81
316.689	87.81
316.919	96.81
317.148	111.81
317.377	87.81
317.607	109.81
317.836	94.81
318.065	97.81
318.295	72.81
318.524	81.81
318.753	95.81
318.983	92.81
319.212	107.81
319.441	116.81
319.67	103.81
319.9	95.81
320.129	100.81
320.358	88.81
320.587	109.81
320.816	107.81
321.046	108.81
321.275	91.81
321.504	101.81
321.733	104.81
321.962	117.81
322.191	112.81
322.42	88.81
322.649	124.81
322.878	122.81
323.108	111.81
323.337	128.81
323.566	158.81
323.795	162.81
324.024	222.81
324.253	444.81
324.482	952.81
324.71	1943.81
324.939	2545.81
325.168	939.81
325.397	263.81
325.626	156.81
325.855	134.81
326.084	129.81
326.313	154.81
326.542	178.81
326.77	244.81
326.999	489.81
327.228	1035.81
327.457	1859.81
327.686	1454.81
327.914	401.81
328.143	201.81
328.372	166.81
328.6	139.81
328.829	118.81
329.058	127.81
329.287	146.81
329.515	123.81
329.744	97.81
329.972	101.81
330.201	108.81
330.43	136.81
330.658	144.81
330.887	165.81
331.115	140.81
331.344	88.81
331.572	107.81
331.801	108.81
332.03	103.81
332.258	92.81
332.486	104.81
332.715	79.81
332.943	93.81
333.172	96.81
333.4	108.81
333.629	113.81
333.857	108.81
334.085	107.81
334.314	109.81
334.542	130.81
334.771	135.81
334.999	105.81
335.227	102.81
335.455	80.81
335.684	102.81
335.912	96.81
336.14	94.81
336.369	101.81
336.597	89.81
336.825	96.81
337.053	69.81
337.281	95.81
337.51	82.81
337.738	101.81
337.966	95.81
338.194	110.81
338.422	77.81
338.65	85.81
338.878	101.81
339.106	101.81
339.334	89.81
339.562	96.81
339.79	90.81
340.018	84.81
340.246	98.81
340.474	107.81
340.702	81.81
340.93	86.81
341.158	91.81
341.386	99.81
341.614	100.81
341.842	99.81
342.07	87.81
342.298	97.81
342.526	104.81
342.754	88.81
342.981	81.81
343.209	89.81
343.437	93.81
343.665	85.81
343.893	94.81
344.12	73.81
344.348	87.81
344.576	89.81
344.804	104.81
345.031	108.81
345.259	103.81
345.487	89.81
345.714	101.81
345.942	97.81
346.17	84.81
346.397	91.81
346.625	101.81
346.853	95.81
347.08	97.81
347.308	86.81
347.535	105.81
347.763	103.81
347.99	88.81
348.218	97.81
348.445	110.81
348.673	96.81
348.9	108.81
349.128	88.81
349.355	87.81
349.583	95.81
349.81	85.81
350.037	86.81
350.265	111.81
350.492	94.81
350.72	99.81
350.947	89.81
351.174	104.81
351.402	106.81
351.629	103.81
351.856	100.81
352.083	97.81
352.311	122.81
352.538	115.81
352.765	100.81
352.992	110.81
353.22	113.81
353.447	119.81
353.674	92.81
353.901	93.81
354.128	105.81
354.355	90.81
354.583	91.81
354.81	99.81
355.037	93.81
355.264	75.81
355.491	103.81
355.718	91.81
355.945	77.81
356.172	96.81
356.399	106.81
356.626	90.81
356.853	92.81
357.08	87.81
357.307	88.81
357.534	87.81
357.761	87.81
357.988	87.81
358.215	94.81
358.441	95.81
358.668	104.81
358.895	102.81
359.122	95.81
359.349	101.81
359.576	95.81
359.802	100.81
360.029	126.81
360.256	122.81
360.483	112.81
360.709	93.81
360.936	103.81
361.163	92.81
361.39	111.81
361.616	90.81
361.843	92.81
362.07	102.81
362.296	111.81
362.523	98.81
362.749	97.81
362.976	97.81
363.203	74.81
363.429	91.81
363.656	94.81
363.882	96.81
364.109	101.81
364.335	98.81
364.562	95.81
364.788	87.81
365.015	92.81
365.241	103.81
365.468	110.81
365.694	106.81
365.92	96.81
366.147	86.81
366.373	82.81
366.599	94.81
366.826	91.81
367.052	85.81
367.278	83.81
367.505	81.81
367.731	82.81
367.957	100.81
368.184	104.81
368.41	110.81
368.636	113.81
368.862	121.81
369.089	119.81
369.315	93.81
369.541	91.81
369.767	83.81
369.993	85.81
370.219	103.81
370.445	87.81
370.672	108.81
370.898	80.81
371.124	89.81
371.35	87.81
371.576	97.81
371.802	81.81
372.028	82.81
372.254	89.81
372.48	86.81
372.706	87.81
372.932	85.81
373.158	105.81
373.384	110.81
373.61	88.81
373.835	84.81
374.061	99.81
374.287	93.81
374.513	78.81
374.739	76.81
374.965	77.81
375.191	91.81
375.416	86.81
375.642	90.81
375.868	89.81
376.094	107.81
376.319	102.81
376.545	84.81
376.771	90.81
376.997	74.81
377.222	84.81
377.448	96.81
377.674	86.81
377.899	103.81
378.125	95.81
378.35	90.81
378.576	81.81
378.802	98.81
379.027	95.81
379.253	83.81
379.478	85.81
379.704	84.81
379.929	80.81
380.155	100.81
380.38	100.81
380.606	78.81
380.831	78.81
381.057	105.81
381.282	84.81
381.507	95.81
381.733	106.81
381.958	101.81
382.184	107.81
382.409	102.81
382.634	99.81
382.86	91.81
383.085	99.81
383.31	85.81
383.535	99.81
383.761	95.81
383.986	85.81
384.211	105.81
384.436	106.81
384.662	100.81
384.887	115.81
385.112	98.81
385.337	100.81
385.562	91.81
385.787	114.81
386.013	124.81
386.238	116.81
386.463	117.81
386.688	93.81
386.913	118.81
387.138	122.81
387.363	94.81
387.588	103.81
387.813	117.81
388.038	104.81
388.263	98.81
388.488	109.81
388.713	93.81
388.938	101.81
389.163	92.81
389.387	93.81
389.612	94.81
389.837	82.81
390.062	88.81
390.287	92.81
390.512	96.81
390.736	89.81
390.961	86.81
391.186	76.81
391.411	95.81
391.636	81.81
391.86	85.81
392.085	80.81
392.31	75.81
392.534	98.81
392.759	87.81
392.984	85.81
393.208	83.81
393.433	84.81
393.658	88.81
393.882	57.81
394.107	93.81
394.331	84.81
394.556	90.81
394.78	96.81
395.005	84.81
395.229	88.81
395.454	102.81
395.678	87.81
395.903	84.81
396.127	99.81
396.352	75.81
396.576	83.81
396.801	100.81
397.025	93.81
397.249	86.81
397.474	98.81
397.698	86.81
397.922	72.81
398.147	85.81
398.371	79.81
398.595	95.81
398.82	95.81
399.044	85.81
399.268	80.81
399.492	76.81
399.717	77.81
399.941	81.81
400.165	88.81
400.389	85.81
400.613	89.81
400.837	88.81
401.062	93.81
401.286	103.81
401.51	83.81
401.734	92.81
401.958	100.81
402.182	128.81
402.406	195.81
402.63	132.81
402.854	95.81
403.078	102.81
403.302	80.81
403.526	82.81
403.75	78.81
403.974	83.81
404.198	88.81
404.422	81.81
404.645	85.81
404.869	77.81
405.093	95.81
405.317	115.81
405.541	109.81
405.765	130.81
405.988	122.81
406.212	208.81
406.436	281.81
406.66	166.81
406.883	126.81
407.107	92.81
407.331	96.81
407.555	96.81
407.778	103.81
408.002	93.81
408.226	82.81
408.449	81.81
408.673	86.81
408.896	85.81
409.12	99.81
409.344	80.81
409.567	88.81
409.791	92.81
410.014	90.81
410.238	89.81
410.461	84.81
410.685	89.81
410.908	97.81
411.132	101.81
411.355	78.81
411.578	94.81
411.802	90.81
412.025	81.81
412.249	82.81
412.472	100.81
412.695	89.81
412.919	82.81
413.142	90.81
413.365	94.81
413.589	78.81
413.812	101.81
414.035	89.81
414.258	85.81
414.482	77.81
414.705	84.81
414.928	90.81
415.151	86.81
415.374	81.81
415.597	91.81
415.821	94.81
416.044	93.81
416.267	91.81
416.49	83.81
416.713	95.81
416.936	83.81
417.159	82.81
417.382	84.81
417.605	96.81
417.828	88.81
418.051	98.81
418.274	87.81
418.497	89.81
418.72	73.81
418.943	86.81
419.166	90.81
419.389	79.81
419.611	87.81
419.834	91.81
420.057	84.81
420.28	107.81
420.503	84.81
420.726	88.81
420.948	86.81
421.171	86.81
421.394	75.81
421.617	101.81
421.839	94.81
422.062	98.81
422.285	80.81
422.507	84.81
422.73	111.81
422.953	95.81
423.175	80.81
423.398	86.81
423.621	77.81
423.843	76.81
424.066	84.81
424.288	82.81
424.511	89.81
424.733	117.81
424.956	100.81
425.178	110.81
425.401	98.81
425.623	111.81
425.846	99.81
426.068	74.81
426.291	98.81
426.513	91.81
426.735	101.81
426.958	81.81
427.18	113.81
427.402	139.81
427.625	185.81
427.847	149.81
428.069	119.81
428.292	98.81
428.514	87.81
428.736	84.81
428.958	82.81
429.181	94.81
429.403	89.81
429.625	70.81
429.847	91.81
430.069	93.81
430.292	88.81
430.514	95.81
430.736	67.81
430.958	81.81
431.18	83.81
431.402	100.81
431.624	93.81
431.846	74.81
432.068	96.81
432.29	84.81
432.512	91.81
432.734	77.81
432.956	97.81
433.178	101.81
433.4	91.81
433.622	89.81
433.844	92.81
434.066	85.81
434.287	83.81
434.509	80.81
434.731	79.81
434.953	98.81
435.175	87.81
435.397	87.81
435.618	97.81
435.84	95.81
436.062	132.81
436.284	112.81
436.505	80.81
436.727	93.81
436.949	81.81
437.17	82.81
437.392	95.81
437.614	102.81
437.835	120.81
438.057	132.81
438.278	116.81
438.5	103.81
438.721	107.81
438.943	104.81
439.165	90.81
439.386	76.81
439.608	95.81
439.829	107.81
440.05	124.81
440.272	148.81
440.493	97.81
440.715	99.81
440.936	93.81
441.158	82.81
441.379	76.81
441.6	90.81
441.822	93.81
442.043	87.81
442.264	101.81
442.486	105.81
442.707	108.81
442.928	100.81
443.149	143.81
443.371	142.81
443.592	114.81
443.813	121.81
444.034	99.81
444.255	87.81
444.476	92.81
444.698	81.81
444.919	107.81
445.14	123.81
445.361	115.81
445.582	115.81
445.803	153.81
446.024	151.81
446.245	140.81
446.466	129.81
446.687	97.81
446.908	100.81
447.129	83.81
447.35	95.81
447.571	95.81
447.792	92.81
448.013	87.81
448.234	111.81
448.455	101.81
448.675	118.81
448.896	134.81
449.117	106.81
449.338	106.81
449.559	114.81
449.779	133.81
450	99.81
450.221	90.81
450.442	100.81
450.662	96.81
450.883	102.81
451.104	114.81
451.324	88.81
451.545	81.81
451.766	87.81
451.986	76.81
452.207	100.81
452.428	97.81
452.648	116.81
452.869	116.81
453.089	111.81
453.31	122.81
453.53	94.81
453.751	91.81
453.971	105.81
454.192	109.81
454.412	103.81
454.633	91.81
454.853	83.81
455.073	93.81
455.294	87.81
455.514	105.81
455.734	84.81
455.955	93.81
456.175	82.81
456.395	92.81
456.616	76.81
456.836	71.81
457.056	80.81
457.276	68.81
457.497	77.81
457.717	93.81
457.937	81.81
458.157	92.81
458.377	108.81
458.598	116.81
458.818	204.81
459.038	200.81
459.258	128.81
459.478	89.81
459.698	91.81
459.918	89.81
460.138	94.81
460.358	78.81
460.578	84.81
460.798	84.81
461.018	86.81
461.238	83.81
461.458	95.81
461.678	82.81
461.898	85.81
462.118	76.81
462.338	90.81
462.558	81.81
462.777	95.81
462.997	81.81
463.217	85.81
463.437	77.81
463.657	82.81
463.876	96.81
464.096	87.81
464.316	117.81
464.536	106.81
464.755	95.81
464.975	125.81
465.195	196.81
465.414	184.81
465.634	93.81
465.854	89.81
466.073	76.81
466.293	94.81
466.512	88.81
466.732	85.81
466.951	86.81
467.171	97.81
467.391	92.81
467.61	118.81
467.829	105.81
468.049	99.81
468.268	95.81
468.488	88.81
468.707	76.81
468.927	72.81
469.146	84.81
469.365	98.81
469.585	84.81
469.804	92.81
470.023	108.81
470.243	94.81
470.462	115.81
470.681	114.81
470.901	89.81
471.12	82.81
471.339	83.81
471.558	80.81
471.777	82.81
471.997	101.81
472.216	107.81
472.435	113.81
472.654	81.81
472.873	86.81
473.092	71.81
473.311	77.81
473.53	91.81
473.749	89.81
473.968	102.81
474.187	108.81
474.406	94.81
474.625	88.81
474.844	80.81
475.063	100.81
475.282	82.81
475.501	92.81
475.72	73.81
475.939	81.81
476.158	77.81
476.377	96.81
476.596	98.81
476.814	99.81
477.033	103.81
477.252	95.81
477.471	94.81
477.69	92.81
477.908	87.81
478.127	90.81
478.346	95.81
478.564	91.81
478.783	103.81
479.002	97.81
479.22	89.81
479.439	98.81
479.658	113.81
479.876	83.81
480.095	79.81
480.313	99.81
480.532	84.81
480.751	102.81
480.969	97.81
481.188	178.81
481.406	136.81
481.624	110.81
481.843	89.81
482.061	95.81
482.28	87.81
482.498	86.81
482.717	97.81
482.935	89.81
483.153	87.81
483.372	100.81
483.59	85.81
483.808	94.81
484.027	88.81
484.245	90.81
484.463	92.81
484.681	111.81
484.9	86.81
485.118	87.81
485.336	87.81
485.554	103.81
485.772	93.81
485.99	103.81
486.209	99.81
486.427	95.81
486.645	111.81
486.863	117.81
487.081	91.81
487.299	98.81
487.517	86.81
487.735	106.81
487.953	86.81
488.171	89.81
488.389	91.81
488.607	77.81
488.825	85.81
489.043	99.81
489.261	86.81
489.479	82.81
489.696	90.81
489.914	87.81
490.132	91.81
490.35	85.81
490.568	84.81
490.786	102.81
491.003	94.81
491.221	73.81
491.439	103.81
491.657	74.81
491.874	80.81
492.092	102.81
492.31	88.81
492.527	83.81
492.745	95.81
492.963	85.81
493.18	90.81
493.398	93.81
493.615	101.81
493.833	95.81
494.05	118.81
494.268	84.81
494.485	92.81
494.703	105.81
494.92	97.81
495.138	97.81
495.355	100.81
495.573	92.81
495.79	99.81
496.008	95.81
496.225	79.81
496.442	99.81
496.66	95.81
496.877	80.81
497.094	97.81
497.312	80.81
497.529	90.81
497.746	99.81
497.963	77.81
498.181	83.81
498.398	102.81
498.615	120.81
498.832	116.81
499.049	90.81
499.267	91.81
499.484	84.81
499.701	99.81
499.918	84.81
500.135	106.81
500.352	95.81
500.569	86.81
500.786	95.81
501.003	87.81
501.22	76.81
501.437	96.81
501.654	107.81
501.871	96.81
502.088	97.81
502.305	96.81
502.522	82.81
502.739	93.81
502.956	85.81
503.172	91.81
503.389	96.81
503.606	111.81
503.823	87.81
504.04	95.81
504.256	102.81
504.473	79.81
504.69	90.81
504.907	93.81
505.123	100.81
505.34	87.81
505.557	96.81
505.773	80.81
505.99	90.81
506.207	79.81
506.423	87.81
506.64	82.81
506.856	92.81
507.073	87.81
507.289	93.81
507.506	97.81
507.722	124.81
507.939	114.81
508.155	102.81
508.372	105.81
508.588	89.81
508.805	86.81
509.021	97.81
509.238	91.81
509.454	94.81
509.67	102.81
509.887	129.81
510.103	152.81
510.319	258.81
510.536	971.81
510.752	3317.81
510.968	894.81
511.184	168.81
511.401	122.81
511.617	115.81
511.833	82.81
512.049	105.81
512.265	87.81
512.481	88.81
512.698	101.81
512.914	103.81
513.13	76.81
513.346	93.81
513.562	106.81
513.778	111.81
513.994	103.81
514.21	97.81
514.426	120.81
514.642	150.81
514.858	146.81
515.074	186.81
