Data from Circ_2018_H10_HRD10591_00026.txt Node
Date: Wed Jan 03 09:56:07 EST 2024
User: Yrep
Spectrometer: HR+D1059
Trigger mode: 1
Integration Time (sec): 1.000000E-1
Scans to average: 1
Electric dark correction enabled: true
Nonlinearity correction enabled: false
Boxcar width: 0
XAxis mode: Wavelengths
Number of Pixels in Spectrum: 2048
>>>>>Begin Spectral Data<<<<<
223.165	-13.5
223.4	-13.5
223.635	-13.5
223.869	-18.5
224.104	-25.5
224.338	-7.5
224.573	-5.5
224.808	-12.5
225.042	-20.5
225.277	2.5
225.511	-0.5
225.746	4.5
225.98	4.5
226.215	0.5
226.449	12.5
226.683	30.5
226.918	22.5
227.152	26.5
227.387	30.5
227.621	40.5
227.856	39.5
228.09	47.5
228.324	46.5
228.559	57.5
228.793	151.5
229.027	434.5
229.262	522.5
229.496	609.5
229.73	792.5
229.964	816.5
230.199	559.5
230.433	482.5
230.667	472.5
230.901	478.5
231.136	452.5
231.37	431.5
231.604	439.5
231.838	443.5
232.072	461.5
232.306	462.5
232.541	454.5
232.775	502.5
233.009	483.5
233.243	478.5
233.477	498.5
233.711	514.5
233.945	496.5
234.179	506.5
234.413	514.5
234.647	505.5
234.881	521.5
235.115	532.5
235.349	525.5
235.583	562.5
235.817	589.5
236.051	631.5
236.285	613.5
236.519	628.5
236.753	698.5
236.987	922.5
237.221	1360.5
237.455	1501.5
237.689	918.5
237.922	734.5
238.156	711.5
238.39	675.5
238.624	675.5
238.858	640.5
239.091	658.5
239.325	656.5
239.559	696.5
239.793	707.5
240.027	763.5
240.26	927.5
240.494	946.5
240.728	951.5
240.961	904.5
241.195	838.5
241.429	779.5
241.662	748.5
241.896	769.5
242.13	773.5
242.363	796.5
242.597	783.5
242.83	823.5
243.064	830.5
243.298	841.5
243.531	847.5
243.765	843.5
243.998	845.5
244.232	837.5
244.465	886.5
244.699	903.5
244.932	920.5
245.166	895.5
245.399	897.5
245.633	874.5
245.866	914.5
246.099	919.5
246.333	938.5
246.566	987.5
246.8	978.5
247.033	1003.5
247.266	1037.5
247.5	1111.5
247.733	1149.5
247.966	1122.5
248.2	1145.5
248.433	1186.5
248.666	1245.5
248.899	1319.5
249.133	1468.5
249.366	1443.5
249.599	1350.5
249.832	1243.5
250.066	1228.5
250.299	1339.5
250.532	1464.5
250.765	1605.5
250.998	1783.5
251.231	1656.5
251.465	1494.5
251.698	1416.5
251.931	1413.5
252.164	1375.5
252.397	1427.5
252.63	1506.5
252.863	1569.5
253.096	1678.5
253.329	1770.5
253.562	1662.5
253.795	1554.5
254.028	1598.5
254.261	1633.5
254.494	1790.5
254.727	2124.5
254.96	2241.5
255.193	1932.5
255.426	1782.5
255.659	1752.5
255.892	1812.5
256.124	1921.5
256.357	1840.5
256.59	1649.5
256.823	1575.5
257.056	1593.5
257.289	1592.5
257.521	1587.5
257.754	1566.5
257.987	1555.5
258.22	1563.5
258.452	1562.5
258.685	1531.5
258.918	1587.5
259.151	1654.5
259.383	1684.5
259.616	1721.5
259.849	1761.5
260.081	1951.5
260.314	2106.5
260.547	2019.5
260.779	1868.5
261.012	1806.5
261.244	1729.5
261.477	1711.5
261.71	1695.5
261.942	1780.5
262.175	1789.5
262.407	1769.5
262.64	1642.5
262.872	1696.5
263.105	1652.5
263.337	1670.5
263.57	1683.5
263.802	1699.5
264.035	1696.5
264.267	1700.5
264.499	1695.5
264.732	1740.5
264.964	1722.5
265.197	1738.5
265.429	1720.5
265.661	1715.5
265.894	1726.5
266.126	1767.5
266.358	1764.5
266.591	1816.5
266.823	1908.5
267.055	1892.5
267.287	1856.5
267.52	1874.5
267.752	1871.5
267.984	1908.5
268.216	1947.5
268.448	1947.5
268.681	2003.5
268.913	2154.5
269.145	2371.5
269.377	2406.5
269.609	2289.5
269.841	2283.5
270.073	2403.5
270.306	2666.5
270.538	2826.5
270.77	2671.5
271.002	2483.5
271.234	2515.5
271.466	2620.5
271.698	2757.5
271.93	2744.5
272.162	2805.5
272.394	2700.5
272.626	2530.5
272.858	2355.5
273.09	2352.5
273.322	2288.5
273.553	2265.5
273.785	2217.5
274.017	2265.5
274.249	2266.5
274.481	2297.5
274.713	2294.5
274.945	2304.5
275.176	2280.5
275.408	2266.5
275.64	2320.5
275.872	2274.5
276.104	2326.5
276.335	2372.5
276.567	2471.5
276.799	2596.5
277.031	2828.5
277.262	2873.5
277.494	2762.5
277.726	2598.5
277.957	2490.5
278.189	2482.5
278.421	2432.5
278.652	2415.5
278.884	2378.5
279.115	2354.5
279.347	2425.5
279.579	2418.5
279.81	2426.5
280.042	2411.5
280.273	2469.5
280.505	2450.5
280.736	2435.5
280.968	2453.5
281.199	2488.5
281.431	2475.5
281.662	2513.5
281.894	2497.5
282.125	2596.5
282.356	2782.5
282.588	2910.5
282.819	2732.5
283.051	2604.5
283.282	2615.5
283.513	2622.5
283.745	2616.5
283.976	2716.5
284.207	2690.5
284.439	2688.5
284.67	2694.5
284.901	2620.5
285.132	2638.5
285.364	2659.5
285.595	2634.5
285.826	2643.5
286.057	2679.5
286.288	2684.5
286.52	2712.5
286.751	2739.5
286.982	2728.5
287.213	2768.5
287.444	2763.5
287.675	2809.5
287.906	2928.5
288.138	2966.5
288.369	2914.5
288.6	2951.5
288.831	2930.5
289.062	2888.5
289.293	2788.5
289.524	2848.5
289.755	2859.5
289.986	2844.5
290.217	2872.5
290.448	2879.5
290.679	2848.5
290.91	2842.5
291.141	2854.5
291.371	2851.5
291.602	2859.5
291.833	2835.5
292.064	2859.5
292.295	2858.5
292.526	2898.5
292.757	2889.5
292.987	2870.5
293.218	2823.5
293.449	2879.5
293.68	2862.5
293.91	2874.5
294.141	2875.5
294.372	2877.5
294.603	2918.5
294.833	2918.5
295.064	2905.5
295.295	2917.5
295.525	2893.5
295.756	3025.5
295.987	3058.5
296.217	3274.5
296.448	3198.5
296.679	3029.5
296.909	2976.5
297.14	3079.5
297.37	3063.5
297.601	3107.5
297.831	3093.5
298.062	3094.5
298.292	3205.5
298.523	3162.5
298.753	3161.5
298.984	3144.5
299.214	3175.5
299.445	3162.5
299.675	3126.5
299.905	3219.5
300.136	3167.5
300.366	3163.5
300.597	3207.5
300.827	3350.5
301.057	3371.5
301.288	3438.5
301.518	3388.5
301.748	3391.5
301.979	3476.5
302.209	3465.5
302.439	3451.5
302.669	3424.5
302.9	3346.5
303.13	3380.5
303.36	3388.5
303.59	3402.5
303.82	3453.5
304.051	3401.5
304.281	3428.5
304.511	3358.5
304.741	3317.5
304.971	3384.5
305.201	3290.5
305.431	3282.5
305.661	3319.5
305.891	3336.5
306.121	3320.5
306.352	3420.5
306.582	3338.5
306.812	3298.5
307.042	3286.5
307.272	3348.5
307.502	3365.5
307.731	3336.5
307.961	3326.5
308.191	3306.5
308.421	3330.5
308.651	3336.5
308.881	3344.5
309.111	3442.5
309.341	3494.5
309.571	3599.5
309.8	3595.5
310.03	3688.5
310.26	3712.5
310.49	3661.5
310.72	3838.5
310.949	3873.5
311.179	3796.5
311.409	3666.5
311.639	3714.5
311.868	3729.5
312.098	3793.5
312.328	3864.5
312.557	4041.5
312.787	4106.5
313.017	3971.5
313.246	3858.5
313.476	3790.5
313.706	3906.5
313.935	3964.5
314.165	4072.5
314.394	4056.5
314.624	3977.5
314.853	3906.5
315.083	3882.5
315.312	3849.5
315.542	3750.5
315.771	3762.5
316.001	3716.5
316.23	3715.5
316.46	3745.5
316.689	3844.5
316.919	3836.5
317.148	3896.5
317.377	3849.5
317.607	3806.5
317.836	3825.5
318.065	3758.5
318.295	3723.5
318.524	3722.5
318.753	3666.5
318.983	3736.5
319.212	3744.5
319.441	3880.5
319.67	3837.5
319.9	3725.5
320.129	3797.5
320.358	3783.5
320.587	3842.5
320.816	3894.5
321.046	3966.5
321.275	3912.5
321.504	3887.5
321.733	4000.5
321.962	4004.5
322.191	4085.5
322.42	4264.5
322.649	4304.5
322.878	4386.5
323.108	4442.5
323.337	4726.5
323.566	4907.5
323.795	5256.5
324.024	5906.5
324.253	7900.5
324.482	11857.5
324.71	15596.5
324.939	15596.5
325.168	13659.5
325.397	6975.5
325.626	5508.5
325.855	5066.5
326.084	4894.5
326.313	4941.5
326.542	5162.5
326.77	5825.5
326.999	7520.5
327.228	11057.5
327.457	14917.5
327.686	14175.5
327.914	7835.5
328.143	6246.5
328.372	5827.5
328.6	5603.5
328.829	5482.5
329.058	5632.5
329.287	5681.5
329.515	5126.5
329.744	5015.5
329.972	5280.5
330.201	5492.5
330.43	5806.5
330.658	5923.5
330.887	6103.5
331.115	5671.5
331.344	5209.5
331.572	5135.5
331.801	5172.5
332.03	5151.5
332.258	5064.5
332.486	5083.5
332.715	5188.5
332.943	5361.5
333.172	5557.5
333.4	5694.5
333.629	5832.5
333.857	6014.5
334.085	6052.5
334.314	6166.5
334.542	6353.5
334.771	6242.5
334.999	5631.5
335.227	5483.5
335.455	5300.5
335.684	5159.5
335.912	5107.5
336.14	5073.5
336.369	5034.5
336.597	5179.5
336.825	5000.5
337.053	4979.5
337.281	4916.5
337.51	4820.5
337.738	4854.5
337.966	4804.5
338.194	4840.5
338.422	4743.5
338.65	4646.5
338.878	4680.5
339.106	4669.5
339.334	4579.5
339.562	4565.5
339.79	4467.5
340.018	4530.5
340.246	4566.5
340.474	4513.5
340.702	4499.5
340.93	4451.5
341.158	4458.5
341.386	4545.5
341.614	4528.5
341.842	4449.5
342.07	4409.5
342.298	4410.5
342.526	4412.5
342.754	4416.5
342.981	4344.5
343.209	4531.5
343.437	4786.5
343.665	5001.5
343.893	5285.5
344.12	5299.5
344.348	5111.5
344.576	4914.5
344.804	4819.5
345.031	4751.5
345.259	4710.5
345.487	4587.5
345.714	4437.5
345.942	4402.5
346.17	4292.5
346.397	4242.5
346.625	4316.5
346.853	4287.5
347.08	4269.5
347.308	4360.5
347.535	4472.5
347.763	4448.5
347.99	4389.5
348.218	4430.5
348.445	4448.5
348.673	4407.5
348.9	4327.5
349.128	4180.5
349.355	4157.5
349.583	4146.5
349.81	4102.5
350.037	4137.5
350.265	4132.5
350.492	4153.5
350.72	4210.5
350.947	4224.5
351.174	4294.5
351.402	4288.5
351.629	4293.5
351.856	4354.5
352.083	4378.5
352.311	4373.5
352.538	4395.5
352.765	4359.5
352.992	4269.5
353.22	4212.5
353.447	4139.5
353.674	4039.5
353.901	4115.5
354.128	4057.5
354.355	3987.5
354.583	4025.5
354.81	3991.5
355.037	4056.5
355.264	3958.5
355.491	3966.5
355.718	4106.5
355.945	4033.5
356.172	4092.5
356.399	4058.5
356.626	4032.5
356.853	4078.5
357.08	3982.5
357.307	4049.5
357.534	4021.5
357.761	4010.5
357.988	4073.5
358.215	4013.5
358.441	4094.5
358.668	4056.5
358.895	4134.5
359.122	4161.5
359.349	4267.5
359.576	4347.5
359.802	4569.5
360.029	4796.5
360.256	4801.5
360.483	4524.5
360.709	4310.5
360.936	4320.5
361.163	4363.5
361.39	4336.5
361.616	4326.5
361.843	4234.5
362.07	4320.5
362.296	4301.5
362.523	4263.5
362.749	4309.5
362.976	4233.5
363.203	4180.5
363.429	4107.5
363.656	4144.5
363.882	4118.5
364.109	4100.5
364.335	4105.5
364.562	4150.5
364.788	4151.5
365.015	4164.5
365.241	4173.5
365.468	4195.5
365.694	4203.5
365.92	4167.5
366.147	4103.5
366.373	4131.5
366.599	4121.5
366.826	4076.5
367.052	4043.5
367.278	4183.5
367.505	4085.5
367.731	4148.5
367.957	4177.5
368.184	4161.5
368.41	4257.5
368.636	4364.5
368.862	4368.5
369.089	4258.5
369.315	4240.5
369.541	4262.5
369.767	4227.5
369.993	4311.5
370.219	4293.5
370.445	4293.5
370.672	4258.5
370.898	4325.5
371.124	4365.5
371.35	4449.5
371.576	4401.5
371.802	4306.5
372.028	4330.5
372.254	4406.5
372.48	4442.5
372.706	4551.5
372.932	4572.5
373.158	4488.5
373.384	4439.5
373.61	4404.5
373.835	4489.5
374.061	4438.5
374.287	4552.5
374.513	4617.5
374.739	4784.5
374.965	4827.5
375.191	4811.5
375.416	4760.5
375.642	4612.5
375.868	4560.5
376.094	4534.5
376.319	4479.5
376.545	4478.5
376.771	4422.5
376.997	4431.5
377.222	4411.5
377.448	4370.5
377.674	4313.5
377.899	4355.5
378.125	4336.5
378.35	4313.5
378.576	4386.5
378.802	4267.5
379.027	4355.5
379.253	4312.5
379.478	4309.5
379.704	4342.5
379.929	4369.5
380.155	4386.5
380.38	4324.5
380.606	4413.5
380.831	4377.5
381.057	4414.5
381.282	4367.5
381.507	4399.5
381.733	4499.5
381.958	4492.5
382.184	4616.5
382.409	4627.5
382.634	4664.5
382.86	4643.5
383.085	4711.5
383.31	4723.5
383.535	4873.5
383.761	4853.5
383.986	4927.5
384.211	5061.5
384.436	5142.5
384.662	5223.5
384.887	5258.5
385.112	5243.5
385.337	5263.5
385.562	5323.5
385.787	5319.5
386.013	5344.5
386.238	5456.5
386.463	5406.5
386.688	5381.5
386.913	5258.5
387.138	5280.5
387.363	5233.5
387.588	5101.5
387.813	5239.5
388.038	5224.5
388.263	5284.5
388.488	5242.5
388.713	5258.5
388.938	5190.5
389.163	5216.5
389.387	5232.5
389.612	5089.5
389.837	5138.5
390.062	5146.5
390.287	5168.5
390.512	5190.5
390.736	5303.5
390.961	5345.5
391.186	5354.5
391.411	5552.5
391.636	5655.5
391.86	5835.5
392.085	5955.5
392.31	5748.5
392.534	5647.5
392.759	5605.5
392.984	5451.5
393.208	5499.5
393.433	5471.5
393.658	5431.5
393.882	5396.5
394.107	5416.5
394.331	5503.5
394.556	5543.5
394.78	5570.5
395.005	5624.5
395.229	5696.5
395.454	5800.5
395.678	5935.5
395.903	5846.5
396.127	5967.5
396.352	5758.5
396.576	5634.5
396.801	5523.5
397.025	5590.5
397.249	5728.5
397.474	5929.5
397.698	5912.5
397.922	6142.5
398.147	6175.5
398.371	6343.5
398.595	6466.5
398.82	6721.5
399.044	7294.5
399.268	8049.5
399.492	9180.5
399.717	9787.5
399.941	9512.5
400.165	8880.5
400.389	8189.5
400.613	7411.5
400.837	6954.5
401.062	6794.5
401.286	6700.5
401.51	6628.5
401.734	6640.5
401.958	6775.5
402.182	6952.5
402.406	7068.5
402.63	7083.5
402.854	7097.5
403.078	7203.5
403.302	7396.5
403.526	7555.5
403.75	7552.5
403.974	7657.5
404.198	7552.5
404.422	7699.5
404.645	7626.5
404.869	7676.5
405.093	7865.5
405.317	8059.5
405.541	8002.5
405.765	7581.5
405.988	7442.5
406.212	7641.5
406.436	7918.5
406.66	7955.5
406.883	7992.5
407.107	8507.5
407.331	8968.5
407.555	9495.5
407.778	9188.5
408.002	8401.5
408.226	7982.5
408.449	7910.5
408.673	7773.5
408.896	7984.5
409.12	8038.5
409.344	7671.5
409.567	7240.5
409.791	7357.5
410.014	7192.5
410.238	7138.5
410.461	7206.5
410.685	7225.5
410.908	7317.5
411.132	7486.5
411.355	7450.5
411.578	7145.5
411.802	6964.5
412.025	6968.5
412.249	7143.5
412.472	7260.5
412.695	7426.5
412.919	6935.5
413.142	6767.5
413.365	6638.5
413.589	6662.5
413.812	6563.5
414.035	6442.5
414.258	6471.5
414.482	6512.5
414.705	6613.5
414.928	6620.5
415.151	6501.5
415.374	6527.5
415.597	6467.5
415.821	6361.5
416.044	6367.5
416.267	6372.5
416.49	6404.5
416.713	6299.5
416.936	6454.5
417.159	6410.5
417.382	6481.5
417.605	6488.5
417.828	6660.5
418.051	6812.5
418.274	6649.5
418.497	6498.5
418.72	6649.5
418.943	6658.5
419.166	7064.5
419.389	7438.5
419.611	7254.5
419.834	7047.5
420.057	7045.5
420.28	6903.5
420.503	6755.5
420.726	6697.5
420.948	6828.5
421.171	7180.5
421.394	7216.5
421.617	6706.5
421.839	6641.5
422.062	6790.5
422.285	6921.5
422.507	7562.5
422.73	8024.5
422.953	7423.5
423.175	7062.5
423.398	7137.5
423.621	7206.5
423.843	7405.5
424.066	7354.5
424.288	7224.5
424.511	7426.5
424.733	7940.5
424.956	8402.5
425.178	8044.5
425.401	7977.5
425.623	7785.5
425.846	6953.5
426.068	6842.5
426.291	6634.5
426.513	6690.5
426.735	6867.5
426.958	7260.5
427.18	8066.5
427.402	9101.5
427.625	9291.5
427.847	7981.5
428.069	7224.5
428.292	6680.5
428.514	6278.5
428.736	6107.5
428.958	6154.5
429.181	5881.5
429.403	5982.5
429.625	6086.5
429.847	6432.5
430.069	6888.5
430.292	6432.5
430.514	5938.5
430.736	5974.5
430.958	5910.5
431.18	5748.5
431.402	5733.5
431.624	5780.5
431.846	5913.5
432.068	5902.5
432.29	5909.5
432.512	5788.5
432.734	5940.5
432.956	5895.5
433.178	6020.5
433.4	5907.5
433.622	5908.5
433.844	5840.5
434.066	5881.5
434.287	6024.5
434.509	6233.5
434.731	6381.5
434.953	6550.5
435.175	6817.5
435.397	6811.5
435.618	6755.5
435.84	7152.5
436.062	7986.5
436.284	7904.5
436.505	6718.5
436.727	6347.5
436.949	6103.5
437.17	5999.5
437.392	5998.5
437.614	6129.5
437.835	6553.5
438.057	7434.5
438.278	8158.5
438.5	7941.5
438.721	8770.5
438.943	7779.5
439.165	6513.5
439.386	6326.5
439.608	6457.5
439.829	6573.5
440.05	6845.5
440.272	7212.5
440.493	6591.5
440.715	6367.5
440.936	6219.5
441.158	6250.5
441.379	6398.5
441.6	6739.5
441.822	6964.5
442.043	7467.5
442.264	8177.5
442.486	7891.5
442.707	7082.5
442.928	6846.5
443.149	7154.5
443.371	7362.5
443.592	7831.5
443.813	8881.5
444.034	8738.5
444.255	7674.5
444.476	7448.5
444.698	7713.5
444.919	7836.5
445.14	7561.5
445.361	7456.5
445.582	7573.5
445.803	8200.5
446.024	8806.5
446.245	8430.5
446.466	7599.5
446.687	6586.5
446.908	6341.5
447.129	5868.5
447.35	5818.5
447.571	5755.5
447.792	5638.5
448.013	5825.5
448.234	5997.5
448.455	6720.5
448.675	7830.5
448.896	8331.5
449.117	6883.5
449.338	7115.5
449.559	8403.5
449.779	8504.5
450	6630.5
450.221	5902.5
450.442	5704.5
450.662	5603.5
450.883	5714.5
451.104	5800.5
451.324	5636.5
451.545	5416.5
451.766	5335.5
451.986	5252.5
452.207	5175.5
452.428	5231.5
452.648	5217.5
452.869	5274.5
453.089	5298.5
453.31	5382.5
453.53	5176.5
453.751	5166.5
453.971	5178.5
454.192	5328.5
454.412	5124.5
454.633	5023.5
454.853	5024.5
455.073	5025.5
455.294	5477.5
455.514	6016.5
455.734	5437.5
455.955	4899.5
456.175	4803.5
456.395	4760.5
456.616	4689.5
456.836	4774.5
457.056	4736.5
457.276	4692.5
457.497	4851.5
457.717	4899.5
457.937	4876.5
458.157	4913.5
458.377	5070.5
458.598	5453.5
458.818	6274.5
459.038	6989.5
459.258	6884.5
459.478	6071.5
459.698	5951.5
459.918	6052.5
460.138	6269.5
460.358	6473.5
460.578	6471.5
460.798	6568.5
461.018	6561.5
461.238	6348.5
461.458	6446.5
461.678	6301.5
461.898	6433.5
462.118	6513.5
462.338	6914.5
462.558	7077.5
462.777	7353.5
462.997	7881.5
463.217	8366.5
463.437	8140.5
463.657	7500.5
463.876	7367.5
464.096	7400.5
464.316	7427.5
464.536	7434.5
464.755	7167.5
464.975	7054.5
465.195	7345.5
465.414	7433.5
465.634	6485.5
465.854	6071.5
466.073	5836.5
466.293	5674.5
466.512	5473.5
466.732	5334.5
466.951	5404.5
467.171	5370.5
467.391	5374.5
467.61	5468.5
467.829	5472.5
468.049	5424.5
468.268	5319.5
468.488	5188.5
468.707	5065.5
468.927	5134.5
469.146	5071.5
469.365	5174.5
469.585	5171.5
469.804	5404.5
470.023	5539.5
470.243	5561.5
470.462	5556.5
470.681	5747.5
470.901	5632.5
471.12	5490.5
471.339	5440.5
471.558	5392.5
471.777	5419.5
471.997	5262.5
472.216	5334.5
472.435	5619.5
472.654	5380.5
472.873	5233.5
473.092	5149.5
473.311	5122.5
473.53	5123.5
473.749	5263.5
473.968	5779.5
474.187	6779.5
474.406	6344.5
474.625	5456.5
474.844	5274.5
475.063	5149.5
475.282	5190.5
475.501	5174.5
475.72	5249.5
475.939	5249.5
476.158	5298.5
476.377	5311.5
476.596	5291.5
476.814	5399.5
477.033	5528.5
477.252	5593.5
477.471	5690.5
477.69	5732.5
477.908	5892.5
478.127	6019.5
478.346	6133.5
478.564	6262.5
478.783	6328.5
479.002	6526.5
479.22	6482.5
479.439	6593.5
479.658	6731.5
479.876	6793.5
480.095	6919.5
480.313	7268.5
480.532	7241.5
480.751	7146.5
480.969	7107.5
481.188	7549.5
481.406	7429.5
481.624	6775.5
481.843	6382.5
482.061	6279.5
482.28	6162.5
482.498	6016.5
482.717	6006.5
482.935	6074.5
483.153	6027.5
483.372	5985.5
483.59	6003.5
483.808	5958.5
484.027	5979.5
484.245	6102.5
484.463	6135.5
484.681	6209.5
484.9	6286.5
485.118	6203.5
485.336	6298.5
485.554	6408.5
485.772	6370.5
485.99	6376.5
486.209	6380.5
486.427	6433.5
486.645	6501.5
486.863	6679.5
487.081	6634.5
487.299	6551.5
487.517	6465.5
487.735	6380.5
487.953	6337.5
488.171	6430.5
488.389	6388.5
488.607	6529.5
488.825	6541.5
489.043	6576.5
489.261	6519.5
489.479	6624.5
489.696	6579.5
489.914	6661.5
490.132	6742.5
490.35	6735.5
490.568	6834.5
490.786	6934.5
491.003	7116.5
491.221	7163.5
491.439	7302.5
491.657	7362.5
491.874	7422.5
492.092	7432.5
492.31	7439.5
492.527	7619.5
492.745	7612.5
492.963	7697.5
493.18	7779.5
493.398	7756.5
493.615	7891.5
493.833	7906.5
494.05	7747.5
494.268	7788.5
494.485	7760.5
494.703	7731.5
494.92	7836.5
495.138	7621.5
495.355	7757.5
495.573	7717.5
495.79	7724.5
496.008	7731.5
496.225	7673.5
496.442	7691.5
496.66	7868.5
496.877	7849.5
497.094	7922.5
497.312	8011.5
497.529	8250.5
497.746	8419.5
497.963	8615.5
498.181	9081.5
498.398	9377.5
498.615	9755.5
498.832	10289.5
499.049	10708.5
499.267	11358.5
499.484	12147.5
499.701	12930.5
499.918	13643.5
500.135	14465.5
500.352	15048.5
500.569	15131.5
500.786	15009.5
501.003	14606.5
501.22	13992.5
501.437	13193.5
501.654	12539.5
501.871	11814.5
502.088	11101.5
502.305	10406.5
502.522	9826.5
502.739	9606.5
502.956	9042.5
503.172	8782.5
503.389	8478.5
503.606	8503.5
