Data from Circ_2018_H10_HRD10591_00001.txt Node
Date: Wed Jan 03 09:56:02 EST 2024
User: Yrep
Spectrometer: HR+D1059
Trigger mode: 1
Integration Time (sec): 1.000000E-1
Scans to average: 1
Electric dark correction enabled: true
Nonlinearity correction enabled: false
Boxcar width: 0
XAxis mode: Wavelengths
Number of Pixels in Spectrum: 2048
>>>>>Begin Spectral Data<<<<<
223.165	-26.19
223.4	-26.19
223.635	-26.19
223.869	-27.19
224.104	-23.19
224.338	-6.19
224.573	-8.19
224.808	-28.19
225.042	-3.19
225.277	-5.19
225.511	0.81
225.746	4.81
225.98	4.81
226.215	18.81
226.449	22.81
226.683	28.81
226.918	20.81
227.152	25.81
227.387	39.81
227.621	36.81
227.856	44.81
228.09	44.81
228.324	53.81
228.559	58.81
228.793	45.81
229.027	57.81
229.262	59.81
229.496	73.81
229.73	98.81
229.964	95.81
230.199	69.81
230.433	73.81
230.667	77.81
230.901	68.81
231.136	83.81
231.37	81.81
231.604	70.81
231.838	74.81
232.072	63.81
232.306	83.81
232.541	79.81
232.775	75.81
233.009	77.81
233.243	79.81
233.477	74.81
233.711	82.81
233.945	60.81
234.179	90.81
234.413	76.81
234.647	73.81
234.881	67.81
235.115	73.81
235.349	72.81
235.583	63.81
235.817	78.81
236.051	75.81
236.285	59.81
236.519	73.81
236.753	78.81
236.987	79.81
237.221	97.81
237.455	88.81
237.689	87.81
237.922	87.81
238.156	73.81
238.39	58.81
238.624	57.81
238.858	82.81
239.091	77.81
239.325	83.81
239.559	77.81
239.793	76.81
240.027	81.81
240.26	71.81
240.494	77.81
240.728	70.81
240.961	67.81
241.195	83.81
241.429	72.81
241.662	66.81
241.896	66.81
242.13	66.81
242.363	74.81
242.597	79.81
242.83	74.81
243.064	73.81
243.298	66.81
243.531	69.81
243.765	76.81
243.998	74.81
244.232	85.81
244.465	81.81
244.699	69.81
244.932	68.81
245.166	79.81
245.399	69.81
245.633	77.81
245.866	80.81
246.099	72.81
246.333	74.81
246.566	71.81
246.8	74.81
247.033	80.81
247.266	72.81
247.5	55.81
247.733	86.81
247.966	73.81
248.2	78.81
248.433	81.81
248.666	67.81
248.899	80.81
249.133	80.81
249.366	88.81
249.599	93.81
249.832	84.81
250.066	66.81
250.299	68.81
250.532	74.81
250.765	81.81
250.998	75.81
251.231	80.81
251.465	77.81
251.698	77.81
251.931	78.81
252.164	60.81
252.397	63.81
252.63	71.81
252.863	80.81
253.096	86.81
253.329	75.81
253.562	80.81
253.795	84.81
254.028	73.81
254.261	78.81
254.494	84.81
254.727	83.81
254.96	85.81
255.193	80.81
255.426	95.81
255.659	82.81
255.892	61.81
256.124	80.81
256.357	70.81
256.59	87.81
256.823	81.81
257.056	87.81
257.289	78.81
257.521	72.81
257.754	88.81
257.987	80.81
258.22	75.81
258.452	69.81
258.685	79.81
258.918	83.81
259.151	85.81
259.383	89.81
259.616	91.81
259.849	77.81
260.081	82.81
260.314	87.81
260.547	78.81
260.779	80.81
261.012	75.81
261.244	85.81
261.477	88.81
261.71	107.81
261.942	105.81
262.175	130.81
262.407	89.81
262.64	67.81
262.872	73.81
263.105	92.81
263.337	86.81
263.57	72.81
263.802	86.81
264.035	79.81
264.267	86.81
264.499	94.81
264.732	89.81
264.964	80.81
265.197	79.81
265.429	85.81
265.661	92.81
265.894	103.81
266.126	67.81
266.358	80.81
266.591	73.81
266.823	74.81
267.055	75.81
267.287	87.81
267.52	82.81
267.752	88.81
267.984	89.81
268.216	78.81
268.448	76.81
268.681	86.81
268.913	76.81
269.145	72.81
269.377	85.81
269.609	82.81
269.841	87.81
270.073	93.81
270.306	82.81
270.538	84.81
270.77	65.81
271.002	81.81
271.234	68.81
271.466	76.81
271.698	69.81
271.93	68.81
272.162	75.81
272.394	76.81
272.626	88.81
272.858	82.81
273.09	87.81
273.322	81.81
273.553	81.81
273.785	82.81
274.017	75.81
274.249	81.81
274.481	77.81
274.713	80.81
274.945	90.81
275.176	80.81
275.408	86.81
275.64	95.81
275.872	85.81
276.104	81.81
276.335	89.81
276.567	96.81
276.799	116.81
277.031	95.81
277.262	84.81
277.494	90.81
277.726	87.81
277.957	96.81
278.189	84.81
278.421	80.81
278.652	80.81
278.884	75.81
279.115	85.81
279.347	88.81
279.579	84.81
279.81	79.81
280.042	89.81
280.273	88.81
280.505	86.81
280.736	88.81
280.968	80.81
281.199	79.81
281.431	87.81
281.662	98.81
281.894	86.81
282.125	105.81
282.356	124.81
282.588	158.81
282.819	136.81
283.051	73.81
283.282	84.81
283.513	87.81
283.745	70.81
283.976	101.81
284.207	78.81
284.439	85.81
284.67	82.81
284.901	71.81
285.132	80.81
285.364	90.81
285.595	92.81
285.826	88.81
286.057	81.81
286.288	86.81
286.52	86.81
286.751	92.81
286.982	77.81
287.213	83.81
287.444	85.81
287.675	83.81
287.906	102.81
288.138	79.81
288.369	95.81
288.6	92.81
288.831	84.81
289.062	76.81
289.293	80.81
289.524	88.81
289.755	74.81
289.986	70.81
290.217	74.81
290.448	75.81
290.679	81.81
290.91	89.81
291.141	100.81
291.371	88.81
291.602	83.81
291.833	97.81
292.064	83.81
292.295	78.81
292.526	83.81
292.757	92.81
292.987	91.81
293.218	98.81
293.449	100.81
293.68	76.81
293.91	68.81
294.141	94.81
294.372	81.81
294.603	76.81
294.833	97.81
295.064	85.81
295.295	81.81
295.525	89.81
295.756	111.81
295.987	132.81
296.217	155.81
296.448	140.81
296.679	87.81
296.909	103.81
297.14	104.81
297.37	79.81
297.601	84.81
297.831	85.81
298.062	90.81
298.292	105.81
298.523	91.81
298.753	86.81
298.984	92.81
299.214	89.81
299.445	99.81
299.675	92.81
299.905	96.81
300.136	80.81
300.366	81.81
300.597	86.81
300.827	92.81
301.057	96.81
301.288	117.81
301.518	102.81
301.748	79.81
301.979	80.81
302.209	89.81
302.439	84.81
302.669	76.81
302.9	96.81
303.13	81.81
303.36	105.81
303.59	113.81
303.82	99.81
304.051	101.81
304.281	95.81
304.511	109.81
304.741	68.81
304.971	94.81
305.201	101.81
305.431	86.81
305.661	73.81
305.891	97.81
306.121	88.81
306.352	103.81
306.582	104.81
306.812	100.81
307.042	102.81
307.272	96.81
307.502	100.81
307.731	85.81
307.961	80.81
308.191	86.81
308.421	101.81
308.651	86.81
308.881	80.81
309.111	89.81
309.341	95.81
309.571	102.81
309.8	94.81
310.03	109.81
310.26	102.81
310.49	102.81
310.72	114.81
310.949	103.81
311.179	102.81
311.409	97.81
311.639	80.81
311.868	99.81
312.098	104.81
312.328	106.81
312.557	117.81
312.787	122.81
313.017	102.81
313.246	92.81
313.476	94.81
313.706	87.81
313.935	89.81
314.165	100.81
314.394	116.81
314.624	92.81
314.853	93.81
315.083	93.81
315.312	88.81
315.542	89.81
315.771	81.81
316.001	83.81
316.23	96.81
316.46	80.81
316.689	84.81
316.919	82.81
317.148	108.81
317.377	102.81
317.607	84.81
317.836	98.81
318.065	100.81
318.295	81.81
318.524	89.81
318.753	96.81
318.983	95.81
319.212	97.81
319.441	127.81
319.67	110.81
319.9	91.81
320.129	87.81
320.358	78.81
320.587	106.81
320.816	103.81
321.046	113.81
321.275	105.81
321.504	93.81
321.733	85.81
321.962	87.81
322.191	93.81
322.42	95.81
322.649	132.81
322.878	105.81
323.108	113.81
323.337	135.81
323.566	140.81
323.795	165.81
324.024	230.81
324.253	465.81
324.482	991.81
324.71	2033.81
324.939	2594.81
325.168	946.81
325.397	286.81
325.626	159.81
325.855	131.81
326.084	145.81
326.313	135.81
326.542	170.81
326.77	258.81
326.999	526.81
327.228	1035.81
327.457	1924.81
327.686	1497.81
327.914	399.81
328.143	226.81
328.372	164.81
328.6	120.81
328.829	135.81
329.058	148.81
329.287	146.81
329.515	123.81
329.744	99.81
329.972	106.81
330.201	107.81
330.43	124.81
330.658	135.81
330.887	175.81
331.115	126.81
331.344	104.81
331.572	90.81
331.801	106.81
332.03	106.81
332.258	83.81
332.486	88.81
332.715	110.81
332.943	87.81
333.172	89.81
333.4	82.81
333.629	101.81
333.857	120.81
334.085	116.81
334.314	93.81
334.542	103.81
334.771	112.81
334.999	105.81
335.227	95.81
335.455	94.81
335.684	97.81
335.912	90.81
336.14	97.81
336.369	101.81
336.597	117.81
336.825	93.81
337.053	77.81
337.281	82.81
337.51	81.81
337.738	89.81
337.966	101.81
338.194	105.81
338.422	89.81
338.65	100.81
338.878	88.81
339.106	100.81
339.334	105.81
339.562	88.81
339.79	89.81
340.018	97.81
340.246	90.81
340.474	95.81
340.702	83.81
340.93	91.81
341.158	88.81
341.386	88.81
341.614	111.81
341.842	100.81
342.07	93.81
342.298	88.81
342.526	72.81
342.754	89.81
342.981	90.81
343.209	85.81
343.437	102.81
343.665	87.81
343.893	88.81
344.12	73.81
344.348	88.81
344.576	84.81
344.804	99.81
345.031	84.81
345.259	114.81
345.487	87.81
345.714	84.81
345.942	102.81
346.17	115.81
346.397	92.81
346.625	101.81
346.853	79.81
347.08	92.81
347.308	89.81
347.535	84.81
347.763	104.81
347.99	100.81
348.218	99.81
348.445	111.81
348.673	96.81
348.9	96.81
349.128	97.81
349.355	90.81
349.583	90.81
349.81	96.81
350.037	83.81
350.265	98.81
350.492	75.81
350.72	99.81
350.947	88.81
351.174	109.81
351.402	109.81
351.629	96.81
351.856	95.81
352.083	98.81
352.311	103.81
352.538	125.81
352.765	103.81
352.992	107.81
353.22	124.81
353.447	122.81
353.674	101.81
353.901	95.81
354.128	104.81
354.355	109.81
354.583	97.81
354.81	91.81
355.037	89.81
355.264	85.81
355.491	92.81
355.718	88.81
355.945	87.81
356.172	94.81
356.399	91.81
356.626	88.81
356.853	94.81
357.08	93.81
357.307	90.81
357.534	93.81
357.761	94.81
357.988	94.81
358.215	87.81
358.441	86.81
358.668	80.81
358.895	77.81
359.122	99.81
359.349	88.81
359.576	85.81
359.802	110.81
360.029	136.81
360.256	129.81
360.483	109.81
360.709	81.81
360.936	83.81
361.163	94.81
361.39	101.81
361.616	97.81
361.843	81.81
362.07	86.81
362.296	95.81
362.523	96.81
362.749	80.81
362.976	93.81
363.203	92.81
363.429	85.81
363.656	91.81
363.882	85.81
364.109	98.81
364.335	88.81
364.562	78.81
364.788	95.81
365.015	94.81
365.241	110.81
365.468	102.81
365.694	119.81
365.92	87.81
366.147	89.81
366.373	93.81
366.599	92.81
366.826	84.81
367.052	89.81
367.278	87.81
367.505	86.81
367.731	87.81
367.957	98.81
368.184	89.81
368.41	105.81
368.636	116.81
368.862	137.81
369.089	114.81
369.315	104.81
369.541	99.81
369.767	82.81
369.993	96.81
370.219	103.81
370.445	85.81
370.672	85.81
370.898	92.81
371.124	81.81
371.35	79.81
371.576	88.81
371.802	82.81
372.028	75.81
372.254	103.81
372.48	106.81
372.706	83.81
372.932	82.81
373.158	83.81
373.384	90.81
373.61	82.81
373.835	71.81
374.061	79.81
374.287	90.81
374.513	101.81
374.739	94.81
374.965	85.81
375.191	95.81
375.416	93.81
375.642	88.81
375.868	97.81
376.094	97.81
376.319	87.81
376.545	92.81
376.771	92.81
376.997	84.81
377.222	96.81
377.448	80.81
377.674	89.81
377.899	73.81
378.125	78.81
378.35	78.81
378.576	86.81
378.802	94.81
379.027	96.81
379.253	88.81
379.478	102.81
379.704	87.81
379.929	97.81
380.155	94.81
380.38	97.81
380.606	97.81
380.831	94.81
381.057	89.81
381.282	103.81
381.507	108.81
381.733	84.81
381.958	101.81
382.184	90.81
382.409	92.81
382.634	112.81
382.86	98.81
383.085	95.81
383.31	97.81
383.535	95.81
383.761	91.81
383.986	97.81
384.211	93.81
384.436	97.81
384.662	99.81
384.887	101.81
385.112	102.81
385.337	112.81
385.562	110.81
385.787	91.81
386.013	117.81
386.238	120.81
386.463	112.81
386.688	124.81
386.913	108.81
387.138	116.81
387.363	98.81
387.588	88.81
387.813	103.81
388.038	104.81
388.263	109.81
388.488	104.81
388.713	97.81
388.938	94.81
389.163	94.81
389.387	102.81
389.612	94.81
389.837	88.81
390.062	88.81
390.287	85.81
390.512	84.81
390.736	86.81
390.961	75.81
391.186	92.81
391.411	84.81
391.636	103.81
391.86	92.81
392.085	78.81
392.31	93.81
392.534	87.81
392.759	90.81
392.984	72.81
393.208	85.81
393.433	97.81
393.658	98.81
393.882	108.81
394.107	80.81
394.331	78.81
394.556	86.81
394.78	81.81
395.005	82.81
395.229	82.81
395.454	86.81
395.678	89.81
395.903	76.81
396.127	87.81
396.352	97.81
396.576	86.81
396.801	88.81
397.025	88.81
397.249	84.81
397.474	96.81
397.698	80.81
397.922	81.81
398.147	84.81
398.371	88.81
398.595	79.81
398.82	103.81
399.044	80.81
399.268	81.81
399.492	81.81
399.717	74.81
399.941	83.81
400.165	103.81
400.389	101.81
400.613	67.81
400.837	86.81
401.062	77.81
401.286	96.81
401.51	97.81
401.734	94.81
401.958	113.81
402.182	158.81
402.406	194.81
402.63	142.81
402.854	96.81
403.078	85.81
403.302	92.81
403.526	84.81
403.75	94.81
403.974	85.81
404.198	95.81
404.422	90.81
404.645	100.81
404.869	96.81
405.093	93.81
405.317	100.81
405.541	109.81
405.765	100.81
405.988	126.81
406.212	225.81
406.436	287.81
406.66	174.81
406.883	114.81
407.107	97.81
407.331	95.81
407.555	96.81
407.778	95.81
408.002	89.81
408.226	89.81
408.449	80.81
408.673	84.81
408.896	101.81
409.12	97.81
409.344	108.81
409.567	69.81
409.791	85.81
410.014	85.81
410.238	94.81
410.461	88.81
410.685	94.81
410.908	92.81
411.132	117.81
411.355	92.81
411.578	103.81
411.802	72.81
412.025	78.81
412.249	92.81
412.472	79.81
412.695	67.81
412.919	80.81
413.142	82.81
413.365	90.81
413.589	92.81
413.812	101.81
414.035	93.81
414.258	89.81
414.482	88.81
414.705	93.81
414.928	64.81
415.151	86.81
415.374	102.81
415.597	92.81
415.821	84.81
416.044	84.81
416.267	96.81
416.49	110.81
416.713	82.81
416.936	99.81
417.159	96.81
417.382	86.81
417.605	84.81
417.828	98.81
418.051	100.81
418.274	84.81
418.497	78.81
418.72	82.81
418.943	77.81
419.166	84.81
419.389	92.81
419.611	85.81
419.834	87.81
420.057	91.81
420.28	84.81
420.503	82.81
420.726	89.81
420.948	78.81
421.171	95.81
421.394	101.81
421.617	81.81
421.839	76.81
422.062	90.81
422.285	84.81
422.507	104.81
422.73	112.81
422.953	92.81
423.175	77.81
423.398	89.81
423.621	98.81
423.843	91.81
424.066	92.81
424.288	97.81
424.511	83.81
424.733	93.81
424.956	131.81
425.178	95.81
425.401	97.81
425.623	104.81
425.846	91.81
426.068	99.81
426.291	96.81
426.513	108.81
426.735	96.81
426.958	98.81
427.18	110.81
427.402	137.81
427.625	207.81
427.847	160.81
428.069	106.81
428.292	82.81
428.514	91.81
428.736	80.81
428.958	74.81
429.181	83.81
429.403	96.81
429.625	85.81
429.847	96.81
430.069	97.81
430.292	90.81
430.514	84.81
430.736	89.81
430.958	88.81
431.18	83.81
431.402	91.81
431.624	82.81
431.846	79.81
432.068	70.81
432.29	80.81
432.512	81.81
432.734	84.81
432.956	92.81
433.178	94.81
433.4	109.81
433.622	92.81
433.844	98.81
434.066	90.81
434.287	88.81
434.509	76.81
434.731	89.81
434.953	87.81
435.175	68.81
435.397	83.81
435.618	86.81
435.84	114.81
436.062	138.81
436.284	121.81
436.505	96.81
436.727	87.81
436.949	86.81
437.17	77.81
437.392	81.81
437.614	89.81
437.835	129.81
438.057	130.81
438.278	96.81
438.5	108.81
438.721	121.81
438.943	87.81
439.165	81.81
439.386	98.81
439.608	86.81
439.829	97.81
440.05	131.81
440.272	156.81
440.493	108.81
440.715	81.81
440.936	78.81
441.158	88.81
441.379	73.81
441.6	97.81
441.822	100.81
442.043	101.81
442.264	95.81
442.486	105.81
442.707	97.81
442.928	114.81
443.149	146.81
443.371	142.81
443.592	117.81
443.813	117.81
444.034	110.81
444.255	96.81
444.476	88.81
444.698	97.81
444.919	92.81
445.14	135.81
445.361	134.81
445.582	128.81
445.803	166.81
446.024	165.81
446.245	126.81
446.466	114.81
446.687	88.81
446.908	92.81
447.129	90.81
447.35	89.81
447.571	96.81
447.792	87.81
448.013	105.81
448.234	115.81
448.455	130.81
448.675	104.81
448.896	122.81
449.117	92.81
449.338	119.81
449.559	142.81
449.779	138.81
450	84.81
450.221	83.81
450.442	102.81
450.662	102.81
450.883	103.81
451.104	125.81
451.324	96.81
451.545	105.81
451.766	79.81
451.986	76.81
452.207	93.81
452.428	88.81
452.648	97.81
452.869	122.81
453.089	123.81
453.31	142.81
453.53	96.81
453.751	97.81
453.971	114.81
454.192	128.81
454.412	98.81
454.633	104.81
454.853	95.81
455.073	97.81
455.294	93.81
455.514	107.81
455.734	100.81
455.955	72.81
456.175	83.81
456.395	84.81
456.616	95.81
456.836	90.81
457.056	76.81
457.276	78.81
457.497	93.81
457.717	88.81
457.937	85.81
458.157	90.81
458.377	82.81
458.598	112.81
458.818	190.81
459.038	208.81
459.258	145.81
459.478	90.81
459.698	71.81
459.918	82.81
460.138	88.81
460.358	84.81
460.578	83.81
460.798	91.81
461.018	90.81
461.238	79.81
461.458	85.81
461.678	81.81
461.898	72.81
462.118	74.81
462.338	80.81
462.558	93.81
462.777	88.81
462.997	85.81
463.217	87.81
463.437	87.81
463.657	89.81
463.876	90.81
464.096	89.81
464.316	109.81
464.536	99.81
464.755	99.81
464.975	125.81
465.195	213.81
465.414	197.81
465.634	99.81
465.854	90.81
466.073	79.81
466.293	82.81
466.512	96.81
466.732	84.81
466.951	88.81
467.171	77.81
467.391	94.81
467.61	98.81
467.829	108.81
468.049	88.81
468.268	88.81
468.488	86.81
468.707	96.81
468.927	94.81
469.146	97.81
469.365	81.81
469.585	95.81
469.804	97.81
470.023	90.81
470.243	90.81
470.462	103.81
470.681	140.81
470.901	88.81
471.12	93.81
471.339	83.81
471.558	86.81
471.777	95.81
471.997	84.81
472.216	93.81
472.435	103.81
472.654	98.81
472.873	78.81
473.092	92.81
473.311	85.81
473.53	80.81
473.749	81.81
473.968	94.81
474.187	109.81
474.406	90.81
474.625	95.81
474.844	82.81
475.063	82.81
475.282	87.81
475.501	84.81
475.72	98.81
475.939	81.81
476.158	84.81
476.377	97.81
476.596	84.81
476.814	96.81
477.033	102.81
477.252	73.81
477.471	87.81
477.69	82.81
477.908	91.81
478.127	95.81
478.346	102.81
478.564	100.81
478.783	90.81
479.002	88.81
479.22	82.81
479.439	101.81
479.658	104.81
479.876	98.81
480.095	103.81
480.313	85.81
480.532	90.81
480.751	92.81
480.969	103.81
481.188	138.81
481.406	113.81
481.624	87.81
481.843	98.81
482.061	95.81
482.28	87.81
482.498	74.81
482.717	98.81
482.935	82.81
483.153	87.81
483.372	102.81
483.59	98.81
483.808	100.81
484.027	102.81
484.245	87.81
484.463	90.81
484.681	99.81
484.9	92.81
485.118	100.81
485.336	80.81
485.554	102.81
485.772	96.81
485.99	107.81
486.209	116.81
486.427	111.81
486.645	97.81
486.863	132.81
487.081	102.81
487.299	112.81
487.517	94.81
487.735	85.81
487.953	95.81
488.171	89.81
488.389	92.81
488.607	107.81
488.825	98.81
489.043	84.81
489.261	93.81
489.479	101.81
489.696	85.81
489.914	93.81
490.132	91.81
490.35	88.81
490.568	87.81
490.786	92.81
491.003	89.81
491.221	93.81
491.439	82.81
491.657	82.81
491.874	88.81
492.092	93.81
492.31	78.81
492.527	81.81
492.745	77.81
492.963	85.81
493.18	84.81
493.398	96.81
493.615	105.81
493.833	92.81
494.05	92.81
494.268	98.81
494.485	87.81
494.703	82.81
494.92	93.81
495.138	99.81
495.355	84.81
495.573	84.81
495.79	93.81
496.008	89.81
496.225	89.81
496.442	99.81
496.66	92.81
496.877	70.81
497.094	98.81
497.312	83.81
497.529	89.81
497.746	88.81
497.963	103.81
498.181	86.81
498.398	100.81
498.615	105.81
498.832	122.81
499.049	84.81
499.267	100.81
499.484	94.81
499.701	90.81
499.918	83.81
500.135	93.81
500.352	84.81
500.569	82.81
500.786	97.81
501.003	97.81
501.22	78.81
501.437	84.81
501.654	95.81
501.871	108.81
502.088	94.81
502.305	84.81
502.522	90.81
502.739	78.81
502.956	94.81
503.172	97.81
503.389	88.81
503.606	116.81
503.823	112.81
504.04	102.81
504.256	88.81
504.473	92.81
504.69	103.81
504.907	97.81
505.123	94.81
505.34	86.81
505.557	84.81
505.773	81.81
505.99	85.81
506.207	88.81
506.423	83.81
506.64	90.81
506.856	90.81
507.073	80.81
507.289	92.81
507.506	108.81
507.722	130.81
507.939	115.81
508.155	90.81
508.372	76.81
508.588	94.81
508.805	97.81
509.021	106.81
509.238	96.81
509.454	96.81
509.67	105.81
509.887	104.81
510.103	142.81
510.319	256.81
510.536	976.81
510.752	3376.81
510.968	926.81
511.184	191.81
511.401	112.81
511.617	95.81
511.833	92.81
512.049	92.81
512.265	89.81
512.481	97.81
512.698	87.81
512.914	93.81
513.13	83.81
513.346	99.81
513.562	100.81
513.778	101.81
513.994	128.81
514.21	120.81
514.426	146.81
514.642	159.81
514.858	128.81
515.074	196.81
515.29	637.81
515.506	2329.81
