Data from Circ_2018_H10_HRD10591_00021.txt Node
Date: Wed Jan 03 09:56:06 EST 2024
User: Yrep
Spectrometer: HR+D1059
Trigger mode: 1
Integration Time (sec): 1.000000E-1
Scans to average: 1
Electric dark correction enabled: true
Nonlinearity correction enabled: false
Boxcar width: 0
XAxis mode: Wavelengths
Number of Pixels in Spectrum: 2048
>>>>>Begin Spectral Data<<<<<
223.165	-18.19
223.4	-18.19
223.635	-18.19
223.869	-22.19
224.104	-27.19
224.338	-23.19
224.573	-15.19
224.808	-17.19
225.042	6.81
225.277	-0.19
225.511	5.81
225.746	7.81
225.98	11.81
226.215	14.81
226.449	15.81
226.683	10.81
226.918	17.81
227.152	31.81
227.387	39.81
227.621	37.81
227.856	56.81
228.09	52.81
228.324	48.81
228.559	40.81
228.793	65.81
229.027	58.81
229.262	58.81
229.496	83.81
229.73	91.81
229.964	78.81
230.199	68.81
230.433	77.81
230.667	81.81
230.901	67.81
231.136	87.81
231.37	81.81
231.604	66.81
231.838	67.81
232.072	73.81
232.306	80.81
232.541	70.81
232.775	80.81
233.009	83.81
233.243	79.81
233.477	66.81
233.711	69.81
233.945	82.81
234.179	81.81
234.413	73.81
234.647	77.81
234.881	73.81
235.115	91.81
235.349	79.81
235.583	66.81
235.817	93.81
236.051	77.81
236.285	69.81
236.519	67.81
236.753	81.81
236.987	78.81
237.221	82.81
237.455	85.81
237.689	74.81
237.922	74.81
238.156	76.81
238.39	93.81
238.624	74.81
238.858	77.81
239.091	84.81
239.325	74.81
239.559	76.81
239.793	78.81
240.027	62.81
240.26	70.81
240.494	83.81
240.728	83.81
240.961	75.81
241.195	77.81
241.429	72.81
241.662	76.81
241.896	77.81
242.13	69.81
242.363	81.81
242.597	63.81
242.83	79.81
243.064	81.81
243.298	76.81
243.531	70.81
243.765	80.81
243.998	82.81
244.232	79.81
244.465	82.81
244.699	70.81
244.932	90.81
245.166	76.81
245.399	90.81
245.633	71.81
245.866	83.81
246.099	75.81
246.333	61.81
246.566	77.81
246.8	82.81
247.033	79.81
247.266	88.81
247.5	81.81
247.733	73.81
247.966	77.81
248.2	77.81
248.433	66.81
248.666	71.81
248.899	66.81
249.133	84.81
249.366	95.81
249.599	89.81
249.832	77.81
250.066	63.81
250.299	74.81
250.532	74.81
250.765	76.81
250.998	66.81
251.231	88.81
251.465	75.81
251.698	67.81
251.931	85.81
252.164	71.81
252.397	77.81
252.63	70.81
252.863	75.81
253.096	91.81
253.329	86.81
253.562	79.81
253.795	88.81
254.028	87.81
254.261	97.81
254.494	71.81
254.727	62.81
254.96	75.81
255.193	78.81
255.426	74.81
255.659	79.81
255.892	74.81
256.124	88.81
256.357	80.81
256.59	85.81
256.823	73.81
257.056	83.81
257.289	100.81
257.521	89.81
257.754	79.81
257.987	87.81
258.22	100.81
258.452	73.81
258.685	74.81
258.918	73.81
259.151	95.81
259.383	71.81
259.616	93.81
259.849	87.81
260.081	97.81
260.314	82.81
260.547	70.81
260.779	74.81
261.012	75.81
261.244	81.81
261.477	94.81
261.71	95.81
261.942	114.81
262.175	95.81
262.407	74.81
262.64	79.81
262.872	94.81
263.105	84.81
263.337	91.81
263.57	88.81
263.802	68.81
264.035	81.81
264.267	86.81
264.499	77.81
264.732	72.81
264.964	83.81
265.197	86.81
265.429	89.81
265.661	83.81
265.894	73.81
266.126	70.81
266.358	87.81
266.591	75.81
266.823	90.81
267.055	77.81
267.287	74.81
267.52	85.81
267.752	74.81
267.984	86.81
268.216	77.81
268.448	66.81
268.681	72.81
268.913	75.81
269.145	88.81
269.377	79.81
269.609	77.81
269.841	90.81
270.073	77.81
270.306	78.81
270.538	78.81
270.77	75.81
271.002	91.81
271.234	80.81
271.466	74.81
271.698	73.81
271.93	80.81
272.162	83.81
272.394	85.81
272.626	88.81
272.858	85.81
273.09	86.81
273.322	79.81
273.553	81.81
273.785	84.81
274.017	88.81
274.249	77.81
274.481	72.81
274.713	80.81
274.945	92.81
275.176	80.81
275.408	82.81
275.64	87.81
275.872	82.81
276.104	80.81
276.335	99.81
276.567	84.81
276.799	106.81
277.031	87.81
277.262	81.81
277.494	75.81
277.726	81.81
277.957	78.81
278.189	79.81
278.421	82.81
278.652	97.81
278.884	90.81
279.115	78.81
279.347	74.81
279.579	73.81
279.81	82.81
280.042	85.81
280.273	96.81
280.505	83.81
280.736	84.81
280.968	85.81
281.199	85.81
281.431	75.81
281.662	65.81
281.894	90.81
282.125	96.81
282.356	120.81
282.588	145.81
282.819	106.81
283.051	82.81
283.282	79.81
283.513	85.81
283.745	81.81
283.976	76.81
284.207	82.81
284.439	81.81
284.67	83.81
284.901	91.81
285.132	71.81
285.364	83.81
285.595	87.81
285.826	87.81
286.057	91.81
286.288	71.81
286.52	78.81
286.751	83.81
286.982	82.81
287.213	84.81
287.444	92.81
287.675	92.81
287.906	87.81
288.138	72.81
288.369	95.81
288.6	85.81
288.831	98.81
289.062	89.81
289.293	89.81
289.524	94.81
289.755	95.81
289.986	75.81
290.217	86.81
290.448	83.81
290.679	75.81
290.91	76.81
291.141	75.81
291.371	88.81
291.602	92.81
291.833	88.81
292.064	84.81
292.295	72.81
292.526	92.81
292.757	89.81
292.987	93.81
293.218	81.81
293.449	83.81
293.68	84.81
293.91	77.81
294.141	88.81
294.372	76.81
294.603	102.81
294.833	87.81
295.064	83.81
295.295	96.81
295.525	96.81
295.756	101.81
295.987	113.81
296.217	136.81
296.448	116.81
296.679	101.81
296.909	81.81
297.14	94.81
297.37	85.81
297.601	107.81
297.831	72.81
298.062	86.81
298.292	95.81
298.523	92.81
298.753	92.81
298.984	84.81
299.214	95.81
299.445	103.81
299.675	76.81
299.905	79.81
300.136	75.81
300.366	82.81
300.597	81.81
300.827	97.81
301.057	109.81
301.288	105.81
301.518	92.81
301.748	89.81
301.979	107.81
302.209	93.81
302.439	94.81
302.669	86.81
302.9	84.81
303.13	86.81
303.36	89.81
303.59	110.81
303.82	93.81
304.051	88.81
304.281	97.81
304.511	90.81
304.741	81.81
304.971	78.81
305.201	101.81
305.431	78.81
305.661	83.81
305.891	88.81
306.121	76.81
306.352	99.81
306.582	99.81
306.812	105.81
307.042	94.81
307.272	89.81
307.502	92.81
307.731	85.81
307.961	91.81
308.191	77.81
308.421	92.81
308.651	87.81
308.881	98.81
309.111	93.81
309.341	99.81
309.571	89.81
309.8	118.81
310.03	105.81
310.26	109.81
310.49	90.81
310.72	113.81
310.949	102.81
311.179	100.81
311.409	85.81
311.639	95.81
311.868	85.81
312.098	95.81
312.328	97.81
312.557	105.81
312.787	87.81
313.017	96.81
313.246	88.81
313.476	94.81
313.706	90.81
313.935	100.81
314.165	94.81
314.394	102.81
314.624	106.81
314.853	93.81
315.083	96.81
315.312	89.81
315.542	82.81
315.771	89.81
316.001	90.81
316.23	87.81
316.46	81.81
316.689	94.81
316.919	87.81
317.148	100.81
317.377	95.81
317.607	78.81
317.836	81.81
318.065	87.81
318.295	90.81
318.524	96.81
318.753	92.81
318.983	98.81
319.212	97.81
319.441	117.81
319.67	113.81
319.9	90.81
320.129	92.81
320.358	98.81
320.587	88.81
320.816	97.81
321.046	98.81
321.275	103.81
321.504	94.81
321.733	92.81
321.962	90.81
322.191	104.81
322.42	115.81
322.649	103.81
322.878	110.81
323.108	106.81
323.337	113.81
323.566	129.81
323.795	152.81
324.024	208.81
324.253	402.81
324.482	820.81
324.71	1665.81
324.939	2104.81
325.168	800.81
325.397	238.81
325.626	147.81
325.855	142.81
326.084	136.81
326.313	125.81
326.542	159.81
326.77	227.81
326.999	434.81
327.228	896.81
327.457	1599.81
327.686	1258.81
327.914	357.81
328.143	209.81
328.372	145.81
328.6	115.81
328.829	115.81
329.058	120.81
329.287	154.81
329.515	106.81
329.744	109.81
329.972	99.81
330.201	107.81
330.43	125.81
330.658	131.81
330.887	138.81
331.115	119.81
331.344	106.81
331.572	103.81
331.801	99.81
332.03	101.81
332.258	100.81
332.486	78.81
332.715	93.81
332.943	90.81
333.172	89.81
333.4	88.81
333.629	106.81
333.857	113.81
334.085	109.81
334.314	115.81
334.542	100.81
334.771	119.81
334.999	102.81
335.227	101.81
335.455	87.81
335.684	108.81
335.912	89.81
336.14	86.81
336.369	93.81
336.597	91.81
336.825	96.81
337.053	75.81
337.281	80.81
337.51	84.81
337.738	91.81
337.966	102.81
338.194	92.81
338.422	96.81
338.65	107.81
338.878	87.81
339.106	85.81
339.334	92.81
339.562	92.81
339.79	86.81
340.018	88.81
340.246	96.81
340.474	91.81
340.702	104.81
340.93	88.81
341.158	90.81
341.386	86.81
341.614	80.81
341.842	97.81
342.07	98.81
342.298	90.81
342.526	85.81
342.754	87.81
342.981	77.81
343.209	79.81
343.437	103.81
343.665	88.81
343.893	103.81
344.12	91.81
344.348	94.81
344.576	86.81
344.804	87.81
345.031	98.81
345.259	107.81
345.487	92.81
345.714	96.81
345.942	85.81
346.17	92.81
346.397	86.81
346.625	88.81
346.853	94.81
347.08	85.81
347.308	97.81
347.535	91.81
347.763	94.81
347.99	92.81
348.218	94.81
348.445	100.81
348.673	90.81
348.9	85.81
349.128	85.81
349.355	95.81
349.583	84.81
349.81	99.81
350.037	80.81
350.265	98.81
350.492	85.81
350.72	93.81
350.947	101.81
351.174	117.81
351.402	104.81
351.629	110.81
351.856	98.81
352.083	113.81
352.311	100.81
352.538	105.81
352.765	107.81
352.992	107.81
353.22	100.81
353.447	103.81
353.674	92.81
353.901	101.81
354.128	116.81
354.355	93.81
354.583	102.81
354.81	92.81
355.037	90.81
355.264	102.81
355.491	92.81
355.718	90.81
355.945	102.81
356.172	96.81
356.399	90.81
356.626	97.81
356.853	101.81
357.08	87.81
357.307	103.81
357.534	99.81
357.761	97.81
357.988	93.81
358.215	92.81
358.441	89.81
358.668	86.81
358.895	93.81
359.122	99.81
359.349	84.81
359.576	101.81
359.802	88.81
360.029	127.81
360.256	115.81
360.483	110.81
360.709	86.81
360.936	95.81
361.163	90.81
361.39	96.81
361.616	97.81
361.843	87.81
362.07	107.81
362.296	86.81
362.523	93.81
362.749	85.81
362.976	95.81
363.203	83.81
363.429	86.81
363.656	90.81
363.882	88.81
364.109	103.81
364.335	90.81
364.562	99.81
364.788	83.81
365.015	99.81
365.241	99.81
365.468	99.81
365.694	102.81
365.92	100.81
366.147	95.81
366.373	87.81
366.599	90.81
366.826	96.81
367.052	77.81
367.278	89.81
367.505	88.81
367.731	88.81
367.957	97.81
368.184	80.81
368.41	101.81
368.636	113.81
368.862	126.81
369.089	104.81
369.315	104.81
369.541	93.81
369.767	90.81
369.993	95.81
370.219	85.81
370.445	86.81
370.672	99.81
370.898	90.81
371.124	92.81
371.35	100.81
371.576	91.81
371.802	87.81
372.028	90.81
372.254	92.81
372.48	83.81
372.706	90.81
372.932	93.81
373.158	99.81
373.384	101.81
373.61	93.81
373.835	85.81
374.061	75.81
374.287	82.81
374.513	89.81
374.739	96.81
374.965	100.81
375.191	88.81
375.416	85.81
375.642	91.81
375.868	91.81
376.094	97.81
376.319	99.81
376.545	94.81
376.771	90.81
376.997	83.81
377.222	87.81
377.448	97.81
377.674	82.81
377.899	90.81
378.125	88.81
378.35	106.81
378.576	80.81
378.802	91.81
379.027	98.81
379.253	81.81
379.478	87.81
379.704	92.81
379.929	89.81
380.155	95.81
380.38	86.81
380.606	91.81
380.831	96.81
381.057	94.81
381.282	97.81
381.507	93.81
381.733	103.81
381.958	95.81
382.184	92.81
382.409	86.81
382.634	121.81
382.86	99.81
383.085	97.81
383.31	109.81
383.535	88.81
383.761	94.81
383.986	80.81
384.211	98.81
384.436	106.81
384.662	113.81
384.887	109.81
385.112	87.81
385.337	111.81
385.562	123.81
385.787	105.81
386.013	107.81
386.238	120.81
386.463	103.81
386.688	108.81
386.913	118.81
387.138	94.81
387.363	123.81
387.588	92.81
387.813	99.81
388.038	105.81
388.263	103.81
388.488	108.81
388.713	95.81
388.938	97.81
389.163	105.81
389.387	84.81
389.612	98.81
389.837	90.81
390.062	97.81
390.287	77.81
390.512	80.81
390.736	87.81
390.961	91.81
391.186	84.81
391.411	90.81
391.636	111.81
391.86	94.81
392.085	88.81
392.31	81.81
392.534	79.81
392.759	94.81
392.984	88.81
393.208	66.81
393.433	90.81
393.658	85.81
393.882	95.81
394.107	94.81
394.331	92.81
394.556	74.81
394.78	93.81
395.005	91.81
395.229	90.81
395.454	87.81
395.678	81.81
395.903	87.81
396.127	88.81
396.352	85.81
396.576	83.81
396.801	75.81
397.025	90.81
397.249	87.81
397.474	77.81
397.698	74.81
397.922	82.81
398.147	85.81
398.371	84.81
398.595	72.81
398.82	86.81
399.044	86.81
399.268	77.81
399.492	87.81
399.717	97.81
399.941	72.81
400.165	98.81
400.389	97.81
400.613	97.81
400.837	84.81
401.062	87.81
401.286	85.81
401.51	90.81
401.734	105.81
401.958	95.81
402.182	130.81
402.406	181.81
402.63	131.81
402.854	106.81
403.078	85.81
403.302	93.81
403.526	86.81
403.75	81.81
403.974	90.81
404.198	84.81
404.422	93.81
404.645	85.81
404.869	78.81
405.093	85.81
405.317	113.81
405.541	113.81
405.765	91.81
405.988	123.81
406.212	177.81
406.436	255.81
406.66	160.81
406.883	111.81
407.107	84.81
407.331	91.81
407.555	103.81
407.778	94.81
408.002	89.81
408.226	95.81
408.449	80.81
408.673	78.81
408.896	98.81
409.12	103.81
409.344	98.81
409.567	90.81
409.791	85.81
410.014	104.81
410.238	81.81
410.461	76.81
410.685	97.81
410.908	95.81
411.132	98.81
411.355	100.81
411.578	89.81
411.802	74.81
412.025	79.81
412.249	97.81
412.472	95.81
412.695	93.81
412.919	91.81
413.142	81.81
413.365	94.81
413.589	88.81
413.812	90.81
414.035	80.81
414.258	99.81
414.482	95.81
414.705	88.81
414.928	78.81
415.151	102.81
415.374	90.81
415.597	86.81
415.821	95.81
416.044	81.81
416.267	87.81
416.49	86.81
416.713	100.81
416.936	86.81
417.159	105.81
417.382	87.81
417.605	80.81
417.828	91.81
418.051	88.81
418.274	97.81
418.497	102.81
418.72	91.81
418.943	92.81
419.166	91.81
419.389	95.81
419.611	87.81
419.834	93.81
420.057	93.81
420.28	93.81
420.503	82.81
420.726	89.81
420.948	80.81
421.171	102.81
421.394	94.81
421.617	94.81
421.839	85.81
422.062	96.81
422.285	80.81
422.507	105.81
422.73	103.81
422.953	100.81
423.175	100.81
423.398	82.81
423.621	88.81
423.843	90.81
424.066	89.81
424.288	95.81
424.511	90.81
424.733	96.81
424.956	108.81
425.178	99.81
425.401	105.81
425.623	93.81
425.846	101.81
426.068	96.81
426.291	89.81
426.513	95.81
426.735	89.81
426.958	115.81
427.18	107.81
427.402	122.81
427.625	163.81
427.847	118.81
428.069	109.81
428.292	94.81
428.514	78.81
428.736	97.81
428.958	86.81
429.181	86.81
429.403	84.81
429.625	68.81
429.847	87.81
430.069	88.81
430.292	88.81
430.514	78.81
430.736	91.81
430.958	89.81
431.18	98.81
431.402	79.81
431.624	89.81
431.846	82.81
432.068	104.81
432.29	81.81
432.512	90.81
432.734	93.81
432.956	75.81
433.178	106.81
433.4	94.81
433.622	90.81
433.844	94.81
434.066	98.81
434.287	93.81
434.509	80.81
434.731	86.81
434.953	91.81
435.175	85.81
435.397	97.81
435.618	91.81
435.84	112.81
436.062	109.81
436.284	122.81
436.505	104.81
436.727	105.81
436.949	87.81
437.17	85.81
437.392	88.81
437.614	95.81
437.835	111.81
438.057	115.81
438.278	108.81
438.5	94.81
438.721	115.81
438.943	109.81
439.165	88.81
439.386	89.81
439.608	88.81
439.829	102.81
440.05	125.81
440.272	143.81
440.493	103.81
440.715	94.81
440.936	94.81
441.158	90.81
441.379	87.81
441.6	80.81
441.822	100.81
442.043	102.81
442.264	99.81
442.486	100.81
442.707	100.81
442.928	90.81
443.149	139.81
443.371	138.81
443.592	115.81
443.813	113.81
444.034	97.81
444.255	80.81
444.476	88.81
444.698	101.81
444.919	83.81
445.14	125.81
445.361	131.81
445.582	126.81
445.803	137.81
446.024	149.81
446.245	149.81
446.466	110.81
446.687	83.81
446.908	84.81
447.129	100.81
447.35	97.81
447.571	89.81
447.792	101.81
448.013	106.81
448.234	114.81
448.455	98.81
448.675	113.81
448.896	122.81
449.117	92.81
449.338	88.81
449.559	117.81
449.779	135.81
450	86.81
450.221	93.81
450.442	96.81
450.662	99.81
450.883	110.81
451.104	112.81
451.324	91.81
451.545	87.81
451.766	90.81
451.986	75.81
452.207	81.81
452.428	102.81
452.648	94.81
452.869	105.81
453.089	110.81
453.31	114.81
453.53	106.81
453.751	87.81
453.971	107.81
454.192	126.81
454.412	102.81
454.633	90.81
454.853	86.81
455.073	83.81
455.294	104.81
455.514	102.81
455.734	96.81
455.955	77.81
456.175	77.81
456.395	83.81
456.616	84.81
456.836	90.81
457.056	90.81
457.276	83.81
457.497	71.81
457.717	69.81
457.937	89.81
458.157	94.81
458.377	94.81
458.598	100.81
458.818	135.81
459.038	161.81
459.258	121.81
459.478	82.81
459.698	84.81
459.918	85.81
460.138	79.81
460.358	76.81
460.578	95.81
460.798	91.81
461.018	88.81
461.238	93.81
461.458	89.81
461.678	81.81
461.898	94.81
462.118	80.81
462.338	97.81
462.558	85.81
462.777	82.81
462.997	85.81
463.217	82.81
463.437	82.81
463.657	78.81
463.876	79.81
464.096	84.81
464.316	93.81
464.536	91.81
464.755	95.81
464.975	118.81
465.195	177.81
465.414	184.81
465.634	90.81
465.854	86.81
466.073	85.81
466.293	73.81
466.512	84.81
466.732	81.81
466.951	76.81
467.171	96.81
467.391	98.81
467.61	99.81
467.829	96.81
468.049	89.81
468.268	101.81
468.488	80.81
468.707	81.81
468.927	88.81
469.146	95.81
469.365	89.81
469.585	86.81
469.804	83.81
470.023	90.81
470.243	98.81
470.462	100.81
470.681	102.81
470.901	94.81
471.12	84.81
471.339	89.81
471.558	81.81
471.777	96.81
471.997	84.81
472.216	102.81
472.435	107.81
472.654	96.81
472.873	88.81
473.092	81.81
473.311	84.81
473.53	87.81
473.749	86.81
473.968	93.81
474.187	97.81
474.406	94.81
474.625	113.81
474.844	106.81
475.063	82.81
475.282	80.81
475.501	87.81
475.72	83.81
475.939	79.81
476.158	95.81
476.377	89.81
476.596	83.81
476.814	109.81
477.033	86.81
477.252	84.81
477.471	71.81
477.69	85.81
477.908	91.81
478.127	94.81
478.346	88.81
478.564	85.81
478.783	91.81
479.002	97.81
479.22	88.81
479.439	107.81
479.658	106.81
479.876	96.81
480.095	98.81
480.313	93.81
480.532	71.81
480.751	78.81
480.969	101.81
481.188	157.81
481.406	133.81
481.624	90.81
481.843	74.81
482.061	90.81
482.28	89.81
482.498	78.81
482.717	91.81
482.935	87.81
483.153	94.81
483.372	86.81
483.59	89.81
483.808	94.81
484.027	86.81
484.245	103.81
484.463	101.81
484.681	93.81
484.9	82.81
485.118	90.81
485.336	104.81
485.554	94.81
485.772	97.81
485.99	101.81
486.209	96.81
486.427	97.81
486.645	101.81
486.863	110.81
487.081	106.81
487.299	88.81
487.517	102.81
487.735	97.81
487.953	87.81
488.171	89.81
488.389	75.81
488.607	95.81
488.825	98.81
489.043	89.81
489.261	76.81
489.479	89.81
489.696	89.81
489.914	79.81
490.132	93.81
490.35	86.81
490.568	84.81
490.786	100.81
491.003	86.81
491.221	99.81
491.439	89.81
491.657	76.81
491.874	78.81
492.092	86.81
492.31	81.81
492.527	78.81
492.745	89.81
492.963	79.81
493.18	84.81
493.398	93.81
493.615	104.81
493.833	83.81
494.05	85.81
494.268	96.81
494.485	81.81
494.703	90.81
494.92	99.81
495.138	83.81
495.355	94.81
495.573	98.81
495.79	80.81
496.008	87.81
496.225	79.81
496.442	90.81
496.66	104.81
496.877	80.81
497.094	82.81
497.312	96.81
497.529	93.81
497.746	87.81
497.963	76.81
498.181	87.81
498.398	95.81
498.615	94.81
498.832	96.81
499.049	85.81
499.267	65.81
499.484	79.81
499.701	77.81
499.918	85.81
500.135	95.81
500.352	99.81
500.569	96.81
500.786	94.81
501.003	93.81
501.22	85.81
501.437	96.81
501.654	102.81
501.871	103.81
502.088	103.81
502.305	93.81
502.522	83.81
502.739	93.81
502.956	82.81
503.172	97.81
503.389	101.81
503.606	102.81
503.823	87.81
504.04	92.81
504.256	105.81
504.473	90.81
504.69	89.81
504.907	90.81
505.123	88.81
505.34	90.81
505.557	94.81
505.773	93.81
505.99	83.81
506.207	83.81
506.423	87.81
506.64	84.81
506.856	93.81
507.073	91.81
507.289	88.81
507.506	82.81
507.722	125.81
507.939	105.81
508.155	101.81
508.372	87.81
508.588	91.81
508.805	94.81
509.021	107.81
509.238	91.81
509.454	94.81
509.67	111.81
509.887	106.81
510.103	140.81
510.319	228.81
510.536	831.81
510.752	2726.81
510.968	789.81
511.184	180.81
511.401	123.81
511.617	101.81
511.833	94.81
512.049	85.81
512.265	100.81
512.481	97.81
512.698	101.81
512.914	87.81
513.13	117.81
513.346	92.81
513.562	92.81
513.778	99.81
513.994	88.81
514.21	81.81
514.426	101.81
514.642	125.81
514.858	126.81
515.074	167.81
515.29	502.81
515.506	1697.81
515.721	651.81
515.937	164.81
