Data from Circ_2018_H10_HRD10591_00100.txt Node
Date: Wed Jan 03 09:56:22 EST 2024
User: Yrep
Spectrometer: HR+D1059
Trigger mode: 1
Integration Time (sec): 1.000000E-1
Scans to average: 1
Electric dark correction enabled: true
Nonlinearity correction enabled: false
Boxcar width: 0
XAxis mode: Wavelengths
Number of Pixels in Spectrum: 2048
>>>>>Begin Spectral Data<<<<<
223.165	-5.31
223.4	-5.31
223.635	-5.31
223.869	-25.31
224.104	-9.31
224.338	-9.31
224.573	-19.31
224.808	-15.31
225.042	-13.31
225.277	-8.31
225.511	2.69
225.746	-2.31
225.98	10.69
226.215	11.69
226.449	15.69
226.683	20.69
226.918	23.69
227.152	22.69
227.387	44.69
227.621	42.69
227.856	51.69
228.09	53.69
228.324	68.69
228.559	55.69
228.793	71.69
229.027	73.69
229.262	62.69
229.496	65.69
229.73	80.69
229.964	89.69
230.199	77.69
230.433	73.69
230.667	86.69
230.901	80.69
231.136	78.69
231.37	76.69
231.604	61.69
231.838	78.69
232.072	84.69
232.306	91.69
232.541	86.69
232.775	79.69
233.009	76.69
233.243	92.69
233.477	86.69
233.711	89.69
233.945	73.69
234.179	73.69
234.413	73.69
234.647	82.69
234.881	82.69
235.115	82.69
235.349	85.69
235.583	85.69
235.817	81.69
236.051	70.69
236.285	76.69
236.519	83.69
236.753	90.69
236.987	96.69
237.221	82.69
237.455	86.69
237.689	72.69
237.922	80.69
238.156	72.69
238.39	80.69
238.624	69.69
238.858	84.69
239.091	85.69
239.325	81.69
239.559	78.69
239.793	82.69
240.027	71.69
240.26	70.69
240.494	62.69
240.728	87.69
240.961	62.69
241.195	84.69
241.429	68.69
241.662	70.69
241.896	89.69
242.13	78.69
242.363	96.69
242.597	81.69
242.83	70.69
243.064	90.69
243.298	75.69
243.531	70.69
243.765	85.69
243.998	89.69
244.232	66.69
244.465	97.69
244.699	96.69
244.932	75.69
245.166	80.69
245.399	72.69
245.633	84.69
245.866	62.69
246.099	69.69
246.333	81.69
246.566	83.69
246.8	84.69
247.033	80.69
247.266	96.69
247.5	79.69
247.733	80.69
247.966	82.69
248.2	70.69
248.433	74.69
248.666	81.69
248.899	83.69
249.133	85.69
249.366	89.69
249.599	98.69
249.832	101.69
250.066	72.69
250.299	72.69
250.532	85.69
250.765	88.69
250.998	85.69
251.231	82.69
251.465	78.69
251.698	76.69
251.931	85.69
252.164	78.69
252.397	103.69
252.63	93.69
252.863	81.69
253.096	69.69
253.329	74.69
253.562	87.69
253.795	67.69
254.028	88.69
254.261	81.69
254.494	71.69
254.727	83.69
254.96	80.69
255.193	81.69
255.426	77.69
255.659	83.69
255.892	75.69
256.124	76.69
256.357	78.69
256.59	77.69
256.823	79.69
257.056	83.69
257.289	80.69
257.521	77.69
257.754	90.69
257.987	87.69
258.22	84.69
258.452	94.69
258.685	70.69
258.918	89.69
259.151	89.69
259.383	94.69
259.616	89.69
259.849	84.69
260.081	79.69
260.314	94.69
260.547	92.69
260.779	92.69
261.012	80.69
261.244	77.69
261.477	101.69
261.71	89.69
261.942	125.69
262.175	136.69
262.407	82.69
262.64	99.69
262.872	91.69
263.105	80.69
263.337	82.69
263.57	91.69
263.802	80.69
264.035	84.69
264.267	76.69
264.499	72.69
264.732	76.69
264.964	88.69
265.197	86.69
265.429	83.69
265.661	88.69
265.894	91.69
266.126	85.69
266.358	90.69
266.591	71.69
266.823	81.69
267.055	92.69
267.287	83.69
267.52	87.69
267.752	77.69
267.984	84.69
268.216	65.69
268.448	98.69
268.681	84.69
268.913	82.69
269.145	89.69
269.377	82.69
269.609	89.69
269.841	93.69
270.073	86.69
270.306	84.69
270.538	89.69
270.77	85.69
271.002	95.69
271.234	82.69
271.466	80.69
271.698	86.69
271.93	82.69
272.162	105.69
272.394	90.69
272.626	108.69
272.858	72.69
273.09	79.69
273.322	93.69
273.553	83.69
273.785	72.69
274.017	93.69
274.249	87.69
274.481	84.69
274.713	80.69
274.945	81.69
275.176	90.69
275.408	81.69
275.64	80.69
275.872	86.69
276.104	90.69
276.335	77.69
276.567	89.69
276.799	119.69
277.031	105.69
277.262	77.69
277.494	101.69
277.726	100.69
277.957	77.69
278.189	91.69
278.421	88.69
278.652	87.69
278.884	88.69
279.115	78.69
279.347	84.69
279.579	83.69
279.81	91.69
280.042	88.69
280.273	100.69
280.505	97.69
280.736	86.69
280.968	87.69
281.199	86.69
281.431	73.69
281.662	93.69
281.894	86.69
282.125	105.69
282.356	129.69
282.588	152.69
282.819	135.69
283.051	95.69
283.282	99.69
283.513	105.69
283.745	92.69
283.976	85.69
284.207	98.69
284.439	90.69
284.67	78.69
284.901	86.69
285.132	92.69
285.364	87.69
285.595	87.69
285.826	85.69
286.057	102.69
286.288	90.69
286.52	82.69
286.751	73.69
286.982	75.69
287.213	84.69
287.444	92.69
287.675	97.69
287.906	84.69
288.138	94.69
288.369	94.69
288.6	90.69
288.831	91.69
289.062	92.69
289.293	75.69
289.524	88.69
289.755	98.69
289.986	83.69
290.217	86.69
290.448	87.69
290.679	82.69
290.91	82.69
291.141	89.69
291.371	93.69
291.602	69.69
291.833	83.69
292.064	78.69
292.295	80.69
292.526	91.69
292.757	84.69
292.987	92.69
293.218	85.69
293.449	77.69
293.68	76.69
293.91	84.69
294.141	102.69
294.372	91.69
294.603	88.69
294.833	88.69
295.064	93.69
295.295	81.69
295.525	85.69
295.756	114.69
295.987	115.69
296.217	145.69
296.448	133.69
296.679	92.69
296.909	93.69
297.14	82.69
297.37	88.69
297.601	95.69
297.831	83.69
298.062	94.69
298.292	83.69
298.523	101.69
298.753	84.69
298.984	84.69
299.214	93.69
299.445	97.69
299.675	99.69
299.905	105.69
300.136	109.69
300.366	81.69
300.597	99.69
300.827	102.69
301.057	100.69
301.288	105.69
301.518	89.69
301.748	83.69
301.979	85.69
302.209	89.69
302.439	91.69
302.669	85.69
302.9	82.69
303.13	82.69
303.36	91.69
303.59	112.69
303.82	112.69
304.051	86.69
304.281	70.69
304.511	78.69
304.741	91.69
304.971	85.69
305.201	83.69
305.431	77.69
305.661	92.69
305.891	100.69
306.121	96.69
306.352	95.69
306.582	107.69
306.812	91.69
307.042	81.69
307.272	96.69
307.502	109.69
307.731	104.69
307.961	87.69
308.191	78.69
308.421	83.69
308.651	90.69
308.881	80.69
309.111	87.69
309.341	88.69
309.571	93.69
309.8	99.69
310.03	102.69
310.26	89.69
310.49	96.69
310.72	98.69
310.949	106.69
311.179	86.69
311.409	104.69
311.639	101.69
311.868	84.69
312.098	94.69
312.328	101.69
312.557	104.69
312.787	108.69
313.017	103.69
313.246	102.69
313.476	86.69
313.706	106.69
313.935	100.69
314.165	102.69
314.394	93.69
314.624	99.69
314.853	88.69
315.083	86.69
315.312	83.69
315.542	97.69
315.771	94.69
316.001	82.69
316.23	100.69
316.46	107.69
316.689	88.69
316.919	83.69
317.148	93.69
317.377	98.69
317.607	99.69
317.836	93.69
318.065	98.69
318.295	97.69
318.524	86.69
318.753	101.69
318.983	101.69
319.212	114.69
319.441	117.69
319.67	104.69
319.9	100.69
320.129	94.69
320.358	97.69
320.587	101.69
320.816	108.69
321.046	95.69
321.275	110.69
321.504	97.69
321.733	82.69
321.962	86.69
322.191	109.69
322.42	118.69
322.649	103.69
322.878	124.69
323.108	122.69
323.337	125.69
323.566	128.69
323.795	164.69
324.024	209.69
324.253	409.69
324.482	890.69
324.71	1793.69
324.939	2324.69
325.168	890.69
325.397	248.69
325.626	161.69
325.855	138.69
326.084	123.69
326.313	134.69
326.542	164.69
326.77	234.69
326.999	448.69
327.228	947.69
327.457	1701.69
327.686	1385.69
327.914	399.69
328.143	229.69
328.372	170.69
328.6	154.69
328.829	122.69
329.058	137.69
329.287	137.69
329.515	124.69
329.744	126.69
329.972	132.69
330.201	150.69
330.43	201.69
330.658	170.69
330.887	162.69
331.115	127.69
331.344	105.69
331.572	114.69
331.801	105.69
332.03	104.69
332.258	107.69
332.486	93.69
332.715	98.69
332.943	101.69
333.172	87.69
333.4	96.69
333.629	109.69
333.857	124.69
334.085	142.69
334.314	162.69
334.542	213.69
334.771	224.69
334.999	137.69
335.227	114.69
335.455	103.69
335.684	114.69
335.912	105.69
336.14	93.69
336.369	100.69
336.597	87.69
336.825	86.69
337.053	92.69
337.281	85.69
337.51	90.69
337.738	100.69
337.966	98.69
338.194	85.69
338.422	93.69
338.65	97.69
338.878	77.69
339.106	86.69
339.334	86.69
339.562	76.69
339.79	92.69
340.018	98.69
340.246	108.69
340.474	92.69
340.702	99.69
340.93	92.69
341.158	102.69
341.386	95.69
341.614	109.69
341.842	92.69
342.07	97.69
342.298	105.69
342.526	89.69
342.754	96.69
342.981	84.69
343.209	92.69
343.437	96.69
343.665	78.69
343.893	95.69
344.12	98.69
344.348	85.69
344.576	95.69
344.804	87.69
345.031	96.69
345.259	99.69
345.487	94.69
345.714	96.69
345.942	106.69
346.17	107.69
346.397	87.69
346.625	100.69
346.853	94.69
347.08	86.69
347.308	81.69
347.535	97.69
347.763	103.69
347.99	94.69
348.218	110.69
348.445	113.69
348.673	102.69
348.9	101.69
349.128	91.69
349.355	83.69
349.583	77.69
349.81	86.69
350.037	100.69
350.265	106.69
350.492	88.69
350.72	91.69
350.947	100.69
351.174	121.69
351.402	104.69
351.629	102.69
351.856	100.69
352.083	108.69
352.311	105.69
352.538	113.69
352.765	104.69
352.992	127.69
353.22	123.69
353.447	115.69
353.674	81.69
353.901	100.69
354.128	110.69
354.355	100.69
354.583	104.69
354.81	90.69
355.037	83.69
355.264	81.69
355.491	91.69
355.718	100.69
355.945	97.69
356.172	89.69
356.399	96.69
356.626	97.69
356.853	101.69
357.08	92.69
357.307	91.69
357.534	90.69
357.761	72.69
357.988	90.69
358.215	87.69
358.441	81.69
358.668	83.69
358.895	100.69
359.122	99.69
359.349	81.69
359.576	103.69
359.802	102.69
360.029	130.69
360.256	114.69
360.483	119.69
360.709	85.69
360.936	101.69
361.163	96.69
361.39	97.69
361.616	106.69
361.843	85.69
362.07	84.69
362.296	96.69
362.523	91.69
362.749	86.69
362.976	98.69
363.203	93.69
363.429	79.69
363.656	98.69
363.882	104.69
364.109	89.69
364.335	95.69
364.562	84.69
364.788	101.69
365.015	96.69
365.241	98.69
365.468	112.69
365.694	122.69
365.92	97.69
366.147	97.69
366.373	91.69
366.599	86.69
366.826	96.69
367.052	96.69
367.278	96.69
367.505	85.69
367.731	103.69
367.957	93.69
368.184	97.69
368.41	93.69
368.636	110.69
368.862	112.69
369.089	120.69
369.315	91.69
369.541	81.69
369.767	79.69
369.993	95.69
370.219	86.69
370.445	83.69
370.672	89.69
370.898	89.69
371.124	97.69
371.35	94.69
371.576	74.69
371.802	90.69
372.028	87.69
372.254	70.69
372.48	87.69
372.706	91.69
372.932	88.69
373.158	81.69
373.384	101.69
373.61	89.69
373.835	91.69
374.061	91.69
374.287	102.69
374.513	93.69
374.739	86.69
374.965	85.69
375.191	89.69
375.416	100.69
375.642	100.69
375.868	85.69
376.094	89.69
376.319	91.69
376.545	81.69
376.771	96.69
376.997	98.69
377.222	89.69
377.448	81.69
377.674	88.69
377.899	90.69
378.125	72.69
378.35	83.69
378.576	89.69
378.802	85.69
379.027	94.69
379.253	93.69
379.478	85.69
379.704	89.69
379.929	85.69
380.155	91.69
380.38	93.69
380.606	87.69
380.831	85.69
381.057	89.69
381.282	107.69
381.507	99.69
381.733	82.69
381.958	101.69
382.184	96.69
382.409	100.69
382.634	113.69
382.86	91.69
383.085	97.69
383.31	103.69
383.535	93.69
383.761	104.69
383.986	103.69
384.211	96.69
384.436	85.69
384.662	89.69
384.887	103.69
385.112	101.69
385.337	115.69
385.562	105.69
385.787	98.69
386.013	110.69
386.238	108.69
386.463	102.69
386.688	123.69
386.913	102.69
387.138	109.69
387.363	107.69
387.588	112.69
387.813	105.69
388.038	106.69
388.263	102.69
388.488	102.69
388.713	92.69
388.938	96.69
389.163	87.69
389.387	89.69
389.612	84.69
389.837	93.69
390.062	99.69
390.287	96.69
390.512	85.69
390.736	94.69
390.961	91.69
391.186	89.69
391.411	94.69
391.636	82.69
391.86	84.69
392.085	83.69
392.31	95.69
392.534	83.69
392.759	84.69
392.984	98.69
393.208	93.69
393.433	85.69
393.658	79.69
393.882	86.69
394.107	89.69
394.331	71.69
394.556	90.69
394.78	96.69
395.005	78.69
395.229	95.69
395.454	97.69
395.678	87.69
395.903	90.69
396.127	94.69
396.352	95.69
396.576	91.69
396.801	80.69
397.025	83.69
397.249	84.69
397.474	85.69
397.698	77.69
397.922	93.69
398.147	84.69
398.371	78.69
398.595	82.69
398.82	88.69
399.044	97.69
399.268	87.69
399.492	90.69
399.717	78.69
399.941	93.69
400.165	104.69
400.389	83.69
400.613	87.69
400.837	83.69
401.062	92.69
401.286	77.69
401.51	90.69
401.734	96.69
401.958	109.69
402.182	137.69
402.406	167.69
402.63	125.69
402.854	93.69
403.078	109.69
403.302	95.69
403.526	92.69
403.75	98.69
403.974	98.69
404.198	82.69
404.422	93.69
404.645	87.69
404.869	88.69
405.093	96.69
405.317	98.69
405.541	84.69
405.765	105.69
405.988	128.69
406.212	205.69
406.436	264.69
406.66	161.69
406.883	109.69
407.107	91.69
407.331	92.69
407.555	108.69
407.778	96.69
408.002	105.69
408.226	89.69
408.449	92.69
408.673	85.69
408.896	105.69
409.12	92.69
409.344	92.69
409.567	86.69
409.791	103.69
410.014	101.69
410.238	101.69
410.461	89.69
410.685	93.69
410.908	84.69
411.132	105.69
411.355	94.69
411.578	90.69
411.802	92.69
412.025	89.69
412.249	105.69
412.472	98.69
412.695	96.69
412.919	101.69
413.142	86.69
413.365	81.69
413.589	91.69
413.812	86.69
414.035	102.69
414.258	104.69
414.482	100.69
414.705	91.69
414.928	89.69
415.151	91.69
415.374	103.69
415.597	94.69
415.821	86.69
416.044	73.69
416.267	87.69
416.49	89.69
416.713	82.69
416.936	86.69
417.159	101.69
417.382	80.69
417.605	96.69
417.828	111.69
418.051	91.69
418.274	89.69
418.497	94.69
418.72	99.69
418.943	99.69
419.166	99.69
419.389	81.69
419.611	84.69
419.834	98.69
420.057	102.69
420.28	82.69
420.503	99.69
420.726	95.69
420.948	93.69
421.171	99.69
421.394	81.69
421.617	96.69
421.839	89.69
422.062	89.69
422.285	96.69
422.507	95.69
422.73	109.69
422.953	111.69
423.175	87.69
423.398	92.69
423.621	93.69
423.843	91.69
424.066	88.69
424.288	93.69
424.511	113.69
424.733	125.69
424.956	116.69
425.178	110.69
425.401	101.69
425.623	93.69
425.846	92.69
426.068	106.69
426.291	96.69
426.513	84.69
426.735	99.69
426.958	91.69
427.18	98.69
427.402	140.69
427.625	189.69
427.847	140.69
428.069	119.69
428.292	98.69
428.514	71.69
428.736	77.69
428.958	83.69
429.181	99.69
429.403	95.69
429.625	92.69
429.847	98.69
430.069	99.69
430.292	92.69
430.514	87.69
430.736	70.69
430.958	86.69
431.18	79.69
431.402	91.69
431.624	81.69
431.846	84.69
432.068	88.69
432.29	89.69
432.512	85.69
432.734	89.69
432.956	99.69
433.178	109.69
433.4	100.69
433.622	92.69
433.844	97.69
434.066	104.69
434.287	90.69
434.509	110.69
434.731	105.69
434.953	114.69
435.175	89.69
435.397	99.69
435.618	85.69
435.84	98.69
436.062	129.69
436.284	132.69
436.505	109.69
436.727	109.69
436.949	92.69
437.17	92.69
437.392	73.69
437.614	108.69
437.835	125.69
438.057	119.69
438.278	116.69
438.5	117.69
438.721	118.69
438.943	124.69
439.165	95.69
439.386	80.69
439.608	113.69
439.829	103.69
440.05	135.69
440.272	139.69
440.493	107.69
440.715	90.69
440.936	88.69
441.158	93.69
441.379	97.69
441.6	104.69
441.822	100.69
442.043	114.69
442.264	107.69
442.486	106.69
442.707	89.69
442.928	107.69
443.149	142.69
443.371	135.69
443.592	127.69
443.813	119.69
444.034	108.69
444.255	91.69
444.476	100.69
444.698	81.69
444.919	88.69
445.14	132.69
445.361	133.69
445.582	119.69
445.803	143.69
446.024	145.69
446.245	133.69
446.466	124.69
446.687	83.69
446.908	88.69
447.129	88.69
447.35	94.69
447.571	91.69
447.792	107.69
448.013	99.69
448.234	118.69
448.455	106.69
448.675	108.69
448.896	116.69
449.117	88.69
449.338	105.69
449.559	135.69
449.779	118.69
450	90.69
450.221	100.69
450.442	91.69
450.662	94.69
450.883	113.69
451.104	121.69
451.324	94.69
451.545	89.69
451.766	88.69
451.986	101.69
452.207	98.69
452.428	96.69
452.648	107.69
452.869	122.69
453.089	115.69
453.31	137.69
453.53	117.69
453.751	79.69
453.971	117.69
454.192	108.69
454.412	99.69
454.633	102.69
454.853	90.69
455.073	101.69
455.294	101.69
455.514	98.69
455.734	88.69
455.955	79.69
456.175	84.69
456.395	82.69
456.616	84.69
456.836	80.69
457.056	91.69
457.276	86.69
457.497	84.69
457.717	89.69
457.937	76.69
458.157	81.69
458.377	109.69
458.598	118.69
458.818	174.69
459.038	176.69
459.258	111.69
459.478	102.69
459.698	96.69
459.918	101.69
460.138	82.69
460.358	78.69
460.578	105.69
460.798	114.69
461.018	94.69
461.238	87.69
461.458	95.69
461.678	87.69
461.898	91.69
462.118	102.69
462.338	86.69
462.558	86.69
462.777	87.69
462.997	77.69
463.217	97.69
463.437	96.69
463.657	85.69
463.876	80.69
464.096	81.69
464.316	101.69
464.536	98.69
464.755	92.69
464.975	107.69
465.195	177.69
465.414	184.69
465.634	101.69
465.854	101.69
466.073	100.69
466.293	88.69
466.512	98.69
466.732	83.69
466.951	88.69
467.171	94.69
467.391	116.69
467.61	114.69
467.829	116.69
468.049	116.69
468.268	142.69
468.488	88.69
468.707	88.69
468.927	101.69
469.146	101.69
469.365	79.69
469.585	103.69
469.804	89.69
470.023	98.69
470.243	94.69
470.462	91.69
470.681	104.69
470.901	93.69
471.12	89.69
471.339	102.69
471.558	96.69
471.777	91.69
471.997	96.69
472.216	158.69
472.435	263.69
472.654	138.69
472.873	91.69
473.092	93.69
473.311	94.69
473.53	89.69
473.749	98.69
473.968	101.69
474.187	110.69
474.406	108.69
474.625	82.69
474.844	82.69
475.063	88.69
475.282	71.69
475.501	87.69
475.72	101.69
475.939	95.69
476.158	81.69
476.377	89.69
476.596	77.69
476.814	93.69
477.033	98.69
477.252	86.69
477.471	74.69
477.69	91.69
477.908	91.69
478.127	94.69
478.346	83.69
478.564	100.69
478.783	113.69
479.002	102.69
479.22	94.69
479.439	108.69
479.658	105.69
479.876	118.69
480.095	92.69
480.313	102.69
480.532	116.69
480.751	108.69
480.969	177.69
481.188	394.69
481.406	291.69
481.624	114.69
481.843	90.69
482.061	101.69
482.28	87.69
482.498	86.69
482.717	91.69
482.935	90.69
483.153	87.69
483.372	102.69
483.59	89.69
483.808	96.69
484.027	99.69
484.245	85.69
484.463	87.69
484.681	97.69
484.9	93.69
485.118	89.69
485.336	101.69
485.554	96.69
485.772	105.69
485.99	95.69
486.209	100.69
486.427	109.69
486.645	113.69
486.863	114.69
487.081	94.69
487.299	96.69
487.517	105.69
487.735	95.69
487.953	93.69
488.171	96.69
488.389	100.69
488.607	99.69
488.825	101.69
489.043	90.69
489.261	101.69
489.479	76.69
489.696	92.69
489.914	94.69
490.132	104.69
490.35	94.69
490.568	83.69
490.786	93.69
491.003	97.69
491.221	100.69
491.439	75.69
491.657	92.69
491.874	101.69
492.092	86.69
492.31	82.69
492.527	101.69
492.745	94.69
492.963	95.69
493.18	83.69
493.398	94.69
493.615	100.69
493.833	86.69
494.05	83.69
494.268	99.69
494.485	94.69
494.703	94.69
494.92	101.69
495.138	95.69
495.355	85.69
495.573	88.69
495.79	96.69
496.008	85.69
496.225	93.69
496.442	97.69
496.66	95.69
496.877	97.69
497.094	93.69
497.312	90.69
497.529	99.69
497.746	109.69
497.963	101.69
498.181	88.69
498.398	96.69
498.615	107.69
498.832	112.69
499.049	93.69
499.267	90.69
499.484	95.69
499.701	96.69
499.918	85.69
500.135	83.69
500.352	93.69
500.569	90.69
500.786	99.69
501.003	97.69
501.22	81.69
501.437	96.69
501.654	99.69
501.871	109.69
502.088	94.69
502.305	88.69
502.522	95.69
502.739	79.69
502.956	87.69
503.172	97.69
503.389	87.69
503.606	111.69
503.823	112.69
504.04	112.69
504.256	110.69
504.473	83.69
504.69	108.69
504.907	90.69
505.123	95.69
505.34	78.69
505.557	99.69
505.773	85.69
505.99	84.69
506.207	92.69
506.423	85.69
506.64	97.69
506.856	98.69
507.073	90.69
507.289	96.69
507.506	110.69
507.722	113.69
507.939	136.69
508.155	83.69
508.372	85.69
508.588	97.69
508.805	92.69
509.021	111.69
509.238	88.69
509.454	120.69
509.67	105.69
509.887	105.69
510.103	124.69
510.319	227.69
510.536	884.69
510.752	3020.69
510.968	837.69
511.184	190.69
511.401	124.69
511.617	105.69
511.833	106.69
512.049	87.69
512.265	92.69
512.481	85.69
512.698	96.69
512.914	100.69
513.13	88.69
513.346	97.69
513.562	92.69
513.778	97.69
513.994	90.69
514.21	114.69
514.426	128.69
514.642	157.69
