Data from Circ_2018_H10_HRD10591_00096.txt Node
Date: Wed Jan 03 09:56:21 EST 2024
User: Yrep
Spectrometer: HR+D1059
Trigger mode: 1
Integration Time (sec): 1.000000E-1
Scans to average: 1
Electric dark correction enabled: true
Nonlinearity correction enabled: false
Boxcar width: 0
XAxis mode: Wavelengths
Number of Pixels in Spectrum: 2048
>>>>>Begin Spectral Data<<<<<
223.165	-31.12
223.4	-31.12
223.635	-31.12
223.869	-22.12
224.104	-6.12
224.338	-26.12
224.573	-11.12
224.808	-16.12
225.042	-6.12
225.277	10.88
225.511	0.88
225.746	12.88
225.98	-7.12
226.215	15.88
226.449	20.88
226.683	28.88
226.918	5.88
227.152	29.88
227.387	25.88
227.621	44.88
227.856	31.88
228.09	40.88
228.324	49.88
228.559	64.88
228.793	56.88
229.027	63.88
229.262	69.88
229.496	73.88
229.73	99.88
229.964	84.88
230.199	62.88
230.433	73.88
230.667	79.88
230.901	73.88
231.136	76.88
231.37	70.88
231.604	75.88
231.838	82.88
232.072	85.88
232.306	73.88
232.541	80.88
232.775	72.88
233.009	71.88
233.243	56.88
233.477	86.88
233.711	90.88
233.945	65.88
234.179	76.88
234.413	83.88
234.647	79.88
234.881	65.88
235.115	77.88
235.349	80.88
235.583	64.88
235.817	81.88
236.051	71.88
236.285	77.88
236.519	68.88
236.753	69.88
236.987	81.88
237.221	74.88
237.455	78.88
237.689	71.88
237.922	76.88
238.156	75.88
238.39	75.88
238.624	78.88
238.858	72.88
239.091	66.88
239.325	74.88
239.559	75.88
239.793	60.88
240.027	84.88
240.26	77.88
240.494	71.88
240.728	76.88
240.961	77.88
241.195	79.88
241.429	82.88
241.662	70.88
241.896	79.88
242.13	85.88
242.363	80.88
242.597	84.88
242.83	81.88
243.064	74.88
243.298	80.88
243.531	81.88
243.765	65.88
243.998	80.88
244.232	84.88
244.465	84.88
244.699	79.88
244.932	66.88
245.166	77.88
245.399	81.88
245.633	75.88
245.866	86.88
246.099	71.88
246.333	73.88
246.566	82.88
246.8	72.88
247.033	86.88
247.266	91.88
247.5	76.88
247.733	75.88
247.966	74.88
248.2	74.88
248.433	71.88
248.666	81.88
248.899	80.88
249.133	80.88
249.366	94.88
249.599	94.88
249.832	91.88
250.066	60.88
250.299	71.88
250.532	86.88
250.765	88.88
250.998	73.88
251.231	74.88
251.465	81.88
251.698	72.88
251.931	79.88
252.164	84.88
252.397	84.88
252.63	79.88
252.863	83.88
253.096	81.88
253.329	81.88
253.562	80.88
253.795	80.88
254.028	81.88
254.261	70.88
254.494	83.88
254.727	74.88
254.96	72.88
255.193	86.88
255.426	67.88
255.659	86.88
255.892	93.88
256.124	82.88
256.357	69.88
256.59	98.88
256.823	83.88
257.056	85.88
257.289	74.88
257.521	63.88
257.754	68.88
257.987	82.88
258.22	82.88
258.452	76.88
258.685	82.88
258.918	80.88
259.151	75.88
259.383	83.88
259.616	73.88
259.849	88.88
260.081	83.88
260.314	81.88
260.547	78.88
260.779	67.88
261.012	71.88
261.244	94.88
261.477	89.88
261.71	90.88
261.942	111.88
262.175	125.88
262.407	92.88
262.64	78.88
262.872	81.88
263.105	83.88
263.337	64.88
263.57	88.88
263.802	75.88
264.035	70.88
264.267	71.88
264.499	73.88
264.732	80.88
264.964	75.88
265.197	67.88
265.429	83.88
265.661	86.88
265.894	81.88
266.126	89.88
266.358	88.88
266.591	73.88
266.823	85.88
267.055	84.88
267.287	78.88
267.52	86.88
267.752	72.88
267.984	85.88
268.216	88.88
268.448	85.88
268.681	90.88
268.913	82.88
269.145	74.88
269.377	87.88
269.609	61.88
269.841	75.88
270.073	77.88
270.306	82.88
270.538	69.88
270.77	89.88
271.002	80.88
271.234	82.88
271.466	85.88
271.698	73.88
271.93	83.88
272.162	79.88
272.394	90.88
272.626	92.88
272.858	77.88
273.09	75.88
273.322	84.88
273.553	80.88
273.785	86.88
274.017	64.88
274.249	74.88
274.481	87.88
274.713	82.88
274.945	91.88
275.176	82.88
275.408	85.88
275.64	77.88
275.872	82.88
276.104	87.88
276.335	80.88
276.567	110.88
276.799	94.88
277.031	98.88
277.262	88.88
277.494	99.88
277.726	85.88
277.957	84.88
278.189	76.88
278.421	92.88
278.652	85.88
278.884	85.88
279.115	88.88
279.347	78.88
279.579	82.88
279.81	86.88
280.042	84.88
280.273	86.88
280.505	83.88
280.736	81.88
280.968	87.88
281.199	80.88
281.431	87.88
281.662	88.88
281.894	84.88
282.125	92.88
282.356	121.88
282.588	168.88
282.819	130.88
283.051	99.88
283.282	83.88
283.513	81.88
283.745	90.88
283.976	76.88
284.207	86.88
284.439	99.88
284.67	83.88
284.901	82.88
285.132	73.88
285.364	61.88
285.595	86.88
285.826	94.88
286.057	91.88
286.288	85.88
286.52	93.88
286.751	90.88
286.982	78.88
287.213	95.88
287.444	80.88
287.675	95.88
287.906	96.88
288.138	81.88
288.369	90.88
288.6	112.88
288.831	90.88
289.062	72.88
289.293	78.88
289.524	92.88
289.755	92.88
289.986	82.88
290.217	70.88
290.448	84.88
290.679	99.88
290.91	103.88
291.141	95.88
291.371	102.88
291.602	94.88
291.833	95.88
292.064	89.88
292.295	81.88
292.526	90.88
292.757	93.88
292.987	95.88
293.218	77.88
293.449	94.88
293.68	71.88
293.91	81.88
294.141	74.88
294.372	80.88
294.603	80.88
294.833	82.88
295.064	94.88
295.295	86.88
295.525	92.88
295.756	94.88
295.987	125.88
296.217	146.88
296.448	125.88
296.679	89.88
296.909	92.88
297.14	89.88
297.37	93.88
297.601	95.88
297.831	76.88
298.062	74.88
298.292	95.88
298.523	81.88
298.753	89.88
298.984	66.88
299.214	83.88
299.445	77.88
299.675	88.88
299.905	98.88
300.136	100.88
300.366	93.88
300.597	85.88
300.827	93.88
301.057	93.88
301.288	107.88
301.518	100.88
301.748	90.88
301.979	98.88
302.209	92.88
302.439	81.88
302.669	80.88
302.9	95.88
303.13	81.88
303.36	114.88
303.59	99.88
303.82	109.88
304.051	102.88
304.281	95.88
304.511	88.88
304.741	77.88
304.971	86.88
305.201	81.88
305.431	91.88
305.661	94.88
305.891	96.88
306.121	100.88
306.352	103.88
306.582	99.88
306.812	106.88
307.042	106.88
307.272	102.88
307.502	99.88
307.731	97.88
307.961	93.88
308.191	82.88
308.421	78.88
308.651	103.88
308.881	95.88
309.111	92.88
309.341	107.88
309.571	96.88
309.8	110.88
310.03	92.88
310.26	84.88
310.49	98.88
310.72	93.88
310.949	113.88
311.179	102.88
311.409	95.88
311.639	102.88
311.868	100.88
312.098	93.88
312.328	97.88
312.557	99.88
312.787	103.88
313.017	94.88
313.246	86.88
313.476	86.88
313.706	100.88
313.935	83.88
314.165	102.88
314.394	103.88
314.624	90.88
314.853	93.88
315.083	96.88
315.312	93.88
315.542	80.88
315.771	92.88
316.001	87.88
316.23	91.88
316.46	93.88
316.689	82.88
316.919	98.88
317.148	103.88
317.377	95.88
317.607	100.88
317.836	94.88
318.065	96.88
318.295	87.88
318.524	82.88
318.753	91.88
318.983	87.88
319.212	102.88
319.441	96.88
319.67	113.88
319.9	97.88
320.129	83.88
320.358	102.88
320.587	97.88
320.816	90.88
321.046	85.88
321.275	98.88
321.504	101.88
321.733	95.88
321.962	99.88
322.191	104.88
322.42	109.88
322.649	106.88
322.878	104.88
323.108	117.88
323.337	125.88
323.566	146.88
323.795	157.88
324.024	201.88
324.253	438.88
324.482	857.88
324.71	1787.88
324.939	2333.88
325.168	870.88
325.397	249.88
325.626	163.88
325.855	137.88
326.084	128.88
326.313	149.88
326.542	158.88
326.77	239.88
326.999	467.88
327.228	945.88
327.457	1726.88
327.686	1384.88
327.914	387.88
328.143	220.88
328.372	173.88
328.6	147.88
328.829	115.88
329.058	137.88
329.287	133.88
329.515	99.88
329.744	109.88
329.972	113.88
330.201	139.88
330.43	172.88
330.658	143.88
330.887	177.88
331.115	136.88
331.344	96.88
331.572	114.88
331.801	106.88
332.03	107.88
332.258	93.88
332.486	95.88
332.715	96.88
332.943	97.88
333.172	101.88
333.4	89.88
333.629	106.88
333.857	127.88
334.085	149.88
334.314	128.88
334.542	199.88
334.771	182.88
334.999	112.88
335.227	114.88
335.455	110.88
335.684	99.88
335.912	99.88
336.14	110.88
336.369	97.88
336.597	106.88
336.825	90.88
337.053	87.88
337.281	110.88
337.51	103.88
337.738	94.88
337.966	103.88
338.194	111.88
338.422	87.88
338.65	95.88
338.878	92.88
339.106	95.88
339.334	85.88
339.562	90.88
339.79	95.88
340.018	81.88
340.246	100.88
340.474	82.88
340.702	89.88
340.93	81.88
341.158	86.88
341.386	84.88
341.614	94.88
341.842	89.88
342.07	93.88
342.298	87.88
342.526	94.88
342.754	73.88
342.981	94.88
343.209	86.88
343.437	94.88
343.665	91.88
343.893	88.88
344.12	92.88
344.348	87.88
344.576	94.88
344.804	94.88
345.031	104.88
345.259	93.88
345.487	82.88
345.714	96.88
345.942	81.88
346.17	88.88
346.397	101.88
346.625	86.88
346.853	95.88
347.08	78.88
347.308	97.88
347.535	96.88
347.763	107.88
347.99	94.88
348.218	93.88
348.445	116.88
348.673	93.88
348.9	95.88
349.128	87.88
349.355	89.88
349.583	95.88
349.81	91.88
350.037	78.88
350.265	93.88
350.492	93.88
350.72	95.88
350.947	83.88
351.174	95.88
351.402	123.88
351.629	106.88
351.856	104.88
352.083	118.88
352.311	106.88
352.538	120.88
352.765	101.88
352.992	119.88
353.22	127.88
353.447	115.88
353.674	94.88
353.901	94.88
354.128	86.88
354.355	95.88
354.583	96.88
354.81	111.88
355.037	90.88
355.264	100.88
355.491	93.88
355.718	83.88
355.945	114.88
356.172	106.88
356.399	90.88
356.626	83.88
356.853	90.88
357.08	95.88
357.307	86.88
357.534	91.88
357.761	83.88
357.988	89.88
358.215	111.88
358.441	108.88
358.668	85.88
358.895	81.88
359.122	93.88
359.349	81.88
359.576	93.88
359.802	99.88
360.029	117.88
360.256	113.88
360.483	111.88
360.709	91.88
360.936	81.88
361.163	98.88
361.39	92.88
361.616	87.88
361.843	85.88
362.07	90.88
362.296	78.88
362.523	103.88
362.749	99.88
362.976	97.88
363.203	97.88
363.429	85.88
363.656	89.88
363.882	90.88
364.109	81.88
364.335	79.88
364.562	88.88
364.788	88.88
365.015	83.88
365.241	101.88
365.468	111.88
365.694	109.88
365.92	99.88
366.147	83.88
366.373	84.88
366.599	88.88
366.826	93.88
367.052	90.88
367.278	83.88
367.505	91.88
367.731	81.88
367.957	95.88
368.184	93.88
368.41	107.88
368.636	110.88
368.862	129.88
369.089	105.88
369.315	99.88
369.541	88.88
369.767	88.88
369.993	101.88
370.219	81.88
370.445	97.88
370.672	88.88
370.898	89.88
371.124	71.88
371.35	74.88
371.576	85.88
371.802	79.88
372.028	88.88
372.254	80.88
372.48	82.88
372.706	89.88
372.932	88.88
373.158	98.88
373.384	100.88
373.61	84.88
373.835	88.88
374.061	94.88
374.287	96.88
374.513	101.88
374.739	79.88
374.965	85.88
375.191	80.88
375.416	94.88
375.642	72.88
375.868	98.88
376.094	81.88
376.319	79.88
376.545	81.88
376.771	87.88
376.997	80.88
377.222	86.88
377.448	81.88
377.674	92.88
377.899	84.88
378.125	89.88
378.35	91.88
378.576	91.88
378.802	81.88
379.027	80.88
379.253	98.88
379.478	83.88
379.704	94.88
379.929	85.88
380.155	89.88
380.38	94.88
380.606	95.88
380.831	86.88
381.057	86.88
381.282	98.88
381.507	82.88
381.733	74.88
381.958	94.88
382.184	106.88
382.409	96.88
382.634	89.88
382.86	83.88
383.085	88.88
383.31	94.88
383.535	102.88
383.761	102.88
383.986	90.88
384.211	86.88
384.436	93.88
384.662	96.88
384.887	93.88
385.112	102.88
385.337	113.88
385.562	106.88
385.787	97.88
386.013	98.88
386.238	103.88
386.463	89.88
386.688	94.88
386.913	95.88
387.138	99.88
387.363	90.88
387.588	83.88
387.813	98.88
388.038	106.88
388.263	113.88
388.488	107.88
388.713	88.88
388.938	81.88
389.163	90.88
389.387	90.88
389.612	75.88
389.837	94.88
390.062	86.88
390.287	98.88
390.512	79.88
390.736	91.88
390.961	85.88
391.186	91.88
391.411	94.88
391.636	80.88
391.86	82.88
392.085	89.88
392.31	86.88
392.534	85.88
392.759	74.88
392.984	69.88
393.208	81.88
393.433	88.88
393.658	85.88
393.882	74.88
394.107	73.88
394.331	74.88
394.556	85.88
394.78	85.88
395.005	90.88
395.229	86.88
395.454	87.88
395.678	79.88
395.903	74.88
396.127	87.88
396.352	94.88
396.576	88.88
396.801	88.88
397.025	89.88
397.249	83.88
397.474	93.88
397.698	85.88
397.922	84.88
398.147	90.88
398.371	70.88
398.595	97.88
398.82	84.88
399.044	79.88
399.268	96.88
399.492	77.88
399.717	85.88
399.941	85.88
400.165	82.88
400.389	93.88
400.613	94.88
400.837	85.88
401.062	86.88
401.286	87.88
401.51	87.88
401.734	94.88
401.958	89.88
402.182	130.88
402.406	173.88
402.63	142.88
402.854	98.88
403.078	95.88
403.302	85.88
403.526	89.88
403.75	86.88
403.974	80.88
404.198	79.88
404.422	90.88
404.645	88.88
404.869	92.88
405.093	86.88
405.317	99.88
405.541	110.88
405.765	102.88
405.988	124.88
406.212	192.88
406.436	267.88
406.66	165.88
406.883	98.88
407.107	93.88
407.331	83.88
407.555	99.88
407.778	96.88
408.002	99.88
408.226	94.88
408.449	80.88
408.673	67.88
408.896	94.88
409.12	89.88
409.344	82.88
409.567	89.88
409.791	93.88
410.014	96.88
410.238	103.88
410.461	91.88
410.685	90.88
410.908	93.88
411.132	117.88
411.355	96.88
411.578	93.88
411.802	84.88
412.025	76.88
412.249	80.88
412.472	88.88
412.695	98.88
412.919	91.88
413.142	83.88
413.365	101.88
413.589	86.88
413.812	71.88
414.035	81.88
414.258	87.88
414.482	87.88
414.705	82.88
414.928	88.88
415.151	99.88
415.374	85.88
415.597	74.88
415.821	85.88
416.044	81.88
416.267	93.88
416.49	95.88
416.713	96.88
416.936	93.88
417.159	87.88
417.382	93.88
417.605	97.88
417.828	99.88
418.051	85.88
418.274	98.88
418.497	88.88
418.72	74.88
418.943	90.88
419.166	78.88
419.389	78.88
419.611	74.88
419.834	80.88
420.057	87.88
420.28	93.88
420.503	97.88
420.726	82.88
420.948	88.88
421.171	96.88
421.394	84.88
421.617	78.88
421.839	85.88
422.062	86.88
422.285	86.88
422.507	106.88
422.73	88.88
422.953	91.88
423.175	80.88
423.398	71.88
423.621	88.88
423.843	86.88
424.066	82.88
424.288	81.88
424.511	102.88
424.733	106.88
424.956	107.88
425.178	95.88
425.401	113.88
425.623	99.88
425.846	85.88
426.068	97.88
426.291	89.88
426.513	104.88
426.735	94.88
426.958	91.88
427.18	91.88
427.402	132.88
427.625	189.88
427.847	154.88
428.069	127.88
428.292	93.88
428.514	92.88
428.736	90.88
428.958	98.88
429.181	94.88
429.403	90.88
429.625	87.88
429.847	90.88
430.069	92.88
430.292	92.88
430.514	85.88
430.736	76.88
430.958	71.88
431.18	94.88
431.402	85.88
431.624	83.88
431.846	85.88
432.068	79.88
432.29	85.88
432.512	82.88
432.734	70.88
432.956	91.88
433.178	90.88
433.4	90.88
433.622	76.88
433.844	96.88
434.066	87.88
434.287	88.88
434.509	93.88
434.731	95.88
434.953	94.88
435.175	78.88
435.397	93.88
435.618	89.88
435.84	88.88
436.062	104.88
436.284	113.88
436.505	101.88
436.727	95.88
436.949	97.88
437.17	86.88
437.392	82.88
437.614	101.88
437.835	103.88
438.057	120.88
438.278	113.88
438.5	103.88
438.721	121.88
438.943	106.88
439.165	96.88
439.386	94.88
439.608	90.88
439.829	106.88
440.05	124.88
440.272	140.88
440.493	109.88
440.715	90.88
440.936	72.88
441.158	68.88
441.379	91.88
441.6	89.88
441.822	80.88
442.043	86.88
442.264	86.88
442.486	102.88
442.707	95.88
442.928	105.88
443.149	135.88
443.371	133.88
443.592	114.88
443.813	125.88
444.034	97.88
444.255	100.88
444.476	102.88
444.698	85.88
444.919	80.88
445.14	133.88
445.361	127.88
445.582	128.88
445.803	143.88
446.024	148.88
446.245	137.88
446.466	105.88
446.687	95.88
446.908	84.88
447.129	99.88
447.35	82.88
447.571	83.88
447.792	75.88
448.013	77.88
448.234	113.88
448.455	104.88
448.675	119.88
448.896	114.88
449.117	103.88
449.338	106.88
449.559	113.88
449.779	139.88
450	91.88
450.221	99.88
450.442	85.88
450.662	82.88
450.883	121.88
451.104	112.88
451.324	103.88
451.545	82.88
451.766	75.88
451.986	69.88
452.207	93.88
452.428	93.88
452.648	105.88
452.869	126.88
453.089	105.88
453.31	119.88
453.53	111.88
453.751	89.88
453.971	98.88
454.192	120.88
454.412	94.88
454.633	89.88
454.853	71.88
455.073	87.88
455.294	86.88
455.514	90.88
455.734	85.88
455.955	73.88
456.175	81.88
456.395	80.88
456.616	80.88
456.836	92.88
457.056	84.88
457.276	75.88
457.497	87.88
457.717	89.88
457.937	97.88
458.157	88.88
458.377	95.88
458.598	119.88
458.818	171.88
459.038	169.88
459.258	110.88
459.478	96.88
459.698	82.88
459.918	88.88
460.138	91.88
460.358	79.88
460.578	89.88
460.798	80.88
461.018	86.88
461.238	88.88
461.458	73.88
461.678	78.88
461.898	82.88
462.118	84.88
462.338	86.88
462.558	77.88
462.777	105.88
462.997	101.88
463.217	89.88
463.437	88.88
463.657	93.88
463.876	86.88
464.096	85.88
464.316	98.88
464.536	90.88
464.755	98.88
464.975	91.88
465.195	192.88
465.414	170.88
465.634	106.88
465.854	94.88
466.073	92.88
466.293	76.88
466.512	71.88
466.732	63.88
466.951	84.88
467.171	89.88
467.391	93.88
467.61	97.88
467.829	104.88
468.049	109.88
468.268	125.88
468.488	90.88
468.707	81.88
468.927	78.88
469.146	74.88
469.365	84.88
469.585	87.88
469.804	93.88
470.023	108.88
470.243	99.88
470.462	97.88
470.681	143.88
470.901	95.88
471.12	82.88
471.339	88.88
471.558	89.88
471.777	84.88
471.997	91.88
472.216	154.88
472.435	210.88
472.654	119.88
472.873	93.88
473.092	82.88
473.311	95.88
473.53	87.88
473.749	88.88
473.968	105.88
474.187	97.88
474.406	109.88
474.625	84.88
474.844	93.88
475.063	88.88
475.282	82.88
475.501	88.88
475.72	93.88
475.939	78.88
476.158	90.88
476.377	105.88
476.596	82.88
476.814	98.88
477.033	91.88
477.252	95.88
477.471	90.88
477.69	92.88
477.908	91.88
478.127	84.88
478.346	73.88
478.564	98.88
478.783	89.88
479.002	95.88
479.22	88.88
479.439	88.88
479.658	99.88
479.876	98.88
480.095	81.88
480.313	80.88
480.532	92.88
480.751	105.88
480.969	149.88
481.188	337.88
481.406	241.88
481.624	88.88
481.843	93.88
482.061	88.88
482.28	91.88
482.498	90.88
482.717	89.88
482.935	94.88
483.153	94.88
483.372	89.88
483.59	79.88
483.808	86.88
484.027	81.88
484.245	100.88
484.463	79.88
484.681	98.88
484.9	87.88
485.118	93.88
485.336	85.88
485.554	81.88
485.772	98.88
485.99	95.88
486.209	102.88
486.427	86.88
486.645	111.88
486.863	127.88
487.081	114.88
487.299	95.88
487.517	81.88
487.735	79.88
487.953	99.88
488.171	94.88
488.389	90.88
488.607	106.88
488.825	102.88
489.043	90.88
489.261	90.88
489.479	98.88
489.696	93.88
489.914	94.88
490.132	84.88
490.35	82.88
490.568	96.88
490.786	86.88
491.003	93.88
491.221	96.88
491.439	88.88
491.657	77.88
491.874	85.88
492.092	90.88
492.31	81.88
492.527	88.88
492.745	83.88
492.963	89.88
493.18	96.88
493.398	82.88
493.615	95.88
493.833	75.88
494.05	96.88
494.268	86.88
494.485	90.88
494.703	98.88
494.92	93.88
495.138	93.88
495.355	90.88
495.573	76.88
495.79	89.88
496.008	102.88
496.225	93.88
496.442	85.88
496.66	86.88
496.877	93.88
497.094	82.88
497.312	97.88
497.529	89.88
497.746	81.88
497.963	86.88
498.181	90.88
498.398	95.88
498.615	112.88
498.832	99.88
499.049	96.88
499.267	113.88
499.484	97.88
499.701	93.88
499.918	86.88
500.135	86.88
500.352	86.88
500.569	84.88
500.786	102.88
501.003	85.88
501.22	85.88
501.437	88.88
501.654	94.88
501.871	119.88
502.088	105.88
502.305	90.88
502.522	104.88
502.739	92.88
502.956	92.88
503.172	97.88
503.389	92.88
503.606	105.88
503.823	101.88
504.04	85.88
504.256	91.88
504.473	91.88
504.69	82.88
504.907	88.88
505.123	87.88
505.34	91.88
505.557	74.88
505.773	89.88
505.99	83.88
506.207	88.88
506.423	89.88
506.64	93.88
506.856	87.88
507.073	83.88
507.289	92.88
507.506	100.88
507.722	118.88
507.939	104.88
508.155	93.88
508.372	74.88
508.588	93.88
508.805	98.88
509.021	89.88
509.238	114.88
509.454	106.88
509.67	99.88
509.887	115.88
510.103	137.88
510.319	235.88
510.536	925.88
510.752	3090.88
510.968	852.88
511.184	183.88
511.401	125.88
511.617	87.88
511.833	98.88
512.049	87.88
512.265	94.88
512.481	82.88
512.698	101.88
512.914	92.88
513.13	105.88
513.346	91.88
513.562	92.88
513.778	98.88
513.994	105.88
514.21	101.88
514.426	134.88
514.642	141.88
514.858	137.88
515.074	166.88
515.29	549.88
515.506	2030.88
515.721	757.88
515.937	189.88
516.153	119.88
