Data from Circ_2018_H10_HRD10591_00016.txt Node
Date: Wed Jan 03 09:56:05 EST 2024
User: Yrep
Spectrometer: HR+D1059
Trigger mode: 1
Integration Time (sec): 1.000000E-1
Scans to average: 1
Electric dark correction enabled: true
Nonlinearity correction enabled: false
Boxcar width: 0
XAxis mode: Wavelengths
Number of Pixels in Spectrum: 2048
>>>>>Begin Spectral Data<<<<<
223.165	-10.94
223.4	-10.94
223.635	-10.94
223.869	-24.94
224.104	-8.94
224.338	-18.94
224.573	-3.94
224.808	1.06
225.042	-9.94
225.277	-20.94
225.511	-7.94
225.746	-2.94
225.98	2.06
226.215	8.06
226.449	18.06
226.683	26.06
226.918	26.06
227.152	28.06
227.387	49.06
227.621	54.06
227.856	33.06
228.09	51.06
228.324	57.06
228.559	62.06
228.793	56.06
229.027	50.06
229.262	63.06
229.496	83.06
229.73	83.06
229.964	96.06
230.199	78.06
230.433	89.06
230.667	81.06
230.901	81.06
231.136	83.06
231.37	93.06
231.604	91.06
231.838	98.06
232.072	83.06
232.306	80.06
232.541	73.06
232.775	89.06
233.009	90.06
233.243	79.06
233.477	81.06
233.711	90.06
233.945	76.06
234.179	84.06
234.413	83.06
234.647	79.06
234.881	77.06
235.115	83.06
235.349	83.06
235.583	87.06
235.817	77.06
236.051	77.06
236.285	81.06
236.519	82.06
236.753	67.06
236.987	83.06
237.221	83.06
237.455	76.06
237.689	77.06
237.922	77.06
238.156	74.06
238.39	79.06
238.624	71.06
238.858	71.06
239.091	78.06
239.325	84.06
239.559	78.06
239.793	82.06
240.027	93.06
240.26	79.06
240.494	77.06
240.728	79.06
240.961	66.06
241.195	80.06
241.429	78.06
241.662	75.06
241.896	66.06
242.13	75.06
242.363	77.06
242.597	75.06
242.83	79.06
243.064	101.06
243.298	74.06
243.531	80.06
243.765	74.06
243.998	88.06
244.232	83.06
244.465	100.06
244.699	85.06
244.932	79.06
245.166	79.06
245.399	72.06
245.633	83.06
245.866	83.06
246.099	78.06
246.333	76.06
246.566	86.06
246.8	82.06
247.033	87.06
247.266	73.06
247.5	87.06
247.733	82.06
247.966	73.06
248.2	82.06
248.433	86.06
248.666	94.06
248.899	73.06
249.133	92.06
249.366	94.06
249.599	96.06
249.832	94.06
250.066	83.06
250.299	79.06
250.532	86.06
250.765	73.06
250.998	89.06
251.231	77.06
251.465	74.06
251.698	76.06
251.931	90.06
252.164	87.06
252.397	87.06
252.63	81.06
252.863	79.06
253.096	81.06
253.329	75.06
253.562	89.06
253.795	95.06
254.028	88.06
254.261	84.06
254.494	83.06
254.727	89.06
254.96	79.06
255.193	72.06
255.426	80.06
255.659	90.06
255.892	76.06
256.124	89.06
256.357	74.06
256.59	85.06
256.823	94.06
257.056	69.06
257.289	77.06
257.521	72.06
257.754	99.06
257.987	80.06
258.22	78.06
258.452	86.06
258.685	92.06
258.918	82.06
259.151	68.06
259.383	78.06
259.616	83.06
259.849	79.06
260.081	70.06
260.314	89.06
260.547	77.06
260.779	97.06
261.012	78.06
261.244	83.06
261.477	92.06
261.71	84.06
261.942	118.06
262.175	122.06
262.407	87.06
262.64	74.06
262.872	86.06
263.105	87.06
263.337	87.06
263.57	89.06
263.802	83.06
264.035	81.06
264.267	94.06
264.499	89.06
264.732	91.06
264.964	91.06
265.197	75.06
265.429	84.06
265.661	89.06
265.894	84.06
266.126	91.06
266.358	87.06
266.591	93.06
266.823	90.06
267.055	84.06
267.287	89.06
267.52	85.06
267.752	86.06
267.984	85.06
268.216	77.06
268.448	81.06
268.681	79.06
268.913	81.06
269.145	101.06
269.377	88.06
269.609	80.06
269.841	82.06
270.073	85.06
270.306	92.06
270.538	94.06
270.77	89.06
271.002	75.06
271.234	93.06
271.466	114.06
271.698	95.06
271.93	90.06
272.162	89.06
272.394	90.06
272.626	97.06
272.858	90.06
273.09	106.06
273.322	90.06
273.553	79.06
273.785	85.06
274.017	84.06
274.249	91.06
274.481	97.06
274.713	96.06
274.945	93.06
275.176	86.06
275.408	90.06
275.64	93.06
275.872	91.06
276.104	102.06
276.335	104.06
276.567	103.06
276.799	107.06
277.031	101.06
277.262	79.06
277.494	100.06
277.726	86.06
277.957	84.06
278.189	91.06
278.421	84.06
278.652	84.06
278.884	97.06
279.115	91.06
279.347	94.06
279.579	93.06
279.81	89.06
280.042	91.06
280.273	90.06
280.505	94.06
280.736	89.06
280.968	83.06
281.199	96.06
281.431	83.06
281.662	89.06
281.894	107.06
282.125	115.06
282.356	124.06
282.588	141.06
282.819	107.06
283.051	79.06
283.282	94.06
283.513	85.06
283.745	88.06
283.976	85.06
284.207	94.06
284.439	92.06
284.67	85.06
284.901	92.06
285.132	77.06
285.364	89.06
285.595	77.06
285.826	87.06
286.057	90.06
286.288	96.06
286.52	75.06
286.751	91.06
286.982	93.06
287.213	87.06
287.444	66.06
287.675	78.06
287.906	98.06
288.138	98.06
288.369	97.06
288.6	96.06
288.831	102.06
289.062	110.06
289.293	85.06
289.524	93.06
289.755	96.06
289.986	96.06
290.217	97.06
290.448	95.06
290.679	79.06
290.91	81.06
291.141	92.06
291.371	99.06
291.602	89.06
291.833	91.06
292.064	93.06
292.295	91.06
292.526	90.06
292.757	103.06
292.987	98.06
293.218	87.06
293.449	97.06
293.68	91.06
293.91	94.06
294.141	99.06
294.372	91.06
294.603	101.06
294.833	89.06
295.064	92.06
295.295	91.06
295.525	97.06
295.756	113.06
295.987	119.06
296.217	156.06
296.448	133.06
296.679	107.06
296.909	87.06
297.14	83.06
297.37	93.06
297.601	84.06
297.831	95.06
298.062	91.06
298.292	101.06
298.523	93.06
298.753	101.06
298.984	93.06
299.214	92.06
299.445	85.06
299.675	98.06
299.905	87.06
300.136	90.06
300.366	96.06
300.597	110.06
300.827	100.06
301.057	115.06
301.288	103.06
301.518	95.06
301.748	92.06
301.979	107.06
302.209	95.06
302.439	108.06
302.669	97.06
302.9	83.06
303.13	86.06
303.36	113.06
303.59	99.06
303.82	114.06
304.051	92.06
304.281	93.06
304.511	87.06
304.741	73.06
304.971	81.06
305.201	87.06
305.431	84.06
305.661	89.06
305.891	86.06
306.121	97.06
306.352	115.06
306.582	98.06
306.812	85.06
307.042	93.06
307.272	87.06
307.502	90.06
307.731	91.06
307.961	85.06
308.191	89.06
308.421	91.06
308.651	86.06
308.881	105.06
309.111	97.06
309.341	107.06
309.571	107.06
309.8	118.06
310.03	88.06
310.26	86.06
310.49	75.06
310.72	91.06
310.949	107.06
311.179	101.06
311.409	97.06
311.639	85.06
311.868	113.06
312.098	88.06
312.328	97.06
312.557	106.06
312.787	121.06
313.017	108.06
313.246	94.06
313.476	98.06
313.706	87.06
313.935	98.06
314.165	109.06
314.394	106.06
314.624	102.06
314.853	89.06
315.083	100.06
315.312	103.06
315.542	95.06
315.771	92.06
316.001	91.06
316.23	90.06
316.46	94.06
316.689	107.06
316.919	94.06
317.148	81.06
317.377	98.06
317.607	102.06
317.836	93.06
318.065	97.06
318.295	99.06
318.524	105.06
318.753	103.06
318.983	93.06
319.212	87.06
319.441	106.06
319.67	105.06
319.9	96.06
320.129	100.06
320.358	106.06
320.587	97.06
320.816	91.06
321.046	89.06
321.275	106.06
321.504	84.06
321.733	100.06
321.962	99.06
322.191	96.06
322.42	118.06
322.649	117.06
322.878	104.06
323.108	103.06
323.337	119.06
323.566	131.06
323.795	145.06
324.024	206.06
324.253	398.06
324.482	860.06
324.71	1697.06
324.939	2168.06
325.168	841.06
325.397	254.06
325.626	151.06
325.855	134.06
326.084	134.06
326.313	120.06
326.542	153.06
326.77	233.06
326.999	460.06
327.228	910.06
327.457	1627.06
327.686	1322.06
327.914	373.06
328.143	211.06
328.372	156.06
328.6	140.06
328.829	122.06
329.058	127.06
329.287	139.06
329.515	103.06
329.744	90.06
329.972	100.06
330.201	124.06
330.43	130.06
330.658	135.06
330.887	134.06
331.115	121.06
331.344	110.06
331.572	91.06
331.801	104.06
332.03	107.06
332.258	106.06
332.486	109.06
332.715	85.06
332.943	91.06
333.172	91.06
333.4	89.06
333.629	98.06
333.857	112.06
334.085	110.06
334.314	108.06
334.542	113.06
334.771	124.06
334.999	95.06
335.227	79.06
335.455	95.06
335.684	97.06
335.912	101.06
336.14	93.06
336.369	98.06
336.597	96.06
336.825	112.06
337.053	96.06
337.281	105.06
337.51	101.06
337.738	91.06
337.966	115.06
338.194	98.06
338.422	92.06
338.65	97.06
338.878	94.06
339.106	100.06
339.334	95.06
339.562	84.06
339.79	102.06
340.018	85.06
340.246	74.06
340.474	113.06
340.702	106.06
340.93	94.06
341.158	96.06
341.386	99.06
341.614	112.06
341.842	103.06
342.07	98.06
342.298	104.06
342.526	94.06
342.754	85.06
342.981	103.06
343.209	93.06
343.437	104.06
343.665	82.06
343.893	88.06
344.12	96.06
344.348	87.06
344.576	91.06
344.804	101.06
345.031	107.06
345.259	111.06
345.487	92.06
345.714	97.06
345.942	94.06
346.17	98.06
346.397	83.06
346.625	102.06
346.853	103.06
347.08	91.06
347.308	114.06
347.535	107.06
347.763	98.06
347.99	94.06
348.218	103.06
348.445	108.06
348.673	97.06
348.9	92.06
349.128	107.06
349.355	99.06
349.583	80.06
349.81	86.06
350.037	102.06
350.265	102.06
350.492	106.06
350.72	90.06
350.947	106.06
351.174	114.06
351.402	100.06
351.629	108.06
351.856	107.06
352.083	102.06
352.311	98.06
352.538	102.06
352.765	110.06
352.992	141.06
353.22	110.06
353.447	113.06
353.674	90.06
353.901	101.06
354.128	100.06
354.355	100.06
354.583	94.06
354.81	100.06
355.037	101.06
355.264	90.06
355.491	98.06
355.718	104.06
355.945	116.06
356.172	101.06
356.399	100.06
356.626	89.06
356.853	98.06
357.08	100.06
357.307	91.06
357.534	99.06
357.761	91.06
357.988	97.06
358.215	98.06
358.441	99.06
358.668	93.06
358.895	99.06
359.122	94.06
359.349	84.06
359.576	99.06
359.802	101.06
360.029	113.06
360.256	107.06
360.483	105.06
360.709	90.06
360.936	93.06
361.163	102.06
361.39	101.06
361.616	85.06
361.843	74.06
362.07	109.06
362.296	105.06
362.523	97.06
362.749	79.06
362.976	78.06
363.203	88.06
363.429	93.06
363.656	90.06
363.882	102.06
364.109	96.06
364.335	88.06
364.562	101.06
364.788	117.06
365.015	94.06
365.241	98.06
365.468	113.06
365.694	98.06
365.92	85.06
366.147	102.06
366.373	98.06
366.599	93.06
366.826	101.06
367.052	92.06
367.278	100.06
367.505	84.06
367.731	86.06
367.957	79.06
368.184	100.06
368.41	107.06
368.636	116.06
368.862	139.06
369.089	131.06
369.315	98.06
369.541	91.06
369.767	79.06
369.993	101.06
370.219	98.06
370.445	91.06
370.672	89.06
370.898	95.06
371.124	95.06
371.35	84.06
371.576	90.06
371.802	94.06
372.028	95.06
372.254	95.06
372.48	95.06
372.706	89.06
372.932	95.06
373.158	89.06
373.384	83.06
373.61	91.06
373.835	79.06
374.061	98.06
374.287	100.06
374.513	102.06
374.739	75.06
374.965	86.06
375.191	88.06
375.416	78.06
375.642	89.06
375.868	87.06
376.094	95.06
376.319	98.06
376.545	71.06
376.771	91.06
376.997	96.06
377.222	94.06
377.448	90.06
377.674	99.06
377.899	89.06
378.125	83.06
378.35	87.06
378.576	84.06
378.802	97.06
379.027	88.06
379.253	97.06
379.478	85.06
379.704	103.06
379.929	101.06
380.155	97.06
380.38	95.06
380.606	92.06
380.831	93.06
381.057	90.06
381.282	99.06
381.507	94.06
381.733	100.06
381.958	110.06
382.184	91.06
382.409	120.06
382.634	110.06
382.86	114.06
383.085	119.06
383.31	90.06
383.535	110.06
383.761	105.06
383.986	113.06
384.211	111.06
384.436	106.06
384.662	92.06
384.887	102.06
385.112	101.06
385.337	114.06
385.562	103.06
385.787	100.06
386.013	113.06
386.238	110.06
386.463	102.06
386.688	117.06
386.913	104.06
387.138	106.06
387.363	112.06
387.588	101.06
387.813	111.06
388.038	105.06
388.263	117.06
388.488	109.06
388.713	106.06
388.938	108.06
389.163	98.06
389.387	95.06
389.612	89.06
389.837	100.06
390.062	101.06
390.287	91.06
390.512	97.06
390.736	87.06
390.961	100.06
391.186	98.06
391.411	90.06
391.636	101.06
391.86	78.06
392.085	102.06
392.31	79.06
392.534	81.06
392.759	84.06
392.984	94.06
393.208	95.06
393.433	85.06
393.658	84.06
393.882	82.06
394.107	85.06
394.331	89.06
394.556	83.06
394.78	97.06
395.005	96.06
395.229	95.06
395.454	88.06
395.678	105.06
395.903	89.06
396.127	98.06
396.352	76.06
396.576	88.06
396.801	81.06
397.025	104.06
397.249	91.06
397.474	98.06
397.698	89.06
397.922	94.06
398.147	85.06
398.371	91.06
398.595	94.06
398.82	82.06
399.044	86.06
399.268	94.06
399.492	89.06
399.717	89.06
399.941	89.06
400.165	98.06
400.389	84.06
400.613	83.06
400.837	97.06
401.062	88.06
401.286	83.06
401.51	106.06
401.734	87.06
401.958	110.06
402.182	130.06
402.406	173.06
402.63	122.06
402.854	96.06
403.078	85.06
403.302	92.06
403.526	85.06
403.75	92.06
403.974	98.06
404.198	94.06
404.422	87.06
404.645	83.06
404.869	90.06
405.093	99.06
405.317	95.06
405.541	91.06
405.765	98.06
405.988	122.06
406.212	196.06
406.436	261.06
406.66	166.06
406.883	107.06
407.107	91.06
407.331	105.06
407.555	107.06
407.778	93.06
408.002	97.06
408.226	83.06
408.449	83.06
408.673	88.06
408.896	96.06
409.12	97.06
409.344	89.06
409.567	90.06
409.791	100.06
410.014	99.06
410.238	91.06
410.461	84.06
410.685	88.06
410.908	99.06
411.132	99.06
411.355	106.06
411.578	93.06
411.802	87.06
412.025	94.06
412.249	93.06
412.472	107.06
412.695	100.06
412.919	97.06
413.142	92.06
413.365	90.06
413.589	76.06
413.812	88.06
414.035	99.06
414.258	98.06
414.482	92.06
414.705	83.06
414.928	84.06
415.151	97.06
415.374	100.06
415.597	105.06
415.821	94.06
416.044	93.06
416.267	94.06
416.49	100.06
416.713	89.06
416.936	86.06
417.159	86.06
417.382	105.06
417.605	99.06
417.828	90.06
418.051	93.06
418.274	84.06
418.497	92.06
418.72	85.06
418.943	85.06
419.166	93.06
419.389	94.06
419.611	99.06
419.834	86.06
420.057	93.06
420.28	99.06
420.503	105.06
420.726	94.06
420.948	93.06
421.171	99.06
421.394	94.06
421.617	93.06
421.839	91.06
422.062	99.06
422.285	93.06
422.507	97.06
422.73	103.06
422.953	100.06
423.175	92.06
423.398	94.06
423.621	78.06
423.843	88.06
424.066	83.06
424.288	77.06
424.511	90.06
424.733	96.06
424.956	98.06
425.178	115.06
425.401	95.06
425.623	83.06
425.846	99.06
426.068	90.06
426.291	93.06
426.513	90.06
426.735	104.06
426.958	88.06
427.18	108.06
427.402	134.06
427.625	191.06
427.847	143.06
428.069	103.06
428.292	89.06
428.514	89.06
428.736	94.06
428.958	95.06
429.181	86.06
429.403	101.06
429.625	88.06
429.847	96.06
430.069	109.06
430.292	98.06
430.514	85.06
430.736	84.06
430.958	81.06
431.18	96.06
431.402	82.06
431.624	91.06
431.846	83.06
432.068	92.06
432.29	95.06
432.512	75.06
432.734	82.06
432.956	102.06
433.178	96.06
433.4	100.06
433.622	102.06
433.844	107.06
434.066	89.06
434.287	102.06
434.509	97.06
434.731	107.06
434.953	95.06
435.175	82.06
435.397	93.06
435.618	91.06
435.84	117.06
436.062	106.06
436.284	131.06
436.505	92.06
436.727	97.06
436.949	95.06
437.17	97.06
437.392	78.06
437.614	101.06
437.835	108.06
438.057	126.06
438.278	107.06
438.5	94.06
438.721	127.06
438.943	98.06
439.165	74.06
439.386	93.06
439.608	92.06
439.829	106.06
440.05	113.06
440.272	153.06
440.493	112.06
440.715	100.06
440.936	81.06
441.158	95.06
441.379	76.06
441.6	71.06
441.822	93.06
442.043	95.06
442.264	101.06
442.486	93.06
442.707	107.06
442.928	124.06
443.149	127.06
443.371	140.06
443.592	91.06
443.813	94.06
444.034	116.06
444.255	85.06
444.476	95.06
444.698	78.06
444.919	90.06
445.14	135.06
445.361	108.06
445.582	111.06
445.803	141.06
446.024	135.06
446.245	123.06
446.466	115.06
446.687	88.06
446.908	82.06
447.129	95.06
447.35	106.06
447.571	100.06
447.792	102.06
448.013	101.06
448.234	117.06
448.455	106.06
448.675	121.06
448.896	133.06
449.117	102.06
449.338	103.06
449.559	135.06
449.779	133.06
450	103.06
450.221	92.06
450.442	92.06
450.662	100.06
450.883	116.06
451.104	112.06
451.324	103.06
451.545	87.06
451.766	84.06
451.986	87.06
452.207	94.06
452.428	80.06
452.648	89.06
452.869	115.06
453.089	113.06
453.31	122.06
453.53	102.06
453.751	96.06
453.971	116.06
454.192	110.06
454.412	94.06
454.633	84.06
454.853	86.06
455.073	94.06
455.294	101.06
455.514	98.06
455.734	85.06
455.955	95.06
456.175	91.06
456.395	75.06
456.616	90.06
456.836	79.06
457.056	87.06
457.276	95.06
457.497	92.06
457.717	79.06
457.937	86.06
458.157	97.06
458.377	99.06
458.598	105.06
458.818	160.06
459.038	160.06
459.258	129.06
459.478	82.06
459.698	84.06
459.918	97.06
460.138	96.06
460.358	82.06
460.578	84.06
460.798	89.06
461.018	91.06
461.238	85.06
461.458	83.06
461.678	85.06
461.898	77.06
462.118	99.06
462.338	79.06
462.558	97.06
462.777	88.06
462.997	87.06
463.217	86.06
463.437	96.06
463.657	76.06
463.876	91.06
464.096	101.06
464.316	92.06
464.536	89.06
464.755	93.06
464.975	102.06
465.195	180.06
465.414	167.06
465.634	109.06
465.854	92.06
466.073	81.06
466.293	88.06
466.512	82.06
466.732	92.06
466.951	84.06
467.171	87.06
467.391	98.06
467.61	100.06
467.829	107.06
468.049	103.06
468.268	105.06
468.488	96.06
468.707	86.06
468.927	88.06
469.146	82.06
469.365	101.06
469.585	103.06
469.804	92.06
470.023	93.06
470.243	87.06
470.462	93.06
470.681	117.06
470.901	101.06
471.12	86.06
471.339	81.06
471.558	93.06
471.777	83.06
471.997	89.06
472.216	103.06
472.435	121.06
472.654	95.06
472.873	88.06
473.092	107.06
473.311	91.06
473.53	98.06
473.749	94.06
473.968	79.06
474.187	108.06
474.406	91.06
474.625	90.06
474.844	92.06
475.063	74.06
475.282	77.06
475.501	91.06
475.72	98.06
475.939	82.06
476.158	83.06
476.377	87.06
476.596	86.06
476.814	90.06
477.033	108.06
477.252	93.06
477.471	99.06
477.69	83.06
477.908	95.06
478.127	84.06
478.346	82.06
478.564	87.06
478.783	93.06
479.002	91.06
479.22	102.06
479.439	95.06
479.658	109.06
479.876	83.06
480.095	90.06
480.313	85.06
480.532	93.06
480.751	104.06
480.969	104.06
481.188	155.06
481.406	133.06
481.624	98.06
481.843	93.06
482.061	92.06
482.28	97.06
482.498	102.06
482.717	85.06
482.935	86.06
483.153	88.06
483.372	97.06
483.59	72.06
483.808	91.06
484.027	84.06
484.245	96.06
484.463	96.06
484.681	105.06
484.9	96.06
485.118	91.06
485.336	119.06
485.554	102.06
485.772	116.06
485.99	93.06
486.209	106.06
486.427	111.06
486.645	106.06
486.863	108.06
487.081	106.06
487.299	96.06
487.517	107.06
487.735	108.06
487.953	96.06
488.171	97.06
488.389	101.06
488.607	99.06
488.825	91.06
489.043	87.06
489.261	100.06
489.479	97.06
489.696	88.06
489.914	90.06
490.132	92.06
490.35	95.06
490.568	97.06
490.786	91.06
491.003	92.06
491.221	94.06
491.439	99.06
491.657	90.06
491.874	103.06
492.092	87.06
492.31	93.06
492.527	94.06
492.745	89.06
492.963	87.06
493.18	95.06
493.398	99.06
493.615	108.06
493.833	110.06
494.05	83.06
494.268	89.06
494.485	96.06
494.703	91.06
494.92	97.06
495.138	88.06
495.355	103.06
495.573	115.06
495.79	87.06
496.008	89.06
496.225	99.06
496.442	86.06
496.66	101.06
496.877	95.06
497.094	104.06
497.312	93.06
497.529	86.06
497.746	97.06
497.963	99.06
498.181	99.06
498.398	89.06
498.615	108.06
498.832	103.06
499.049	92.06
499.267	87.06
499.484	85.06
499.701	84.06
499.918	90.06
500.135	86.06
500.352	83.06
500.569	103.06
500.786	82.06
501.003	95.06
501.22	98.06
501.437	98.06
501.654	106.06
501.871	106.06
502.088	99.06
502.305	100.06
502.522	84.06
502.739	98.06
502.956	67.06
503.172	105.06
503.389	92.06
503.606	113.06
503.823	89.06
504.04	110.06
504.256	93.06
504.473	93.06
504.69	91.06
504.907	97.06
505.123	90.06
505.34	93.06
505.557	98.06
505.773	105.06
505.99	97.06
506.207	105.06
506.423	100.06
506.64	94.06
506.856	99.06
507.073	97.06
507.289	96.06
507.506	79.06
507.722	112.06
507.939	109.06
508.155	91.06
508.372	82.06
508.588	102.06
508.805	99.06
509.021	106.06
509.238	108.06
509.454	102.06
509.67	99.06
509.887	121.06
510.103	123.06
510.319	235.06
510.536	888.06
510.752	2948.06
510.968	820.06
511.184	158.06
511.401	113.06
511.617	106.06
511.833	111.06
512.049	88.06
512.265	98.06
512.481	94.06
512.698	89.06
512.914	119.06
513.13	105.06
513.346	98.06
513.562	98.06
513.778	109.06
513.994	99.06
514.21	103.06
514.426	126.06
