Data from Circ_2018_H10_HRD10591_00031.txt Node
Date: Wed Jan 03 09:56:08 EST 2024
User: Yrep
Spectrometer: HR+D1059
Trigger mode: 1
Integration Time (sec): 1.000000E-1
Scans to average: 1
Electric dark correction enabled: true
Nonlinearity correction enabled: false
Boxcar width: 0
XAxis mode: Wavelengths
Number of Pixels in Spectrum: 2048
>>>>>Begin Spectral Data<<<<<
223.165	-13.5
223.4	-13.5
223.635	-13.5
223.869	-17.5
224.104	-15.5
224.338	-7.5
224.573	-9.5
224.808	-14.5
225.042	-3.5
225.277	-1.5
225.511	-22.5
225.746	-5.5
225.98	1.5
226.215	10.5
226.449	19.5
226.683	12.5
226.918	20.5
227.152	46.5
227.387	44.5
227.621	36.5
227.856	40.5
228.09	55.5
228.324	49.5
228.559	48.5
228.793	55.5
229.027	49.5
229.262	49.5
229.496	77.5
229.73	91.5
229.964	73.5
230.199	68.5
230.433	81.5
230.667	81.5
230.901	85.5
231.136	82.5
231.37	70.5
231.604	70.5
231.838	78.5
232.072	77.5
232.306	75.5
232.541	84.5
232.775	76.5
233.009	89.5
233.243	97.5
233.477	78.5
233.711	90.5
233.945	69.5
234.179	73.5
234.413	81.5
234.647	85.5
234.881	72.5
235.115	76.5
235.349	72.5
235.583	81.5
235.817	88.5
236.051	73.5
236.285	72.5
236.519	72.5
236.753	87.5
236.987	84.5
237.221	86.5
237.455	89.5
237.689	65.5
237.922	88.5
238.156	83.5
238.39	83.5
238.624	70.5
238.858	87.5
239.091	79.5
239.325	86.5
239.559	88.5
239.793	83.5
240.027	82.5
240.26	75.5
240.494	83.5
240.728	79.5
240.961	85.5
241.195	83.5
241.429	96.5
241.662	87.5
241.896	83.5
242.13	69.5
242.363	78.5
242.597	89.5
242.83	84.5
243.064	84.5
243.298	82.5
243.531	78.5
243.765	90.5
243.998	91.5
244.232	77.5
244.465	92.5
244.699	85.5
244.932	71.5
245.166	64.5
245.399	81.5
245.633	76.5
245.866	82.5
246.099	78.5
246.333	84.5
246.566	75.5
246.8	80.5
247.033	82.5
247.266	64.5
247.5	67.5
247.733	80.5
247.966	74.5
248.2	78.5
248.433	89.5
248.666	95.5
248.899	84.5
249.133	82.5
249.366	94.5
249.599	99.5
249.832	75.5
250.066	85.5
250.299	81.5
250.532	98.5
250.765	84.5
250.998	87.5
251.231	72.5
251.465	88.5
251.698	77.5
251.931	75.5
252.164	88.5
252.397	91.5
252.63	77.5
252.863	85.5
253.096	72.5
253.329	86.5
253.562	69.5
253.795	76.5
254.028	83.5
254.261	82.5
254.494	82.5
254.727	88.5
254.96	72.5
255.193	82.5
255.426	81.5
255.659	68.5
255.892	91.5
256.124	79.5
256.357	85.5
256.59	74.5
256.823	87.5
257.056	88.5
257.289	87.5
257.521	77.5
257.754	90.5
257.987	72.5
258.22	83.5
258.452	81.5
258.685	78.5
258.918	90.5
259.151	82.5
259.383	84.5
259.616	78.5
259.849	72.5
260.081	101.5
260.314	86.5
260.547	81.5
260.779	79.5
261.012	87.5
261.244	74.5
261.477	71.5
261.71	85.5
261.942	110.5
262.175	99.5
262.407	101.5
262.64	90.5
262.872	90.5
263.105	82.5
263.337	90.5
263.57	75.5
263.802	85.5
264.035	73.5
264.267	88.5
264.499	87.5
264.732	78.5
264.964	75.5
265.197	86.5
265.429	93.5
265.661	66.5
265.894	76.5
266.126	90.5
266.358	91.5
266.591	77.5
266.823	80.5
267.055	84.5
267.287	96.5
267.52	104.5
267.752	81.5
267.984	97.5
268.216	78.5
268.448	94.5
268.681	84.5
268.913	72.5
269.145	75.5
269.377	99.5
269.609	85.5
269.841	82.5
270.073	74.5
270.306	74.5
270.538	89.5
270.77	76.5
271.002	91.5
271.234	81.5
271.466	85.5
271.698	94.5
271.93	81.5
272.162	87.5
272.394	70.5
272.626	91.5
272.858	86.5
273.09	72.5
273.322	85.5
273.553	85.5
273.785	89.5
274.017	97.5
274.249	84.5
274.481	85.5
274.713	86.5
274.945	96.5
275.176	77.5
275.408	100.5
275.64	86.5
275.872	85.5
276.104	88.5
276.335	91.5
276.567	91.5
276.799	99.5
277.031	102.5
277.262	97.5
277.494	92.5
277.726	83.5
277.957	73.5
278.189	93.5
278.421	85.5
278.652	77.5
278.884	93.5
279.115	67.5
279.347	74.5
279.579	89.5
279.81	93.5
280.042	87.5
280.273	88.5
280.505	101.5
280.736	86.5
280.968	66.5
281.199	84.5
281.431	96.5
281.662	87.5
281.894	94.5
282.125	97.5
282.356	116.5
282.588	147.5
282.819	107.5
283.051	82.5
283.282	97.5
283.513	93.5
283.745	84.5
283.976	83.5
284.207	89.5
284.439	75.5
284.67	86.5
284.901	85.5
285.132	83.5
285.364	83.5
285.595	77.5
285.826	77.5
286.057	85.5
286.288	90.5
286.52	99.5
286.751	86.5
286.982	87.5
287.213	91.5
287.444	86.5
287.675	91.5
287.906	76.5
288.138	91.5
288.369	98.5
288.6	89.5
288.831	87.5
289.062	104.5
289.293	104.5
289.524	93.5
289.755	83.5
289.986	85.5
290.217	78.5
290.448	88.5
290.679	73.5
290.91	86.5
291.141	78.5
291.371	105.5
291.602	91.5
291.833	89.5
292.064	100.5
292.295	91.5
292.526	84.5
292.757	92.5
292.987	83.5
293.218	93.5
293.449	83.5
293.68	85.5
293.91	65.5
294.141	93.5
294.372	77.5
294.603	78.5
294.833	86.5
295.064	96.5
295.295	87.5
295.525	104.5
295.756	117.5
295.987	124.5
296.217	138.5
296.448	119.5
296.679	90.5
296.909	88.5
297.14	94.5
297.37	82.5
297.601	99.5
297.831	104.5
298.062	91.5
298.292	93.5
298.523	97.5
298.753	93.5
298.984	93.5
299.214	92.5
299.445	95.5
299.675	97.5
299.905	93.5
300.136	94.5
300.366	82.5
300.597	87.5
300.827	81.5
301.057	100.5
301.288	106.5
301.518	99.5
301.748	89.5
301.979	89.5
302.209	93.5
302.439	99.5
302.669	86.5
302.9	91.5
303.13	95.5
303.36	90.5
303.59	98.5
303.82	102.5
304.051	86.5
304.281	97.5
304.511	108.5
304.741	94.5
304.971	85.5
305.201	90.5
305.431	82.5
305.661	87.5
305.891	97.5
306.121	104.5
306.352	104.5
306.582	89.5
306.812	93.5
307.042	101.5
307.272	91.5
307.502	91.5
307.731	96.5
307.961	96.5
308.191	93.5
308.421	77.5
308.651	100.5
308.881	91.5
309.111	85.5
309.341	95.5
309.571	102.5
309.8	94.5
310.03	95.5
310.26	85.5
310.49	94.5
310.72	99.5
310.949	100.5
311.179	106.5
311.409	100.5
311.639	93.5
311.868	102.5
312.098	94.5
312.328	103.5
312.557	101.5
312.787	98.5
313.017	92.5
313.246	105.5
313.476	88.5
313.706	84.5
313.935	86.5
314.165	107.5
314.394	106.5
314.624	103.5
314.853	101.5
315.083	105.5
315.312	101.5
315.542	102.5
315.771	97.5
316.001	110.5
316.23	81.5
316.46	85.5
316.689	88.5
316.919	96.5
317.148	96.5
317.377	108.5
317.607	104.5
317.836	96.5
318.065	85.5
318.295	88.5
318.524	80.5
318.753	89.5
318.983	86.5
319.212	96.5
319.441	112.5
319.67	110.5
319.9	92.5
320.129	79.5
320.358	98.5
320.587	96.5
320.816	85.5
321.046	113.5
321.275	103.5
321.504	98.5
321.733	87.5
321.962	104.5
322.191	97.5
322.42	99.5
322.649	102.5
322.878	109.5
323.108	124.5
323.337	134.5
323.566	130.5
323.795	148.5
324.024	201.5
324.253	422.5
324.482	822.5
324.71	1731.5
324.939	2168.5
325.168	800.5
325.397	245.5
325.626	141.5
325.855	133.5
326.084	124.5
326.313	115.5
326.542	153.5
326.77	225.5
326.999	458.5
327.228	918.5
327.457	1694.5
327.686	1330.5
327.914	357.5
328.143	196.5
328.372	145.5
328.6	131.5
328.829	104.5
329.058	119.5
329.287	127.5
329.515	120.5
329.744	106.5
329.972	102.5
330.201	123.5
330.43	115.5
330.658	135.5
330.887	159.5
331.115	122.5
331.344	101.5
331.572	105.5
331.801	107.5
332.03	101.5
332.258	94.5
332.486	96.5
332.715	93.5
332.943	94.5
333.172	98.5
333.4	99.5
333.629	114.5
333.857	104.5
334.085	108.5
334.314	130.5
334.542	136.5
334.771	136.5
334.999	107.5
335.227	104.5
335.455	95.5
335.684	101.5
335.912	91.5
336.14	111.5
336.369	100.5
336.597	104.5
336.825	101.5
337.053	93.5
337.281	99.5
337.51	96.5
337.738	108.5
337.966	78.5
338.194	94.5
338.422	98.5
338.65	95.5
338.878	109.5
339.106	87.5
339.334	88.5
339.562	91.5
339.79	83.5
340.018	87.5
340.246	92.5
340.474	89.5
340.702	94.5
340.93	103.5
341.158	92.5
341.386	96.5
341.614	94.5
341.842	82.5
342.07	86.5
342.298	86.5
342.526	103.5
342.754	93.5
342.981	84.5
343.209	85.5
343.437	100.5
343.665	107.5
343.893	89.5
344.12	96.5
344.348	105.5
344.576	105.5
344.804	92.5
345.031	96.5
345.259	104.5
345.487	90.5
345.714	90.5
345.942	83.5
346.17	87.5
346.397	84.5
346.625	102.5
346.853	103.5
347.08	89.5
347.308	76.5
347.535	93.5
347.763	91.5
347.99	95.5
348.218	93.5
348.445	105.5
348.673	103.5
348.9	92.5
349.128	104.5
349.355	88.5
349.583	102.5
349.81	95.5
350.037	87.5
350.265	93.5
350.492	112.5
350.72	96.5
350.947	91.5
351.174	113.5
351.402	105.5
351.629	99.5
351.856	104.5
352.083	99.5
352.311	114.5
352.538	114.5
352.765	101.5
352.992	119.5
353.22	126.5
353.447	93.5
353.674	104.5
353.901	107.5
354.128	113.5
354.355	90.5
354.583	98.5
354.81	95.5
355.037	101.5
355.264	92.5
355.491	93.5
355.718	89.5
355.945	88.5
356.172	97.5
356.399	94.5
356.626	109.5
356.853	93.5
357.08	98.5
357.307	103.5
357.534	98.5
357.761	78.5
357.988	86.5
358.215	104.5
358.441	92.5
358.668	84.5
358.895	84.5
359.122	93.5
359.349	78.5
359.576	100.5
359.802	94.5
360.029	118.5
360.256	121.5
360.483	109.5
360.709	92.5
360.936	94.5
361.163	96.5
361.39	107.5
361.616	107.5
361.843	84.5
362.07	105.5
362.296	116.5
362.523	112.5
362.749	110.5
362.976	99.5
363.203	112.5
363.429	92.5
363.656	77.5
363.882	101.5
364.109	106.5
364.335	86.5
364.562	81.5
364.788	102.5
365.015	94.5
365.241	103.5
365.468	106.5
365.694	112.5
365.92	97.5
366.147	89.5
366.373	91.5
366.599	93.5
366.826	81.5
367.052	85.5
367.278	86.5
367.505	89.5
367.731	96.5
367.957	93.5
368.184	100.5
368.41	93.5
368.636	115.5
368.862	122.5
369.089	111.5
369.315	92.5
369.541	82.5
369.767	106.5
369.993	109.5
370.219	87.5
370.445	99.5
370.672	97.5
370.898	78.5
371.124	89.5
371.35	82.5
371.576	95.5
371.802	78.5
372.028	78.5
372.254	90.5
372.48	83.5
372.706	98.5
372.932	96.5
373.158	91.5
373.384	90.5
373.61	92.5
373.835	81.5
374.061	77.5
374.287	96.5
374.513	84.5
374.739	86.5
374.965	87.5
375.191	95.5
375.416	97.5
375.642	96.5
375.868	100.5
376.094	90.5
376.319	95.5
376.545	73.5
376.771	93.5
376.997	84.5
377.222	88.5
377.448	77.5
377.674	97.5
377.899	93.5
378.125	89.5
378.35	104.5
378.576	82.5
378.802	86.5
379.027	86.5
379.253	85.5
379.478	93.5
379.704	96.5
379.929	93.5
380.155	91.5
380.38	93.5
380.606	91.5
380.831	80.5
381.057	104.5
381.282	99.5
381.507	93.5
381.733	94.5
381.958	109.5
382.184	90.5
382.409	94.5
382.634	95.5
382.86	114.5
383.085	105.5
383.31	101.5
383.535	106.5
383.761	90.5
383.986	91.5
384.211	96.5
384.436	96.5
384.662	100.5
384.887	94.5
385.112	97.5
385.337	103.5
385.562	118.5
385.787	107.5
386.013	95.5
386.238	114.5
386.463	104.5
386.688	112.5
386.913	91.5
387.138	116.5
387.363	113.5
387.588	108.5
387.813	100.5
388.038	101.5
388.263	117.5
388.488	102.5
388.713	90.5
388.938	108.5
389.163	97.5
389.387	86.5
389.612	87.5
389.837	101.5
390.062	88.5
390.287	83.5
390.512	88.5
390.736	84.5
390.961	75.5
391.186	90.5
391.411	104.5
391.636	103.5
391.86	104.5
392.085	80.5
392.31	77.5
392.534	82.5
392.759	82.5
392.984	93.5
393.208	84.5
393.433	88.5
393.658	89.5
393.882	90.5
394.107	106.5
394.331	90.5
394.556	83.5
394.78	95.5
395.005	108.5
395.229	84.5
395.454	93.5
395.678	86.5
395.903	88.5
396.127	78.5
396.352	87.5
396.576	77.5
396.801	80.5
397.025	86.5
397.249	92.5
397.474	84.5
397.698	104.5
397.922	87.5
398.147	90.5
398.371	91.5
398.595	92.5
398.82	80.5
399.044	88.5
399.268	97.5
399.492	85.5
399.717	101.5
399.941	92.5
400.165	88.5
400.389	103.5
400.613	91.5
400.837	96.5
401.062	95.5
401.286	93.5
401.51	99.5
401.734	86.5
401.958	95.5
402.182	129.5
402.406	178.5
402.63	129.5
402.854	94.5
403.078	80.5
403.302	94.5
403.526	83.5
403.75	86.5
403.974	91.5
404.198	89.5
404.422	105.5
404.645	102.5
404.869	96.5
405.093	108.5
405.317	100.5
405.541	91.5
405.765	84.5
405.988	117.5
406.212	180.5
406.436	246.5
406.66	182.5
406.883	112.5
407.107	88.5
407.331	104.5
407.555	89.5
407.778	104.5
408.002	98.5
408.226	92.5
408.449	93.5
408.673	78.5
408.896	88.5
409.12	83.5
409.344	91.5
409.567	82.5
409.791	92.5
410.014	99.5
410.238	79.5
410.461	85.5
410.685	94.5
410.908	109.5
411.132	93.5
411.355	90.5
411.578	92.5
411.802	86.5
412.025	90.5
412.249	97.5
412.472	91.5
412.695	99.5
412.919	101.5
413.142	103.5
413.365	100.5
413.589	98.5
413.812	82.5
414.035	94.5
414.258	88.5
414.482	91.5
414.705	92.5
414.928	99.5
415.151	88.5
415.374	65.5
415.597	78.5
415.821	72.5
416.044	85.5
416.267	89.5
416.49	94.5
416.713	96.5
416.936	97.5
417.159	90.5
417.382	89.5
417.605	86.5
417.828	92.5
418.051	103.5
418.274	78.5
418.497	101.5
418.72	107.5
418.943	97.5
419.166	87.5
419.389	83.5
419.611	101.5
419.834	102.5
420.057	96.5
420.28	82.5
420.503	97.5
420.726	92.5
420.948	85.5
421.171	91.5
421.394	99.5
421.617	93.5
421.839	85.5
422.062	89.5
422.285	97.5
422.507	104.5
422.73	108.5
422.953	83.5
423.175	95.5
423.398	81.5
423.621	93.5
423.843	77.5
424.066	73.5
424.288	95.5
424.511	88.5
424.733	105.5
424.956	98.5
425.178	96.5
425.401	90.5
425.623	92.5
425.846	102.5
426.068	95.5
426.291	89.5
426.513	100.5
426.735	96.5
426.958	86.5
427.18	98.5
427.402	144.5
427.625	175.5
427.847	123.5
428.069	116.5
428.292	94.5
428.514	99.5
428.736	87.5
428.958	89.5
429.181	98.5
429.403	84.5
429.625	83.5
429.847	88.5
430.069	96.5
430.292	108.5
430.514	91.5
430.736	93.5
430.958	91.5
431.18	90.5
431.402	94.5
431.624	94.5
431.846	81.5
432.068	86.5
432.29	96.5
432.512	101.5
432.734	108.5
432.956	102.5
433.178	90.5
433.4	88.5
433.622	89.5
433.844	103.5
434.066	82.5
434.287	93.5
434.509	80.5
434.731	91.5
434.953	72.5
435.175	104.5
435.397	86.5
435.618	96.5
435.84	97.5
436.062	126.5
436.284	109.5
436.505	91.5
436.727	101.5
436.949	89.5
437.17	87.5
437.392	93.5
437.614	97.5
437.835	116.5
438.057	137.5
438.278	101.5
438.5	115.5
438.721	130.5
438.943	94.5
439.165	84.5
439.386	107.5
439.608	100.5
439.829	98.5
440.05	127.5
440.272	134.5
440.493	99.5
440.715	88.5
440.936	94.5
441.158	94.5
441.379	84.5
441.6	88.5
441.822	96.5
442.043	95.5
442.264	106.5
442.486	99.5
442.707	104.5
442.928	102.5
443.149	124.5
443.371	145.5
443.592	107.5
443.813	125.5
444.034	96.5
444.255	76.5
444.476	95.5
444.698	96.5
444.919	95.5
445.14	139.5
445.361	120.5
445.582	123.5
445.803	144.5
446.024	139.5
446.245	149.5
446.466	109.5
446.687	96.5
446.908	79.5
447.129	95.5
447.35	98.5
447.571	88.5
447.792	89.5
448.013	89.5
448.234	117.5
448.455	112.5
448.675	114.5
448.896	123.5
449.117	97.5
449.338	99.5
449.559	114.5
449.779	125.5
450	98.5
450.221	93.5
450.442	93.5
450.662	88.5
450.883	109.5
451.104	119.5
451.324	108.5
451.545	85.5
451.766	86.5
451.986	94.5
452.207	94.5
452.428	96.5
452.648	104.5
452.869	122.5
453.089	107.5
453.31	120.5
453.53	85.5
453.751	87.5
453.971	98.5
454.192	117.5
454.412	81.5
454.633	92.5
454.853	78.5
455.073	87.5
455.294	96.5
455.514	109.5
455.734	85.5
455.955	81.5
456.175	97.5
456.395	87.5
456.616	96.5
456.836	69.5
457.056	98.5
457.276	82.5
457.497	88.5
457.717	93.5
457.937	90.5
458.157	96.5
458.377	85.5
458.598	101.5
458.818	150.5
459.038	166.5
459.258	123.5
459.478	96.5
459.698	88.5
459.918	95.5
460.138	84.5
460.358	82.5
460.578	89.5
460.798	101.5
461.018	76.5
461.238	82.5
461.458	81.5
461.678	80.5
461.898	69.5
462.118	80.5
462.338	82.5
462.558	83.5
462.777	75.5
462.997	78.5
463.217	96.5
463.437	85.5
463.657	85.5
463.876	73.5
464.096	90.5
464.316	86.5
464.536	96.5
464.755	93.5
464.975	111.5
465.195	176.5
465.414	171.5
465.634	107.5
465.854	94.5
466.073	77.5
466.293	91.5
466.512	99.5
466.732	89.5
466.951	106.5
467.171	88.5
467.391	84.5
467.61	94.5
467.829	100.5
468.049	98.5
468.268	108.5
468.488	77.5
468.707	93.5
468.927	88.5
469.146	81.5
469.365	78.5
469.585	88.5
469.804	105.5
470.023	90.5
470.243	94.5
470.462	92.5
470.681	120.5
470.901	91.5
471.12	91.5
471.339	90.5
471.558	88.5
471.777	86.5
471.997	84.5
472.216	107.5
472.435	147.5
472.654	99.5
472.873	86.5
473.092	100.5
473.311	95.5
473.53	93.5
473.749	89.5
473.968	85.5
474.187	102.5
474.406	89.5
474.625	102.5
474.844	81.5
475.063	71.5
475.282	92.5
475.501	92.5
475.72	75.5
475.939	86.5
476.158	82.5
476.377	87.5
476.596	85.5
476.814	85.5
477.033	93.5
477.252	90.5
477.471	98.5
477.69	93.5
477.908	97.5
478.127	94.5
478.346	90.5
478.564	94.5
478.783	98.5
479.002	94.5
479.22	103.5
479.439	107.5
479.658	108.5
479.876	94.5
480.095	79.5
480.313	92.5
480.532	90.5
480.751	82.5
480.969	116.5
481.188	190.5
481.406	153.5
481.624	105.5
481.843	89.5
482.061	90.5
482.28	91.5
482.498	82.5
482.717	83.5
482.935	89.5
483.153	84.5
483.372	73.5
483.59	104.5
483.808	85.5
484.027	90.5
484.245	105.5
484.463	100.5
484.681	91.5
484.9	97.5
485.118	80.5
485.336	98.5
485.554	105.5
485.772	115.5
485.99	100.5
486.209	102.5
486.427	93.5
486.645	100.5
486.863	112.5
487.081	105.5
487.299	100.5
487.517	100.5
487.735	97.5
487.953	96.5
488.171	101.5
488.389	94.5
488.607	106.5
488.825	104.5
489.043	93.5
489.261	90.5
489.479	87.5
489.696	96.5
489.914	84.5
490.132	102.5
490.35	102.5
490.568	99.5
490.786	77.5
491.003	89.5
491.221	92.5
491.439	85.5
491.657	97.5
491.874	102.5
492.092	103.5
492.31	92.5
492.527	91.5
492.745	87.5
492.963	94.5
493.18	105.5
493.398	94.5
493.615	95.5
493.833	94.5
494.05	104.5
494.268	91.5
494.485	82.5
494.703	83.5
494.92	99.5
495.138	85.5
495.355	97.5
495.573	98.5
495.79	91.5
496.008	97.5
496.225	101.5
496.442	89.5
496.66	88.5
496.877	82.5
497.094	89.5
497.312	77.5
497.529	96.5
497.746	85.5
497.963	85.5
498.181	95.5
498.398	97.5
498.615	98.5
498.832	90.5
499.049	87.5
499.267	80.5
499.484	98.5
499.701	98.5
499.918	96.5
500.135	89.5
500.352	100.5
500.569	93.5
500.786	99.5
501.003	104.5
501.22	85.5
501.437	101.5
501.654	113.5
501.871	104.5
502.088	97.5
502.305	92.5
502.522	87.5
502.739	86.5
502.956	83.5
503.172	85.5
503.389	96.5
503.606	109.5
503.823	99.5
504.04	90.5
504.256	93.5
504.473	97.5
504.69	84.5
504.907	84.5
505.123	95.5
505.34	84.5
505.557	80.5
505.773	93.5
505.99	88.5
506.207	86.5
506.423	90.5
506.64	82.5
506.856	98.5
507.073	92.5
507.289	97.5
507.506	92.5
507.722	114.5
507.939	114.5
508.155	95.5
508.372	104.5
508.588	84.5
508.805	93.5
509.021	100.5
509.238	89.5
509.454	91.5
509.67	98.5
509.887	107.5
510.103	131.5
510.319	232.5
510.536	838.5
510.752	2723.5
510.968	793.5
511.184	160.5
511.401	106.5
511.617	93.5
511.833	98.5
512.049	91.5
512.265	91.5
512.481	101.5
512.698	85.5
512.914	98.5
513.13	91.5
513.346	94.5
513.562	96.5
513.778	106.5
513.994	111.5
514.21	86.5
514.426	121.5
514.642	140.5
514.858	130.5
515.074	176.5
515.29	514.5
515.506	1770.5
515.721	660.5
515.937	174.5
516.153	110.5
516.369	101.5
516.585	90.5
516.801	86.5
517.016	93.5
517.232	89.5
517.448	97.5
517.664	105.5
517.879	92.5
518.095	100.5
518.311	107.5
518.527	88.5
518.742	91.5
518.958	85.5
519.173	101.5
519.389	102.5
519.605	103.5
519.82	100.5
520.036	121.5
520.251	122.5
520.467	106.5
520.682	105.5
520.898	113.5
521.113	135.5
521.329	152.5
521.544	214.5
521.76	641.5
521.975	2832.5
522.19	1787.5
522.406	363.5
522.621	142.5
522.836	126.5
523.052	109.5
523.267	97.5
523.482	102.5
523.698	102.5
523.913	133.5
524.128	100.5
524.343	109.5
524.559	98.5
524.774	105.5
524.989	100.5
525.204	114.5
525.419	110.5
525.634	98.5
525.849	92.5
526.064	89.5
526.28	93.5
526.495	94.5
526.71	92.5
526.925	85.5
527.14	103.5
527.355	98.5
527.57	85.5
527.785	84.5
527.999	84.5
528.214	96.5
528.429	88.5
528.644	96.5
528.859	85.5
529.074	99.5
529.289	125.5
529.503	180.5
529.718	117.5
529.933	85.5
530.148	92.5
530.363	104.5
530.577	91.5
530.792	92.5
531.007	85.5
531.221	86.5
531.436	84.5
531.651	105.5
531.865	92.5
532.08	83.5
532.295	92.5
532.509	100.5
532.724	90.5
532.938	101.5
533.153	95.5
533.367	92.5
533.582	92.5
533.796	104.5
534.011	101.5
534.225	98.5
534.44	89.5
