Data from Circ_2018_H10_HRD10591_00081.txt Node
Date: Wed Jan 03 09:56:18 EST 2024
User: Yrep
Spectrometer: HR+D1059
Trigger mode: 1
Integration Time (sec): 1.000000E-1
Scans to average: 1
Electric dark correction enabled: true
Nonlinearity correction enabled: false
Boxcar width: 0
XAxis mode: Wavelengths
Number of Pixels in Spectrum: 2048
>>>>>Begin Spectral Data<<<<<
223.165	-14.88
223.4	-14.88
223.635	-14.88
223.869	-9.88
224.104	-15.88
224.338	-14.88
224.573	-11.88
224.808	-17.88
225.042	-20.88
225.277	-2.88
225.511	5.12
225.746	-8.88
225.98	16.12
226.215	-1.88
226.449	18.12
226.683	23.12
226.918	25.12
227.152	32.12
227.387	42.12
227.621	11.12
227.856	30.12
228.09	46.12
228.324	56.12
228.559	51.12
228.793	69.12
229.027	58.12
229.262	56.12
229.496	71.12
229.73	78.12
229.964	97.12
230.199	75.12
230.433	82.12
230.667	67.12
230.901	66.12
231.136	74.12
231.37	74.12
231.604	70.12
231.838	76.12
232.072	66.12
232.306	72.12
232.541	77.12
232.775	87.12
233.009	81.12
233.243	65.12
233.477	82.12
233.711	93.12
233.945	84.12
234.179	75.12
234.413	85.12
234.647	69.12
234.881	70.12
235.115	73.12
235.349	82.12
235.583	81.12
235.817	85.12
236.051	64.12
236.285	76.12
236.519	73.12
236.753	82.12
236.987	75.12
237.221	68.12
237.455	82.12
237.689	65.12
237.922	74.12
238.156	80.12
238.39	67.12
238.624	61.12
238.858	72.12
239.091	74.12
239.325	74.12
239.559	74.12
239.793	86.12
240.027	77.12
240.26	79.12
240.494	80.12
240.728	83.12
240.961	69.12
241.195	73.12
241.429	66.12
241.662	69.12
241.896	68.12
242.13	73.12
242.363	72.12
242.597	66.12
242.83	66.12
243.064	74.12
243.298	83.12
243.531	72.12
243.765	81.12
243.998	74.12
244.232	82.12
244.465	94.12
244.699	83.12
244.932	72.12
245.166	78.12
245.399	92.12
245.633	74.12
245.866	89.12
246.099	76.12
246.333	86.12
246.566	81.12
246.8	80.12
247.033	75.12
247.266	72.12
247.5	71.12
247.733	84.12
247.966	87.12
248.2	94.12
248.433	90.12
248.666	72.12
248.899	73.12
249.133	89.12
249.366	94.12
249.599	96.12
249.832	76.12
250.066	77.12
250.299	68.12
250.532	77.12
250.765	71.12
250.998	80.12
251.231	85.12
251.465	66.12
251.698	81.12
251.931	81.12
252.164	76.12
252.397	91.12
252.63	72.12
252.863	76.12
253.096	80.12
253.329	75.12
253.562	80.12
253.795	61.12
254.028	78.12
254.261	80.12
254.494	66.12
254.727	85.12
254.96	80.12
255.193	76.12
255.426	81.12
255.659	89.12
255.892	85.12
256.124	81.12
256.357	83.12
256.59	67.12
256.823	75.12
257.056	77.12
257.289	79.12
257.521	94.12
257.754	77.12
257.987	80.12
258.22	83.12
258.452	79.12
258.685	87.12
258.918	83.12
259.151	74.12
259.383	71.12
259.616	89.12
259.849	79.12
260.081	95.12
260.314	96.12
260.547	83.12
260.779	86.12
261.012	79.12
261.244	82.12
261.477	94.12
261.71	101.12
261.942	119.12
262.175	133.12
262.407	102.12
262.64	79.12
262.872	81.12
263.105	82.12
263.337	86.12
263.57	90.12
263.802	91.12
264.035	103.12
264.267	75.12
264.499	84.12
264.732	91.12
264.964	90.12
265.197	87.12
265.429	63.12
265.661	82.12
265.894	91.12
266.126	67.12
266.358	75.12
266.591	73.12
266.823	81.12
267.055	61.12
267.287	64.12
267.52	81.12
267.752	86.12
267.984	86.12
268.216	86.12
268.448	89.12
268.681	75.12
268.913	78.12
269.145	85.12
269.377	89.12
269.609	84.12
269.841	86.12
270.073	97.12
270.306	93.12
270.538	78.12
270.77	65.12
271.002	84.12
271.234	86.12
271.466	80.12
271.698	100.12
271.93	83.12
272.162	92.12
272.394	84.12
272.626	90.12
272.858	77.12
273.09	83.12
273.322	83.12
273.553	71.12
273.785	81.12
274.017	82.12
274.249	93.12
274.481	80.12
274.713	92.12
274.945	79.12
275.176	84.12
275.408	87.12
275.64	81.12
275.872	83.12
276.104	80.12
276.335	86.12
276.567	106.12
276.799	114.12
277.031	100.12
277.262	103.12
277.494	99.12
277.726	86.12
277.957	74.12
278.189	77.12
278.421	82.12
278.652	86.12
278.884	70.12
279.115	78.12
279.347	90.12
279.579	68.12
279.81	87.12
280.042	91.12
280.273	80.12
280.505	100.12
280.736	78.12
280.968	90.12
281.199	95.12
281.431	85.12
281.662	95.12
281.894	82.12
282.125	96.12
282.356	128.12
282.588	173.12
282.819	125.12
283.051	86.12
283.282	88.12
283.513	83.12
283.745	90.12
283.976	83.12
284.207	92.12
284.439	94.12
284.67	103.12
284.901	89.12
285.132	91.12
285.364	91.12
285.595	74.12
285.826	85.12
286.057	100.12
286.288	77.12
286.52	79.12
286.751	99.12
286.982	89.12
287.213	80.12
287.444	80.12
287.675	88.12
287.906	105.12
288.138	105.12
288.369	111.12
288.6	93.12
288.831	95.12
289.062	88.12
289.293	75.12
289.524	78.12
289.755	88.12
289.986	86.12
290.217	74.12
290.448	76.12
290.679	96.12
290.91	94.12
291.141	84.12
291.371	72.12
291.602	88.12
291.833	95.12
292.064	87.12
292.295	83.12
292.526	81.12
292.757	84.12
292.987	90.12
293.218	80.12
293.449	84.12
293.68	90.12
293.91	92.12
294.141	97.12
294.372	85.12
294.603	76.12
294.833	93.12
295.064	86.12
295.295	91.12
295.525	89.12
295.756	94.12
295.987	126.12
296.217	160.12
296.448	137.12
296.679	79.12
296.909	87.12
297.14	81.12
297.37	90.12
297.601	80.12
297.831	96.12
298.062	99.12
298.292	93.12
298.523	88.12
298.753	77.12
298.984	72.12
299.214	86.12
299.445	84.12
299.675	81.12
299.905	96.12
300.136	89.12
300.366	82.12
300.597	88.12
300.827	90.12
301.057	81.12
301.288	101.12
301.518	97.12
301.748	89.12
301.979	98.12
302.209	90.12
302.439	91.12
302.669	72.12
302.9	83.12
303.13	86.12
303.36	99.12
303.59	105.12
303.82	117.12
304.051	102.12
304.281	98.12
304.511	85.12
304.741	113.12
304.971	63.12
305.201	95.12
305.431	70.12
305.661	79.12
305.891	85.12
306.121	105.12
306.352	81.12
306.582	118.12
306.812	93.12
307.042	111.12
307.272	101.12
307.502	101.12
307.731	97.12
307.961	92.12
308.191	90.12
308.421	102.12
308.651	74.12
308.881	90.12
309.111	88.12
309.341	70.12
309.571	102.12
309.8	88.12
310.03	84.12
310.26	93.12
310.49	89.12
310.72	100.12
310.949	110.12
311.179	93.12
311.409	98.12
311.639	95.12
311.868	106.12
312.098	89.12
312.328	99.12
312.557	113.12
312.787	125.12
313.017	93.12
313.246	90.12
313.476	83.12
313.706	86.12
313.935	111.12
314.165	104.12
314.394	113.12
314.624	90.12
314.853	102.12
315.083	99.12
315.312	88.12
315.542	96.12
315.771	84.12
316.001	83.12
316.23	78.12
316.46	96.12
316.689	86.12
316.919	86.12
317.148	97.12
317.377	103.12
317.607	98.12
317.836	77.12
318.065	90.12
318.295	77.12
318.524	81.12
318.753	91.12
318.983	86.12
319.212	102.12
319.441	123.12
319.67	113.12
319.9	93.12
320.129	93.12
320.358	97.12
320.587	96.12
320.816	112.12
321.046	104.12
321.275	89.12
321.504	99.12
321.733	92.12
321.962	94.12
322.191	97.12
322.42	109.12
322.649	111.12
322.878	127.12
323.108	130.12
323.337	122.12
323.566	147.12
323.795	167.12
324.024	214.12
324.253	437.12
324.482	905.12
324.71	1801.12
324.939	2387.12
325.168	909.12
325.397	266.12
325.626	151.12
325.855	119.12
326.084	131.12
326.313	143.12
326.542	178.12
326.77	230.12
326.999	486.12
327.228	929.12
327.457	1697.12
327.686	1409.12
327.914	396.12
328.143	235.12
328.372	184.12
328.6	139.12
328.829	129.12
329.058	155.12
329.287	139.12
329.515	134.12
329.744	113.12
329.972	113.12
330.201	161.12
330.43	194.12
330.658	152.12
330.887	169.12
331.115	137.12
331.344	102.12
331.572	97.12
331.801	102.12
332.03	121.12
332.258	105.12
332.486	94.12
332.715	85.12
332.943	93.12
333.172	100.12
333.4	90.12
333.629	114.12
333.857	112.12
334.085	135.12
334.314	157.12
334.542	192.12
334.771	212.12
334.999	117.12
335.227	96.12
335.455	88.12
335.684	83.12
335.912	90.12
336.14	88.12
336.369	88.12
336.597	96.12
336.825	85.12
337.053	114.12
337.281	89.12
337.51	105.12
337.738	95.12
337.966	97.12
338.194	96.12
338.422	85.12
338.65	92.12
338.878	99.12
339.106	91.12
339.334	99.12
339.562	98.12
339.79	91.12
340.018	92.12
340.246	86.12
340.474	112.12
340.702	87.12
340.93	88.12
341.158	105.12
341.386	104.12
341.614	83.12
341.842	102.12
342.07	95.12
342.298	105.12
342.526	80.12
342.754	98.12
342.981	83.12
343.209	78.12
343.437	96.12
343.665	82.12
343.893	74.12
344.12	85.12
344.348	85.12
344.576	90.12
344.804	99.12
345.031	95.12
345.259	102.12
345.487	88.12
345.714	101.12
345.942	99.12
346.17	79.12
346.397	107.12
346.625	93.12
346.853	105.12
347.08	78.12
347.308	82.12
347.535	96.12
347.763	102.12
347.99	89.12
348.218	104.12
348.445	116.12
348.673	96.12
348.9	88.12
349.128	91.12
349.355	78.12
349.583	80.12
349.81	101.12
350.037	99.12
350.265	84.12
350.492	100.12
350.72	109.12
350.947	97.12
351.174	103.12
351.402	91.12
351.629	111.12
351.856	95.12
352.083	102.12
352.311	105.12
352.538	120.12
352.765	111.12
352.992	114.12
353.22	112.12
353.447	120.12
353.674	93.12
353.901	96.12
354.128	85.12
354.355	88.12
354.583	95.12
354.81	97.12
355.037	87.12
355.264	93.12
355.491	96.12
355.718	100.12
355.945	93.12
356.172	96.12
356.399	93.12
356.626	96.12
356.853	97.12
357.08	99.12
357.307	86.12
357.534	72.12
357.761	99.12
357.988	83.12
358.215	91.12
358.441	89.12
358.668	81.12
358.895	87.12
359.122	83.12
359.349	86.12
359.576	96.12
359.802	105.12
360.029	121.12
360.256	113.12
360.483	113.12
360.709	89.12
360.936	94.12
361.163	81.12
361.39	86.12
361.616	94.12
361.843	93.12
362.07	98.12
362.296	87.12
362.523	109.12
362.749	100.12
362.976	88.12
363.203	88.12
363.429	86.12
363.656	100.12
363.882	82.12
364.109	90.12
364.335	87.12
364.562	90.12
364.788	89.12
365.015	99.12
365.241	103.12
365.468	94.12
365.694	131.12
365.92	109.12
366.147	83.12
366.373	87.12
366.599	88.12
366.826	93.12
367.052	85.12
367.278	94.12
367.505	81.12
367.731	95.12
367.957	89.12
368.184	93.12
368.41	102.12
368.636	112.12
368.862	143.12
369.089	105.12
369.315	104.12
369.541	89.12
369.767	89.12
369.993	89.12
370.219	90.12
370.445	81.12
370.672	90.12
370.898	86.12
371.124	89.12
371.35	88.12
371.576	85.12
371.802	87.12
372.028	88.12
372.254	71.12
372.48	94.12
372.706	83.12
372.932	94.12
373.158	89.12
373.384	84.12
373.61	101.12
373.835	102.12
374.061	80.12
374.287	93.12
374.513	92.12
374.739	85.12
374.965	83.12
375.191	84.12
375.416	93.12
375.642	94.12
375.868	100.12
376.094	81.12
376.319	82.12
376.545	67.12
376.771	83.12
376.997	77.12
377.222	96.12
377.448	86.12
377.674	72.12
377.899	89.12
378.125	97.12
378.35	111.12
378.576	86.12
378.802	90.12
379.027	103.12
379.253	85.12
379.478	99.12
379.704	87.12
379.929	95.12
380.155	88.12
380.38	89.12
380.606	95.12
380.831	101.12
381.057	82.12
381.282	87.12
381.507	89.12
381.733	99.12
381.958	93.12
382.184	86.12
382.409	100.12
382.634	103.12
382.86	96.12
383.085	94.12
383.31	102.12
383.535	98.12
383.761	102.12
383.986	95.12
384.211	95.12
384.436	97.12
384.662	96.12
384.887	90.12
385.112	106.12
385.337	103.12
385.562	95.12
385.787	100.12
386.013	106.12
386.238	103.12
386.463	114.12
386.688	105.12
386.913	99.12
387.138	109.12
387.363	103.12
387.588	94.12
387.813	93.12
388.038	102.12
388.263	103.12
388.488	113.12
388.713	92.12
388.938	100.12
389.163	87.12
389.387	96.12
389.612	91.12
389.837	86.12
390.062	96.12
390.287	92.12
390.512	87.12
390.736	90.12
390.961	85.12
391.186	97.12
391.411	85.12
391.636	90.12
391.86	75.12
392.085	84.12
392.31	86.12
392.534	78.12
392.759	82.12
392.984	68.12
393.208	79.12
393.433	91.12
393.658	81.12
393.882	86.12
394.107	86.12
394.331	90.12
394.556	93.12
394.78	92.12
395.005	93.12
395.229	68.12
395.454	110.12
395.678	80.12
395.903	87.12
396.127	85.12
396.352	88.12
396.576	87.12
396.801	89.12
397.025	73.12
397.249	83.12
397.474	88.12
397.698	92.12
397.922	90.12
398.147	93.12
398.371	101.12
398.595	75.12
398.82	82.12
399.044	84.12
399.268	84.12
399.492	75.12
399.717	80.12
399.941	98.12
400.165	90.12
400.389	81.12
400.613	79.12
400.837	88.12
401.062	101.12
401.286	100.12
401.51	82.12
401.734	83.12
401.958	103.12
402.182	135.12
402.406	206.12
402.63	143.12
402.854	102.12
403.078	96.12
403.302	82.12
403.526	93.12
403.75	95.12
403.974	81.12
404.198	81.12
404.422	94.12
404.645	82.12
404.869	98.12
405.093	91.12
405.317	94.12
405.541	115.12
405.765	100.12
405.988	139.12
406.212	201.12
406.436	282.12
406.66	179.12
406.883	98.12
407.107	96.12
407.331	110.12
407.555	90.12
407.778	104.12
408.002	85.12
408.226	92.12
408.449	82.12
408.673	99.12
408.896	104.12
409.12	84.12
409.344	85.12
409.567	95.12
409.791	97.12
410.014	115.12
410.238	92.12
410.461	92.12
410.685	83.12
410.908	74.12
411.132	102.12
411.355	99.12
411.578	86.12
411.802	84.12
412.025	89.12
412.249	86.12
412.472	74.12
412.695	88.12
412.919	90.12
413.142	86.12
413.365	92.12
413.589	111.12
413.812	94.12
414.035	88.12
414.258	94.12
414.482	82.12
414.705	83.12
414.928	88.12
415.151	82.12
415.374	93.12
415.597	75.12
415.821	87.12
416.044	88.12
416.267	93.12
416.49	77.12
416.713	80.12
416.936	67.12
417.159	84.12
417.382	89.12
417.605	76.12
417.828	93.12
418.051	87.12
418.274	92.12
418.497	74.12
418.72	87.12
418.943	78.12
419.166	82.12
419.389	99.12
419.611	86.12
419.834	73.12
420.057	90.12
420.28	89.12
420.503	86.12
420.726	81.12
420.948	103.12
421.171	78.12
421.394	94.12
421.617	101.12
421.839	84.12
422.062	82.12
422.285	76.12
422.507	90.12
422.73	79.12
422.953	76.12
423.175	85.12
423.398	94.12
423.621	66.12
423.843	88.12
424.066	91.12
424.288	82.12
424.511	95.12
424.733	111.12
424.956	108.12
425.178	93.12
425.401	82.12
425.623	104.12
425.846	90.12
426.068	86.12
426.291	78.12
426.513	106.12
426.735	88.12
426.958	90.12
427.18	111.12
427.402	145.12
427.625	175.12
427.847	158.12
428.069	128.12
428.292	88.12
428.514	74.12
428.736	79.12
428.958	98.12
429.181	88.12
429.403	98.12
429.625	89.12
429.847	83.12
430.069	97.12
430.292	86.12
430.514	87.12
430.736	81.12
430.958	80.12
431.18	80.12
431.402	87.12
431.624	72.12
431.846	100.12
432.068	68.12
432.29	91.12
432.512	83.12
432.734	95.12
432.956	94.12
433.178	94.12
433.4	110.12
433.622	83.12
433.844	81.12
434.066	90.12
434.287	82.12
434.509	81.12
434.731	94.12
434.953	99.12
435.175	79.12
435.397	87.12
435.618	91.12
435.84	94.12
436.062	123.12
436.284	113.12
436.505	76.12
436.727	85.12
436.949	103.12
437.17	73.12
437.392	78.12
437.614	87.12
437.835	115.12
438.057	134.12
438.278	107.12
438.5	84.12
438.721	109.12
438.943	99.12
439.165	107.12
439.386	85.12
439.608	93.12
439.829	85.12
440.05	127.12
440.272	137.12
440.493	110.12
440.715	98.12
440.936	91.12
441.158	83.12
441.379	79.12
441.6	93.12
441.822	67.12
442.043	90.12
442.264	94.12
442.486	92.12
442.707	91.12
442.928	115.12
443.149	132.12
443.371	148.12
443.592	112.12
443.813	112.12
444.034	108.12
444.255	88.12
444.476	89.12
444.698	101.12
444.919	85.12
445.14	132.12
445.361	100.12
445.582	110.12
445.803	134.12
446.024	140.12
446.245	129.12
446.466	102.12
446.687	87.12
446.908	96.12
447.129	70.12
447.35	72.12
447.571	85.12
447.792	94.12
448.013	96.12
448.234	125.12
448.455	112.12
448.675	123.12
448.896	128.12
449.117	85.12
449.338	107.12
449.559	122.12
449.779	132.12
450	100.12
450.221	98.12
450.442	95.12
450.662	101.12
450.883	109.12
451.104	130.12
451.324	97.12
451.545	93.12
451.766	95.12
451.986	77.12
452.207	74.12
452.428	86.12
452.648	113.12
452.869	120.12
453.089	130.12
453.31	129.12
453.53	90.12
453.751	85.12
453.971	104.12
454.192	118.12
454.412	93.12
454.633	95.12
454.853	75.12
455.073	85.12
455.294	84.12
455.514	86.12
455.734	99.12
455.955	98.12
456.175	85.12
456.395	75.12
456.616	90.12
456.836	89.12
457.056	87.12
457.276	85.12
457.497	78.12
457.717	83.12
457.937	94.12
458.157	94.12
458.377	91.12
458.598	113.12
458.818	181.12
459.038	196.12
459.258	132.12
459.478	78.12
459.698	103.12
459.918	94.12
460.138	74.12
460.358	81.12
460.578	82.12
460.798	78.12
461.018	89.12
461.238	75.12
461.458	74.12
461.678	70.12
461.898	90.12
462.118	93.12
462.338	88.12
462.558	82.12
462.777	84.12
462.997	87.12
463.217	93.12
463.437	88.12
463.657	104.12
463.876	91.12
464.096	94.12
464.316	90.12
464.536	91.12
464.755	100.12
464.975	113.12
465.195	197.12
465.414	197.12
465.634	113.12
465.854	93.12
466.073	88.12
466.293	85.12
466.512	86.12
466.732	94.12
466.951	93.12
467.171	94.12
467.391	92.12
467.61	105.12
467.829	103.12
468.049	109.12
468.268	125.12
468.488	78.12
468.707	89.12
468.927	86.12
469.146	93.12
469.365	76.12
469.585	92.12
469.804	74.12
470.023	106.12
470.243	95.12
470.462	104.12
470.681	126.12
470.901	95.12
471.12	71.12
471.339	84.12
471.558	93.12
471.777	90.12
471.997	87.12
472.216	158.12
472.435	247.12
472.654	121.12
472.873	82.12
473.092	70.12
473.311	85.12
473.53	75.12
473.749	83.12
473.968	71.12
474.187	98.12
474.406	94.12
474.625	91.12
474.844	80.12
475.063	76.12
475.282	89.12
475.501	77.12
475.72	84.12
475.939	81.12
476.158	86.12
476.377	91.12
476.596	87.12
476.814	97.12
477.033	101.12
477.252	77.12
477.471	84.12
477.69	90.12
477.908	91.12
478.127	86.12
478.346	85.12
478.564	95.12
478.783	110.12
479.002	96.12
479.22	94.12
479.439	94.12
479.658	113.12
479.876	86.12
480.095	91.12
480.313	101.12
480.532	91.12
480.751	90.12
480.969	155.12
481.188	373.12
481.406	266.12
481.624	111.12
481.843	86.12
482.061	77.12
482.28	89.12
482.498	93.12
482.717	81.12
482.935	79.12
483.153	81.12
483.372	90.12
483.59	85.12
483.808	76.12
484.027	89.12
484.245	85.12
484.463	94.12
484.681	105.12
484.9	88.12
485.118	96.12
485.336	87.12
485.554	89.12
485.772	85.12
485.99	102.12
486.209	91.12
486.427	94.12
486.645	105.12
486.863	116.12
487.081	95.12
487.299	96.12
487.517	105.12
487.735	103.12
487.953	89.12
488.171	101.12
488.389	96.12
488.607	83.12
488.825	90.12
489.043	91.12
489.261	91.12
489.479	78.12
489.696	84.12
489.914	103.12
490.132	91.12
490.35	106.12
490.568	83.12
490.786	88.12
491.003	98.12
491.221	92.12
491.439	78.12
491.657	81.12
491.874	95.12
492.092	83.12
492.31	96.12
492.527	86.12
492.745	70.12
492.963	103.12
493.18	101.12
493.398	96.12
493.615	93.12
493.833	87.12
494.05	86.12
494.268	82.12
494.485	89.12
494.703	94.12
494.92	105.12
495.138	92.12
495.355	93.12
495.573	84.12
495.79	94.12
496.008	83.12
496.225	86.12
496.442	91.12
496.66	79.12
496.877	88.12
497.094	96.12
497.312	92.12
497.529	74.12
497.746	95.12
497.963	75.12
498.181	87.12
498.398	102.12
498.615	105.12
498.832	105.12
499.049	79.12
499.267	91.12
499.484	93.12
499.701	72.12
499.918	88.12
500.135	97.12
500.352	95.12
500.569	84.12
500.786	85.12
501.003	91.12
501.22	89.12
501.437	95.12
501.654	102.12
501.871	113.12
502.088	91.12
502.305	98.12
502.522	75.12
502.739	79.12
502.956	89.12
503.172	84.12
503.389	82.12
503.606	101.12
503.823	101.12
504.04	98.12
504.256	111.12
504.473	93.12
504.69	73.12
504.907	91.12
505.123	75.12
505.34	86.12
505.557	92.12
505.773	79.12
505.99	93.12
506.207	83.12
506.423	95.12
506.64	97.12
506.856	81.12
507.073	90.12
507.289	92.12
507.506	98.12
507.722	131.12
507.939	117.12
508.155	90.12
508.372	102.12
508.588	90.12
508.805	101.12
509.021	120.12
509.238	101.12
509.454	103.12
509.67	90.12
509.887	105.12
510.103	157.12
510.319	249.12
510.536	965.12
510.752	3418.12
510.968	981.12
511.184	204.12
511.401	125.12
511.617	102.12
511.833	98.12
512.049	98.12
512.265	97.12
512.481	106.12
512.698	100.12
512.914	78.12
513.13	85.12
513.346	89.12
513.562	83.12
513.778	88.12
513.994	90.12
514.21	107.12
514.426	134.12
514.642	162.12
514.858	145.12
515.074	198.12
515.29	602.12
515.506	2211.12
