Data from Circ_2018_H10_HRD10591_00002.txt Node
Date: Wed Jan 03 09:56:02 EST 2024
User: Yrep
Spectrometer: HR+D1059
Trigger mode: 1
Integration Time (sec): 1.000000E-1
Scans to average: 1
Electric dark correction enabled: true
Nonlinearity correction enabled: false
Boxcar width: 0
XAxis mode: Wavelengths
Number of Pixels in Spectrum: 2048
>>>>>Begin Spectral Data<<<<<
223.165	-19.81
223.4	-19.81
223.635	-19.81
223.869	-28.81
224.104	-13.81
224.338	-2.81
224.573	-10.81
224.808	-11.81
225.042	2.19
225.277	3.19
225.511	-1.81
225.746	-10.81
225.98	1.19
226.215	-0.81
226.449	11.19
226.683	14.19
226.918	35.19
227.152	34.19
227.387	34.19
227.621	36.19
227.856	56.19
228.09	57.19
228.324	60.19
228.559	56.19
228.793	56.19
229.027	57.19
229.262	60.19
229.496	68.19
229.73	100.19
229.964	91.19
230.199	68.19
230.433	74.19
230.667	77.19
230.901	83.19
231.136	82.19
231.37	79.19
231.604	72.19
231.838	79.19
232.072	73.19
232.306	82.19
232.541	88.19
232.775	75.19
233.009	74.19
233.243	88.19
233.477	73.19
233.711	85.19
233.945	80.19
234.179	83.19
234.413	77.19
234.647	84.19
234.881	75.19
235.115	60.19
235.349	75.19
235.583	77.19
235.817	76.19
236.051	84.19
236.285	77.19
236.519	80.19
236.753	84.19
236.987	73.19
237.221	96.19
237.455	95.19
237.689	67.19
237.922	77.19
238.156	75.19
238.39	74.19
238.624	74.19
238.858	79.19
239.091	76.19
239.325	76.19
239.559	77.19
239.793	80.19
240.027	77.19
240.26	84.19
240.494	83.19
240.728	76.19
240.961	79.19
241.195	87.19
241.429	87.19
241.662	92.19
241.896	82.19
242.13	82.19
242.363	80.19
242.597	82.19
242.83	70.19
243.064	76.19
243.298	74.19
243.531	81.19
243.765	65.19
243.998	85.19
244.232	84.19
244.465	83.19
244.699	76.19
244.932	76.19
245.166	76.19
245.399	82.19
245.633	88.19
245.866	76.19
246.099	69.19
246.333	78.19
246.566	85.19
246.8	75.19
247.033	71.19
247.266	84.19
247.5	81.19
247.733	76.19
247.966	79.19
248.2	75.19
248.433	75.19
248.666	82.19
248.899	77.19
249.133	77.19
249.366	105.19
249.599	101.19
249.832	77.19
250.066	84.19
250.299	90.19
250.532	89.19
250.765	84.19
250.998	67.19
251.231	77.19
251.465	77.19
251.698	89.19
251.931	74.19
252.164	78.19
252.397	69.19
252.63	69.19
252.863	67.19
253.096	69.19
253.329	82.19
253.562	81.19
253.795	82.19
254.028	87.19
254.261	79.19
254.494	82.19
254.727	72.19
254.96	74.19
255.193	84.19
255.426	82.19
255.659	81.19
255.892	84.19
256.124	79.19
256.357	65.19
256.59	75.19
256.823	68.19
257.056	73.19
257.289	89.19
257.521	83.19
257.754	76.19
257.987	81.19
258.22	78.19
258.452	89.19
258.685	80.19
258.918	83.19
259.151	85.19
259.383	70.19
259.616	91.19
259.849	81.19
260.081	83.19
260.314	89.19
260.547	81.19
260.779	88.19
261.012	83.19
261.244	83.19
261.477	87.19
261.71	88.19
261.942	107.19
262.175	121.19
262.407	102.19
262.64	97.19
262.872	85.19
263.105	99.19
263.337	75.19
263.57	82.19
263.802	96.19
264.035	68.19
264.267	73.19
264.499	92.19
264.732	87.19
264.964	86.19
265.197	83.19
265.429	76.19
265.661	92.19
265.894	81.19
266.126	92.19
266.358	71.19
266.591	90.19
266.823	86.19
267.055	104.19
267.287	85.19
267.52	92.19
267.752	84.19
267.984	81.19
268.216	82.19
268.448	80.19
268.681	84.19
268.913	95.19
269.145	70.19
269.377	100.19
269.609	85.19
269.841	86.19
270.073	83.19
270.306	101.19
270.538	88.19
270.77	84.19
271.002	96.19
271.234	85.19
271.466	92.19
271.698	97.19
271.93	79.19
272.162	88.19
272.394	96.19
272.626	109.19
272.858	73.19
273.09	79.19
273.322	80.19
273.553	79.19
273.785	100.19
274.017	95.19
274.249	82.19
274.481	78.19
274.713	84.19
274.945	83.19
275.176	81.19
275.408	80.19
275.64	92.19
275.872	94.19
276.104	96.19
276.335	95.19
276.567	102.19
276.799	107.19
277.031	99.19
277.262	96.19
277.494	97.19
277.726	85.19
277.957	76.19
278.189	90.19
278.421	78.19
278.652	94.19
278.884	90.19
279.115	90.19
279.347	79.19
279.579	89.19
279.81	93.19
280.042	80.19
280.273	82.19
280.505	84.19
280.736	82.19
280.968	92.19
281.199	90.19
281.431	84.19
281.662	100.19
281.894	86.19
282.125	108.19
282.356	123.19
282.588	131.19
282.819	120.19
283.051	83.19
283.282	88.19
283.513	77.19
283.745	83.19
283.976	98.19
284.207	93.19
284.439	98.19
284.67	83.19
284.901	89.19
285.132	85.19
285.364	96.19
285.595	73.19
285.826	92.19
286.057	98.19
286.288	84.19
286.52	82.19
286.751	93.19
286.982	82.19
287.213	80.19
287.444	83.19
287.675	86.19
287.906	88.19
288.138	83.19
288.369	92.19
288.6	91.19
288.831	85.19
289.062	91.19
289.293	95.19
289.524	83.19
289.755	85.19
289.986	89.19
290.217	92.19
290.448	98.19
290.679	81.19
290.91	95.19
291.141	93.19
291.371	87.19
291.602	99.19
291.833	83.19
292.064	85.19
292.295	90.19
292.526	86.19
292.757	99.19
292.987	91.19
293.218	100.19
293.449	98.19
293.68	90.19
293.91	96.19
294.141	95.19
294.372	99.19
294.603	95.19
294.833	80.19
295.064	101.19
295.295	87.19
295.525	85.19
295.756	111.19
295.987	124.19
296.217	154.19
296.448	136.19
296.679	98.19
296.909	86.19
297.14	90.19
297.37	89.19
297.601	103.19
297.831	87.19
298.062	86.19
298.292	92.19
298.523	84.19
298.753	84.19
298.984	105.19
299.214	93.19
299.445	89.19
299.675	101.19
299.905	99.19
300.136	98.19
300.366	98.19
300.597	85.19
300.827	98.19
301.057	108.19
301.288	127.19
301.518	105.19
301.748	87.19
301.979	94.19
302.209	91.19
302.439	97.19
302.669	91.19
302.9	93.19
303.13	82.19
303.36	111.19
303.59	103.19
303.82	90.19
304.051	94.19
304.281	88.19
304.511	97.19
304.741	83.19
304.971	76.19
305.201	75.19
305.431	97.19
305.661	84.19
305.891	91.19
306.121	111.19
306.352	123.19
306.582	113.19
306.812	100.19
307.042	79.19
307.272	89.19
307.502	100.19
307.731	117.19
307.961	111.19
308.191	91.19
308.421	90.19
308.651	94.19
308.881	97.19
309.111	80.19
309.341	101.19
309.571	76.19
309.8	95.19
310.03	92.19
310.26	84.19
310.49	85.19
310.72	114.19
310.949	113.19
311.179	99.19
311.409	94.19
311.639	90.19
311.868	76.19
312.098	104.19
312.328	102.19
312.557	122.19
312.787	111.19
313.017	105.19
313.246	100.19
313.476	84.19
313.706	99.19
313.935	103.19
314.165	92.19
314.394	98.19
314.624	94.19
314.853	96.19
315.083	97.19
315.312	98.19
315.542	98.19
315.771	90.19
316.001	100.19
316.23	85.19
316.46	76.19
316.689	95.19
316.919	76.19
317.148	99.19
317.377	95.19
317.607	90.19
317.836	100.19
318.065	93.19
318.295	93.19
318.524	85.19
318.753	82.19
318.983	101.19
319.212	111.19
319.441	114.19
319.67	124.19
319.9	88.19
320.129	103.19
320.358	81.19
320.587	103.19
320.816	96.19
321.046	101.19
321.275	99.19
321.504	99.19
321.733	95.19
321.962	99.19
322.191	94.19
322.42	110.19
322.649	113.19
322.878	108.19
323.108	116.19
323.337	133.19
323.566	143.19
323.795	167.19
324.024	221.19
324.253	432.19
324.482	933.19
324.71	1841.19
324.939	2399.19
325.168	880.19
325.397	259.19
325.626	171.19
325.855	128.19
326.084	131.19
326.313	142.19
326.542	161.19
326.77	241.19
326.999	514.19
327.228	982.19
327.457	1786.19
327.686	1418.19
327.914	398.19
328.143	215.19
328.372	157.19
328.6	141.19
328.829	131.19
329.058	131.19
329.287	134.19
329.515	118.19
329.744	101.19
329.972	104.19
330.201	101.19
330.43	125.19
330.658	108.19
330.887	146.19
331.115	121.19
331.344	101.19
331.572	87.19
331.801	103.19
332.03	116.19
332.258	100.19
332.486	88.19
332.715	100.19
332.943	89.19
333.172	96.19
333.4	98.19
333.629	114.19
333.857	125.19
334.085	107.19
334.314	87.19
334.542	90.19
334.771	107.19
334.999	105.19
335.227	92.19
335.455	99.19
335.684	89.19
335.912	87.19
336.14	108.19
336.369	104.19
336.597	104.19
336.825	128.19
337.053	94.19
337.281	93.19
337.51	88.19
337.738	104.19
337.966	104.19
338.194	103.19
338.422	96.19
338.65	100.19
338.878	85.19
339.106	86.19
339.334	93.19
339.562	67.19
339.79	81.19
340.018	82.19
340.246	99.19
340.474	73.19
340.702	98.19
340.93	84.19
341.158	97.19
341.386	90.19
341.614	93.19
341.842	84.19
342.07	82.19
342.298	79.19
342.526	95.19
342.754	95.19
342.981	97.19
343.209	84.19
343.437	85.19
343.665	90.19
343.893	72.19
344.12	87.19
344.348	91.19
344.576	96.19
344.804	92.19
345.031	95.19
345.259	98.19
345.487	102.19
345.714	109.19
345.942	83.19
346.17	97.19
346.397	89.19
346.625	99.19
346.853	84.19
347.08	92.19
347.308	94.19
347.535	101.19
347.763	103.19
347.99	93.19
348.218	103.19
348.445	101.19
348.673	88.19
348.9	102.19
349.128	89.19
349.355	93.19
349.583	104.19
349.81	85.19
350.037	104.19
350.265	89.19
350.492	90.19
350.72	99.19
350.947	119.19
351.174	97.19
351.402	118.19
351.629	111.19
351.856	112.19
352.083	106.19
352.311	112.19
352.538	108.19
352.765	103.19
352.992	106.19
353.22	124.19
353.447	105.19
353.674	106.19
353.901	104.19
354.128	103.19
354.355	110.19
354.583	123.19
354.81	99.19
355.037	97.19
355.264	91.19
355.491	80.19
355.718	73.19
355.945	90.19
356.172	87.19
356.399	104.19
356.626	104.19
356.853	106.19
357.08	97.19
357.307	89.19
357.534	99.19
357.761	108.19
357.988	104.19
358.215	95.19
358.441	99.19
358.668	86.19
358.895	85.19
359.122	102.19
359.349	84.19
359.576	93.19
359.802	115.19
360.029	118.19
360.256	119.19
360.483	97.19
360.709	96.19
360.936	107.19
361.163	97.19
361.39	106.19
361.616	105.19
361.843	89.19
362.07	98.19
362.296	93.19
362.523	84.19
362.749	99.19
362.976	78.19
363.203	100.19
363.429	84.19
363.656	87.19
363.882	88.19
364.109	99.19
364.335	95.19
364.562	93.19
364.788	105.19
365.015	100.19
365.241	88.19
365.468	112.19
365.694	118.19
365.92	97.19
366.147	96.19
366.373	88.19
366.599	78.19
366.826	92.19
367.052	89.19
367.278	100.19
367.505	102.19
367.731	97.19
367.957	95.19
368.184	96.19
368.41	116.19
368.636	116.19
368.862	126.19
369.089	111.19
369.315	105.19
369.541	98.19
369.767	88.19
369.993	87.19
370.219	87.19
370.445	85.19
370.672	73.19
370.898	84.19
371.124	88.19
371.35	92.19
371.576	90.19
371.802	75.19
372.028	81.19
372.254	85.19
372.48	90.19
372.706	92.19
372.932	80.19
373.158	98.19
373.384	90.19
373.61	103.19
373.835	92.19
374.061	94.19
374.287	103.19
374.513	76.19
374.739	82.19
374.965	84.19
375.191	106.19
375.416	86.19
375.642	93.19
375.868	84.19
376.094	100.19
376.319	89.19
376.545	84.19
376.771	109.19
376.997	83.19
377.222	84.19
377.448	86.19
377.674	92.19
377.899	83.19
378.125	81.19
378.35	92.19
378.576	103.19
378.802	93.19
379.027	81.19
379.253	92.19
379.478	96.19
379.704	97.19
379.929	91.19
380.155	98.19
380.38	88.19
380.606	89.19
380.831	99.19
381.057	92.19
381.282	93.19
381.507	107.19
381.733	96.19
381.958	84.19
382.184	103.19
382.409	105.19
382.634	92.19
382.86	96.19
383.085	93.19
383.31	94.19
383.535	95.19
383.761	96.19
383.986	109.19
384.211	101.19
384.436	91.19
384.662	88.19
384.887	97.19
385.112	108.19
385.337	104.19
385.562	115.19
385.787	112.19
386.013	122.19
386.238	115.19
386.463	107.19
386.688	111.19
386.913	96.19
387.138	104.19
387.363	102.19
387.588	103.19
387.813	98.19
388.038	99.19
388.263	113.19
388.488	104.19
388.713	95.19
388.938	108.19
389.163	98.19
389.387	94.19
389.612	102.19
389.837	92.19
390.062	98.19
390.287	112.19
390.512	95.19
390.736	96.19
390.961	90.19
391.186	98.19
391.411	111.19
391.636	88.19
391.86	86.19
392.085	88.19
392.31	67.19
392.534	97.19
392.759	82.19
392.984	82.19
393.208	89.19
393.433	100.19
393.658	103.19
393.882	83.19
394.107	88.19
394.331	93.19
394.556	98.19
394.78	81.19
395.005	77.19
395.229	98.19
395.454	87.19
395.678	92.19
395.903	97.19
396.127	85.19
396.352	86.19
396.576	96.19
396.801	90.19
397.025	93.19
397.249	78.19
397.474	90.19
397.698	87.19
397.922	104.19
398.147	87.19
398.371	88.19
398.595	76.19
398.82	89.19
399.044	76.19
399.268	79.19
399.492	83.19
399.717	98.19
399.941	92.19
400.165	82.19
400.389	92.19
400.613	87.19
400.837	77.19
401.062	83.19
401.286	84.19
401.51	90.19
401.734	101.19
401.958	100.19
402.182	144.19
402.406	175.19
402.63	133.19
402.854	92.19
403.078	100.19
403.302	90.19
403.526	80.19
403.75	96.19
403.974	83.19
404.198	111.19
404.422	82.19
404.645	105.19
404.869	101.19
405.093	99.19
405.317	109.19
405.541	116.19
405.765	123.19
405.988	132.19
406.212	189.19
406.436	244.19
406.66	163.19
406.883	107.19
407.107	100.19
407.331	89.19
407.555	100.19
407.778	98.19
408.002	89.19
408.226	94.19
408.449	87.19
408.673	97.19
408.896	91.19
409.12	96.19
409.344	91.19
409.567	75.19
409.791	75.19
410.014	92.19
410.238	97.19
410.461	94.19
410.685	87.19
410.908	111.19
411.132	97.19
411.355	106.19
411.578	96.19
411.802	95.19
412.025	102.19
412.249	101.19
412.472	87.19
412.695	104.19
412.919	90.19
413.142	80.19
413.365	79.19
413.589	79.19
413.812	78.19
414.035	87.19
414.258	98.19
414.482	89.19
414.705	96.19
414.928	88.19
415.151	94.19
415.374	93.19
415.597	94.19
415.821	82.19
416.044	90.19
416.267	98.19
416.49	92.19
416.713	93.19
416.936	90.19
417.159	95.19
417.382	91.19
417.605	95.19
417.828	90.19
418.051	89.19
418.274	91.19
418.497	79.19
418.72	77.19
418.943	105.19
419.166	77.19
419.389	88.19
419.611	92.19
419.834	104.19
420.057	97.19
420.28	92.19
420.503	91.19
420.726	79.19
420.948	87.19
421.171	86.19
421.394	95.19
421.617	101.19
421.839	89.19
422.062	100.19
422.285	109.19
422.507	86.19
422.73	87.19
422.953	90.19
423.175	91.19
423.398	91.19
423.621	96.19
423.843	92.19
424.066	88.19
424.288	90.19
424.511	79.19
424.733	102.19
424.956	102.19
425.178	97.19
425.401	101.19
425.623	109.19
425.846	93.19
426.068	84.19
426.291	97.19
426.513	86.19
426.735	108.19
426.958	108.19
427.18	101.19
427.402	144.19
427.625	160.19
427.847	144.19
428.069	98.19
428.292	90.19
428.514	81.19
428.736	89.19
428.958	84.19
429.181	84.19
429.403	98.19
429.625	86.19
429.847	90.19
430.069	106.19
430.292	98.19
430.514	101.19
430.736	84.19
430.958	115.19
431.18	83.19
431.402	97.19
431.624	101.19
431.846	75.19
432.068	87.19
432.29	94.19
432.512	94.19
432.734	91.19
432.956	96.19
433.178	92.19
433.4	105.19
433.622	97.19
433.844	81.19
434.066	100.19
434.287	76.19
434.509	82.19
434.731	92.19
434.953	94.19
435.175	83.19
435.397	84.19
435.618	87.19
435.84	96.19
436.062	120.19
436.284	108.19
436.505	96.19
436.727	111.19
436.949	90.19
437.17	96.19
437.392	91.19
437.614	96.19
437.835	111.19
438.057	118.19
438.278	105.19
438.5	92.19
438.721	117.19
438.943	99.19
439.165	102.19
439.386	101.19
439.608	102.19
439.829	91.19
440.05	122.19
440.272	149.19
440.493	97.19
440.715	86.19
440.936	99.19
441.158	91.19
441.379	91.19
441.6	96.19
441.822	92.19
442.043	88.19
442.264	111.19
442.486	101.19
442.707	106.19
442.928	111.19
443.149	145.19
443.371	144.19
443.592	103.19
443.813	105.19
444.034	99.19
444.255	90.19
444.476	88.19
444.698	95.19
444.919	92.19
445.14	135.19
445.361	134.19
445.582	106.19
445.803	147.19
446.024	129.19
446.245	140.19
446.466	122.19
446.687	75.19
446.908	85.19
447.129	76.19
447.35	83.19
447.571	83.19
447.792	88.19
448.013	102.19
448.234	93.19
448.455	112.19
448.675	106.19
448.896	125.19
449.117	113.19
449.338	105.19
449.559	121.19
449.779	126.19
450	104.19
450.221	79.19
450.442	85.19
450.662	100.19
450.883	106.19
451.104	119.19
451.324	99.19
451.545	88.19
451.766	90.19
451.986	95.19
452.207	81.19
452.428	92.19
452.648	103.19
452.869	113.19
453.089	119.19
453.31	121.19
453.53	88.19
453.751	91.19
453.971	106.19
454.192	127.19
454.412	97.19
454.633	85.19
454.853	85.19
455.073	84.19
455.294	95.19
455.514	104.19
455.734	100.19
455.955	90.19
456.175	94.19
456.395	99.19
456.616	95.19
456.836	93.19
457.056	83.19
457.276	85.19
457.497	84.19
457.717	91.19
457.937	90.19
458.157	85.19
458.377	100.19
458.598	130.19
458.818	168.19
459.038	170.19
459.258	130.19
459.478	87.19
459.698	95.19
459.918	82.19
460.138	82.19
460.358	85.19
460.578	74.19
460.798	87.19
461.018	85.19
461.238	80.19
461.458	84.19
461.678	76.19
461.898	87.19
462.118	91.19
462.338	80.19
462.558	88.19
462.777	88.19
462.997	80.19
463.217	73.19
463.437	88.19
463.657	92.19
463.876	89.19
464.096	96.19
464.316	93.19
464.536	105.19
464.755	95.19
464.975	106.19
465.195	198.19
465.414	180.19
465.634	89.19
465.854	88.19
466.073	79.19
466.293	90.19
466.512	75.19
466.732	88.19
466.951	93.19
467.171	104.19
467.391	103.19
467.61	127.19
467.829	94.19
468.049	77.19
468.268	84.19
468.488	81.19
468.707	82.19
468.927	90.19
469.146	86.19
469.365	89.19
469.585	92.19
469.804	96.19
470.023	108.19
470.243	83.19
470.462	107.19
470.681	100.19
470.901	102.19
471.12	86.19
471.339	94.19
471.558	95.19
471.777	96.19
471.997	90.19
472.216	95.19
472.435	104.19
472.654	80.19
472.873	70.19
473.092	78.19
473.311	88.19
473.53	84.19
473.749	108.19
473.968	106.19
474.187	108.19
474.406	89.19
474.625	100.19
474.844	97.19
475.063	75.19
475.282	94.19
475.501	78.19
475.72	71.19
475.939	83.19
476.158	88.19
476.377	79.19
476.596	99.19
476.814	106.19
477.033	103.19
477.252	92.19
477.471	85.19
477.69	83.19
477.908	84.19
478.127	88.19
478.346	102.19
478.564	88.19
478.783	86.19
479.002	100.19
479.22	94.19
479.439	112.19
479.658	108.19
479.876	92.19
480.095	86.19
480.313	97.19
480.532	87.19
480.751	91.19
480.969	95.19
481.188	124.19
481.406	105.19
481.624	106.19
481.843	104.19
482.061	86.19
482.28	90.19
482.498	105.19
482.717	86.19
482.935	95.19
483.153	89.19
483.372	86.19
483.59	77.19
483.808	91.19
484.027	99.19
484.245	97.19
484.463	93.19
484.681	104.19
484.9	85.19
485.118	92.19
485.336	89.19
485.554	85.19
485.772	101.19
485.99	105.19
486.209	102.19
486.427	99.19
486.645	112.19
486.863	99.19
487.081	95.19
487.299	94.19
487.517	87.19
487.735	98.19
487.953	91.19
488.171	89.19
488.389	92.19
488.607	105.19
488.825	81.19
489.043	76.19
489.261	97.19
489.479	88.19
489.696	79.19
489.914	86.19
490.132	94.19
490.35	88.19
490.568	98.19
490.786	97.19
491.003	83.19
491.221	81.19
491.439	93.19
491.657	89.19
491.874	94.19
492.092	89.19
492.31	96.19
492.527	90.19
492.745	87.19
492.963	89.19
493.18	91.19
493.398	104.19
493.615	88.19
493.833	98.19
494.05	102.19
494.268	84.19
494.485	90.19
494.703	90.19
494.92	93.19
495.138	96.19
495.355	88.19
495.573	95.19
495.79	90.19
496.008	98.19
496.225	84.19
496.442	85.19
496.66	75.19
496.877	87.19
497.094	95.19
497.312	84.19
497.529	91.19
497.746	87.19
497.963	92.19
498.181	101.19
498.398	101.19
498.615	129.19
498.832	104.19
499.049	89.19
499.267	76.19
499.484	80.19
499.701	82.19
499.918	83.19
500.135	92.19
500.352	93.19
500.569	86.19
500.786	98.19
501.003	98.19
501.22	96.19
501.437	96.19
501.654	103.19
501.871	95.19
502.088	98.19
502.305	97.19
502.522	86.19
502.739	89.19
502.956	101.19
503.172	80.19
503.389	95.19
503.606	108.19
503.823	93.19
504.04	93.19
504.256	95.19
504.473	98.19
504.69	108.19
504.907	93.19
505.123	92.19
505.34	91.19
505.557	97.19
505.773	104.19
505.99	97.19
506.207	80.19
506.423	87.19
506.64	77.19
506.856	98.19
507.073	81.19
507.289	92.19
507.506	104.19
507.722	130.19
507.939	127.19
508.155	102.19
508.372	96.19
508.588	95.19
508.805	90.19
509.021	101.19
509.238	94.19
509.454	96.19
509.67	101.19
509.887	124.19
510.103	130.19
510.319	233.19
510.536	889.19
510.752	3021.19
510.968	831.19
511.184	176.19
511.401	121.19
511.617	85.19
511.833	101.19
512.049	100.19
512.265	100.19
512.481	109.19
512.698	99.19
512.914	97.19
513.13	92.19
513.346	109.19
513.562	94.19
513.778	88.19
513.994	90.19
514.21	115.19
514.426	127.19
514.642	149.19
514.858	127.19
