Data from Circ_2018_H10_HRD10591_00058.txt Node
Date: Wed Jan 03 09:56:13 EST 2024
User: Yrep
Spectrometer: HR+D1059
Trigger mode: 1
Integration Time (sec): 1.000000E-1
Scans to average: 1
Electric dark correction enabled: true
Nonlinearity correction enabled: false
Boxcar width: 0
XAxis mode: Wavelengths
Number of Pixels in Spectrum: 2048
>>>>>Begin Spectral Data<<<<<
223.165	-9
223.4	-9
223.635	-9
223.869	-32
224.104	-13
224.338	-19
224.573	-13
224.808	-17
225.042	-14
225.277	-13
225.511	-4
225.746	3
225.98	18
226.215	8
226.449	28
226.683	31
226.918	20
227.152	26
227.387	27
227.621	43
227.856	52
228.09	41
228.324	50
228.559	49
228.793	57
229.027	58
229.262	80
229.496	70
229.73	97
229.964	74
230.199	74
230.433	68
230.667	80
230.901	75
231.136	77
231.37	68
231.604	63
231.838	81
232.072	91
232.306	78
232.541	86
232.775	76
233.009	79
233.243	74
233.477	74
233.711	82
233.945	68
234.179	82
234.413	78
234.647	71
234.881	95
235.115	74
235.349	78
235.583	83
235.817	87
236.051	91
236.285	88
236.519	87
236.753	89
236.987	80
237.221	79
237.455	74
237.689	80
237.922	79
238.156	87
238.39	83
238.624	85
238.858	66
239.091	73
239.325	98
239.559	92
239.793	75
240.027	78
240.26	85
240.494	69
240.728	73
240.961	73
241.195	77
241.429	79
241.662	72
241.896	76
242.13	91
242.363	76
242.597	73
242.83	73
243.064	75
243.298	62
243.531	88
243.765	77
243.998	89
244.232	82
244.465	88
244.699	82
244.932	79
245.166	82
245.399	72
245.633	81
245.866	74
246.099	78
246.333	67
246.566	82
246.8	83
247.033	91
247.266	75
247.5	90
247.733	74
247.966	67
248.2	92
248.433	92
248.666	78
248.899	71
249.133	94
249.366	100
249.599	76
249.832	80
250.066	74
250.299	66
250.532	89
250.765	85
250.998	84
251.231	79
251.465	84
251.698	88
251.931	78
252.164	71
252.397	100
252.63	88
252.863	82
253.096	88
253.329	68
253.562	79
253.795	75
254.028	86
254.261	94
254.494	82
254.727	73
254.96	79
255.193	66
255.426	92
255.659	88
255.892	80
256.124	67
256.357	82
256.59	80
256.823	83
257.056	69
257.289	74
257.521	81
257.754	73
257.987	94
258.22	79
258.452	96
258.685	88
258.918	76
259.151	85
259.383	81
259.616	75
259.849	82
260.081	91
260.314	75
260.547	71
260.779	82
261.012	95
261.244	91
261.477	90
261.71	100
261.942	120
262.175	139
262.407	87
262.64	73
262.872	86
263.105	77
263.337	70
263.57	75
263.802	85
264.035	88
264.267	92
264.499	83
264.732	75
264.964	86
265.197	85
265.429	79
265.661	91
265.894	99
266.126	83
266.358	86
266.591	87
266.823	86
267.055	98
267.287	89
267.52	91
267.752	81
267.984	76
268.216	86
268.448	79
268.681	90
268.913	82
269.145	83
269.377	64
269.609	79
269.841	82
270.073	96
270.306	83
270.538	83
270.77	88
271.002	85
271.234	99
271.466	90
271.698	80
271.93	87
272.162	80
272.394	87
272.626	91
272.858	81
273.09	81
273.322	70
273.553	90
273.785	84
274.017	74
274.249	89
274.481	79
274.713	73
274.945	85
275.176	66
275.408	87
275.64	81
275.872	86
276.104	82
276.335	88
276.567	106
276.799	121
277.031	105
277.262	88
277.494	88
277.726	95
277.957	83
278.189	75
278.421	83
278.652	83
278.884	81
279.115	75
279.347	95
279.579	101
279.81	93
280.042	75
280.273	101
280.505	99
280.736	84
280.968	97
281.199	87
281.431	95
281.662	88
281.894	78
282.125	127
282.356	124
282.588	158
282.819	129
283.051	90
283.282	76
283.513	82
283.745	89
283.976	90
284.207	75
284.439	81
284.67	76
284.901	89
285.132	91
285.364	79
285.595	90
285.826	94
286.057	83
286.288	86
286.52	90
286.751	78
286.982	94
287.213	91
287.444	105
287.675	83
287.906	97
288.138	86
288.369	89
288.6	97
288.831	105
289.062	85
289.293	76
289.524	90
289.755	82
289.986	79
290.217	72
290.448	87
290.679	82
290.91	78
291.141	88
291.371	104
291.602	92
291.833	87
292.064	89
292.295	82
292.526	77
292.757	92
292.987	93
293.218	87
293.449	96
293.68	79
293.91	95
294.141	100
294.372	95
294.603	86
294.833	80
295.064	91
295.295	84
295.525	80
295.756	98
295.987	118
296.217	154
296.448	142
296.679	97
296.909	86
297.14	94
297.37	98
297.601	92
297.831	95
298.062	100
298.292	89
298.523	91
298.753	92
298.984	95
299.214	84
299.445	84
299.675	89
299.905	96
300.136	97
300.366	82
300.597	79
300.827	101
301.057	105
301.288	113
301.518	104
301.748	91
301.979	96
302.209	91
302.439	100
302.669	87
302.9	97
303.13	92
303.36	91
303.59	111
303.82	104
304.051	92
304.281	93
304.511	99
304.741	70
304.971	89
305.201	73
305.431	81
305.661	93
305.891	94
306.121	109
306.352	104
306.582	121
306.812	95
307.042	84
307.272	94
307.502	104
307.731	98
307.961	89
308.191	86
308.421	89
308.651	97
308.881	92
309.111	94
309.341	99
309.571	104
309.8	105
310.03	94
310.26	97
310.49	102
310.72	106
310.949	98
311.179	115
311.409	94
311.639	78
311.868	95
312.098	95
312.328	90
312.557	112
312.787	122
313.017	105
313.246	107
313.476	94
313.706	95
313.935	113
314.165	99
314.394	107
314.624	102
314.853	95
315.083	99
315.312	94
315.542	97
315.771	97
316.001	91
316.23	101
316.46	101
316.689	93
316.919	87
317.148	102
317.377	99
317.607	85
317.836	97
318.065	100
318.295	93
318.524	95
318.753	91
318.983	92
319.212	101
319.441	126
319.67	112
319.9	92
320.129	98
320.358	96
320.587	92
320.816	96
321.046	107
321.275	96
321.504	84
321.733	93
321.962	102
322.191	104
322.42	114
322.649	118
322.878	107
323.108	118
323.337	136
323.566	137
323.795	179
324.024	227
324.253	459
324.482	958
324.71	1953
324.939	2581
325.168	980
325.397	278
325.626	166
325.855	128
326.084	140
326.313	144
326.542	165
326.77	249
326.999	486
327.228	1034
327.457	1876
327.686	1522
327.914	411
328.143	200
328.372	186
328.6	142
328.829	111
329.058	144
329.287	149
329.515	112
329.744	115
329.972	108
330.201	134
330.43	160
330.658	146
330.887	167
331.115	154
331.344	100
331.572	99
331.801	132
332.03	118
332.258	96
332.486	100
332.715	90
332.943	98
333.172	101
333.4	114
333.629	120
333.857	126
334.085	124
334.314	123
334.542	167
334.771	164
334.999	116
335.227	101
335.455	105
335.684	92
335.912	90
336.14	104
336.369	91
336.597	106
336.825	91
337.053	93
337.281	92
337.51	103
337.738	98
337.966	103
338.194	100
338.422	91
338.65	100
338.878	98
339.106	83
339.334	88
339.562	107
339.79	91
340.018	89
340.246	104
340.474	94
340.702	91
340.93	99
341.158	96
341.386	89
341.614	85
341.842	96
342.07	81
342.298	91
342.526	106
342.754	98
342.981	95
343.209	91
343.437	105
343.665	81
343.893	88
344.12	81
344.348	90
344.576	102
344.804	95
345.031	105
345.259	99
345.487	83
345.714	90
345.942	96
346.17	91
346.397	97
346.625	101
346.853	93
347.08	86
347.308	105
347.535	99
347.763	108
347.99	93
348.218	90
348.445	110
348.673	96
348.9	102
349.128	94
349.355	100
349.583	93
349.81	93
350.037	87
350.265	99
350.492	97
350.72	106
350.947	104
351.174	130
351.402	115
351.629	105
351.856	94
352.083	110
352.311	106
352.538	114
352.765	114
352.992	122
353.22	126
353.447	100
353.674	108
353.901	101
354.128	98
354.355	88
354.583	106
354.81	104
355.037	95
355.264	90
355.491	103
355.718	112
355.945	91
356.172	96
356.399	89
356.626	94
356.853	94
357.08	95
357.307	92
357.534	85
357.761	100
357.988	105
358.215	86
358.441	99
358.668	91
358.895	97
359.122	98
359.349	96
359.576	93
359.802	114
360.029	140
360.256	117
360.483	112
360.709	104
360.936	72
361.163	96
361.39	120
361.616	101
361.843	87
362.07	86
362.296	102
362.523	92
362.749	91
362.976	82
363.203	93
363.429	90
363.656	82
363.882	97
364.109	84
364.335	94
364.562	75
364.788	99
365.015	95
365.241	113
365.468	106
365.694	99
365.92	86
366.147	90
366.373	94
366.599	80
366.826	78
367.052	93
367.278	105
367.505	104
367.731	91
367.957	96
368.184	105
368.41	105
368.636	113
368.862	146
369.089	117
369.315	95
369.541	98
369.767	95
369.993	101
370.219	99
370.445	99
370.672	92
370.898	86
371.124	90
371.35	87
371.576	90
371.802	96
372.028	88
372.254	88
372.48	88
372.706	84
372.932	92
373.158	91
373.384	79
373.61	98
373.835	90
374.061	85
374.287	94
374.513	87
374.739	90
374.965	82
375.191	94
375.416	91
375.642	98
375.868	97
376.094	86
376.319	88
376.545	97
376.771	86
376.997	71
377.222	89
377.448	111
377.674	98
377.899	101
378.125	91
378.35	96
378.576	81
378.802	105
379.027	76
379.253	100
379.478	95
379.704	88
379.929	98
380.155	101
380.38	81
380.606	88
380.831	103
381.057	97
381.282	106
381.507	87
381.733	89
381.958	89
382.184	105
382.409	95
382.634	103
382.86	80
383.085	104
383.31	111
383.535	109
383.761	97
383.986	104
384.211	90
384.436	114
384.662	94
384.887	105
385.112	100
385.337	101
385.562	103
385.787	103
386.013	92
386.238	119
386.463	112
386.688	111
386.913	110
387.138	110
387.363	99
387.588	94
387.813	107
388.038	100
388.263	111
388.488	96
388.713	91
388.938	99
389.163	106
389.387	87
389.612	87
389.837	95
390.062	105
390.287	93
390.512	86
390.736	84
390.961	91
391.186	81
391.411	101
391.636	84
391.86	94
392.085	101
392.31	92
392.534	91
392.759	79
392.984	90
393.208	89
393.433	85
393.658	75
393.882	88
394.107	91
394.331	81
394.556	78
394.78	98
395.005	95
395.229	76
395.454	95
395.678	77
395.903	86
396.127	94
396.352	73
396.576	70
396.801	104
397.025	73
397.249	75
397.474	90
397.698	77
397.922	78
398.147	86
398.371	81
398.595	89
398.82	87
399.044	87
399.268	85
399.492	93
399.717	80
399.941	86
400.165	98
400.389	98
400.613	106
400.837	88
401.062	89
401.286	85
401.51	88
401.734	104
401.958	108
402.182	136
402.406	203
402.63	128
402.854	120
403.078	88
403.302	87
403.526	78
403.75	87
403.974	93
404.198	94
404.422	96
404.645	77
404.869	83
405.093	100
405.317	99
405.541	120
405.765	104
405.988	139
406.212	216
406.436	300
406.66	179
406.883	99
407.107	98
407.331	90
407.555	98
407.778	103
408.002	101
408.226	74
408.449	88
408.673	106
408.896	104
409.12	104
409.344	99
409.567	95
409.791	89
410.014	90
410.238	89
410.461	104
410.685	87
410.908	95
411.132	118
411.355	99
411.578	104
411.802	88
412.025	81
412.249	90
412.472	100
412.695	100
412.919	84
413.142	91
413.365	89
413.589	70
413.812	89
414.035	95
414.258	92
414.482	88
414.705	88
414.928	84
415.151	84
415.374	99
415.597	87
415.821	88
416.044	87
416.267	95
416.49	79
416.713	76
416.936	86
417.159	94
417.382	85
417.605	88
417.828	87
418.051	80
418.274	94
418.497	93
418.72	100
418.943	99
419.166	94
419.389	90
419.611	92
419.834	86
420.057	82
420.28	79
420.503	75
420.726	81
420.948	84
421.171	87
421.394	90
421.617	84
421.839	91
422.062	90
422.285	93
422.507	105
422.73	99
422.953	89
423.175	84
423.398	82
423.621	89
423.843	97
424.066	79
424.288	90
424.511	87
424.733	102
424.956	112
425.178	99
425.401	103
425.623	115
425.846	105
426.068	101
426.291	91
426.513	107
426.735	88
426.958	99
427.18	102
427.402	137
427.625	186
427.847	140
428.069	121
428.292	99
428.514	91
428.736	86
428.958	92
429.181	89
429.403	90
429.625	92
429.847	102
430.069	105
430.292	85
430.514	96
430.736	86
430.958	98
431.18	83
431.402	96
431.624	91
431.846	87
432.068	90
432.29	84
432.512	75
432.734	78
432.956	78
433.178	99
433.4	91
433.622	90
433.844	82
434.066	86
434.287	101
434.509	93
434.731	82
434.953	81
435.175	93
435.397	96
435.618	78
435.84	118
436.062	120
436.284	127
436.505	101
436.727	100
436.949	90
437.17	98
437.392	95
437.614	95
437.835	114
438.057	126
438.278	113
438.5	97
438.721	105
438.943	106
439.165	85
439.386	90
439.608	97
439.829	97
440.05	117
440.272	150
440.493	113
440.715	87
440.936	96
441.158	82
441.379	90
441.6	106
441.822	110
442.043	100
442.264	108
442.486	113
442.707	111
442.928	105
443.149	132
443.371	141
443.592	120
443.813	127
444.034	108
444.255	98
444.476	95
444.698	95
444.919	91
445.14	130
445.361	117
445.582	119
445.803	148
446.024	152
446.245	141
446.466	107
446.687	82
446.908	77
447.129	103
447.35	89
447.571	100
447.792	91
448.013	93
448.234	107
448.455	108
448.675	119
448.896	106
449.117	113
449.338	96
449.559	139
449.779	132
450	93
450.221	88
450.442	94
450.662	89
450.883	100
451.104	137
451.324	97
451.545	86
451.766	85
451.986	87
452.207	82
452.428	91
452.648	101
452.869	133
453.089	112
453.31	144
453.53	106
453.751	101
453.971	114
454.192	118
454.412	91
454.633	99
454.853	82
455.073	86
455.294	88
455.514	99
455.734	92
455.955	73
456.175	87
456.395	82
456.616	96
456.836	88
457.056	87
457.276	103
457.497	84
457.717	76
457.937	89
458.157	89
458.377	96
458.598	114
458.818	182
459.038	192
459.258	124
459.478	106
459.698	91
459.918	91
460.138	87
460.358	96
460.578	91
460.798	96
461.018	91
461.238	92
461.458	94
461.678	91
461.898	78
462.118	81
462.338	89
462.558	77
462.777	73
462.997	83
463.217	83
463.437	81
463.657	95
463.876	76
464.096	88
464.316	99
464.536	93
464.755	85
464.975	104
465.195	196
465.414	210
465.634	105
465.854	99
466.073	94
466.293	98
466.512	90
466.732	91
466.951	84
467.171	103
467.391	94
467.61	118
467.829	99
468.049	97
468.268	115
468.488	85
468.707	82
468.927	84
469.146	87
469.365	96
469.585	96
469.804	105
470.023	98
470.243	87
470.462	100
470.681	115
470.901	83
471.12	87
471.339	86
471.558	85
471.777	96
471.997	101
472.216	132
472.435	192
472.654	100
472.873	105
473.092	76
473.311	84
473.53	82
473.749	80
473.968	95
474.187	110
474.406	95
474.625	91
474.844	82
475.063	84
475.282	81
475.501	82
475.72	89
475.939	93
476.158	76
476.377	94
476.596	73
476.814	94
477.033	83
477.252	80
477.471	90
477.69	91
477.908	87
478.127	92
478.346	84
478.564	88
478.783	100
479.002	90
479.22	104
479.439	112
479.658	115
479.876	84
480.095	95
480.313	99
480.532	100
480.751	103
480.969	137
481.188	287
481.406	211
481.624	97
481.843	99
482.061	74
482.28	89
482.498	82
482.717	73
482.935	81
483.153	88
483.372	88
483.59	94
483.808	86
484.027	76
484.245	92
484.463	90
484.681	114
484.9	84
485.118	97
485.336	89
485.554	84
485.772	95
485.99	114
486.209	96
486.427	107
486.645	119
486.863	114
487.081	102
487.299	94
487.517	100
487.735	92
487.953	94
488.171	87
488.389	107
488.607	110
488.825	103
489.043	89
489.261	103
489.479	88
489.696	87
489.914	97
490.132	88
490.35	81
490.568	83
490.786	94
491.003	67
491.221	83
491.439	92
491.657	112
491.874	88
492.092	99
492.31	80
492.527	95
492.745	103
492.963	86
493.18	100
493.398	102
493.615	105
493.833	92
494.05	95
494.268	82
494.485	94
494.703	98
494.92	106
495.138	91
495.355	100
495.573	99
495.79	103
496.008	103
496.225	80
496.442	94
496.66	89
496.877	89
497.094	91
497.312	91
497.529	80
497.746	95
497.963	96
498.181	94
498.398	98
498.615	124
498.832	114
499.049	86
499.267	86
499.484	90
499.701	90
499.918	90
500.135	90
500.352	72
500.569	92
500.786	85
501.003	81
501.22	77
501.437	104
501.654	94
501.871	126
502.088	92
502.305	93
502.522	90
502.739	97
502.956	88
503.172	97
503.389	92
503.606	103
503.823	93
504.04	94
504.256	95
504.473	78
504.69	92
504.907	81
505.123	83
505.34	96
505.557	74
505.773	68
505.99	102
506.207	93
506.423	106
506.64	76
506.856	87
507.073	84
507.289	98
507.506	104
507.722	119
507.939	142
508.155	108
508.372	94
508.588	94
508.805	97
509.021	87
509.238	124
509.454	97
509.67	110
509.887	114
510.103	150
510.319	252
510.536	945
510.752	3276
510.968	935
511.184	194
511.401	124
511.617	95
511.833	89
512.049	104
512.265	91
512.481	91
512.698	93
512.914	81
513.13	100
513.346	89
513.562	99
513.778	99
513.994	107
514.21	118
514.426	113
514.642	152
514.858	139
515.074	178
515.29	651
515.506	2226
515.721	814
515.937	170
516.153	140
516.369	132
516.585	92
516.801	94
517.016	106
517.232	103
517.448	90
517.664	89
517.879	90
518.095	91
518.311	101
518.527	99
518.742	97
518.958	88
519.173	87
519.389	98
519.605	97
519.82	90
520.036	108
520.251	144
520.467	120
520.682	114
520.898	105
521.113	126
521.329	167
521.544	250
521.76	755
521.975	3626
522.19	2229
522.406	453
522.621	146
522.836	107
523.052	104
523.267	101
523.482	90
523.698	106
523.913	138
524.128	109
524.343	74
524.559	76
524.774	94
524.989	87
525.204	110
525.419	116
525.634	91
525.849	100
526.064	99
526.28	92
526.495	92
526.71	92
526.925	94
527.14	100
527.355	96
527.57	90
527.785	102
527.999	98
528.214	84
528.429	96
528.644	85
528.859	100
529.074	103
529.289	140
529.503	232
529.718	106
529.933	84
530.148	81
530.363	95
530.577	95
530.792	90
531.007	81
531.221	90
531.436	89
531.651	91
531.865	81
532.08	101
532.295	89
532.509	115
532.724	94
532.938	116
533.153	97
533.367	105
533.582	89
533.796	79
534.011	82
534.225	87
534.44	94
534.654	99
534.868	102
535.083	107
535.297	99
535.511	95
535.726	106
535.94	103
536.154	102
536.369	93
536.583	82
536.797	83
537.011	90
537.225	95
537.44	88
537.654	96
537.868	93
538.082	110
538.296	88
538.51	94
538.724	80
538.938	91
539.153	106
539.367	113
539.581	104
539.795	98
540.009	98
540.222	90
540.436	101
540.65	83
540.864	90
541.078	98
541.292	92
541.506	91
541.72	100
541.934	93
542.147	87
542.361	95
542.575	86
542.789	86
543.002	82
543.216	86
543.43	88
543.644	97
543.857	97
544.071	83
544.285	93
544.498	90
544.712	86
544.925	83
545.139	90
545.352	88
545.566	93
545.779	98
545.993	77
546.206	80
546.42	95
546.633	87
546.847	96
547.06	87
547.274	94
547.487	86
547.7	97
547.914	98
548.127	91
548.34	91
548.554	76
548.767	91
548.98	101
549.193	87
549.407	87
549.62	99
549.833	76
550.046	97
550.259	98
550.473	90
550.686	74
550.899	91
551.112	91
551.325	94
551.538	82
551.751	87
551.964	91
552.177	96
552.39	94
552.603	96
552.816	96
553.029	87
553.242	89
553.455	100
553.667	95
553.88	103
554.093	87
554.306	105
554.519	96
554.732	101
554.944	94
555.157	87
555.37	85
555.583	80
555.795	99
556.008	95
556.221	106
556.433	89
556.646	94
556.859	90
557.071	97
557.284	80
557.496	80
557.709	92
557.921	86
558.134	88
558.346	89
558.559	88
558.771	85
558.984	89
559.196	91
559.409	80
559.621	94
559.833	78
560.046	85
560.258	91
560.47	88
560.683	81
560.895	88
561.107	94
561.32	98
561.532	81
561.744	95
561.956	104
562.168	99
562.381	96
562.593	101
562.805	95
563.017	97
563.229	83
563.441	96
563.653	94
563.865	90
564.077	89
564.289	93
564.501	87
564.713	80
564.925	106
565.137	95
565.349	95
565.561	94
565.773	102
565.985	86
566.197	79
566.408	81
566.62	86
566.832	87
567.044	78
567.255	95
567.467	96
567.679	89
567.891	83
568.102	80
568.314	87
568.526	80
568.737	96
568.949	94
569.161	86
569.372	96
569.584	93
569.795	102
570.007	124
570.218	295
570.43	167
570.641	100
570.853	83
571.064	84
571.276	95
571.487	83
571.698	91
571.91	94
572.121	74
572.333	85
572.544	83
572.755	87
572.966	74
573.178	94
573.389	82
573.6	79
573.811	84
574.023	80
574.234	95
574.445	78
574.656	107
574.867	89
575.078	99
575.289	85
575.501	84
575.712	84
575.923	83
576.134	81
576.345	97
576.556	89
576.767	86
576.978	102
577.188	87
577.399	107
577.61	90
577.821	91
578.032	127
578.243	331
578.454	1060
578.665	254
578.875	110
579.086	86
579.297	82
579.508	91
579.718	98
579.929	85
580.14	92
580.35	77
580.561	80
580.772	94
580.982	96
581.193	95
581.403	94
581.614	107
581.825	79
582.035	76
582.246	78
582.456	83
582.667	91
582.877	96
