Data from Circ_2018_H10_HRD10591_00082.txt Node
Date: Wed Jan 03 09:56:18 EST 2024
User: Yrep
Spectrometer: HR+D1059
Trigger mode: 1
Integration Time (sec): 1.000000E-1
Scans to average: 1
Electric dark correction enabled: true
Nonlinearity correction enabled: false
Boxcar width: 0
XAxis mode: Wavelengths
Number of Pixels in Spectrum: 2048
>>>>>Begin Spectral Data<<<<<
223.165	-11.06
223.4	-11.06
223.635	-11.06
223.869	-16.06
224.104	-5.06
224.338	-10.06
224.573	-10.06
224.808	-7.06
225.042	-12.06
225.277	-16.06
225.511	-1.06
225.746	-3.06
225.98	6.94
226.215	6.94
226.449	16.94
226.683	23.94
226.918	22.94
227.152	13.94
227.387	31.94
227.621	41.94
227.856	50.94
228.09	50.94
228.324	56.94
228.559	56.94
228.793	71.94
229.027	68.94
229.262	64.94
229.496	82.94
229.73	90.94
229.964	86.94
230.199	81.94
230.433	84.94
230.667	82.94
230.901	70.94
231.136	91.94
231.37	79.94
231.604	71.94
231.838	76.94
232.072	88.94
232.306	78.94
232.541	82.94
232.775	87.94
233.009	78.94
233.243	82.94
233.477	86.94
233.711	89.94
233.945	87.94
234.179	95.94
234.413	85.94
234.647	73.94
234.881	82.94
235.115	76.94
235.349	76.94
235.583	86.94
235.817	85.94
236.051	88.94
236.285	80.94
236.519	74.94
236.753	82.94
236.987	78.94
237.221	78.94
237.455	87.94
237.689	88.94
237.922	77.94
238.156	87.94
238.39	76.94
238.624	91.94
238.858	86.94
239.091	65.94
239.325	77.94
239.559	86.94
239.793	88.94
240.027	87.94
240.26	83.94
240.494	91.94
240.728	79.94
240.961	79.94
241.195	78.94
241.429	88.94
241.662	83.94
241.896	80.94
242.13	86.94
242.363	77.94
242.597	75.94
242.83	86.94
243.064	68.94
243.298	83.94
243.531	92.94
243.765	77.94
243.998	84.94
244.232	89.94
244.465	81.94
244.699	98.94
244.932	85.94
245.166	88.94
245.399	80.94
245.633	92.94
245.866	71.94
246.099	79.94
246.333	76.94
246.566	86.94
246.8	76.94
247.033	101.94
247.266	79.94
247.5	79.94
247.733	74.94
247.966	85.94
248.2	78.94
248.433	64.94
248.666	83.94
248.899	74.94
249.133	89.94
249.366	95.94
249.599	86.94
249.832	80.94
250.066	83.94
250.299	90.94
250.532	81.94
250.765	78.94
250.998	79.94
251.231	79.94
251.465	87.94
251.698	98.94
251.931	79.94
252.164	81.94
252.397	85.94
252.63	77.94
252.863	88.94
253.096	88.94
253.329	95.94
253.562	83.94
253.795	85.94
254.028	81.94
254.261	78.94
254.494	84.94
254.727	87.94
254.96	88.94
255.193	89.94
255.426	82.94
255.659	85.94
255.892	81.94
256.124	87.94
256.357	92.94
256.59	85.94
256.823	90.94
257.056	87.94
257.289	88.94
257.521	83.94
257.754	82.94
257.987	91.94
258.22	88.94
258.452	87.94
258.685	88.94
258.918	81.94
259.151	77.94
259.383	85.94
259.616	95.94
259.849	86.94
260.081	92.94
260.314	93.94
260.547	85.94
260.779	92.94
261.012	105.94
261.244	94.94
261.477	94.94
261.71	104.94
261.942	126.94
262.175	126.94
262.407	103.94
262.64	94.94
262.872	91.94
263.105	92.94
263.337	91.94
263.57	79.94
263.802	82.94
264.035	96.94
264.267	84.94
264.499	89.94
264.732	86.94
264.964	73.94
265.197	88.94
265.429	93.94
265.661	78.94
265.894	91.94
266.126	88.94
266.358	78.94
266.591	68.94
266.823	83.94
267.055	78.94
267.287	91.94
267.52	90.94
267.752	84.94
267.984	93.94
268.216	88.94
268.448	72.94
268.681	91.94
268.913	91.94
269.145	83.94
269.377	77.94
269.609	69.94
269.841	79.94
270.073	86.94
270.306	96.94
270.538	85.94
270.77	96.94
271.002	101.94
271.234	85.94
271.466	96.94
271.698	101.94
271.93	99.94
272.162	90.94
272.394	82.94
272.626	90.94
272.858	91.94
273.09	92.94
273.322	92.94
273.553	82.94
273.785	86.94
274.017	86.94
274.249	79.94
274.481	79.94
274.713	79.94
274.945	84.94
275.176	92.94
275.408	80.94
275.64	88.94
275.872	77.94
276.104	71.94
276.335	95.94
276.567	112.94
276.799	108.94
277.031	114.94
277.262	86.94
277.494	99.94
277.726	84.94
277.957	83.94
278.189	78.94
278.421	80.94
278.652	88.94
278.884	86.94
279.115	81.94
279.347	85.94
279.579	88.94
279.81	85.94
280.042	93.94
280.273	82.94
280.505	79.94
280.736	91.94
280.968	79.94
281.199	83.94
281.431	87.94
281.662	89.94
281.894	93.94
282.125	112.94
282.356	118.94
282.588	134.94
282.819	127.94
283.051	82.94
283.282	84.94
283.513	88.94
283.745	89.94
283.976	95.94
284.207	92.94
284.439	87.94
284.67	90.94
284.901	84.94
285.132	82.94
285.364	87.94
285.595	74.94
285.826	92.94
286.057	96.94
286.288	87.94
286.52	93.94
286.751	88.94
286.982	82.94
287.213	90.94
287.444	86.94
287.675	101.94
287.906	99.94
288.138	116.94
288.369	82.94
288.6	98.94
288.831	104.94
289.062	97.94
289.293	82.94
289.524	85.94
289.755	81.94
289.986	92.94
290.217	101.94
290.448	81.94
290.679	92.94
290.91	83.94
291.141	79.94
291.371	80.94
291.602	87.94
291.833	103.94
292.064	83.94
292.295	94.94
292.526	71.94
292.757	79.94
292.987	80.94
293.218	90.94
293.449	90.94
293.68	80.94
293.91	87.94
294.141	89.94
294.372	84.94
294.603	87.94
294.833	90.94
295.064	88.94
295.295	103.94
295.525	93.94
295.756	102.94
295.987	121.94
296.217	150.94
296.448	126.94
296.679	104.94
296.909	102.94
297.14	99.94
297.37	92.94
297.601	93.94
297.831	101.94
298.062	90.94
298.292	88.94
298.523	95.94
298.753	98.94
298.984	90.94
299.214	97.94
299.445	93.94
299.675	97.94
299.905	97.94
300.136	85.94
300.366	95.94
300.597	102.94
300.827	100.94
301.057	111.94
301.288	105.94
301.518	102.94
301.748	92.94
301.979	99.94
302.209	100.94
302.439	90.94
302.669	91.94
302.9	106.94
303.13	94.94
303.36	88.94
303.59	104.94
303.82	114.94
304.051	84.94
304.281	87.94
304.511	95.94
304.741	85.94
304.971	90.94
305.201	77.94
305.431	95.94
305.661	93.94
305.891	99.94
306.121	98.94
306.352	108.94
306.582	123.94
306.812	106.94
307.042	110.94
307.272	104.94
307.502	99.94
307.731	93.94
307.961	99.94
308.191	101.94
308.421	92.94
308.651	93.94
308.881	93.94
309.111	97.94
309.341	103.94
309.571	115.94
309.8	105.94
310.03	103.94
310.26	93.94
310.49	106.94
310.72	102.94
310.949	103.94
311.179	91.94
311.409	103.94
311.639	102.94
311.868	93.94
312.098	88.94
312.328	86.94
312.557	94.94
312.787	103.94
313.017	101.94
313.246	86.94
313.476	98.94
313.706	86.94
313.935	94.94
314.165	114.94
314.394	101.94
314.624	104.94
314.853	95.94
315.083	112.94
315.312	108.94
315.542	107.94
315.771	95.94
316.001	102.94
316.23	96.94
316.46	87.94
316.689	98.94
316.919	90.94
317.148	102.94
317.377	102.94
317.607	109.94
317.836	78.94
318.065	79.94
318.295	99.94
318.524	102.94
318.753	103.94
318.983	105.94
319.212	115.94
319.441	108.94
319.67	117.94
319.9	88.94
320.129	88.94
320.358	106.94
320.587	99.94
320.816	93.94
321.046	103.94
321.275	106.94
321.504	92.94
321.733	89.94
321.962	95.94
322.191	93.94
322.42	110.94
322.649	113.94
322.878	129.94
323.108	117.94
323.337	123.94
323.566	136.94
323.795	151.94
324.024	199.94
324.253	383.94
324.482	830.94
324.71	1647.94
324.939	2157.94
325.168	835.94
325.397	244.94
325.626	149.94
325.855	125.94
326.084	109.94
326.313	138.94
326.542	153.94
326.77	217.94
326.999	449.94
327.228	929.94
327.457	1612.94
327.686	1276.94
327.914	363.94
328.143	208.94
328.372	183.94
328.6	146.94
328.829	138.94
329.058	126.94
329.287	141.94
329.515	131.94
329.744	119.94
329.972	109.94
330.201	157.94
330.43	166.94
330.658	168.94
330.887	153.94
331.115	132.94
331.344	93.94
331.572	97.94
331.801	113.94
332.03	108.94
332.258	97.94
332.486	109.94
332.715	114.94
332.943	94.94
333.172	99.94
333.4	92.94
333.629	110.94
333.857	118.94
334.085	122.94
334.314	138.94
334.542	182.94
334.771	179.94
334.999	116.94
335.227	107.94
335.455	108.94
335.684	87.94
335.912	109.94
336.14	97.94
336.369	105.94
336.597	102.94
336.825	106.94
337.053	104.94
337.281	76.94
337.51	98.94
337.738	96.94
337.966	100.94
338.194	96.94
338.422	104.94
338.65	93.94
338.878	94.94
339.106	91.94
339.334	102.94
339.562	95.94
339.79	81.94
340.018	80.94
340.246	85.94
340.474	96.94
340.702	97.94
340.93	109.94
341.158	94.94
341.386	98.94
341.614	109.94
341.842	85.94
342.07	103.94
342.298	104.94
342.526	92.94
342.754	99.94
342.981	94.94
343.209	84.94
343.437	100.94
343.665	94.94
343.893	100.94
344.12	78.94
344.348	94.94
344.576	91.94
344.804	95.94
345.031	92.94
345.259	109.94
345.487	91.94
345.714	99.94
345.942	103.94
346.17	89.94
346.397	87.94
346.625	91.94
346.853	102.94
347.08	92.94
347.308	94.94
347.535	92.94
347.763	108.94
347.99	99.94
348.218	95.94
348.445	123.94
348.673	104.94
348.9	96.94
349.128	97.94
349.355	100.94
349.583	91.94
349.81	84.94
350.037	98.94
350.265	91.94
350.492	99.94
350.72	106.94
350.947	116.94
351.174	111.94
351.402	121.94
351.629	114.94
351.856	116.94
352.083	111.94
352.311	104.94
352.538	121.94
352.765	100.94
352.992	106.94
353.22	92.94
353.447	100.94
353.674	89.94
353.901	95.94
354.128	91.94
354.355	99.94
354.583	91.94
354.81	103.94
355.037	96.94
355.264	94.94
355.491	93.94
355.718	108.94
355.945	83.94
356.172	109.94
356.399	101.94
356.626	96.94
356.853	105.94
357.08	94.94
357.307	88.94
357.534	75.94
357.761	102.94
357.988	92.94
358.215	90.94
358.441	92.94
358.668	110.94
358.895	95.94
359.122	92.94
359.349	91.94
359.576	90.94
359.802	119.94
360.029	120.94
360.256	121.94
360.483	122.94
360.709	96.94
360.936	96.94
361.163	98.94
361.39	99.94
361.616	92.94
361.843	104.94
362.07	103.94
362.296	86.94
362.523	95.94
362.749	88.94
362.976	94.94
363.203	90.94
363.429	94.94
363.656	86.94
363.882	112.94
364.109	108.94
364.335	95.94
364.562	104.94
364.788	98.94
365.015	99.94
365.241	115.94
365.468	115.94
365.694	115.94
365.92	89.94
366.147	96.94
366.373	87.94
366.599	88.94
366.826	98.94
367.052	93.94
367.278	104.94
367.505	84.94
367.731	81.94
367.957	95.94
368.184	98.94
368.41	101.94
368.636	122.94
368.862	133.94
369.089	102.94
369.315	99.94
369.541	91.94
369.767	102.94
369.993	91.94
370.219	90.94
370.445	99.94
370.672	100.94
370.898	99.94
371.124	106.94
371.35	90.94
371.576	85.94
371.802	82.94
372.028	77.94
372.254	79.94
372.48	80.94
372.706	91.94
372.932	87.94
373.158	80.94
373.384	96.94
373.61	113.94
373.835	93.94
374.061	95.94
374.287	83.94
374.513	75.94
374.739	95.94
374.965	99.94
375.191	89.94
375.416	108.94
375.642	95.94
375.868	87.94
376.094	92.94
376.319	86.94
376.545	92.94
376.771	93.94
376.997	84.94
377.222	97.94
377.448	90.94
377.674	104.94
377.899	87.94
378.125	91.94
378.35	98.94
378.576	86.94
378.802	84.94
379.027	102.94
379.253	85.94
379.478	87.94
379.704	101.94
379.929	95.94
380.155	91.94
380.38	80.94
380.606	103.94
380.831	100.94
381.057	103.94
381.282	102.94
381.507	99.94
381.733	102.94
381.958	91.94
382.184	98.94
382.409	83.94
382.634	95.94
382.86	101.94
383.085	105.94
383.31	96.94
383.535	94.94
383.761	96.94
383.986	97.94
384.211	116.94
384.436	120.94
384.662	99.94
384.887	114.94
385.112	98.94
385.337	110.94
385.562	92.94
385.787	111.94
386.013	116.94
386.238	114.94
386.463	113.94
386.688	94.94
386.913	108.94
387.138	112.94
387.363	98.94
387.588	114.94
387.813	90.94
388.038	115.94
388.263	112.94
388.488	114.94
388.713	99.94
388.938	98.94
389.163	116.94
389.387	92.94
389.612	93.94
389.837	117.94
390.062	107.94
390.287	112.94
390.512	87.94
390.736	85.94
390.961	96.94
391.186	100.94
391.411	96.94
391.636	87.94
391.86	121.94
392.085	93.94
392.31	92.94
392.534	87.94
392.759	86.94
392.984	96.94
393.208	88.94
393.433	90.94
393.658	83.94
393.882	81.94
394.107	88.94
394.331	75.94
394.556	80.94
394.78	103.94
395.005	94.94
395.229	83.94
395.454	93.94
395.678	87.94
395.903	105.94
396.127	91.94
396.352	76.94
396.576	94.94
396.801	77.94
397.025	98.94
397.249	90.94
397.474	92.94
397.698	95.94
397.922	98.94
398.147	94.94
398.371	78.94
398.595	97.94
398.82	104.94
399.044	86.94
399.268	91.94
399.492	85.94
399.717	106.94
399.941	98.94
400.165	98.94
400.389	103.94
400.613	102.94
400.837	84.94
401.062	99.94
401.286	93.94
401.51	87.94
401.734	96.94
401.958	114.94
402.182	132.94
402.406	172.94
402.63	126.94
402.854	104.94
403.078	110.94
403.302	99.94
403.526	100.94
403.75	91.94
403.974	90.94
404.198	93.94
404.422	101.94
404.645	87.94
404.869	108.94
405.093	101.94
405.317	100.94
405.541	108.94
405.765	109.94
405.988	136.94
406.212	206.94
406.436	251.94
406.66	153.94
406.883	114.94
407.107	111.94
407.331	96.94
407.555	109.94
407.778	96.94
408.002	90.94
408.226	88.94
408.449	95.94
408.673	82.94
408.896	108.94
409.12	111.94
409.344	100.94
409.567	87.94
409.791	92.94
410.014	91.94
410.238	98.94
410.461	109.94
410.685	108.94
410.908	98.94
411.132	113.94
411.355	92.94
411.578	91.94
411.802	95.94
412.025	77.94
412.249	100.94
412.472	98.94
412.695	86.94
412.919	90.94
413.142	90.94
413.365	88.94
413.589	83.94
413.812	103.94
414.035	93.94
414.258	88.94
414.482	86.94
414.705	102.94
414.928	87.94
415.151	98.94
415.374	89.94
415.597	85.94
415.821	102.94
416.044	82.94
416.267	92.94
416.49	87.94
416.713	103.94
416.936	88.94
417.159	86.94
417.382	95.94
417.605	92.94
417.828	105.94
418.051	81.94
418.274	101.94
418.497	80.94
418.72	93.94
418.943	98.94
419.166	99.94
419.389	101.94
419.611	104.94
419.834	103.94
420.057	93.94
420.28	94.94
420.503	99.94
420.726	98.94
420.948	90.94
421.171	91.94
421.394	106.94
421.617	100.94
421.839	87.94
422.062	82.94
422.285	97.94
422.507	95.94
422.73	103.94
422.953	87.94
423.175	92.94
423.398	79.94
423.621	106.94
423.843	102.94
424.066	109.94
424.288	87.94
424.511	87.94
424.733	102.94
424.956	127.94
425.178	101.94
425.401	103.94
425.623	88.94
425.846	102.94
426.068	90.94
426.291	95.94
426.513	98.94
426.735	91.94
426.958	87.94
427.18	111.94
427.402	144.94
427.625	179.94
427.847	152.94
428.069	116.94
428.292	88.94
428.514	66.94
428.736	85.94
428.958	86.94
429.181	82.94
429.403	83.94
429.625	82.94
429.847	105.94
430.069	120.94
430.292	90.94
430.514	81.94
430.736	93.94
430.958	105.94
431.18	75.94
431.402	93.94
431.624	96.94
431.846	83.94
432.068	88.94
432.29	98.94
432.512	93.94
432.734	85.94
432.956	95.94
433.178	98.94
433.4	99.94
433.622	103.94
433.844	101.94
434.066	101.94
434.287	99.94
434.509	85.94
434.731	99.94
434.953	98.94
435.175	94.94
435.397	87.94
435.618	88.94
435.84	101.94
436.062	108.94
436.284	123.94
436.505	100.94
436.727	92.94
436.949	80.94
437.17	107.94
437.392	90.94
437.614	101.94
437.835	116.94
438.057	126.94
438.278	116.94
438.5	108.94
438.721	120.94
438.943	98.94
439.165	94.94
439.386	96.94
439.608	97.94
439.829	101.94
440.05	114.94
440.272	138.94
440.493	90.94
440.715	80.94
440.936	79.94
441.158	83.94
441.379	88.94
441.6	100.94
441.822	92.94
442.043	105.94
442.264	106.94
442.486	109.94
442.707	101.94
442.928	114.94
443.149	154.94
443.371	150.94
443.592	110.94
443.813	119.94
444.034	107.94
444.255	77.94
444.476	83.94
444.698	93.94
444.919	105.94
445.14	132.94
445.361	122.94
445.582	130.94
445.803	137.94
446.024	133.94
446.245	138.94
446.466	116.94
446.687	96.94
446.908	88.94
447.129	87.94
447.35	101.94
447.571	98.94
447.792	101.94
448.013	106.94
448.234	119.94
448.455	108.94
448.675	130.94
448.896	123.94
449.117	109.94
449.338	104.94
449.559	131.94
449.779	135.94
450	96.94
450.221	88.94
450.442	88.94
450.662	97.94
450.883	107.94
451.104	110.94
451.324	103.94
451.545	89.94
451.766	92.94
451.986	92.94
452.207	100.94
452.428	89.94
452.648	103.94
452.869	103.94
453.089	104.94
453.31	128.94
453.53	91.94
453.751	101.94
453.971	106.94
454.192	114.94
454.412	89.94
454.633	97.94
454.853	96.94
455.073	92.94
455.294	99.94
455.514	112.94
455.734	87.94
455.955	87.94
456.175	85.94
456.395	80.94
456.616	73.94
456.836	86.94
457.056	90.94
457.276	96.94
457.497	89.94
457.717	92.94
457.937	94.94
458.157	86.94
458.377	80.94
458.598	118.94
458.818	152.94
459.038	188.94
459.258	123.94
459.478	88.94
459.698	84.94
459.918	93.94
460.138	94.94
460.358	92.94
460.578	80.94
460.798	103.94
461.018	84.94
461.238	85.94
461.458	85.94
461.678	87.94
461.898	94.94
462.118	91.94
462.338	93.94
462.558	84.94
462.777	84.94
462.997	85.94
463.217	86.94
463.437	92.94
463.657	87.94
463.876	98.94
464.096	99.94
464.316	87.94
464.536	91.94
464.755	104.94
464.975	112.94
465.195	160.94
465.414	169.94
465.634	105.94
465.854	87.94
466.073	75.94
466.293	98.94
466.512	87.94
466.732	80.94
466.951	84.94
467.171	84.94
467.391	95.94
467.61	91.94
467.829	89.94
468.049	116.94
468.268	142.94
468.488	90.94
468.707	88.94
468.927	86.94
469.146	80.94
469.365	90.94
469.585	101.94
469.804	90.94
470.023	99.94
470.243	104.94
470.462	88.94
470.681	114.94
470.901	102.94
471.12	91.94
471.339	83.94
471.558	92.94
471.777	99.94
471.997	99.94
472.216	140.94
472.435	220.94
472.654	108.94
472.873	85.94
473.092	96.94
473.311	96.94
473.53	92.94
473.749	85.94
473.968	91.94
474.187	106.94
474.406	110.94
474.625	94.94
474.844	99.94
475.063	85.94
475.282	91.94
475.501	79.94
475.72	79.94
475.939	91.94
476.158	101.94
476.377	79.94
476.596	107.94
476.814	84.94
477.033	102.94
477.252	92.94
477.471	76.94
477.69	88.94
477.908	86.94
478.127	81.94
478.346	91.94
478.564	104.94
478.783	96.94
479.002	96.94
479.22	96.94
479.439	104.94
479.658	109.94
479.876	106.94
480.095	100.94
480.313	100.94
480.532	78.94
480.751	101.94
480.969	153.94
481.188	315.94
481.406	231.94
481.624	97.94
481.843	87.94
482.061	91.94
482.28	84.94
482.498	89.94
482.717	93.94
482.935	81.94
483.153	100.94
483.372	96.94
483.59	87.94
483.808	93.94
484.027	106.94
484.245	101.94
484.463	90.94
484.681	104.94
484.9	96.94
485.118	92.94
485.336	96.94
485.554	84.94
485.772	104.94
485.99	91.94
486.209	98.94
486.427	107.94
486.645	105.94
486.863	130.94
487.081	111.94
487.299	104.94
487.517	94.94
487.735	90.94
487.953	100.94
488.171	96.94
488.389	83.94
488.607	101.94
488.825	94.94
489.043	91.94
489.261	92.94
489.479	103.94
489.696	101.94
489.914	96.94
490.132	101.94
490.35	86.94
490.568	105.94
490.786	95.94
491.003	86.94
491.221	93.94
491.439	102.94
491.657	80.94
491.874	111.94
492.092	86.94
492.31	97.94
492.527	97.94
492.745	94.94
492.963	99.94
493.18	94.94
493.398	104.94
493.615	94.94
493.833	106.94
494.05	85.94
494.268	92.94
494.485	86.94
494.703	85.94
494.92	96.94
495.138	89.94
495.355	96.94
495.573	100.94
495.79	98.94
496.008	99.94
496.225	83.94
496.442	71.94
496.66	99.94
496.877	94.94
497.094	92.94
497.312	92.94
497.529	102.94
497.746	99.94
497.963	86.94
498.181	96.94
498.398	98.94
498.615	119.94
498.832	116.94
499.049	100.94
499.267	86.94
499.484	87.94
499.701	81.94
499.918	106.94
500.135	91.94
500.352	88.94
500.569	95.94
500.786	87.94
501.003	92.94
501.22	86.94
501.437	94.94
501.654	95.94
501.871	117.94
502.088	94.94
502.305	91.94
502.522	97.94
502.739	82.94
502.956	85.94
503.172	110.94
503.389	110.94
503.606	109.94
503.823	96.94
504.04	92.94
504.256	91.94
504.473	99.94
504.69	109.94
504.907	87.94
505.123	79.94
505.34	103.94
505.557	91.94
505.773	100.94
505.99	95.94
506.207	70.94
506.423	100.94
506.64	90.94
506.856	100.94
507.073	82.94
507.289	87.94
507.506	101.94
507.722	106.94
507.939	107.94
508.155	94.94
508.372	95.94
508.588	100.94
508.805	103.94
509.021	100.94
509.238	103.94
509.454	102.94
509.67	112.94
509.887	110.94
510.103	144.94
510.319	236.94
510.536	854.94
510.752	2882.94
510.968	797.94
511.184	184.94
511.401	131.94
511.617	111.94
511.833	104.94
512.049	95.94
512.265	90.94
512.481	83.94
512.698	98.94
512.914	91.94
513.13	94.94
513.346	92.94
513.562	88.94
513.778	100.94
513.994	98.94
