Data from Circ_2018_H10_HRD10591_00038.txt Node
Date: Wed Jan 03 09:56:09 EST 2024
User: Yrep
Spectrometer: HR+D1059
Trigger mode: 1
Integration Time (sec): 1.000000E-1
Scans to average: 1
Electric dark correction enabled: true
Nonlinearity correction enabled: false
Boxcar width: 0
XAxis mode: Wavelengths
Number of Pixels in Spectrum: 2048
>>>>>Begin Spectral Data<<<<<
223.165	-10.81
223.4	-10.81
223.635	-10.81
223.869	-17.81
224.104	-27.81
224.338	-6.81
224.573	-10.81
224.808	-20.81
225.042	-12.81
225.277	-4.81
225.511	11.19
225.746	2.19
225.98	8.19
226.215	6.19
226.449	19.19
226.683	27.19
226.918	13.19
227.152	25.19
227.387	26.19
227.621	36.19
227.856	44.19
228.09	51.19
228.324	54.19
228.559	53.19
228.793	69.19
229.027	62.19
229.262	66.19
229.496	78.19
229.73	79.19
229.964	90.19
230.199	80.19
230.433	86.19
230.667	82.19
230.901	74.19
231.136	75.19
231.37	76.19
231.604	86.19
231.838	82.19
232.072	63.19
232.306	92.19
232.541	73.19
232.775	96.19
233.009	78.19
233.243	77.19
233.477	90.19
233.711	75.19
233.945	87.19
234.179	73.19
234.413	89.19
234.647	76.19
234.881	79.19
235.115	88.19
235.349	88.19
235.583	91.19
235.817	77.19
236.051	83.19
236.285	86.19
236.519	72.19
236.753	87.19
236.987	86.19
237.221	84.19
237.455	96.19
237.689	61.19
237.922	82.19
238.156	85.19
238.39	77.19
238.624	76.19
238.858	72.19
239.091	67.19
239.325	89.19
239.559	101.19
239.793	72.19
240.027	68.19
240.26	84.19
240.494	83.19
240.728	70.19
240.961	87.19
241.195	86.19
241.429	77.19
241.662	78.19
241.896	79.19
242.13	82.19
242.363	81.19
242.597	87.19
242.83	84.19
243.064	80.19
243.298	79.19
243.531	81.19
243.765	82.19
243.998	75.19
244.232	95.19
244.465	69.19
244.699	85.19
244.932	82.19
245.166	79.19
245.399	74.19
245.633	87.19
245.866	78.19
246.099	83.19
246.333	87.19
246.566	78.19
246.8	83.19
247.033	86.19
247.266	86.19
247.5	83.19
247.733	76.19
247.966	83.19
248.2	92.19
248.433	80.19
248.666	76.19
248.899	83.19
249.133	114.19
249.366	105.19
249.599	103.19
249.832	96.19
250.066	71.19
250.299	98.19
250.532	93.19
250.765	85.19
250.998	80.19
251.231	91.19
251.465	75.19
251.698	80.19
251.931	84.19
252.164	89.19
252.397	76.19
252.63	83.19
252.863	76.19
253.096	69.19
253.329	87.19
253.562	87.19
253.795	96.19
254.028	77.19
254.261	90.19
254.494	88.19
254.727	86.19
254.96	78.19
255.193	78.19
255.426	79.19
255.659	73.19
255.892	72.19
256.124	76.19
256.357	103.19
256.59	87.19
256.823	91.19
257.056	80.19
257.289	82.19
257.521	87.19
257.754	93.19
257.987	89.19
258.22	81.19
258.452	89.19
258.685	88.19
258.918	78.19
259.151	94.19
259.383	79.19
259.616	88.19
259.849	108.19
260.081	82.19
260.314	90.19
260.547	76.19
260.779	95.19
261.012	95.19
261.244	100.19
261.477	99.19
261.71	104.19
261.942	137.19
262.175	146.19
262.407	103.19
262.64	90.19
262.872	80.19
263.105	86.19
263.337	93.19
263.57	94.19
263.802	81.19
264.035	84.19
264.267	82.19
264.499	85.19
264.732	86.19
264.964	91.19
265.197	97.19
265.429	80.19
265.661	86.19
265.894	83.19
266.126	84.19
266.358	86.19
266.591	94.19
266.823	83.19
267.055	80.19
267.287	76.19
267.52	88.19
267.752	90.19
267.984	75.19
268.216	78.19
268.448	76.19
268.681	93.19
268.913	85.19
269.145	76.19
269.377	91.19
269.609	86.19
269.841	87.19
270.073	78.19
270.306	90.19
270.538	88.19
270.77	91.19
271.002	77.19
271.234	92.19
271.466	92.19
271.698	85.19
271.93	88.19
272.162	92.19
272.394	88.19
272.626	92.19
272.858	86.19
273.09	100.19
273.322	78.19
273.553	84.19
273.785	88.19
274.017	84.19
274.249	89.19
274.481	92.19
274.713	102.19
274.945	98.19
275.176	71.19
275.408	95.19
275.64	94.19
275.872	84.19
276.104	94.19
276.335	86.19
276.567	117.19
276.799	136.19
277.031	109.19
277.262	104.19
277.494	102.19
277.726	92.19
277.957	97.19
278.189	96.19
278.421	87.19
278.652	103.19
278.884	104.19
279.115	93.19
279.347	102.19
279.579	89.19
279.81	86.19
280.042	99.19
280.273	95.19
280.505	90.19
280.736	95.19
280.968	83.19
281.199	105.19
281.431	103.19
281.662	98.19
281.894	87.19
282.125	99.19
282.356	144.19
282.588	174.19
282.819	137.19
283.051	107.19
283.282	88.19
283.513	86.19
283.745	106.19
283.976	97.19
284.207	92.19
284.439	85.19
284.67	88.19
284.901	94.19
285.132	88.19
285.364	95.19
285.595	94.19
285.826	86.19
286.057	90.19
286.288	90.19
286.52	84.19
286.751	99.19
286.982	95.19
287.213	94.19
287.444	86.19
287.675	99.19
287.906	101.19
288.138	84.19
288.369	108.19
288.6	98.19
288.831	99.19
289.062	102.19
289.293	93.19
289.524	92.19
289.755	95.19
289.986	87.19
290.217	92.19
290.448	92.19
290.679	94.19
290.91	98.19
291.141	102.19
291.371	87.19
291.602	78.19
291.833	86.19
292.064	85.19
292.295	93.19
292.526	86.19
292.757	79.19
292.987	94.19
293.218	91.19
293.449	96.19
293.68	92.19
293.91	101.19
294.141	102.19
294.372	96.19
294.603	108.19
294.833	105.19
295.064	95.19
295.295	88.19
295.525	101.19
295.756	110.19
295.987	143.19
296.217	158.19
296.448	147.19
296.679	105.19
296.909	98.19
297.14	87.19
297.37	100.19
297.601	87.19
297.831	91.19
298.062	103.19
298.292	94.19
298.523	91.19
298.753	83.19
298.984	90.19
299.214	84.19
299.445	87.19
299.675	115.19
299.905	111.19
300.136	96.19
300.366	100.19
300.597	95.19
300.827	114.19
301.057	128.19
301.288	115.19
301.518	89.19
301.748	93.19
301.979	103.19
302.209	103.19
302.439	105.19
302.669	97.19
302.9	96.19
303.13	90.19
303.36	110.19
303.59	117.19
303.82	125.19
304.051	103.19
304.281	102.19
304.511	109.19
304.741	103.19
304.971	103.19
305.201	85.19
305.431	97.19
305.661	89.19
305.891	86.19
306.121	101.19
306.352	124.19
306.582	103.19
306.812	100.19
307.042	91.19
307.272	102.19
307.502	103.19
307.731	85.19
307.961	85.19
308.191	86.19
308.421	86.19
308.651	90.19
308.881	102.19
309.111	88.19
309.341	107.19
309.571	86.19
309.8	97.19
310.03	105.19
310.26	110.19
310.49	104.19
310.72	106.19
310.949	123.19
311.179	107.19
311.409	99.19
311.639	94.19
311.868	95.19
312.098	91.19
312.328	106.19
312.557	115.19
312.787	124.19
313.017	101.19
313.246	103.19
313.476	107.19
313.706	94.19
313.935	120.19
314.165	113.19
314.394	123.19
314.624	99.19
314.853	98.19
315.083	95.19
315.312	95.19
315.542	106.19
315.771	107.19
316.001	101.19
316.23	95.19
316.46	85.19
316.689	101.19
316.919	102.19
317.148	114.19
317.377	98.19
317.607	109.19
317.836	104.19
318.065	98.19
318.295	107.19
318.524	90.19
318.753	92.19
318.983	110.19
319.212	116.19
319.441	117.19
319.67	122.19
319.9	114.19
320.129	105.19
320.358	118.19
320.587	107.19
320.816	112.19
321.046	111.19
321.275	99.19
321.504	101.19
321.733	102.19
321.962	118.19
322.191	109.19
322.42	103.19
322.649	126.19
322.878	130.19
323.108	135.19
323.337	156.19
323.566	148.19
323.795	189.19
324.024	260.19
324.253	553.19
324.482	1177.19
324.71	2373.19
324.939	3088.19
325.168	1115.19
325.397	295.19
325.626	192.19
325.855	152.19
326.084	149.19
326.313	157.19
326.542	175.19
326.77	292.19
326.999	599.19
327.228	1195.19
327.457	2256.19
327.686	1730.19
327.914	485.19
328.143	247.19
328.372	204.19
328.6	160.19
328.829	142.19
329.058	167.19
329.287	165.19
329.515	135.19
329.744	115.19
329.972	124.19
330.201	139.19
330.43	170.19
330.658	176.19
330.887	189.19
331.115	163.19
331.344	111.19
331.572	110.19
331.801	136.19
332.03	125.19
332.258	118.19
332.486	109.19
332.715	99.19
332.943	110.19
333.172	93.19
333.4	104.19
333.629	126.19
333.857	135.19
334.085	123.19
334.314	134.19
334.542	146.19
334.771	147.19
334.999	118.19
335.227	101.19
335.455	94.19
335.684	108.19
335.912	114.19
336.14	90.19
336.369	103.19
336.597	118.19
336.825	94.19
337.053	93.19
337.281	98.19
337.51	95.19
337.738	91.19
337.966	91.19
338.194	97.19
338.422	119.19
338.65	118.19
338.878	96.19
339.106	87.19
339.334	94.19
339.562	112.19
339.79	96.19
340.018	104.19
340.246	93.19
340.474	95.19
340.702	106.19
340.93	101.19
341.158	96.19
341.386	104.19
341.614	113.19
341.842	106.19
342.07	85.19
342.298	95.19
342.526	100.19
342.754	98.19
342.981	85.19
343.209	83.19
343.437	90.19
343.665	93.19
343.893	80.19
344.12	89.19
344.348	89.19
344.576	83.19
344.804	99.19
345.031	104.19
345.259	109.19
345.487	103.19
345.714	100.19
345.942	110.19
346.17	85.19
346.397	97.19
346.625	98.19
346.853	97.19
347.08	88.19
347.308	99.19
347.535	113.19
347.763	112.19
347.99	98.19
348.218	123.19
348.445	126.19
348.673	108.19
348.9	110.19
349.128	103.19
349.355	88.19
349.583	99.19
349.81	110.19
350.037	105.19
350.265	95.19
350.492	98.19
350.72	107.19
350.947	125.19
351.174	121.19
351.402	125.19
351.629	119.19
351.856	118.19
352.083	111.19
352.311	116.19
352.538	116.19
352.765	113.19
352.992	128.19
353.22	123.19
353.447	102.19
353.674	114.19
353.901	99.19
354.128	91.19
354.355	98.19
354.583	93.19
354.81	99.19
355.037	102.19
355.264	95.19
355.491	100.19
355.718	104.19
355.945	101.19
356.172	93.19
356.399	93.19
356.626	102.19
356.853	103.19
357.08	102.19
357.307	97.19
357.534	92.19
357.761	95.19
357.988	98.19
358.215	101.19
358.441	111.19
358.668	98.19
358.895	92.19
359.122	96.19
359.349	87.19
359.576	106.19
359.802	120.19
360.029	139.19
360.256	132.19
360.483	118.19
360.709	80.19
360.936	106.19
361.163	95.19
361.39	99.19
361.616	98.19
361.843	94.19
362.07	96.19
362.296	103.19
362.523	102.19
362.749	112.19
362.976	107.19
363.203	109.19
363.429	80.19
363.656	100.19
363.882	75.19
364.109	97.19
364.335	98.19
364.562	100.19
364.788	102.19
365.015	118.19
365.241	118.19
365.468	133.19
365.694	133.19
365.92	107.19
366.147	86.19
366.373	102.19
366.599	96.19
366.826	101.19
367.052	103.19
367.278	109.19
367.505	100.19
367.731	89.19
367.957	94.19
368.184	107.19
368.41	115.19
368.636	135.19
368.862	134.19
369.089	133.19
369.315	99.19
369.541	92.19
369.767	108.19
369.993	99.19
370.219	98.19
370.445	101.19
370.672	101.19
370.898	90.19
371.124	91.19
371.35	88.19
371.576	93.19
371.802	94.19
372.028	72.19
372.254	92.19
372.48	91.19
372.706	93.19
372.932	89.19
373.158	93.19
373.384	104.19
373.61	105.19
373.835	87.19
374.061	93.19
374.287	97.19
374.513	106.19
374.739	97.19
374.965	102.19
375.191	91.19
375.416	95.19
375.642	94.19
375.868	84.19
376.094	90.19
376.319	99.19
376.545	94.19
376.771	101.19
376.997	89.19
377.222	92.19
377.448	95.19
377.674	102.19
377.899	101.19
378.125	105.19
378.35	101.19
378.576	98.19
378.802	94.19
379.027	96.19
379.253	100.19
379.478	96.19
379.704	95.19
379.929	90.19
380.155	103.19
380.38	87.19
380.606	89.19
380.831	92.19
381.057	109.19
381.282	101.19
381.507	94.19
381.733	96.19
381.958	102.19
382.184	113.19
382.409	118.19
382.634	112.19
382.86	106.19
383.085	105.19
383.31	105.19
383.535	111.19
383.761	105.19
383.986	101.19
384.211	98.19
384.436	96.19
384.662	95.19
384.887	96.19
385.112	87.19
385.337	103.19
385.562	96.19
385.787	108.19
386.013	109.19
386.238	126.19
386.463	111.19
386.688	111.19
386.913	106.19
387.138	102.19
387.363	116.19
387.588	106.19
387.813	101.19
388.038	112.19
388.263	117.19
388.488	101.19
388.713	99.19
388.938	119.19
389.163	103.19
389.387	90.19
389.612	98.19
389.837	108.19
390.062	93.19
390.287	91.19
390.512	88.19
390.736	93.19
390.961	91.19
391.186	99.19
391.411	104.19
391.636	100.19
391.86	85.19
392.085	86.19
392.31	91.19
392.534	98.19
392.759	91.19
392.984	85.19
393.208	87.19
393.433	86.19
393.658	77.19
393.882	80.19
394.107	101.19
394.331	99.19
394.556	87.19
394.78	98.19
395.005	98.19
395.229	69.19
395.454	93.19
395.678	93.19
395.903	92.19
396.127	78.19
396.352	80.19
396.576	95.19
396.801	88.19
397.025	87.19
397.249	82.19
397.474	104.19
397.698	84.19
397.922	77.19
398.147	91.19
398.371	86.19
398.595	86.19
398.82	92.19
399.044	92.19
399.268	100.19
399.492	93.19
399.717	105.19
399.941	97.19
400.165	91.19
400.389	92.19
400.613	96.19
400.837	90.19
401.062	91.19
401.286	106.19
401.51	101.19
401.734	100.19
401.958	115.19
402.182	166.19
402.406	218.19
402.63	144.19
402.854	104.19
403.078	92.19
403.302	99.19
403.526	103.19
403.75	89.19
403.974	99.19
404.198	93.19
404.422	81.19
404.645	100.19
404.869	90.19
405.093	98.19
405.317	95.19
405.541	107.19
405.765	109.19
405.988	140.19
406.212	252.19
406.436	332.19
406.66	220.19
406.883	124.19
407.107	94.19
407.331	104.19
407.555	122.19
407.778	95.19
408.002	105.19
408.226	94.19
408.449	87.19
408.673	92.19
408.896	94.19
409.12	98.19
409.344	95.19
409.567	98.19
409.791	101.19
410.014	101.19
410.238	88.19
410.461	90.19
410.685	87.19
410.908	93.19
411.132	105.19
411.355	92.19
411.578	96.19
411.802	87.19
412.025	82.19
412.249	108.19
412.472	104.19
412.695	91.19
412.919	87.19
413.142	96.19
413.365	91.19
413.589	94.19
413.812	92.19
414.035	92.19
414.258	87.19
414.482	105.19
414.705	85.19
414.928	85.19
415.151	98.19
415.374	87.19
415.597	93.19
415.821	80.19
416.044	75.19
416.267	98.19
416.49	91.19
416.713	104.19
416.936	100.19
417.159	79.19
417.382	86.19
417.605	110.19
417.828	107.19
418.051	107.19
418.274	90.19
418.497	99.19
418.72	101.19
418.943	93.19
419.166	100.19
419.389	93.19
419.611	89.19
419.834	86.19
420.057	88.19
420.28	100.19
420.503	93.19
420.726	82.19
420.948	111.19
421.171	92.19
421.394	106.19
421.617	96.19
421.839	94.19
422.062	103.19
422.285	101.19
422.507	86.19
422.73	106.19
422.953	106.19
423.175	85.19
423.398	91.19
423.621	84.19
423.843	83.19
424.066	94.19
424.288	89.19
424.511	95.19
424.733	107.19
424.956	124.19
425.178	127.19
425.401	105.19
425.623	97.19
425.846	106.19
426.068	91.19
426.291	81.19
426.513	99.19
426.735	94.19
426.958	105.19
427.18	116.19
427.402	171.19
427.625	254.19
427.847	170.19
428.069	137.19
428.292	102.19
428.514	80.19
428.736	83.19
428.958	81.19
429.181	85.19
429.403	89.19
429.625	84.19
429.847	93.19
430.069	111.19
430.292	104.19
430.514	89.19
430.736	81.19
430.958	90.19
431.18	83.19
431.402	92.19
431.624	84.19
431.846	97.19
432.068	94.19
432.29	82.19
432.512	86.19
432.734	101.19
432.956	90.19
433.178	106.19
433.4	105.19
433.622	94.19
433.844	99.19
434.066	95.19
434.287	91.19
434.509	98.19
434.731	91.19
434.953	92.19
435.175	71.19
435.397	89.19
435.618	91.19
435.84	113.19
436.062	134.19
436.284	126.19
436.505	111.19
436.727	107.19
436.949	103.19
437.17	86.19
437.392	99.19
437.614	100.19
437.835	126.19
438.057	154.19
438.278	134.19
438.5	115.19
438.721	133.19
438.943	111.19
439.165	90.19
439.386	91.19
439.608	93.19
439.829	104.19
440.05	152.19
440.272	175.19
440.493	112.19
440.715	91.19
440.936	103.19
441.158	91.19
441.379	77.19
441.6	120.19
441.822	110.19
442.043	111.19
442.264	115.19
442.486	101.19
442.707	104.19
442.928	126.19
443.149	178.19
443.371	179.19
443.592	122.19
443.813	132.19
444.034	126.19
444.255	105.19
444.476	93.19
444.698	100.19
444.919	94.19
445.14	131.19
445.361	121.19
445.582	143.19
445.803	171.19
446.024	157.19
446.245	164.19
446.466	124.19
446.687	99.19
446.908	99.19
447.129	104.19
447.35	84.19
447.571	100.19
447.792	92.19
448.013	114.19
448.234	134.19
448.455	118.19
448.675	135.19
448.896	144.19
449.117	116.19
449.338	98.19
449.559	139.19
449.779	159.19
450	114.19
450.221	84.19
450.442	107.19
450.662	111.19
450.883	119.19
451.104	152.19
451.324	107.19
451.545	98.19
451.766	89.19
451.986	99.19
452.207	95.19
452.428	99.19
452.648	107.19
452.869	135.19
453.089	145.19
453.31	161.19
453.53	123.19
453.751	107.19
453.971	110.19
454.192	138.19
454.412	114.19
454.633	74.19
454.853	88.19
455.073	93.19
455.294	102.19
455.514	133.19
455.734	102.19
455.955	100.19
456.175	87.19
456.395	104.19
456.616	80.19
456.836	92.19
457.056	84.19
457.276	86.19
457.497	87.19
457.717	102.19
457.937	83.19
458.157	92.19
458.377	118.19
458.598	133.19
458.818	227.19
459.038	214.19
459.258	144.19
459.478	98.19
459.698	86.19
459.918	100.19
460.138	71.19
460.358	94.19
460.578	106.19
460.798	95.19
461.018	101.19
461.238	101.19
461.458	95.19
461.678	90.19
461.898	98.19
462.118	95.19
462.338	84.19
462.558	99.19
462.777	87.19
462.997	81.19
463.217	92.19
463.437	106.19
463.657	87.19
463.876	102.19
464.096	107.19
464.316	109.19
464.536	113.19
464.755	98.19
464.975	124.19
465.195	244.19
465.414	240.19
465.634	122.19
465.854	84.19
466.073	92.19
466.293	77.19
466.512	88.19
466.732	86.19
466.951	95.19
467.171	97.19
467.391	110.19
467.61	128.19
467.829	109.19
468.049	101.19
468.268	118.19
468.488	102.19
468.707	77.19
468.927	98.19
469.146	69.19
469.365	96.19
469.585	95.19
469.804	99.19
470.023	115.19
470.243	99.19
470.462	115.19
470.681	145.19
470.901	101.19
471.12	87.19
471.339	98.19
471.558	88.19
471.777	99.19
471.997	105.19
472.216	117.19
472.435	159.19
472.654	95.19
472.873	93.19
473.092	83.19
473.311	86.19
473.53	94.19
473.749	95.19
473.968	114.19
474.187	138.19
474.406	108.19
474.625	96.19
474.844	80.19
475.063	90.19
475.282	85.19
475.501	93.19
475.72	92.19
475.939	94.19
476.158	101.19
476.377	91.19
476.596	83.19
476.814	94.19
477.033	95.19
477.252	81.19
477.471	95.19
477.69	79.19
477.908	95.19
478.127	96.19
478.346	93.19
478.564	100.19
478.783	101.19
479.002	104.19
479.22	104.19
479.439	126.19
479.658	123.19
479.876	105.19
480.095	109.19
480.313	95.19
480.532	94.19
480.751	96.19
480.969	133.19
481.188	238.19
481.406	180.19
481.624	107.19
481.843	86.19
482.061	89.19
482.28	100.19
482.498	90.19
482.717	107.19
482.935	103.19
483.153	82.19
483.372	94.19
483.59	84.19
483.808	87.19
484.027	92.19
484.245	91.19
484.463	86.19
484.681	109.19
484.9	91.19
485.118	98.19
485.336	97.19
485.554	104.19
485.772	98.19
485.99	96.19
486.209	102.19
486.427	100.19
486.645	122.19
486.863	134.19
487.081	117.19
487.299	86.19
487.517	99.19
487.735	102.19
487.953	95.19
488.171	92.19
488.389	97.19
488.607	113.19
488.825	94.19
489.043	84.19
489.261	87.19
489.479	103.19
489.696	94.19
489.914	96.19
490.132	93.19
490.35	104.19
490.568	86.19
490.786	88.19
491.003	94.19
491.221	89.19
491.439	95.19
491.657	99.19
491.874	107.19
492.092	99.19
492.31	94.19
492.527	88.19
492.745	91.19
492.963	98.19
493.18	99.19
493.398	76.19
493.615	98.19
493.833	98.19
494.05	98.19
494.268	96.19
494.485	104.19
494.703	93.19
494.92	108.19
495.138	89.19
495.355	94.19
495.573	97.19
495.79	101.19
496.008	106.19
496.225	117.19
496.442	87.19
496.66	93.19
496.877	96.19
497.094	98.19
497.312	86.19
497.529	98.19
497.746	86.19
497.963	105.19
498.181	100.19
498.398	104.19
498.615	117.19
498.832	111.19
499.049	97.19
499.267	94.19
499.484	90.19
499.701	81.19
499.918	101.19
500.135	84.19
500.352	84.19
500.569	93.19
500.786	86.19
501.003	93.19
501.22	90.19
501.437	93.19
501.654	107.19
501.871	109.19
502.088	105.19
502.305	96.19
502.522	83.19
502.739	95.19
502.956	93.19
503.172	85.19
503.389	93.19
503.606	123.19
503.823	108.19
504.04	88.19
504.256	93.19
504.473	103.19
504.69	95.19
504.907	94.19
505.123	86.19
505.34	99.19
505.557	109.19
505.773	98.19
505.99	123.19
506.207	101.19
506.423	97.19
506.64	97.19
506.856	97.19
507.073	101.19
507.289	104.19
507.506	101.19
507.722	140.19
507.939	127.19
508.155	96.19
508.372	90.19
508.588	89.19
508.805	108.19
509.021	100.19
509.238	110.19
509.454	103.19
509.67	101.19
509.887	126.19
510.103	162.19
510.319	268.19
510.536	1096.19
510.752	3887.19
510.968	1058.19
511.184	208.19
511.401	131.19
511.617	126.19
511.833	111.19
512.049	94.19
512.265	104.19
512.481	91.19
