Data from Circ_2018_H10_HRD10591_00073.txt Node
Date: Wed Jan 03 09:56:16 EST 2024
User: Yrep
Spectrometer: HR+D1059
Trigger mode: 1
Integration Time (sec): 1.000000E-1
Scans to average: 1
Electric dark correction enabled: true
Nonlinearity correction enabled: false
Boxcar width: 0
XAxis mode: Wavelengths
Number of Pixels in Spectrum: 2048
>>>>>Begin Spectral Data<<<<<
223.165	-17.25
223.4	-17.25
223.635	-17.25
223.869	-25.25
224.104	-5.25
224.338	-21.25
224.573	-15.25
224.808	-9.25
225.042	-7.25
225.277	-12.25
225.511	-2.25
225.746	11.75
225.98	0.75
226.215	6.75
226.449	19.75
226.683	12.75
226.918	20.75
227.152	42.75
227.387	41.75
227.621	16.75
227.856	50.75
228.09	50.75
228.324	48.75
228.559	59.75
228.793	46.75
229.027	68.75
229.262	63.75
229.496	72.75
229.73	91.75
229.964	93.75
230.199	82.75
230.433	73.75
230.667	82.75
230.901	68.75
231.136	74.75
231.37	88.75
231.604	71.75
231.838	92.75
232.072	76.75
232.306	76.75
232.541	74.75
232.775	83.75
233.009	67.75
233.243	76.75
233.477	95.75
233.711	79.75
233.945	83.75
234.179	76.75
234.413	77.75
234.647	91.75
234.881	67.75
235.115	84.75
235.349	83.75
235.583	86.75
235.817	82.75
236.051	65.75
236.285	75.75
236.519	65.75
236.753	68.75
236.987	64.75
237.221	88.75
237.455	95.75
237.689	86.75
237.922	76.75
238.156	77.75
238.39	82.75
238.624	74.75
238.858	65.75
239.091	63.75
239.325	78.75
239.559	89.75
239.793	75.75
240.027	84.75
240.26	78.75
240.494	84.75
240.728	86.75
240.961	88.75
241.195	74.75
241.429	70.75
241.662	82.75
241.896	69.75
242.13	74.75
242.363	71.75
242.597	59.75
242.83	81.75
243.064	70.75
243.298	75.75
243.531	89.75
243.765	73.75
243.998	75.75
244.232	86.75
244.465	95.75
244.699	75.75
244.932	79.75
245.166	81.75
245.399	91.75
245.633	86.75
245.866	96.75
246.099	72.75
246.333	74.75
246.566	82.75
246.8	79.75
247.033	83.75
247.266	78.75
247.5	76.75
247.733	81.75
247.966	78.75
248.2	69.75
248.433	71.75
248.666	82.75
248.899	80.75
249.133	86.75
249.366	89.75
249.599	91.75
249.832	78.75
250.066	84.75
250.299	69.75
250.532	70.75
250.765	73.75
250.998	75.75
251.231	82.75
251.465	85.75
251.698	83.75
251.931	83.75
252.164	78.75
252.397	82.75
252.63	72.75
252.863	84.75
253.096	68.75
253.329	68.75
253.562	76.75
253.795	90.75
254.028	64.75
254.261	82.75
254.494	81.75
254.727	79.75
254.96	86.75
255.193	78.75
255.426	74.75
255.659	78.75
255.892	88.75
256.124	80.75
256.357	73.75
256.59	71.75
256.823	68.75
257.056	78.75
257.289	83.75
257.521	76.75
257.754	83.75
257.987	86.75
258.22	92.75
258.452	76.75
258.685	84.75
258.918	76.75
259.151	76.75
259.383	92.75
259.616	91.75
259.849	82.75
260.081	82.75
260.314	85.75
260.547	84.75
260.779	92.75
261.012	94.75
261.244	90.75
261.477	77.75
261.71	100.75
261.942	132.75
262.175	146.75
262.407	98.75
262.64	87.75
262.872	84.75
263.105	90.75
263.337	88.75
263.57	69.75
263.802	92.75
264.035	91.75
264.267	88.75
264.499	59.75
264.732	75.75
264.964	80.75
265.197	78.75
265.429	88.75
265.661	75.75
265.894	83.75
266.126	81.75
266.358	84.75
266.591	79.75
266.823	82.75
267.055	89.75
267.287	74.75
267.52	92.75
267.752	98.75
267.984	70.75
268.216	81.75
268.448	95.75
268.681	95.75
268.913	78.75
269.145	84.75
269.377	87.75
269.609	83.75
269.841	82.75
270.073	81.75
270.306	71.75
270.538	82.75
270.77	75.75
271.002	83.75
271.234	92.75
271.466	75.75
271.698	87.75
271.93	78.75
272.162	87.75
272.394	93.75
272.626	93.75
272.858	76.75
273.09	83.75
273.322	84.75
273.553	88.75
273.785	89.75
274.017	85.75
274.249	80.75
274.481	86.75
274.713	87.75
274.945	83.75
275.176	90.75
275.408	89.75
275.64	91.75
275.872	84.75
276.104	90.75
276.335	101.75
276.567	101.75
276.799	121.75
277.031	126.75
277.262	103.75
277.494	86.75
277.726	85.75
277.957	76.75
278.189	76.75
278.421	85.75
278.652	87.75
278.884	63.75
279.115	90.75
279.347	86.75
279.579	80.75
279.81	81.75
280.042	98.75
280.273	95.75
280.505	83.75
280.736	90.75
280.968	84.75
281.199	81.75
281.431	70.75
281.662	77.75
281.894	73.75
282.125	101.75
282.356	112.75
282.588	179.75
282.819	126.75
283.051	94.75
283.282	80.75
283.513	94.75
283.745	90.75
283.976	79.75
284.207	82.75
284.439	76.75
284.67	73.75
284.901	87.75
285.132	83.75
285.364	99.75
285.595	91.75
285.826	88.75
286.057	86.75
286.288	86.75
286.52	94.75
286.751	87.75
286.982	81.75
287.213	81.75
287.444	86.75
287.675	90.75
287.906	92.75
288.138	78.75
288.369	88.75
288.6	92.75
288.831	78.75
289.062	79.75
289.293	88.75
289.524	69.75
289.755	88.75
289.986	92.75
290.217	86.75
290.448	90.75
290.679	86.75
290.91	82.75
291.141	85.75
291.371	93.75
291.602	72.75
291.833	92.75
292.064	93.75
292.295	89.75
292.526	90.75
292.757	85.75
292.987	86.75
293.218	82.75
293.449	96.75
293.68	78.75
293.91	78.75
294.141	83.75
294.372	93.75
294.603	81.75
294.833	79.75
295.064	91.75
295.295	78.75
295.525	99.75
295.756	104.75
295.987	130.75
296.217	160.75
296.448	148.75
296.679	101.75
296.909	94.75
297.14	97.75
297.37	93.75
297.601	97.75
297.831	99.75
298.062	92.75
298.292	86.75
298.523	95.75
298.753	94.75
298.984	87.75
299.214	94.75
299.445	96.75
299.675	102.75
299.905	105.75
300.136	94.75
300.366	91.75
300.597	93.75
300.827	107.75
301.057	97.75
301.288	105.75
301.518	109.75
301.748	95.75
301.979	102.75
302.209	87.75
302.439	78.75
302.669	83.75
302.9	90.75
303.13	103.75
303.36	91.75
303.59	123.75
303.82	126.75
304.051	101.75
304.281	88.75
304.511	94.75
304.741	90.75
304.971	99.75
305.201	85.75
305.431	94.75
305.661	86.75
305.891	106.75
306.121	91.75
306.352	104.75
306.582	116.75
306.812	84.75
307.042	96.75
307.272	99.75
307.502	95.75
307.731	96.75
307.961	104.75
308.191	80.75
308.421	94.75
308.651	86.75
308.881	87.75
309.111	114.75
309.341	89.75
309.571	96.75
309.8	94.75
310.03	101.75
310.26	107.75
310.49	110.75
310.72	110.75
310.949	104.75
311.179	118.75
311.409	98.75
311.639	93.75
311.868	110.75
312.098	92.75
312.328	95.75
312.557	118.75
312.787	119.75
313.017	110.75
313.246	102.75
313.476	102.75
313.706	88.75
313.935	105.75
314.165	96.75
314.394	103.75
314.624	105.75
314.853	91.75
315.083	93.75
315.312	72.75
315.542	90.75
315.771	82.75
316.001	86.75
316.23	102.75
316.46	87.75
316.689	81.75
316.919	107.75
317.148	83.75
317.377	93.75
317.607	90.75
317.836	85.75
318.065	93.75
318.295	82.75
318.524	86.75
318.753	83.75
318.983	100.75
319.212	104.75
319.441	140.75
319.67	122.75
319.9	95.75
320.129	92.75
320.358	101.75
320.587	91.75
320.816	98.75
321.046	110.75
321.275	92.75
321.504	96.75
321.733	90.75
321.962	98.75
322.191	110.75
322.42	110.75
322.649	113.75
322.878	122.75
323.108	131.75
323.337	134.75
323.566	140.75
323.795	165.75
324.024	244.75
324.253	487.75
324.482	1013.75
324.71	2089.75
324.939	2834.75
325.168	1012.75
325.397	300.75
325.626	166.75
325.855	150.75
326.084	139.75
326.313	156.75
326.542	164.75
326.77	245.75
326.999	540.75
327.228	1111.75
327.457	2050.75
327.686	1674.75
327.914	447.75
328.143	248.75
328.372	218.75
328.6	142.75
328.829	137.75
329.058	178.75
329.287	176.75
329.515	139.75
329.744	116.75
329.972	114.75
330.201	169.75
330.43	207.75
330.658	190.75
330.887	175.75
331.115	140.75
331.344	108.75
331.572	102.75
331.801	114.75
332.03	118.75
332.258	108.75
332.486	86.75
332.715	88.75
332.943	95.75
333.172	103.75
333.4	103.75
333.629	105.75
333.857	133.75
334.085	146.75
334.314	152.75
334.542	256.75
334.771	232.75
334.999	129.75
335.227	111.75
335.455	83.75
335.684	99.75
335.912	94.75
336.14	85.75
336.369	118.75
336.597	113.75
336.825	105.75
337.053	88.75
337.281	85.75
337.51	97.75
337.738	103.75
337.966	104.75
338.194	107.75
338.422	95.75
338.65	86.75
338.878	97.75
339.106	83.75
339.334	91.75
339.562	89.75
339.79	91.75
340.018	88.75
340.246	96.75
340.474	94.75
340.702	85.75
340.93	87.75
341.158	90.75
341.386	98.75
341.614	113.75
341.842	89.75
342.07	103.75
342.298	100.75
342.526	93.75
342.754	86.75
342.981	85.75
343.209	97.75
343.437	105.75
343.665	78.75
343.893	83.75
344.12	89.75
344.348	101.75
344.576	77.75
344.804	96.75
345.031	99.75
345.259	92.75
345.487	89.75
345.714	100.75
345.942	90.75
346.17	87.75
346.397	91.75
346.625	97.75
346.853	111.75
347.08	100.75
347.308	104.75
347.535	100.75
347.763	105.75
347.99	107.75
348.218	90.75
348.445	136.75
348.673	108.75
348.9	96.75
349.128	96.75
349.355	88.75
349.583	83.75
349.81	95.75
350.037	99.75
350.265	90.75
350.492	98.75
350.72	98.75
350.947	95.75
351.174	123.75
351.402	126.75
351.629	118.75
351.856	96.75
352.083	107.75
352.311	102.75
352.538	105.75
352.765	108.75
352.992	112.75
353.22	116.75
353.447	110.75
353.674	92.75
353.901	95.75
354.128	96.75
354.355	86.75
354.583	94.75
354.81	111.75
355.037	94.75
355.264	101.75
355.491	96.75
355.718	88.75
355.945	83.75
356.172	99.75
356.399	93.75
356.626	90.75
356.853	104.75
357.08	94.75
357.307	102.75
357.534	90.75
357.761	84.75
357.988	88.75
358.215	100.75
358.441	91.75
358.668	93.75
358.895	82.75
359.122	91.75
359.349	89.75
359.576	92.75
359.802	99.75
360.029	139.75
360.256	125.75
360.483	106.75
360.709	92.75
360.936	87.75
361.163	91.75
361.39	94.75
361.616	95.75
361.843	85.75
362.07	102.75
362.296	101.75
362.523	93.75
362.749	83.75
362.976	94.75
363.203	98.75
363.429	83.75
363.656	85.75
363.882	111.75
364.109	86.75
364.335	92.75
364.562	103.75
364.788	90.75
365.015	72.75
365.241	106.75
365.468	127.75
365.694	118.75
365.92	110.75
366.147	104.75
366.373	78.75
366.599	84.75
366.826	90.75
367.052	99.75
367.278	92.75
367.505	96.75
367.731	99.75
367.957	103.75
368.184	110.75
368.41	112.75
368.636	132.75
368.862	143.75
369.089	122.75
369.315	92.75
369.541	106.75
369.767	78.75
369.993	82.75
370.219	97.75
370.445	80.75
370.672	93.75
370.898	102.75
371.124	96.75
371.35	93.75
371.576	95.75
371.802	82.75
372.028	98.75
372.254	66.75
372.48	83.75
372.706	81.75
372.932	89.75
373.158	89.75
373.384	93.75
373.61	95.75
373.835	97.75
374.061	83.75
374.287	88.75
374.513	100.75
374.739	85.75
374.965	82.75
375.191	87.75
375.416	92.75
375.642	91.75
375.868	104.75
376.094	93.75
376.319	90.75
376.545	87.75
376.771	85.75
376.997	103.75
377.222	98.75
377.448	95.75
377.674	105.75
377.899	83.75
378.125	77.75
378.35	88.75
378.576	92.75
378.802	90.75
379.027	81.75
379.253	91.75
379.478	92.75
379.704	92.75
379.929	95.75
380.155	90.75
380.38	101.75
380.606	90.75
380.831	100.75
381.057	97.75
381.282	98.75
381.507	81.75
381.733	105.75
381.958	96.75
382.184	106.75
382.409	115.75
382.634	102.75
382.86	103.75
383.085	90.75
383.31	89.75
383.535	88.75
383.761	99.75
383.986	89.75
384.211	104.75
384.436	94.75
384.662	94.75
384.887	99.75
385.112	97.75
385.337	98.75
385.562	115.75
385.787	96.75
386.013	102.75
386.238	120.75
386.463	100.75
386.688	121.75
386.913	95.75
387.138	97.75
387.363	108.75
387.588	89.75
387.813	106.75
388.038	100.75
388.263	105.75
388.488	100.75
388.713	100.75
388.938	103.75
389.163	92.75
389.387	92.75
389.612	87.75
389.837	102.75
390.062	96.75
390.287	100.75
390.512	97.75
390.736	98.75
390.961	93.75
391.186	86.75
391.411	85.75
391.636	83.75
391.86	68.75
392.085	93.75
392.31	78.75
392.534	91.75
392.759	85.75
392.984	91.75
393.208	84.75
393.433	86.75
393.658	78.75
393.882	82.75
394.107	80.75
394.331	81.75
394.556	81.75
394.78	79.75
395.005	93.75
395.229	89.75
395.454	78.75
395.678	93.75
395.903	110.75
396.127	88.75
396.352	80.75
396.576	91.75
396.801	92.75
397.025	81.75
397.249	106.75
397.474	95.75
397.698	76.75
397.922	88.75
398.147	85.75
398.371	72.75
398.595	98.75
398.82	97.75
399.044	80.75
399.268	74.75
399.492	97.75
399.717	83.75
399.941	81.75
400.165	82.75
400.389	92.75
400.613	92.75
400.837	92.75
401.062	87.75
401.286	95.75
401.51	87.75
401.734	107.75
401.958	98.75
402.182	149.75
402.406	198.75
402.63	140.75
402.854	104.75
403.078	104.75
403.302	83.75
403.526	94.75
403.75	82.75
403.974	100.75
404.198	93.75
404.422	87.75
404.645	87.75
404.869	90.75
405.093	94.75
405.317	105.75
405.541	99.75
405.765	99.75
405.988	142.75
406.212	216.75
406.436	328.75
406.66	200.75
406.883	113.75
407.107	91.75
407.331	103.75
407.555	92.75
407.778	94.75
408.002	89.75
408.226	91.75
408.449	101.75
408.673	99.75
408.896	90.75
409.12	91.75
409.344	93.75
409.567	97.75
409.791	85.75
410.014	89.75
410.238	90.75
410.461	104.75
410.685	81.75
410.908	103.75
411.132	102.75
411.355	98.75
411.578	87.75
411.802	89.75
412.025	82.75
412.249	97.75
412.472	104.75
412.695	82.75
412.919	94.75
413.142	90.75
413.365	98.75
413.589	83.75
413.812	88.75
414.035	97.75
414.258	87.75
414.482	77.75
414.705	82.75
414.928	93.75
415.151	75.75
415.374	86.75
415.597	90.75
415.821	88.75
416.044	95.75
416.267	80.75
416.49	94.75
416.713	84.75
416.936	105.75
417.159	88.75
417.382	92.75
417.605	86.75
417.828	118.75
418.051	102.75
418.274	99.75
418.497	79.75
418.72	93.75
418.943	86.75
419.166	79.75
419.389	78.75
419.611	100.75
419.834	89.75
420.057	88.75
420.28	88.75
420.503	93.75
420.726	83.75
420.948	89.75
421.171	92.75
421.394	97.75
421.617	75.75
421.839	89.75
422.062	101.75
422.285	97.75
422.507	98.75
422.73	101.75
422.953	83.75
423.175	88.75
423.398	92.75
423.621	101.75
423.843	101.75
424.066	97.75
424.288	93.75
424.511	105.75
424.733	101.75
424.956	114.75
425.178	106.75
425.401	106.75
425.623	104.75
425.846	76.75
426.068	98.75
426.291	96.75
426.513	88.75
426.735	102.75
426.958	93.75
427.18	104.75
427.402	153.75
427.625	210.75
427.847	158.75
428.069	109.75
428.292	95.75
428.514	82.75
428.736	86.75
428.958	78.75
429.181	85.75
429.403	75.75
429.625	99.75
429.847	95.75
430.069	107.75
430.292	99.75
430.514	96.75
430.736	91.75
430.958	91.75
431.18	89.75
431.402	86.75
431.624	82.75
431.846	79.75
432.068	92.75
432.29	91.75
432.512	90.75
432.734	90.75
432.956	93.75
433.178	123.75
433.4	96.75
433.622	83.75
433.844	82.75
434.066	77.75
434.287	95.75
434.509	92.75
434.731	94.75
434.953	96.75
435.175	92.75
435.397	83.75
435.618	107.75
435.84	92.75
436.062	129.75
436.284	128.75
436.505	109.75
436.727	108.75
436.949	99.75
437.17	83.75
437.392	73.75
437.614	98.75
437.835	126.75
438.057	136.75
438.278	92.75
438.5	106.75
438.721	128.75
438.943	88.75
439.165	97.75
439.386	77.75
439.608	95.75
439.829	101.75
440.05	128.75
440.272	158.75
440.493	113.75
440.715	94.75
440.936	91.75
441.158	89.75
441.379	82.75
441.6	86.75
441.822	100.75
442.043	97.75
442.264	101.75
442.486	104.75
442.707	102.75
442.928	117.75
443.149	161.75
443.371	154.75
443.592	114.75
443.813	114.75
444.034	114.75
444.255	96.75
444.476	99.75
444.698	95.75
444.919	83.75
445.14	130.75
445.361	128.75
445.582	137.75
445.803	152.75
446.024	156.75
446.245	152.75
446.466	119.75
446.687	94.75
446.908	97.75
447.129	98.75
447.35	88.75
447.571	97.75
447.792	90.75
448.013	117.75
448.234	125.75
448.455	94.75
448.675	119.75
448.896	128.75
449.117	107.75
449.338	97.75
449.559	145.75
449.779	134.75
450	91.75
450.221	88.75
450.442	96.75
450.662	78.75
450.883	121.75
451.104	124.75
451.324	97.75
451.545	106.75
451.766	82.75
451.986	94.75
452.207	90.75
452.428	94.75
452.648	110.75
452.869	128.75
453.089	126.75
453.31	118.75
453.53	100.75
453.751	101.75
453.971	122.75
454.192	135.75
454.412	92.75
454.633	87.75
454.853	92.75
455.073	99.75
455.294	96.75
455.514	117.75
455.734	92.75
455.955	86.75
456.175	96.75
456.395	84.75
456.616	86.75
456.836	98.75
457.056	87.75
457.276	89.75
457.497	92.75
457.717	93.75
457.937	88.75
458.157	85.75
458.377	100.75
458.598	131.75
458.818	196.75
459.038	202.75
459.258	138.75
459.478	88.75
459.698	91.75
459.918	91.75
460.138	84.75
460.358	89.75
460.578	79.75
460.798	77.75
461.018	100.75
461.238	78.75
461.458	84.75
461.678	69.75
461.898	91.75
462.118	81.75
462.338	81.75
462.558	71.75
462.777	84.75
462.997	85.75
463.217	80.75
463.437	101.75
463.657	102.75
463.876	79.75
464.096	100.75
464.316	94.75
464.536	89.75
464.755	99.75
464.975	118.75
465.195	207.75
465.414	208.75
465.634	107.75
465.854	95.75
466.073	94.75
466.293	99.75
466.512	73.75
466.732	80.75
466.951	98.75
467.171	100.75
467.391	105.75
467.61	126.75
467.829	117.75
468.049	107.75
468.268	154.75
468.488	84.75
468.707	91.75
468.927	76.75
469.146	80.75
469.365	74.75
469.585	83.75
469.804	114.75
470.023	112.75
470.243	86.75
470.462	112.75
470.681	126.75
470.901	91.75
471.12	91.75
471.339	84.75
471.558	90.75
471.777	85.75
471.997	91.75
472.216	169.75
472.435	278.75
472.654	141.75
472.873	104.75
473.092	87.75
473.311	99.75
473.53	73.75
473.749	81.75
473.968	104.75
474.187	110.75
474.406	105.75
474.625	80.75
474.844	78.75
475.063	84.75
475.282	90.75
475.501	75.75
475.72	83.75
475.939	95.75
476.158	86.75
476.377	103.75
476.596	91.75
476.814	90.75
477.033	100.75
477.252	87.75
477.471	78.75
477.69	98.75
477.908	94.75
478.127	100.75
478.346	104.75
478.564	91.75
478.783	99.75
479.002	101.75
479.22	91.75
479.439	126.75
479.658	123.75
479.876	98.75
480.095	87.75
480.313	89.75
480.532	108.75
480.751	117.75
480.969	161.75
481.188	452.75
481.406	319.75
481.624	125.75
481.843	95.75
482.061	95.75
482.28	82.75
482.498	77.75
482.717	75.75
482.935	93.75
483.153	87.75
483.372	86.75
483.59	96.75
483.808	89.75
484.027	87.75
484.245	80.75
484.463	94.75
484.681	87.75
484.9	96.75
485.118	89.75
485.336	87.75
485.554	93.75
485.772	94.75
485.99	98.75
486.209	96.75
486.427	96.75
486.645	110.75
486.863	109.75
487.081	111.75
487.299	95.75
487.517	96.75
487.735	103.75
487.953	86.75
488.171	87.75
488.389	101.75
488.607	94.75
488.825	84.75
489.043	86.75
489.261	79.75
489.479	94.75
489.696	84.75
489.914	88.75
490.132	77.75
490.35	74.75
490.568	98.75
490.786	94.75
491.003	85.75
491.221	86.75
491.439	88.75
491.657	89.75
491.874	105.75
492.092	92.75
492.31	85.75
492.527	107.75
492.745	96.75
492.963	96.75
493.18	100.75
493.398	88.75
493.615	86.75
493.833	102.75
494.05	87.75
494.268	84.75
494.485	95.75
494.703	76.75
494.92	74.75
495.138	100.75
495.355	91.75
495.573	106.75
495.79	90.75
496.008	99.75
496.225	73.75
496.442	86.75
496.66	86.75
496.877	81.75
497.094	119.75
497.312	93.75
497.529	88.75
497.746	87.75
497.963	93.75
498.181	88.75
498.398	81.75
498.615	126.75
498.832	115.75
499.049	98.75
499.267	92.75
499.484	106.75
499.701	82.75
499.918	90.75
500.135	84.75
500.352	82.75
500.569	98.75
500.786	87.75
501.003	93.75
501.22	90.75
501.437	73.75
501.654	93.75
501.871	125.75
502.088	90.75
502.305	102.75
502.522	111.75
502.739	91.75
502.956	95.75
503.172	90.75
503.389	107.75
503.606	115.75
503.823	108.75
504.04	98.75
504.256	99.75
504.473	93.75
504.69	98.75
504.907	100.75
505.123	88.75
505.34	79.75
505.557	73.75
505.773	83.75
505.99	94.75
506.207	89.75
506.423	95.75
506.64	88.75
506.856	82.75
507.073	95.75
507.289	100.75
507.506	104.75
507.722	127.75
507.939	134.75
508.155	106.75
508.372	89.75
508.588	101.75
508.805	102.75
509.021	101.75
509.238	97.75
509.454	98.75
509.67	104.75
509.887	131.75
510.103	144.75
510.319	243.75
510.536	1047.75
510.752	3765.75
510.968	1034.75
511.184	188.75
511.401	118.75
511.617	110.75
511.833	107.75
512.049	112.75
512.265	80.75
512.481	82.75
512.698	104.75
512.914	93.75
513.13	96.75
513.346	98.75
513.562	98.75
513.778	96.75
513.994	91.75
514.21	119.75
514.426	139.75
514.642	153.75
