Data from Circ_2018_H10_HRD10591_00071.txt Node
Date: Wed Jan 03 09:56:16 EST 2024
User: Yrep
Spectrometer: HR+D1059
Trigger mode: 1
Integration Time (sec): 1.000000E-1
Scans to average: 1
Electric dark correction enabled: true
Nonlinearity correction enabled: false
Boxcar width: 0
XAxis mode: Wavelengths
Number of Pixels in Spectrum: 2048
>>>>>Begin Spectral Data<<<<<
223.165	-23.31
223.4	-23.31
223.635	-23.31
223.869	-20.31
224.104	-20.31
224.338	-25.31
224.573	-12.31
224.808	-25.31
225.042	-2.31
225.277	-10.31
225.511	8.69
225.746	4.69
225.98	15.69
226.215	13.69
226.449	10.69
226.683	25.69
226.918	25.69
227.152	34.69
227.387	19.69
227.621	24.69
227.856	48.69
228.09	55.69
228.324	60.69
228.559	43.69
228.793	57.69
229.027	60.69
229.262	71.69
229.496	73.69
229.73	79.69
229.964	64.69
230.199	75.69
230.433	68.69
230.667	75.69
230.901	87.69
231.136	69.69
231.37	82.69
231.604	78.69
231.838	90.69
232.072	86.69
232.306	72.69
232.541	76.69
232.775	79.69
233.009	88.69
233.243	79.69
233.477	90.69
233.711	94.69
233.945	89.69
234.179	73.69
234.413	90.69
234.647	73.69
234.881	85.69
235.115	77.69
235.349	76.69
235.583	68.69
235.817	61.69
236.051	79.69
236.285	83.69
236.519	100.69
236.753	88.69
236.987	79.69
237.221	73.69
237.455	80.69
237.689	71.69
237.922	80.69
238.156	74.69
238.39	76.69
238.624	74.69
238.858	73.69
239.091	73.69
239.325	81.69
239.559	77.69
239.793	81.69
240.027	76.69
240.26	63.69
240.494	85.69
240.728	64.69
240.961	81.69
241.195	83.69
241.429	83.69
241.662	68.69
241.896	84.69
242.13	69.69
242.363	71.69
242.597	69.69
242.83	77.69
243.064	89.69
243.298	72.69
243.531	87.69
243.765	87.69
243.998	85.69
244.232	89.69
244.465	96.69
244.699	68.69
244.932	63.69
245.166	79.69
245.399	65.69
245.633	71.69
245.866	70.69
246.099	71.69
246.333	82.69
246.566	76.69
246.8	88.69
247.033	76.69
247.266	81.69
247.5	81.69
247.733	96.69
247.966	75.69
248.2	75.69
248.433	81.69
248.666	69.69
248.899	81.69
249.133	83.69
249.366	86.69
249.599	90.69
249.832	86.69
250.066	73.69
250.299	84.69
250.532	80.69
250.765	76.69
250.998	81.69
251.231	67.69
251.465	92.69
251.698	79.69
251.931	83.69
252.164	68.69
252.397	73.69
252.63	79.69
252.863	95.69
253.096	80.69
253.329	93.69
253.562	94.69
253.795	78.69
254.028	77.69
254.261	75.69
254.494	91.69
254.727	93.69
254.96	70.69
255.193	74.69
255.426	90.69
255.659	75.69
255.892	79.69
256.124	82.69
256.357	79.69
256.59	72.69
256.823	80.69
257.056	83.69
257.289	89.69
257.521	84.69
257.754	94.69
257.987	71.69
258.22	94.69
258.452	80.69
258.685	76.69
258.918	75.69
259.151	80.69
259.383	95.69
259.616	73.69
259.849	86.69
260.081	82.69
260.314	71.69
260.547	83.69
260.779	90.69
261.012	93.69
261.244	90.69
261.477	80.69
261.71	88.69
261.942	127.69
262.175	117.69
262.407	78.69
262.64	77.69
262.872	83.69
263.105	84.69
263.337	90.69
263.57	76.69
263.802	82.69
264.035	90.69
264.267	95.69
264.499	81.69
264.732	82.69
264.964	69.69
265.197	84.69
265.429	90.69
265.661	88.69
265.894	75.69
266.126	99.69
266.358	80.69
266.591	83.69
266.823	71.69
267.055	75.69
267.287	80.69
267.52	81.69
267.752	76.69
267.984	93.69
268.216	89.69
268.448	87.69
268.681	92.69
268.913	91.69
269.145	83.69
269.377	86.69
269.609	83.69
269.841	92.69
270.073	80.69
270.306	81.69
270.538	97.69
270.77	92.69
271.002	75.69
271.234	83.69
271.466	86.69
271.698	82.69
271.93	73.69
272.162	78.69
272.394	91.69
272.626	71.69
272.858	99.69
273.09	85.69
273.322	94.69
273.553	68.69
273.785	86.69
274.017	81.69
274.249	81.69
274.481	80.69
274.713	74.69
274.945	91.69
275.176	86.69
275.408	87.69
275.64	81.69
275.872	84.69
276.104	87.69
276.335	91.69
276.567	99.69
276.799	101.69
277.031	92.69
277.262	96.69
277.494	83.69
277.726	82.69
277.957	84.69
278.189	81.69
278.421	84.69
278.652	86.69
278.884	74.69
279.115	89.69
279.347	87.69
279.579	88.69
279.81	97.69
280.042	90.69
280.273	86.69
280.505	87.69
280.736	84.69
280.968	67.69
281.199	81.69
281.431	89.69
281.662	80.69
281.894	87.69
282.125	95.69
282.356	122.69
282.588	143.69
282.819	104.69
283.051	96.69
283.282	84.69
283.513	101.69
283.745	92.69
283.976	87.69
284.207	83.69
284.439	83.69
284.67	83.69
284.901	77.69
285.132	88.69
285.364	83.69
285.595	93.69
285.826	89.69
286.057	83.69
286.288	93.69
286.52	74.69
286.751	83.69
286.982	73.69
287.213	86.69
287.444	73.69
287.675	85.69
287.906	92.69
288.138	93.69
288.369	83.69
288.6	85.69
288.831	99.69
289.062	91.69
289.293	97.69
289.524	92.69
289.755	96.69
289.986	76.69
290.217	84.69
290.448	85.69
290.679	84.69
290.91	83.69
291.141	86.69
291.371	93.69
291.602	84.69
291.833	87.69
292.064	80.69
292.295	94.69
292.526	87.69
292.757	92.69
292.987	88.69
293.218	90.69
293.449	108.69
293.68	100.69
293.91	86.69
294.141	101.69
294.372	84.69
294.603	88.69
294.833	80.69
295.064	81.69
295.295	89.69
295.525	77.69
295.756	93.69
295.987	116.69
296.217	139.69
296.448	131.69
296.679	91.69
296.909	81.69
297.14	83.69
297.37	79.69
297.601	68.69
297.831	84.69
298.062	83.69
298.292	108.69
298.523	85.69
298.753	103.69
298.984	87.69
299.214	85.69
299.445	94.69
299.675	90.69
299.905	94.69
300.136	69.69
300.366	93.69
300.597	85.69
300.827	100.69
301.057	98.69
301.288	107.69
301.518	93.69
301.748	95.69
301.979	96.69
302.209	96.69
302.439	103.69
302.669	94.69
302.9	81.69
303.13	87.69
303.36	104.69
303.59	95.69
303.82	114.69
304.051	94.69
304.281	78.69
304.511	76.69
304.741	90.69
304.971	75.69
305.201	74.69
305.431	92.69
305.661	88.69
305.891	80.69
306.121	101.69
306.352	104.69
306.582	88.69
306.812	91.69
307.042	84.69
307.272	99.69
307.502	101.69
307.731	96.69
307.961	90.69
308.191	80.69
308.421	76.69
308.651	101.69
308.881	83.69
309.111	104.69
309.341	91.69
309.571	95.69
309.8	89.69
310.03	93.69
310.26	97.69
310.49	87.69
310.72	98.69
310.949	111.69
311.179	94.69
311.409	83.69
311.639	97.69
311.868	89.69
312.098	83.69
312.328	103.69
312.557	111.69
312.787	108.69
313.017	110.69
313.246	87.69
313.476	83.69
313.706	93.69
313.935	104.69
314.165	85.69
314.394	95.69
314.624	105.69
314.853	103.69
315.083	89.69
315.312	86.69
315.542	94.69
315.771	92.69
316.001	88.69
316.23	91.69
316.46	89.69
316.689	97.69
316.919	97.69
317.148	90.69
317.377	93.69
317.607	78.69
317.836	74.69
318.065	95.69
318.295	83.69
318.524	81.69
318.753	90.69
318.983	95.69
319.212	108.69
319.441	98.69
319.67	100.69
319.9	92.69
320.129	91.69
320.358	83.69
320.587	85.69
320.816	98.69
321.046	101.69
321.275	99.69
321.504	83.69
321.733	92.69
321.962	105.69
322.191	107.69
322.42	87.69
322.649	114.69
322.878	119.69
323.108	109.69
323.337	130.69
323.566	131.69
323.795	146.69
324.024	200.69
324.253	386.69
324.482	822.69
324.71	1575.69
324.939	2107.69
325.168	780.69
325.397	236.69
325.626	138.69
325.855	116.69
326.084	134.69
326.313	125.69
326.542	153.69
326.77	218.69
326.999	435.69
327.228	852.69
327.457	1603.69
327.686	1251.69
327.914	349.69
328.143	191.69
328.372	160.69
328.6	137.69
328.829	136.69
329.058	132.69
329.287	141.69
329.515	106.69
329.744	106.69
329.972	99.69
330.201	123.69
330.43	153.69
330.658	138.69
330.887	142.69
331.115	116.69
331.344	96.69
331.572	95.69
331.801	100.69
332.03	100.69
332.258	102.69
332.486	86.69
332.715	103.69
332.943	89.69
333.172	97.69
333.4	100.69
333.629	103.69
333.857	127.69
334.085	128.69
334.314	119.69
334.542	151.69
334.771	151.69
334.999	116.69
335.227	96.69
335.455	82.69
335.684	99.69
335.912	97.69
336.14	94.69
336.369	104.69
336.597	106.69
336.825	99.69
337.053	103.69
337.281	81.69
337.51	99.69
337.738	98.69
337.966	98.69
338.194	98.69
338.422	92.69
338.65	95.69
338.878	88.69
339.106	87.69
339.334	95.69
339.562	71.69
339.79	92.69
340.018	97.69
340.246	77.69
340.474	89.69
340.702	101.69
340.93	90.69
341.158	87.69
341.386	83.69
341.614	87.69
341.842	98.69
342.07	116.69
342.298	101.69
342.526	101.69
342.754	84.69
342.981	99.69
343.209	74.69
343.437	91.69
343.665	86.69
343.893	101.69
344.12	89.69
344.348	90.69
344.576	106.69
344.804	91.69
345.031	99.69
345.259	87.69
345.487	79.69
345.714	92.69
345.942	91.69
346.17	97.69
346.397	96.69
346.625	94.69
346.853	106.69
347.08	91.69
347.308	95.69
347.535	94.69
347.763	97.69
347.99	95.69
348.218	90.69
348.445	103.69
348.673	92.69
348.9	98.69
349.128	83.69
349.355	94.69
349.583	88.69
349.81	94.69
350.037	98.69
350.265	96.69
350.492	88.69
350.72	87.69
350.947	98.69
351.174	122.69
351.402	119.69
351.629	87.69
351.856	107.69
352.083	105.69
352.311	102.69
352.538	111.69
352.765	107.69
352.992	115.69
353.22	111.69
353.447	113.69
353.674	99.69
353.901	104.69
354.128	117.69
354.355	104.69
354.583	92.69
354.81	96.69
355.037	103.69
355.264	88.69
355.491	97.69
355.718	84.69
355.945	97.69
356.172	107.69
356.399	92.69
356.626	98.69
356.853	97.69
357.08	100.69
357.307	87.69
357.534	90.69
357.761	94.69
357.988	92.69
358.215	101.69
358.441	111.69
358.668	87.69
358.895	98.69
359.122	97.69
359.349	108.69
359.576	103.69
359.802	103.69
360.029	89.69
360.256	117.69
360.483	91.69
360.709	71.69
360.936	95.69
361.163	85.69
361.39	87.69
361.616	100.69
361.843	71.69
362.07	83.69
362.296	122.69
362.523	89.69
362.749	90.69
362.976	80.69
363.203	95.69
363.429	87.69
363.656	89.69
363.882	95.69
364.109	95.69
364.335	99.69
364.562	90.69
364.788	83.69
365.015	87.69
365.241	106.69
365.468	113.69
365.694	106.69
365.92	97.69
366.147	84.69
366.373	81.69
366.599	81.69
366.826	91.69
367.052	87.69
367.278	102.69
367.505	102.69
367.731	93.69
367.957	87.69
368.184	100.69
368.41	108.69
368.636	106.69
368.862	116.69
369.089	101.69
369.315	84.69
369.541	101.69
369.767	90.69
369.993	69.69
370.219	101.69
370.445	100.69
370.672	88.69
370.898	91.69
371.124	78.69
371.35	77.69
371.576	88.69
371.802	87.69
372.028	87.69
372.254	80.69
372.48	100.69
372.706	94.69
372.932	101.69
373.158	82.69
373.384	96.69
373.61	84.69
373.835	74.69
374.061	86.69
374.287	93.69
374.513	90.69
374.739	79.69
374.965	81.69
375.191	83.69
375.416	93.69
375.642	71.69
375.868	81.69
376.094	98.69
376.319	90.69
376.545	83.69
376.771	100.69
376.997	92.69
377.222	93.69
377.448	102.69
377.674	74.69
377.899	90.69
378.125	92.69
378.35	89.69
378.576	100.69
378.802	97.69
379.027	82.69
379.253	103.69
379.478	90.69
379.704	93.69
379.929	84.69
380.155	86.69
380.38	94.69
380.606	78.69
380.831	91.69
381.057	87.69
381.282	107.69
381.507	92.69
381.733	104.69
381.958	94.69
382.184	83.69
382.409	106.69
382.634	96.69
382.86	88.69
383.085	97.69
383.31	108.69
383.535	104.69
383.761	96.69
383.986	81.69
384.211	103.69
384.436	103.69
384.662	94.69
384.887	91.69
385.112	105.69
385.337	107.69
385.562	111.69
385.787	95.69
386.013	118.69
386.238	113.69
386.463	108.69
386.688	116.69
386.913	105.69
387.138	106.69
387.363	93.69
387.588	99.69
387.813	116.69
388.038	98.69
388.263	103.69
388.488	94.69
388.713	80.69
388.938	86.69
389.163	96.69
389.387	85.69
389.612	94.69
389.837	87.69
390.062	97.69
390.287	92.69
390.512	74.69
390.736	75.69
390.961	83.69
391.186	106.69
391.411	99.69
391.636	90.69
391.86	78.69
392.085	96.69
392.31	82.69
392.534	88.69
392.759	81.69
392.984	79.69
393.208	96.69
393.433	82.69
393.658	90.69
393.882	89.69
394.107	80.69
394.331	85.69
394.556	96.69
394.78	91.69
395.005	84.69
395.229	78.69
395.454	88.69
395.678	85.69
395.903	86.69
396.127	95.69
396.352	91.69
396.576	83.69
396.801	75.69
397.025	76.69
397.249	89.69
397.474	95.69
397.698	81.69
397.922	88.69
398.147	86.69
398.371	79.69
398.595	85.69
398.82	88.69
399.044	97.69
399.268	82.69
399.492	80.69
399.717	79.69
399.941	96.69
400.165	79.69
400.389	91.69
400.613	106.69
400.837	78.69
401.062	85.69
401.286	80.69
401.51	92.69
401.734	96.69
401.958	91.69
402.182	137.69
402.406	163.69
402.63	126.69
402.854	99.69
403.078	99.69
403.302	92.69
403.526	77.69
403.75	93.69
403.974	88.69
404.198	85.69
404.422	89.69
404.645	86.69
404.869	88.69
405.093	105.69
405.317	98.69
405.541	96.69
405.765	101.69
405.988	129.69
406.212	176.69
406.436	232.69
406.66	146.69
406.883	84.69
407.107	85.69
407.331	100.69
407.555	97.69
407.778	95.69
408.002	65.69
408.226	88.69
408.449	97.69
408.673	93.69
408.896	100.69
409.12	91.69
409.344	97.69
409.567	89.69
409.791	96.69
410.014	105.69
410.238	93.69
410.461	79.69
410.685	93.69
410.908	96.69
411.132	96.69
411.355	89.69
411.578	109.69
411.802	94.69
412.025	91.69
412.249	101.69
412.472	103.69
412.695	96.69
412.919	84.69
413.142	82.69
413.365	96.69
413.589	75.69
413.812	85.69
414.035	95.69
414.258	90.69
414.482	98.69
414.705	96.69
414.928	100.69
415.151	91.69
415.374	97.69
415.597	95.69
415.821	94.69
416.044	87.69
416.267	81.69
416.49	87.69
416.713	93.69
416.936	100.69
417.159	87.69
417.382	97.69
417.605	84.69
417.828	100.69
418.051	95.69
418.274	80.69
418.497	85.69
418.72	72.69
418.943	88.69
419.166	95.69
419.389	83.69
419.611	86.69
419.834	91.69
420.057	83.69
420.28	86.69
420.503	73.69
420.726	85.69
420.948	85.69
421.171	95.69
421.394	76.69
421.617	83.69
421.839	93.69
422.062	77.69
422.285	89.69
422.507	103.69
422.73	91.69
422.953	90.69
423.175	92.69
423.398	89.69
423.621	93.69
423.843	92.69
424.066	86.69
424.288	89.69
424.511	87.69
424.733	103.69
424.956	104.69
425.178	116.69
425.401	97.69
425.623	98.69
425.846	95.69
426.068	106.69
426.291	91.69
426.513	94.69
426.735	90.69
426.958	87.69
427.18	108.69
427.402	128.69
427.625	158.69
427.847	131.69
428.069	101.69
428.292	87.69
428.514	85.69
428.736	87.69
428.958	78.69
429.181	85.69
429.403	88.69
429.625	80.69
429.847	95.69
430.069	103.69
430.292	90.69
430.514	83.69
430.736	88.69
430.958	95.69
431.18	77.69
431.402	82.69
431.624	75.69
431.846	76.69
432.068	95.69
432.29	90.69
432.512	92.69
432.734	95.69
432.956	88.69
433.178	89.69
433.4	86.69
433.622	76.69
433.844	83.69
434.066	86.69
434.287	82.69
434.509	88.69
434.731	87.69
434.953	100.69
435.175	81.69
435.397	81.69
435.618	91.69
435.84	103.69
436.062	102.69
436.284	115.69
436.505	104.69
436.727	106.69
436.949	87.69
437.17	97.69
437.392	94.69
437.614	101.69
437.835	92.69
438.057	118.69
438.278	102.69
438.5	96.69
438.721	110.69
438.943	97.69
439.165	93.69
439.386	75.69
439.608	92.69
439.829	113.69
440.05	129.69
440.272	132.69
440.493	112.69
440.715	81.69
440.936	93.69
441.158	90.69
441.379	87.69
441.6	94.69
441.822	90.69
442.043	90.69
442.264	95.69
442.486	104.69
442.707	92.69
442.928	102.69
443.149	129.69
443.371	120.69
443.592	106.69
443.813	100.69
444.034	97.69
444.255	90.69
444.476	87.69
444.698	93.69
444.919	79.69
445.14	120.69
445.361	119.69
445.582	117.69
445.803	129.69
446.024	145.69
446.245	138.69
446.466	109.69
446.687	93.69
446.908	91.69
447.129	89.69
447.35	89.69
447.571	98.69
447.792	93.69
448.013	100.69
448.234	114.69
448.455	115.69
448.675	106.69
448.896	101.69
449.117	98.69
449.338	104.69
449.559	131.69
449.779	137.69
450	108.69
450.221	88.69
450.442	88.69
450.662	90.69
450.883	102.69
451.104	112.69
451.324	92.69
451.545	84.69
451.766	69.69
451.986	94.69
452.207	104.69
452.428	92.69
452.648	95.69
452.869	100.69
453.089	123.69
453.31	122.69
453.53	98.69
453.751	89.69
453.971	102.69
454.192	103.69
454.412	85.69
454.633	97.69
454.853	84.69
455.073	102.69
455.294	87.69
455.514	101.69
455.734	81.69
455.955	100.69
456.175	89.69
456.395	90.69
456.616	88.69
456.836	93.69
457.056	70.69
457.276	76.69
457.497	83.69
457.717	84.69
457.937	92.69
458.157	83.69
458.377	98.69
458.598	111.69
458.818	141.69
459.038	158.69
459.258	103.69
459.478	86.69
459.698	82.69
459.918	74.69
460.138	93.69
460.358	87.69
460.578	79.69
460.798	87.69
461.018	85.69
461.238	96.69
461.458	102.69
461.678	89.69
461.898	95.69
462.118	99.69
462.338	69.69
462.558	95.69
462.777	103.69
462.997	85.69
463.217	83.69
463.437	88.69
463.657	74.69
463.876	86.69
464.096	75.69
464.316	88.69
464.536	95.69
464.755	97.69
464.975	103.69
465.195	177.69
465.414	164.69
465.634	104.69
465.854	65.69
466.073	87.69
466.293	83.69
466.512	84.69
466.732	100.69
466.951	100.69
467.171	88.69
467.391	97.69
467.61	100.69
467.829	94.69
468.049	114.69
468.268	113.69
468.488	88.69
468.707	78.69
468.927	97.69
469.146	80.69
469.365	97.69
469.585	91.69
469.804	88.69
470.023	83.69
470.243	95.69
470.462	108.69
470.681	105.69
470.901	99.69
471.12	99.69
471.339	88.69
471.558	96.69
471.777	78.69
471.997	100.69
472.216	111.69
472.435	176.69
472.654	106.69
472.873	106.69
473.092	93.69
473.311	84.69
473.53	88.69
473.749	87.69
473.968	100.69
474.187	99.69
474.406	103.69
474.625	84.69
474.844	90.69
475.063	88.69
475.282	81.69
475.501	84.69
475.72	104.69
475.939	92.69
476.158	90.69
476.377	106.69
476.596	99.69
476.814	93.69
477.033	92.69
477.252	75.69
477.471	68.69
477.69	81.69
477.908	77.69
478.127	94.69
478.346	99.69
478.564	98.69
478.783	106.69
479.002	86.69
479.22	95.69
479.439	105.69
479.658	105.69
479.876	102.69
480.095	95.69
480.313	84.69
480.532	90.69
480.751	103.69
480.969	113.69
481.188	248.69
481.406	184.69
481.624	94.69
481.843	97.69
482.061	101.69
482.28	93.69
482.498	88.69
482.717	87.69
482.935	92.69
483.153	84.69
483.372	95.69
483.59	89.69
483.808	102.69
484.027	84.69
484.245	91.69
484.463	99.69
484.681	98.69
484.9	102.69
485.118	90.69
485.336	109.69
485.554	94.69
485.772	84.69
485.99	101.69
486.209	100.69
486.427	92.69
486.645	102.69
486.863	109.69
487.081	101.69
487.299	106.69
487.517	100.69
487.735	95.69
487.953	96.69
488.171	101.69
488.389	101.69
488.607	95.69
488.825	99.69
489.043	82.69
489.261	85.69
489.479	90.69
489.696	83.69
489.914	90.69
490.132	85.69
490.35	83.69
490.568	87.69
490.786	105.69
491.003	79.69
491.221	92.69
491.439	90.69
491.657	84.69
491.874	89.69
492.092	72.69
492.31	83.69
492.527	84.69
492.745	84.69
492.963	96.69
493.18	93.69
493.398	85.69
493.615	95.69
493.833	92.69
494.05	98.69
494.268	99.69
494.485	97.69
494.703	91.69
494.92	81.69
495.138	77.69
495.355	90.69
495.573	84.69
495.79	72.69
496.008	84.69
496.225	91.69
496.442	113.69
496.66	87.69
496.877	100.69
497.094	90.69
497.312	98.69
497.529	95.69
497.746	89.69
497.963	83.69
498.181	87.69
498.398	100.69
498.615	112.69
498.832	101.69
499.049	85.69
499.267	90.69
499.484	82.69
499.701	92.69
499.918	83.69
500.135	97.69
500.352	92.69
500.569	87.69
500.786	98.69
501.003	81.69
501.22	88.69
501.437	86.69
501.654	93.69
501.871	114.69
502.088	95.69
502.305	101.69
502.522	94.69
502.739	71.69
502.956	82.69
503.172	81.69
503.389	95.69
503.606	104.69
503.823	115.69
504.04	102.69
504.256	87.69
504.473	90.69
504.69	99.69
504.907	100.69
505.123	89.69
505.34	92.69
505.557	88.69
505.773	96.69
505.99	92.69
506.207	89.69
506.423	91.69
506.64	96.69
506.856	91.69
507.073	79.69
507.289	76.69
507.506	95.69
507.722	113.69
507.939	116.69
508.155	102.69
508.372	96.69
508.588	99.69
508.805	96.69
509.021	97.69
509.238	114.69
509.454	96.69
509.67	108.69
509.887	115.69
510.103	143.69
510.319	214.69
510.536	812.69
510.752	2740.69
510.968	779.69
511.184	170.69
511.401	110.69
511.617	116.69
511.833	109.69
512.049	86.69
512.265	77.69
512.481	89.69
512.698	89.69
512.914	80.69
513.13	96.69
513.346	92.69
513.562	87.69
513.778	99.69
513.994	98.69
514.21	99.69
514.426	113.69
514.642	143.69
514.858	137.69
515.074	160.69
515.29	481.69
515.506	1703.69
