Data from Circ_2018_H10_HRD10591_00040.txt Node
Date: Wed Jan 03 09:56:10 EST 2024
User: Yrep
Spectrometer: HR+D1059
Trigger mode: 1
Integration Time (sec): 1.000000E-1
Scans to average: 1
Electric dark correction enabled: true
Nonlinearity correction enabled: false
Boxcar width: 0
XAxis mode: Wavelengths
Number of Pixels in Spectrum: 2048
>>>>>Begin Spectral Data<<<<<
223.165	-15
223.4	-15
223.635	-15
223.869	-12
224.104	-18
224.338	-18
224.573	-12
224.808	-15
225.042	-12
225.277	-2
225.511	-1
225.746	-10
225.98	7
226.215	11
226.449	8
226.683	19
226.918	31
227.152	39
227.387	61
227.621	35
227.856	39
228.09	43
228.324	61
228.559	54
228.793	53
229.027	68
229.262	69
229.496	76
229.73	86
229.964	89
230.199	72
230.433	87
230.667	97
230.901	90
231.136	91
231.37	75
231.604	75
231.838	85
232.072	61
232.306	98
232.541	93
232.775	72
233.009	84
233.243	79
233.477	87
233.711	85
233.945	94
234.179	78
234.413	81
234.647	87
234.881	89
235.115	86
235.349	80
235.583	81
235.817	79
236.051	78
236.285	84
236.519	87
236.753	97
236.987	87
237.221	91
237.455	81
237.689	74
237.922	92
238.156	71
238.39	69
238.624	82
238.858	76
239.091	72
239.325	75
239.559	90
239.793	85
240.027	85
240.26	79
240.494	71
240.728	71
240.961	72
241.195	70
241.429	88
241.662	74
241.896	83
242.13	76
242.363	78
242.597	70
242.83	82
243.064	77
243.298	88
243.531	76
243.765	69
243.998	84
244.232	79
244.465	77
244.699	90
244.932	83
245.166	86
245.399	90
245.633	77
245.866	86
246.099	91
246.333	86
246.566	62
246.8	89
247.033	80
247.266	76
247.5	80
247.733	84
247.966	83
248.2	76
248.433	86
248.666	82
248.899	93
249.133	103
249.366	95
249.599	85
249.832	79
250.066	87
250.299	85
250.532	95
250.765	82
250.998	68
251.231	89
251.465	79
251.698	78
251.931	76
252.164	73
252.397	77
252.63	85
252.863	86
253.096	85
253.329	73
253.562	82
253.795	79
254.028	85
254.261	76
254.494	83
254.727	89
254.96	71
255.193	73
255.426	76
255.659	82
255.892	77
256.124	75
256.357	66
256.59	84
256.823	76
257.056	69
257.289	69
257.521	83
257.754	76
257.987	87
258.22	78
258.452	90
258.685	82
258.918	84
259.151	75
259.383	76
259.616	77
259.849	78
260.081	82
260.314	75
260.547	81
260.779	83
261.012	88
261.244	86
261.477	102
261.71	90
261.942	129
262.175	133
262.407	103
262.64	83
262.872	68
263.105	82
263.337	89
263.57	93
263.802	81
264.035	82
264.267	94
264.499	83
264.732	79
264.964	78
265.197	83
265.429	87
265.661	86
265.894	95
266.126	85
266.358	86
266.591	81
266.823	76
267.055	92
267.287	83
267.52	90
267.752	98
267.984	81
268.216	85
268.448	98
268.681	95
268.913	87
269.145	89
269.377	72
269.609	88
269.841	84
270.073	82
270.306	91
270.538	83
270.77	100
271.002	94
271.234	95
271.466	99
271.698	76
271.93	75
272.162	82
272.394	97
272.626	91
272.858	94
273.09	91
273.322	85
273.553	83
273.785	77
274.017	79
274.249	92
274.481	90
274.713	83
274.945	93
275.176	80
275.408	89
275.64	69
275.872	92
276.104	88
276.335	91
276.567	114
276.799	123
277.031	113
277.262	99
277.494	76
277.726	77
277.957	69
278.189	92
278.421	85
278.652	90
278.884	78
279.115	73
279.347	81
279.579	81
279.81	92
280.042	88
280.273	80
280.505	83
280.736	88
280.968	94
281.199	82
281.431	78
281.662	83
281.894	88
282.125	117
282.356	121
282.588	160
282.819	117
283.051	105
283.282	88
283.513	85
283.745	74
283.976	79
284.207	88
284.439	74
284.67	97
284.901	98
285.132	95
285.364	78
285.595	89
285.826	79
286.057	99
286.288	105
286.52	88
286.751	78
286.982	95
287.213	86
287.444	88
287.675	84
287.906	92
288.138	86
288.369	99
288.6	83
288.831	91
289.062	94
289.293	109
289.524	88
289.755	93
289.986	83
290.217	89
290.448	85
290.679	103
290.91	86
291.141	85
291.371	98
291.602	59
291.833	90
292.064	95
292.295	88
292.526	95
292.757	85
292.987	83
293.218	91
293.449	83
293.68	98
293.91	86
294.141	98
294.372	95
294.603	88
294.833	88
295.064	92
295.295	88
295.525	93
295.756	111
295.987	123
296.217	157
296.448	142
296.679	108
296.909	91
297.14	101
297.37	81
297.601	85
297.831	93
298.062	76
298.292	94
298.523	89
298.753	94
298.984	82
299.214	85
299.445	74
299.675	92
299.905	96
300.136	102
300.366	100
300.597	89
300.827	89
301.057	96
301.288	116
301.518	101
301.748	92
301.979	105
302.209	84
302.439	91
302.669	109
302.9	87
303.13	101
303.36	89
303.59	103
303.82	115
304.051	94
304.281	103
304.511	107
304.741	87
304.971	84
305.201	89
305.431	93
305.661	82
305.891	91
306.121	98
306.352	113
306.582	92
306.812	92
307.042	109
307.272	83
307.502	102
307.731	92
307.961	82
308.191	85
308.421	97
308.651	83
308.881	87
309.111	103
309.341	93
309.571	96
309.8	95
310.03	108
310.26	110
310.49	105
310.72	102
310.949	101
311.179	95
311.409	86
311.639	92
311.868	89
312.098	100
312.328	103
312.557	104
312.787	99
313.017	114
313.246	94
313.476	92
313.706	94
313.935	95
314.165	107
314.394	99
314.624	116
314.853	100
315.083	86
315.312	94
315.542	104
315.771	85
316.001	83
316.23	85
316.46	100
316.689	97
316.919	71
317.148	90
317.377	87
317.607	98
317.836	93
318.065	87
318.295	94
318.524	79
318.753	107
318.983	97
319.212	90
319.441	110
319.67	124
319.9	110
320.129	98
320.358	93
320.587	96
320.816	108
321.046	98
321.275	99
321.504	91
321.733	85
321.962	109
322.191	107
322.42	114
322.649	109
322.878	125
323.108	127
323.337	130
323.566	141
323.795	169
324.024	216
324.253	430
324.482	910
324.71	1859
324.939	2425
325.168	905
325.397	263
325.626	173
325.855	133
326.084	135
326.313	137
326.542	167
326.77	247
326.999	491
327.228	1018
327.457	1834
327.686	1471
327.914	394
328.143	201
328.372	172
328.6	133
328.829	131
329.058	130
329.287	146
329.515	114
329.744	101
329.972	110
330.201	124
330.43	139
330.658	152
330.887	173
331.115	132
331.344	97
331.572	110
331.801	113
332.03	95
332.258	101
332.486	106
332.715	97
332.943	96
333.172	98
333.4	86
333.629	118
333.857	125
334.085	110
334.314	119
334.542	147
334.771	135
334.999	112
335.227	97
335.455	107
335.684	110
335.912	99
336.14	98
336.369	109
336.597	95
336.825	117
337.053	84
337.281	95
337.51	98
337.738	97
337.966	92
338.194	101
338.422	117
338.65	95
338.878	107
339.106	101
339.334	102
339.562	99
339.79	95
340.018	109
340.246	96
340.474	100
340.702	109
340.93	86
341.158	92
341.386	94
341.614	122
341.842	108
342.07	109
342.298	97
342.526	83
342.754	96
342.981	101
343.209	88
343.437	104
343.665	88
343.893	98
344.12	93
344.348	87
344.576	92
344.804	107
345.031	106
345.259	101
345.487	102
345.714	105
345.942	87
346.17	98
346.397	98
346.625	99
346.853	98
347.08	94
347.308	94
347.535	104
347.763	112
347.99	91
348.218	106
348.445	96
348.673	107
348.9	92
349.128	99
349.355	106
349.583	97
349.81	110
350.037	98
350.265	102
350.492	94
350.72	98
350.947	109
351.174	101
351.402	113
351.629	99
351.856	114
352.083	99
352.311	107
352.538	106
352.765	114
352.992	126
353.22	109
353.447	114
353.674	102
353.901	103
354.128	97
354.355	91
354.583	79
354.81	86
355.037	103
355.264	99
355.491	110
355.718	99
355.945	102
356.172	108
356.399	84
356.626	94
356.853	105
357.08	91
357.307	87
357.534	98
357.761	96
357.988	89
358.215	117
358.441	106
358.668	90
358.895	109
359.122	93
359.349	79
359.576	103
359.802	102
360.029	133
360.256	105
360.483	103
360.709	95
360.936	92
361.163	98
361.39	107
361.616	95
361.843	98
362.07	102
362.296	95
362.523	92
362.749	99
362.976	97
363.203	95
363.429	93
363.656	95
363.882	84
364.109	94
364.335	91
364.562	84
364.788	90
365.015	87
365.241	103
365.468	123
365.694	112
365.92	108
366.147	96
366.373	92
366.599	95
366.826	99
367.052	97
367.278	102
367.505	102
367.731	98
367.957	83
368.184	94
368.41	115
368.636	119
368.862	129
369.089	108
369.315	94
369.541	101
369.767	83
369.993	98
370.219	101
370.445	103
370.672	89
370.898	71
371.124	97
371.35	92
371.576	85
371.802	93
372.028	82
372.254	93
372.48	96
372.706	88
372.932	102
373.158	83
373.384	85
373.61	105
373.835	99
374.061	95
374.287	88
374.513	89
374.739	97
374.965	87
375.191	90
375.416	93
375.642	94
375.868	94
376.094	89
376.319	92
376.545	100
376.771	90
376.997	92
377.222	100
377.448	78
377.674	87
377.899	92
378.125	96
378.35	92
378.576	89
378.802	90
379.027	99
379.253	95
379.478	98
379.704	89
379.929	102
380.155	92
380.38	102
380.606	107
380.831	87
381.057	92
381.282	83
381.507	97
381.733	95
381.958	99
382.184	116
382.409	102
382.634	107
382.86	105
383.085	101
383.31	105
383.535	107
383.761	99
383.986	94
384.211	100
384.436	111
384.662	107
384.887	113
385.112	110
385.337	117
385.562	110
385.787	102
386.013	123
386.238	137
386.463	113
386.688	116
386.913	103
387.138	92
387.363	91
387.588	102
387.813	100
388.038	108
388.263	116
388.488	94
388.713	97
388.938	105
389.163	104
389.387	96
389.612	99
389.837	100
390.062	94
390.287	88
390.512	88
390.736	95
390.961	87
391.186	92
391.411	96
391.636	99
391.86	95
392.085	76
392.31	91
392.534	88
392.759	98
392.984	87
393.208	83
393.433	97
393.658	84
393.882	90
394.107	98
394.331	96
394.556	91
394.78	87
395.005	94
395.229	87
395.454	84
395.678	86
395.903	88
396.127	89
396.352	93
396.576	88
396.801	90
397.025	94
397.249	88
397.474	97
397.698	102
397.922	103
398.147	89
398.371	86
398.595	109
398.82	87
399.044	94
399.268	102
399.492	81
399.717	94
399.941	85
400.165	94
400.389	97
400.613	95
400.837	88
401.062	86
401.286	111
401.51	81
401.734	93
401.958	103
402.182	145
402.406	183
402.63	133
402.854	99
403.078	90
403.302	93
403.526	94
403.75	99
403.974	85
404.198	82
404.422	89
404.645	83
404.869	99
405.093	97
405.317	99
405.541	110
405.765	109
405.988	141
406.212	202
406.436	284
406.66	171
406.883	109
407.107	110
407.331	97
407.555	103
407.778	99
408.002	98
408.226	104
408.449	83
408.673	96
408.896	94
409.12	99
409.344	94
409.567	94
409.791	80
410.014	86
410.238	107
410.461	89
410.685	99
410.908	115
411.132	114
411.355	99
411.578	89
411.802	93
412.025	91
412.249	81
412.472	103
412.695	98
412.919	97
413.142	83
413.365	76
413.589	86
413.812	102
414.035	106
414.258	105
414.482	97
414.705	101
414.928	82
415.151	111
415.374	87
415.597	83
415.821	90
416.044	97
416.267	82
416.49	84
416.713	92
416.936	93
417.159	103
417.382	107
417.605	104
417.828	98
418.051	91
418.274	96
418.497	91
418.72	95
418.943	92
419.166	84
419.389	86
419.611	83
419.834	84
420.057	97
420.28	82
420.503	101
420.726	101
420.948	90
421.171	107
421.394	99
421.617	93
421.839	74
422.062	86
422.285	92
422.507	94
422.73	115
422.953	93
423.175	82
423.398	103
423.621	100
423.843	100
424.066	82
424.288	86
424.511	99
424.733	102
424.956	107
425.178	102
425.401	105
425.623	110
425.846	88
426.068	98
426.291	95
426.513	91
426.735	104
426.958	102
427.18	105
427.402	147
427.625	198
427.847	149
428.069	110
428.292	88
428.514	98
428.736	86
428.958	83
429.181	100
429.403	87
429.625	87
429.847	98
430.069	104
430.292	98
430.514	96
430.736	89
430.958	92
431.18	62
431.402	92
431.624	92
431.846	86
432.068	92
432.29	96
432.512	102
432.734	87
432.956	91
433.178	108
433.4	109
433.622	88
433.844	101
434.066	89
434.287	90
434.509	94
434.731	89
434.953	108
435.175	102
435.397	100
435.618	118
435.84	110
436.062	123
436.284	120
436.505	108
436.727	109
436.949	85
437.17	85
437.392	97
437.614	99
437.835	115
438.057	132
438.278	124
438.5	111
438.721	122
438.943	109
439.165	83
439.386	93
439.608	97
439.829	110
440.05	143
440.272	164
440.493	99
440.715	87
440.936	82
441.158	87
441.379	83
441.6	100
441.822	99
442.043	100
442.264	106
442.486	99
442.707	95
442.928	129
443.149	135
443.371	140
443.592	133
443.813	132
444.034	135
444.255	93
444.476	97
444.698	100
444.919	91
445.14	135
445.361	149
445.582	130
445.803	144
446.024	147
446.245	146
446.466	111
446.687	91
446.908	94
447.129	100
447.35	90
447.571	105
447.792	111
448.013	119
448.234	111
448.455	123
448.675	124
448.896	133
449.117	111
449.338	105
449.559	135
449.779	133
450	96
450.221	102
450.442	99
450.662	94
450.883	102
451.104	134
451.324	109
451.545	100
451.766	87
451.986	80
452.207	87
452.428	93
452.648	104
452.869	107
453.089	122
453.31	129
453.53	113
453.751	86
453.971	112
454.192	113
454.412	86
454.633	102
454.853	93
455.073	93
455.294	93
455.514	116
455.734	81
455.955	84
456.175	84
456.395	87
456.616	86
456.836	91
457.056	91
457.276	76
457.497	93
457.717	93
457.937	99
458.157	95
458.377	99
458.598	119
458.818	192
459.038	195
459.258	123
459.478	89
459.698	91
459.918	89
460.138	97
460.358	93
460.578	95
460.798	88
461.018	93
461.238	89
461.458	82
461.678	79
461.898	78
462.118	101
462.338	90
462.558	79
462.777	87
462.997	94
463.217	77
463.437	97
463.657	91
463.876	90
464.096	90
464.316	98
464.536	95
464.755	116
464.975	117
465.195	180
465.414	188
465.634	102
465.854	95
466.073	84
466.293	91
466.512	85
466.732	86
466.951	92
467.171	94
467.391	84
467.61	102
467.829	105
468.049	110
468.268	114
468.488	95
468.707	69
468.927	92
469.146	102
469.365	100
469.585	82
469.804	107
470.023	97
470.243	103
470.462	109
470.681	114
470.901	100
471.12	97
471.339	99
471.558	77
471.777	96
471.997	94
472.216	135
472.435	168
472.654	103
472.873	83
473.092	97
473.311	88
473.53	94
473.749	96
473.968	91
474.187	100
474.406	95
474.625	90
474.844	80
475.063	75
475.282	83
475.501	92
475.72	87
475.939	84
476.158	77
476.377	98
476.596	88
476.814	97
477.033	110
477.252	99
477.471	91
477.69	96
477.908	85
478.127	89
478.346	94
478.564	74
478.783	103
479.002	92
479.22	82
479.439	113
479.658	114
479.876	86
480.095	92
480.313	101
480.532	82
480.751	72
480.969	131
481.188	210
481.406	167
481.624	110
481.843	87
482.061	102
482.28	86
482.498	98
482.717	86
482.935	87
483.153	108
483.372	93
483.59	96
483.808	88
484.027	91
484.245	104
484.463	90
484.681	106
484.9	104
485.118	111
485.336	94
485.554	105
485.772	107
485.99	100
486.209	118
486.427	102
486.645	110
486.863	121
487.081	109
487.299	92
487.517	94
487.735	97
487.953	96
488.171	87
488.389	110
488.607	113
488.825	96
489.043	89
489.261	97
489.479	73
489.696	77
489.914	87
490.132	101
490.35	91
490.568	85
490.786	83
491.003	83
491.221	81
491.439	88
491.657	95
491.874	88
492.092	92
492.31	94
492.527	93
492.745	87
492.963	103
493.18	102
493.398	105
493.615	92
493.833	106
494.05	93
494.268	89
494.485	87
494.703	95
494.92	84
495.138	86
495.355	84
495.573	101
495.79	110
496.008	93
496.225	85
496.442	89
496.66	89
496.877	94
497.094	101
497.312	97
497.529	91
497.746	89
497.963	94
498.181	119
498.398	100
498.615	113
498.832	105
499.049	89
499.267	76
499.484	82
499.701	103
499.918	98
500.135	94
500.352	87
500.569	95
500.786	95
501.003	89
501.22	107
501.437	86
501.654	79
501.871	120
502.088	105
502.305	87
502.522	97
502.739	90
502.956	101
503.172	101
503.389	81
503.606	101
503.823	113
504.04	108
504.256	97
504.473	88
504.69	78
504.907	101
505.123	86
505.34	89
505.557	99
505.773	84
505.99	91
506.207	97
506.423	89
506.64	89
506.856	95
507.073	98
507.289	102
507.506	90
507.722	103
507.939	119
508.155	91
508.372	94
508.588	102
508.805	103
509.021	103
509.238	109
509.454	98
509.67	106
509.887	120
510.103	147
510.319	246
510.536	939
510.752	3119
510.968	864
511.184	181
511.401	118
511.617	99
511.833	88
512.049	88
512.265	84
512.481	96
512.698	84
512.914	90
513.13	100
513.346	81
513.562	87
513.778	102
513.994	115
514.21	98
514.426	138
514.642	174
514.858	141
515.074	188
515.29	578
515.506	2081
515.721	769
515.937	182
516.153	121
516.369	106
516.585	102
516.801	108
517.016	98
517.232	96
517.448	102
517.664	107
517.879	104
518.095	106
518.311	85
518.527	88
518.742	86
518.958	103
519.173	101
519.389	110
519.605	93
519.82	103
520.036	110
520.251	131
520.467	127
520.682	107
520.898	110
521.113	126
521.329	154
521.544	252
521.76	730
521.975	3370
522.19	2073
522.406	412
522.621	147
522.836	104
523.052	108
523.267	92
523.482	110
523.698	107
523.913	135
524.128	113
524.343	111
524.559	107
524.774	97
524.989	103
525.204	114
525.419	109
525.634	81
525.849	88
526.064	96
526.28	99
526.495	91
526.71	91
526.925	83
527.14	86
527.355	90
527.57	89
527.785	89
527.999	79
528.214	90
528.429	93
528.644	91
528.859	89
529.074	114
529.289	124
529.503	221
529.718	117
529.933	94
530.148	86
530.363	83
530.577	79
530.792	94
531.007	99
531.221	95
531.436	74
531.651	92
531.865	100
532.08	86
532.295	96
532.509	93
532.724	93
532.938	95
533.153	95
533.367	99
533.582	103
533.796	88
534.011	87
534.225	99
534.44	87
534.654	81
534.868	87
535.083	83
535.297	89
535.511	108
535.726	113
535.94	97
536.154	99
536.369	94
536.583	96
536.797	96
537.011	91
537.225	89
537.44	91
537.654	86
537.868	92
538.082	107
538.296	101
538.51	94
538.724	84
538.938	98
539.153	99
539.367	115
539.581	85
539.795	87
540.009	94
540.222	93
540.436	87
540.65	87
540.864	93
541.078	86
541.292	92
541.506	96
541.72	91
541.934	94
542.147	94
542.361	77
542.575	77
542.789	90
543.002	100
543.216	101
543.43	108
543.644	96
543.857	99
544.071	85
544.285	86
544.498	97
544.712	85
544.925	93
545.139	79
545.352	87
545.566	78
545.779	99
545.993	92
546.206	85
546.42	87
546.633	94
546.847	106
547.06	90
547.274	88
547.487	82
547.7	97
547.914	94
548.127	93
548.34	93
548.554	98
548.767	101
548.98	99
549.193	64
549.407	78
549.62	93
549.833	97
550.046	89
550.259	97
550.473	72
550.686	95
550.899	90
551.112	90
551.325	104
551.538	88
551.751	90
551.964	86
552.177	94
552.39	79
552.603	96
552.816	92
553.029	87
553.242	114
553.455	92
553.667	115
553.88	104
554.093	92
554.306	72
554.519	91
554.732	94
554.944	79
555.157	93
555.37	81
555.583	102
555.795	87
556.008	105
556.221	98
556.433	110
556.646	105
556.859	96
557.071	89
557.284	94
557.496	91
557.709	86
557.921	100
558.134	110
558.346	90
558.559	108
558.771	88
558.984	99
559.196	77
559.409	101
559.621	95
559.833	99
560.046	83
560.258	96
560.47	80
560.683	93
560.895	77
561.107	87
561.32	85
561.532	86
561.744	93
561.956	101
562.168	96
562.381	100
562.593	97
562.805	95
563.017	89
563.229	102
563.441	87
563.653	89
563.865	103
564.077	101
564.289	83
564.501	103
564.713	90
564.925	77
565.137	103
565.349	103
565.561	86
565.773	95
565.985	75
566.197	81
566.408	89
566.62	80
566.832	96
567.044	92
567.255	94
567.467	94
567.679	90
567.891	83
568.102	81
568.314	91
568.526	79
568.737	86
568.949	85
569.161	90
569.372	85
569.584	106
569.795	95
570.007	127
570.218	289
570.43	152
570.641	92
570.853	84
571.064	97
571.276	90
571.487	81
571.698	91
571.91	85
572.121	88
572.333	83
572.544	86
572.755	81
572.966	90
573.178	103
573.389	98
573.6	95
573.811	93
574.023	93
574.234	76
574.445	95
574.656	73
574.867	89
575.078	90
575.289	91
575.501	99
575.712	100
575.923	92
576.134	83
576.345	79
576.556	87
576.767	83
576.978	90
577.188	87
577.399	90
577.61	94
577.821	111
578.032	120
578.243	332
578.454	993
578.665	249
578.875	106
579.086	97
579.297	90
579.508	85
579.718	96
579.929	83
580.14	69
580.35	99
580.561	92
580.772	89
580.982	100
581.193	90
581.403	84
581.614	98
581.825	90
