Data from Circ_2018_H10_HRD10591_00064.txt Node
Date: Wed Jan 03 09:56:14 EST 2024
User: Yrep
Spectrometer: HR+D1059
Trigger mode: 1
Integration Time (sec): 1.000000E-1
Scans to average: 1
Electric dark correction enabled: true
Nonlinearity correction enabled: false
Boxcar width: 0
XAxis mode: Wavelengths
Number of Pixels in Spectrum: 2048
>>>>>Begin Spectral Data<<<<<
223.165	-24.88
223.4	-24.88
223.635	-24.88
223.869	-7.88
224.104	-25.88
224.338	-13.88
224.573	-13.88
224.808	-16.88
225.042	6.12
225.277	-9.88
225.511	-7.88
225.746	-1.88
225.98	4.12
226.215	15.12
226.449	16.12
226.683	15.12
226.918	33.12
227.152	33.12
227.387	30.12
227.621	35.12
227.856	50.12
228.09	35.12
228.324	55.12
228.559	48.12
228.793	62.12
229.027	64.12
229.262	61.12
229.496	74.12
229.73	81.12
229.964	83.12
230.199	73.12
230.433	52.12
230.667	76.12
230.901	64.12
231.136	70.12
231.37	64.12
231.604	74.12
231.838	70.12
232.072	70.12
232.306	84.12
232.541	84.12
232.775	73.12
233.009	69.12
233.243	86.12
233.477	74.12
233.711	98.12
233.945	82.12
234.179	67.12
234.413	76.12
234.647	74.12
234.881	88.12
235.115	84.12
235.349	63.12
235.583	76.12
235.817	73.12
236.051	69.12
236.285	79.12
236.519	79.12
236.753	65.12
236.987	72.12
237.221	70.12
237.455	72.12
237.689	77.12
237.922	70.12
238.156	88.12
238.39	78.12
238.624	70.12
238.858	72.12
239.091	70.12
239.325	76.12
239.559	68.12
239.793	72.12
240.027	71.12
240.26	74.12
240.494	64.12
240.728	78.12
240.961	74.12
241.195	62.12
241.429	80.12
241.662	74.12
241.896	65.12
242.13	88.12
242.363	74.12
242.597	69.12
242.83	80.12
243.064	76.12
243.298	77.12
243.531	73.12
243.765	78.12
243.998	78.12
244.232	80.12
244.465	86.12
244.699	82.12
244.932	78.12
245.166	69.12
245.399	81.12
245.633	66.12
245.866	71.12
246.099	69.12
246.333	71.12
246.566	64.12
246.8	82.12
247.033	77.12
247.266	66.12
247.5	71.12
247.733	80.12
247.966	67.12
248.2	97.12
248.433	81.12
248.666	87.12
248.899	82.12
249.133	85.12
249.366	82.12
249.599	97.12
249.832	70.12
250.066	78.12
250.299	79.12
250.532	90.12
250.765	83.12
250.998	88.12
251.231	63.12
251.465	81.12
251.698	85.12
251.931	72.12
252.164	83.12
252.397	84.12
252.63	68.12
252.863	78.12
253.096	84.12
253.329	74.12
253.562	79.12
253.795	89.12
254.028	88.12
254.261	79.12
254.494	69.12
254.727	92.12
254.96	71.12
255.193	81.12
255.426	73.12
255.659	70.12
255.892	81.12
256.124	81.12
256.357	83.12
256.59	93.12
256.823	72.12
257.056	80.12
257.289	78.12
257.521	80.12
257.754	80.12
257.987	84.12
258.22	80.12
258.452	77.12
258.685	71.12
258.918	78.12
259.151	84.12
259.383	86.12
259.616	83.12
259.849	69.12
260.081	76.12
260.314	88.12
260.547	81.12
260.779	76.12
261.012	85.12
261.244	89.12
261.477	94.12
261.71	109.12
261.942	121.12
262.175	112.12
262.407	87.12
262.64	68.12
262.872	68.12
263.105	96.12
263.337	86.12
263.57	93.12
263.802	87.12
264.035	83.12
264.267	80.12
264.499	68.12
264.732	80.12
264.964	83.12
265.197	98.12
265.429	78.12
265.661	82.12
265.894	76.12
266.126	92.12
266.358	72.12
266.591	80.12
266.823	81.12
267.055	83.12
267.287	78.12
267.52	78.12
267.752	76.12
267.984	78.12
268.216	96.12
268.448	80.12
268.681	83.12
268.913	86.12
269.145	87.12
269.377	83.12
269.609	89.12
269.841	87.12
270.073	86.12
270.306	77.12
270.538	87.12
270.77	88.12
271.002	92.12
271.234	89.12
271.466	76.12
271.698	82.12
271.93	81.12
272.162	94.12
272.394	77.12
272.626	76.12
272.858	74.12
273.09	87.12
273.322	88.12
273.553	99.12
273.785	94.12
274.017	82.12
274.249	85.12
274.481	80.12
274.713	78.12
274.945	88.12
275.176	83.12
275.408	81.12
275.64	81.12
275.872	84.12
276.104	99.12
276.335	91.12
276.567	102.12
276.799	108.12
277.031	111.12
277.262	91.12
277.494	77.12
277.726	86.12
277.957	79.12
278.189	89.12
278.421	88.12
278.652	84.12
278.884	91.12
279.115	80.12
279.347	77.12
279.579	87.12
279.81	85.12
280.042	94.12
280.273	84.12
280.505	88.12
280.736	85.12
280.968	91.12
281.199	95.12
281.431	77.12
281.662	90.12
281.894	87.12
282.125	102.12
282.356	111.12
282.588	152.12
282.819	120.12
283.051	91.12
283.282	75.12
283.513	93.12
283.745	87.12
283.976	80.12
284.207	87.12
284.439	89.12
284.67	90.12
284.901	97.12
285.132	85.12
285.364	83.12
285.595	77.12
285.826	85.12
286.057	92.12
286.288	72.12
286.52	77.12
286.751	81.12
286.982	89.12
287.213	93.12
287.444	91.12
287.675	90.12
287.906	83.12
288.138	68.12
288.369	83.12
288.6	98.12
288.831	85.12
289.062	84.12
289.293	96.12
289.524	74.12
289.755	88.12
289.986	97.12
290.217	95.12
290.448	79.12
290.679	77.12
290.91	93.12
291.141	91.12
291.371	86.12
291.602	90.12
291.833	90.12
292.064	72.12
292.295	86.12
292.526	77.12
292.757	82.12
292.987	88.12
293.218	90.12
293.449	89.12
293.68	96.12
293.91	84.12
294.141	89.12
294.372	86.12
294.603	108.12
294.833	101.12
295.064	71.12
295.295	67.12
295.525	99.12
295.756	107.12
295.987	116.12
296.217	142.12
296.448	117.12
296.679	84.12
296.909	85.12
297.14	88.12
297.37	98.12
297.601	84.12
297.831	86.12
298.062	92.12
298.292	81.12
298.523	72.12
298.753	82.12
298.984	74.12
299.214	87.12
299.445	92.12
299.675	92.12
299.905	81.12
300.136	86.12
300.366	88.12
300.597	89.12
300.827	109.12
301.057	91.12
301.288	112.12
301.518	99.12
301.748	93.12
301.979	78.12
302.209	79.12
302.439	86.12
302.669	85.12
302.9	92.12
303.13	95.12
303.36	99.12
303.59	98.12
303.82	102.12
304.051	83.12
304.281	85.12
304.511	85.12
304.741	101.12
304.971	101.12
305.201	117.12
305.431	88.12
305.661	73.12
305.891	88.12
306.121	94.12
306.352	106.12
306.582	108.12
306.812	84.12
307.042	93.12
307.272	98.12
307.502	90.12
307.731	106.12
307.961	97.12
308.191	73.12
308.421	85.12
308.651	95.12
308.881	88.12
309.111	96.12
309.341	99.12
309.571	97.12
309.8	87.12
310.03	82.12
310.26	91.12
310.49	82.12
310.72	101.12
310.949	113.12
311.179	124.12
311.409	102.12
311.639	92.12
311.868	97.12
312.098	84.12
312.328	96.12
312.557	97.12
312.787	109.12
313.017	88.12
313.246	84.12
313.476	99.12
313.706	85.12
313.935	95.12
314.165	84.12
314.394	84.12
314.624	94.12
314.853	100.12
315.083	77.12
315.312	88.12
315.542	79.12
315.771	93.12
316.001	88.12
316.23	93.12
316.46	84.12
316.689	96.12
316.919	98.12
317.148	101.12
317.377	95.12
317.607	98.12
317.836	96.12
318.065	81.12
318.295	90.12
318.524	99.12
318.753	94.12
318.983	102.12
319.212	101.12
319.441	109.12
319.67	100.12
319.9	90.12
320.129	92.12
320.358	81.12
320.587	88.12
320.816	77.12
321.046	95.12
321.275	98.12
321.504	99.12
321.733	111.12
321.962	105.12
322.191	99.12
322.42	110.12
322.649	103.12
322.878	110.12
323.108	124.12
323.337	125.12
323.566	141.12
323.795	158.12
324.024	231.12
324.253	416.12
324.482	860.12
324.71	1768.12
324.939	2300.12
325.168	850.12
325.397	251.12
325.626	165.12
325.855	130.12
326.084	129.12
326.313	139.12
326.542	159.12
326.77	238.12
326.999	471.12
327.228	945.12
327.457	1711.12
327.686	1354.12
327.914	384.12
328.143	206.12
328.372	163.12
328.6	140.12
328.829	117.12
329.058	126.12
329.287	142.12
329.515	102.12
329.744	134.12
329.972	111.12
330.201	125.12
330.43	161.12
330.658	148.12
330.887	150.12
331.115	130.12
331.344	100.12
331.572	109.12
331.801	92.12
332.03	112.12
332.258	97.12
332.486	89.12
332.715	97.12
332.943	94.12
333.172	101.12
333.4	95.12
333.629	117.12
333.857	118.12
334.085	121.12
334.314	128.12
334.542	158.12
334.771	158.12
334.999	113.12
335.227	87.12
335.455	96.12
335.684	85.12
335.912	78.12
336.14	99.12
336.369	108.12
336.597	102.12
336.825	102.12
337.053	80.12
337.281	95.12
337.51	95.12
337.738	90.12
337.966	95.12
338.194	96.12
338.422	84.12
338.65	90.12
338.878	90.12
339.106	85.12
339.334	84.12
339.562	100.12
339.79	84.12
340.018	83.12
340.246	92.12
340.474	111.12
340.702	98.12
340.93	80.12
341.158	97.12
341.386	102.12
341.614	108.12
341.842	81.12
342.07	104.12
342.298	78.12
342.526	92.12
342.754	81.12
342.981	85.12
343.209	81.12
343.437	93.12
343.665	74.12
343.893	97.12
344.12	88.12
344.348	78.12
344.576	96.12
344.804	79.12
345.031	101.12
345.259	94.12
345.487	99.12
345.714	94.12
345.942	89.12
346.17	101.12
346.397	88.12
346.625	92.12
346.853	87.12
347.08	76.12
347.308	92.12
347.535	101.12
347.763	99.12
347.99	84.12
348.218	95.12
348.445	102.12
348.673	96.12
348.9	94.12
349.128	85.12
349.355	87.12
349.583	81.12
349.81	102.12
350.037	96.12
350.265	89.12
350.492	79.12
350.72	100.12
350.947	93.12
351.174	117.12
351.402	106.12
351.629	118.12
351.856	86.12
352.083	92.12
352.311	115.12
352.538	105.12
352.765	100.12
352.992	114.12
353.22	117.12
353.447	117.12
353.674	93.12
353.901	91.12
354.128	95.12
354.355	97.12
354.583	93.12
354.81	86.12
355.037	90.12
355.264	98.12
355.491	97.12
355.718	85.12
355.945	90.12
356.172	110.12
356.399	100.12
356.626	92.12
356.853	78.12
357.08	103.12
357.307	76.12
357.534	96.12
357.761	95.12
357.988	97.12
358.215	97.12
358.441	70.12
358.668	88.12
358.895	89.12
359.122	79.12
359.349	87.12
359.576	86.12
359.802	96.12
360.029	116.12
360.256	131.12
360.483	97.12
360.709	80.12
360.936	85.12
361.163	87.12
361.39	84.12
361.616	94.12
361.843	88.12
362.07	103.12
362.296	82.12
362.523	88.12
362.749	94.12
362.976	98.12
363.203	95.12
363.429	85.12
363.656	83.12
363.882	92.12
364.109	102.12
364.335	88.12
364.562	93.12
364.788	92.12
365.015	87.12
365.241	98.12
365.468	121.12
365.694	116.12
365.92	97.12
366.147	88.12
366.373	101.12
366.599	92.12
366.826	85.12
367.052	92.12
367.278	86.12
367.505	92.12
367.731	88.12
367.957	78.12
368.184	88.12
368.41	106.12
368.636	110.12
368.862	104.12
369.089	98.12
369.315	95.12
369.541	82.12
369.767	88.12
369.993	93.12
370.219	93.12
370.445	83.12
370.672	94.12
370.898	83.12
371.124	95.12
371.35	93.12
371.576	95.12
371.802	97.12
372.028	90.12
372.254	81.12
372.48	86.12
372.706	79.12
372.932	93.12
373.158	86.12
373.384	89.12
373.61	90.12
373.835	95.12
374.061	83.12
374.287	87.12
374.513	100.12
374.739	76.12
374.965	81.12
375.191	79.12
375.416	92.12
375.642	91.12
375.868	89.12
376.094	77.12
376.319	78.12
376.545	89.12
376.771	80.12
376.997	93.12
377.222	89.12
377.448	91.12
377.674	75.12
377.899	82.12
378.125	95.12
378.35	84.12
378.576	89.12
378.802	95.12
379.027	89.12
379.253	89.12
379.478	99.12
379.704	93.12
379.929	93.12
380.155	92.12
380.38	98.12
380.606	102.12
380.831	101.12
381.057	99.12
381.282	100.12
381.507	81.12
381.733	81.12
381.958	79.12
382.184	77.12
382.409	92.12
382.634	113.12
382.86	90.12
383.085	95.12
383.31	100.12
383.535	82.12
383.761	94.12
383.986	106.12
384.211	89.12
384.436	89.12
384.662	102.12
384.887	115.12
385.112	109.12
385.337	102.12
385.562	108.12
385.787	107.12
386.013	100.12
386.238	103.12
386.463	101.12
386.688	109.12
386.913	104.12
387.138	101.12
387.363	94.12
387.588	84.12
387.813	103.12
388.038	87.12
388.263	98.12
388.488	101.12
388.713	88.12
388.938	84.12
389.163	97.12
389.387	99.12
389.612	86.12
389.837	97.12
390.062	95.12
390.287	88.12
390.512	80.12
390.736	85.12
390.961	76.12
391.186	99.12
391.411	90.12
391.636	84.12
391.86	84.12
392.085	84.12
392.31	85.12
392.534	85.12
392.759	100.12
392.984	80.12
393.208	62.12
393.433	77.12
393.658	80.12
393.882	76.12
394.107	85.12
394.331	80.12
394.556	76.12
394.78	100.12
395.005	94.12
395.229	93.12
395.454	86.12
395.678	94.12
395.903	84.12
396.127	86.12
396.352	89.12
396.576	80.12
396.801	100.12
397.025	95.12
397.249	75.12
397.474	87.12
397.698	87.12
397.922	93.12
398.147	78.12
398.371	80.12
398.595	86.12
398.82	91.12
399.044	81.12
399.268	86.12
399.492	91.12
399.717	80.12
399.941	81.12
400.165	86.12
400.389	94.12
400.613	96.12
400.837	84.12
401.062	78.12
401.286	85.12
401.51	96.12
401.734	104.12
401.958	98.12
402.182	138.12
402.406	180.12
402.63	115.12
402.854	100.12
403.078	79.12
403.302	93.12
403.526	74.12
403.75	73.12
403.974	73.12
404.198	82.12
404.422	101.12
404.645	82.12
404.869	102.12
405.093	101.12
405.317	101.12
405.541	102.12
405.765	105.12
405.988	134.12
406.212	176.12
406.436	252.12
406.66	157.12
406.883	93.12
407.107	93.12
407.331	74.12
407.555	98.12
407.778	82.12
408.002	91.12
408.226	83.12
408.449	74.12
408.673	94.12
408.896	87.12
409.12	92.12
409.344	87.12
409.567	68.12
409.791	81.12
410.014	91.12
410.238	104.12
410.461	93.12
410.685	91.12
410.908	96.12
411.132	104.12
411.355	97.12
411.578	94.12
411.802	97.12
412.025	84.12
412.249	87.12
412.472	80.12
412.695	101.12
412.919	78.12
413.142	87.12
413.365	86.12
413.589	83.12
413.812	84.12
414.035	94.12
414.258	85.12
414.482	87.12
414.705	81.12
414.928	96.12
415.151	79.12
415.374	98.12
415.597	95.12
415.821	89.12
416.044	105.12
416.267	81.12
416.49	60.12
416.713	98.12
416.936	90.12
417.159	84.12
417.382	81.12
417.605	70.12
417.828	82.12
418.051	92.12
418.274	94.12
418.497	77.12
418.72	82.12
418.943	100.12
419.166	85.12
419.389	97.12
419.611	82.12
419.834	92.12
420.057	83.12
420.28	94.12
420.503	82.12
420.726	88.12
420.948	85.12
421.171	85.12
421.394	87.12
421.617	87.12
421.839	84.12
422.062	76.12
422.285	79.12
422.507	87.12
422.73	99.12
422.953	95.12
423.175	76.12
423.398	96.12
423.621	96.12
423.843	97.12
424.066	79.12
424.288	90.12
424.511	93.12
424.733	100.12
424.956	108.12
425.178	87.12
425.401	81.12
425.623	103.12
425.846	99.12
426.068	94.12
426.291	88.12
426.513	105.12
426.735	80.12
426.958	100.12
427.18	112.12
427.402	142.12
427.625	178.12
427.847	133.12
428.069	100.12
428.292	92.12
428.514	78.12
428.736	81.12
428.958	67.12
429.181	77.12
429.403	85.12
429.625	78.12
429.847	79.12
430.069	99.12
430.292	78.12
430.514	93.12
430.736	90.12
430.958	82.12
431.18	80.12
431.402	74.12
431.624	89.12
431.846	89.12
432.068	81.12
432.29	81.12
432.512	82.12
432.734	86.12
432.956	89.12
433.178	99.12
433.4	100.12
433.622	95.12
433.844	92.12
434.066	80.12
434.287	87.12
434.509	92.12
434.731	94.12
434.953	84.12
435.175	85.12
435.397	97.12
435.618	99.12
435.84	97.12
436.062	114.12
436.284	96.12
436.505	103.12
436.727	96.12
436.949	83.12
437.17	99.12
437.392	90.12
437.614	75.12
437.835	100.12
438.057	121.12
438.278	102.12
438.5	103.12
438.721	127.12
438.943	103.12
439.165	74.12
439.386	86.12
439.608	82.12
439.829	84.12
440.05	139.12
440.272	130.12
440.493	97.12
440.715	78.12
440.936	90.12
441.158	89.12
441.379	100.12
441.6	110.12
441.822	96.12
442.043	91.12
442.264	104.12
442.486	96.12
442.707	93.12
442.928	94.12
443.149	136.12
443.371	145.12
443.592	119.12
443.813	111.12
444.034	113.12
444.255	85.12
444.476	74.12
444.698	97.12
444.919	83.12
445.14	128.12
445.361	121.12
445.582	112.12
445.803	132.12
446.024	129.12
446.245	137.12
446.466	105.12
446.687	97.12
446.908	83.12
447.129	79.12
447.35	83.12
447.571	87.12
447.792	91.12
448.013	108.12
448.234	104.12
448.455	94.12
448.675	108.12
448.896	139.12
449.117	103.12
449.338	118.12
449.559	124.12
449.779	136.12
450	81.12
450.221	81.12
450.442	80.12
450.662	86.12
450.883	103.12
451.104	134.12
451.324	91.12
451.545	75.12
451.766	86.12
451.986	65.12
452.207	83.12
452.428	90.12
452.648	88.12
452.869	94.12
453.089	116.12
453.31	126.12
453.53	90.12
453.751	89.12
453.971	109.12
454.192	114.12
454.412	95.12
454.633	79.12
454.853	77.12
455.073	72.12
455.294	88.12
455.514	101.12
455.734	93.12
455.955	89.12
456.175	67.12
456.395	85.12
456.616	78.12
456.836	89.12
457.056	91.12
457.276	77.12
457.497	87.12
457.717	87.12
457.937	77.12
458.157	71.12
458.377	96.12
458.598	110.12
458.818	160.12
459.038	161.12
459.258	119.12
459.478	98.12
459.698	90.12
459.918	89.12
460.138	85.12
460.358	96.12
460.578	84.12
460.798	94.12
461.018	90.12
461.238	80.12
461.458	80.12
461.678	73.12
461.898	85.12
462.118	78.12
462.338	84.12
462.558	84.12
462.777	77.12
462.997	85.12
463.217	88.12
463.437	95.12
463.657	86.12
463.876	78.12
464.096	93.12
464.316	85.12
464.536	95.12
464.755	95.12
464.975	104.12
465.195	185.12
465.414	163.12
465.634	93.12
465.854	88.12
466.073	86.12
466.293	92.12
466.512	90.12
466.732	87.12
466.951	79.12
467.171	89.12
467.391	91.12
467.61	88.12
467.829	103.12
468.049	123.12
468.268	105.12
468.488	85.12
468.707	90.12
468.927	95.12
469.146	94.12
469.365	88.12
469.585	83.12
469.804	97.12
470.023	102.12
470.243	96.12
470.462	96.12
470.681	104.12
470.901	101.12
471.12	90.12
471.339	77.12
471.558	78.12
471.777	77.12
471.997	71.12
472.216	119.12
472.435	180.12
472.654	93.12
472.873	93.12
473.092	90.12
473.311	77.12
473.53	80.12
473.749	77.12
473.968	101.12
474.187	118.12
474.406	90.12
474.625	96.12
474.844	76.12
475.063	81.12
475.282	83.12
475.501	75.12
475.72	96.12
475.939	84.12
476.158	89.12
476.377	78.12
476.596	83.12
476.814	101.12
477.033	80.12
477.252	87.12
477.471	88.12
477.69	85.12
477.908	87.12
478.127	88.12
478.346	85.12
478.564	85.12
478.783	104.12
479.002	78.12
479.22	96.12
479.439	112.12
479.658	93.12
479.876	96.12
480.095	94.12
480.313	94.12
480.532	85.12
480.751	87.12
480.969	116.12
481.188	266.12
481.406	193.12
481.624	83.12
481.843	85.12
482.061	77.12
482.28	87.12
482.498	76.12
482.717	78.12
482.935	90.12
483.153	88.12
483.372	101.12
483.59	96.12
483.808	81.12
484.027	94.12
484.245	83.12
484.463	87.12
484.681	89.12
484.9	80.12
485.118	78.12
485.336	95.12
485.554	105.12
485.772	97.12
485.99	97.12
486.209	100.12
486.427	92.12
486.645	115.12
486.863	117.12
487.081	106.12
487.299	101.12
487.517	94.12
487.735	71.12
487.953	101.12
488.171	98.12
488.389	87.12
488.607	82.12
488.825	98.12
489.043	94.12
489.261	94.12
489.479	81.12
489.696	93.12
489.914	77.12
490.132	103.12
490.35	83.12
490.568	89.12
490.786	104.12
491.003	88.12
491.221	87.12
491.439	91.12
491.657	94.12
491.874	77.12
492.092	93.12
492.31	98.12
492.527	85.12
492.745	97.12
492.963	72.12
493.18	83.12
493.398	96.12
493.615	87.12
493.833	73.12
494.05	97.12
494.268	96.12
494.485	76.12
494.703	93.12
494.92	96.12
495.138	88.12
495.355	82.12
495.573	94.12
495.79	82.12
496.008	84.12
496.225	95.12
496.442	92.12
496.66	87.12
496.877	89.12
497.094	86.12
497.312	95.12
497.529	81.12
497.746	87.12
497.963	84.12
498.181	85.12
498.398	97.12
498.615	127.12
498.832	109.12
499.049	94.12
499.267	87.12
499.484	83.12
499.701	82.12
499.918	86.12
500.135	82.12
500.352	79.12
500.569	85.12
500.786	79.12
501.003	80.12
501.22	86.12
501.437	86.12
501.654	95.12
501.871	103.12
502.088	85.12
502.305	94.12
502.522	94.12
502.739	101.12
502.956	98.12
503.172	88.12
503.389	88.12
503.606	111.12
503.823	89.12
504.04	90.12
504.256	89.12
504.473	85.12
504.69	90.12
504.907	86.12
505.123	86.12
505.34	94.12
505.557	106.12
505.773	94.12
505.99	82.12
506.207	94.12
506.423	81.12
506.64	94.12
506.856	85.12
507.073	94.12
507.289	92.12
507.506	111.12
507.722	104.12
507.939	111.12
508.155	97.12
508.372	101.12
508.588	96.12
508.805	108.12
509.021	84.12
509.238	87.12
509.454	98.12
509.67	91.12
509.887	112.12
510.103	132.12
510.319	240.12
510.536	842.12
510.752	2799.12
510.968	807.12
511.184	164.12
511.401	117.12
511.617	111.12
511.833	93.12
512.049	81.12
512.265	99.12
512.481	88.12
512.698	82.12
512.914	94.12
513.13	91.12
513.346	97.12
513.562	93.12
513.778	89.12
513.994	93.12
514.21	109.12
514.426	124.12
514.642	160.12
514.858	138.12
515.074	180.12
515.29	525.12
515.506	1840.12
515.721	667.12
515.937	166.12
516.153	120.12
