Data from Circ_2018_H10_HRD10591_00078.txt Node
Date: Wed Jan 03 09:56:17 EST 2024
User: Yrep
Spectrometer: HR+D1059
Trigger mode: 1
Integration Time (sec): 1.000000E-1
Scans to average: 1
Electric dark correction enabled: true
Nonlinearity correction enabled: false
Boxcar width: 0
XAxis mode: Wavelengths
Number of Pixels in Spectrum: 2048
>>>>>Begin Spectral Data<<<<<
223.165	-12.88
223.4	-12.88
223.635	-12.88
223.869	-21.88
224.104	-7.88
224.338	-19.88
224.573	-5.88
224.808	-21.88
225.042	-11.88
225.277	-8.88
225.511	1.12
225.746	6.12
225.98	7.12
226.215	6.12
226.449	18.12
226.683	20.12
226.918	33.12
227.152	19.12
227.387	29.12
227.621	37.12
227.856	45.12
228.09	54.12
228.324	60.12
228.559	53.12
228.793	55.12
229.027	65.12
229.262	71.12
229.496	73.12
229.73	90.12
229.964	83.12
230.199	73.12
230.433	77.12
230.667	88.12
230.901	71.12
231.136	81.12
231.37	86.12
231.604	89.12
231.838	79.12
232.072	84.12
232.306	83.12
232.541	89.12
232.775	73.12
233.009	64.12
233.243	82.12
233.477	86.12
233.711	81.12
233.945	75.12
234.179	79.12
234.413	78.12
234.647	72.12
234.881	78.12
235.115	82.12
235.349	70.12
235.583	75.12
235.817	92.12
236.051	86.12
236.285	78.12
236.519	73.12
236.753	76.12
236.987	73.12
237.221	96.12
237.455	91.12
237.689	85.12
237.922	89.12
238.156	75.12
238.39	75.12
238.624	83.12
238.858	74.12
239.091	80.12
239.325	81.12
239.559	76.12
239.793	90.12
240.027	82.12
240.26	77.12
240.494	89.12
240.728	84.12
240.961	85.12
241.195	83.12
241.429	69.12
241.662	73.12
241.896	81.12
242.13	84.12
242.363	86.12
242.597	72.12
242.83	97.12
243.064	66.12
243.298	89.12
243.531	69.12
243.765	67.12
243.998	76.12
244.232	77.12
244.465	81.12
244.699	85.12
244.932	73.12
245.166	83.12
245.399	72.12
245.633	80.12
245.866	78.12
246.099	75.12
246.333	77.12
246.566	73.12
246.8	66.12
247.033	74.12
247.266	75.12
247.5	82.12
247.733	85.12
247.966	71.12
248.2	85.12
248.433	83.12
248.666	82.12
248.899	73.12
249.133	91.12
249.366	102.12
249.599	91.12
249.832	92.12
250.066	83.12
250.299	87.12
250.532	82.12
250.765	77.12
250.998	82.12
251.231	89.12
251.465	79.12
251.698	84.12
251.931	93.12
252.164	89.12
252.397	96.12
252.63	83.12
252.863	73.12
253.096	74.12
253.329	86.12
253.562	66.12
253.795	88.12
254.028	68.12
254.261	72.12
254.494	84.12
254.727	78.12
254.96	81.12
255.193	84.12
255.426	72.12
255.659	89.12
255.892	77.12
256.124	81.12
256.357	88.12
256.59	94.12
256.823	67.12
257.056	80.12
257.289	82.12
257.521	68.12
257.754	101.12
257.987	83.12
258.22	83.12
258.452	85.12
258.685	73.12
258.918	75.12
259.151	88.12
259.383	71.12
259.616	85.12
259.849	81.12
260.081	75.12
260.314	72.12
260.547	85.12
260.779	84.12
261.012	93.12
261.244	89.12
261.477	85.12
261.71	107.12
261.942	122.12
262.175	135.12
262.407	98.12
262.64	75.12
262.872	86.12
263.105	79.12
263.337	84.12
263.57	96.12
263.802	95.12
264.035	85.12
264.267	90.12
264.499	87.12
264.732	80.12
264.964	74.12
265.197	84.12
265.429	100.12
265.661	83.12
265.894	92.12
266.126	86.12
266.358	91.12
266.591	79.12
266.823	90.12
267.055	77.12
267.287	97.12
267.52	80.12
267.752	73.12
267.984	87.12
268.216	94.12
268.448	81.12
268.681	80.12
268.913	79.12
269.145	86.12
269.377	77.12
269.609	81.12
269.841	83.12
270.073	88.12
270.306	87.12
270.538	86.12
270.77	88.12
271.002	86.12
271.234	83.12
271.466	77.12
271.698	86.12
271.93	91.12
272.162	83.12
272.394	94.12
272.626	88.12
272.858	88.12
273.09	91.12
273.322	96.12
273.553	82.12
273.785	92.12
274.017	93.12
274.249	90.12
274.481	82.12
274.713	78.12
274.945	90.12
275.176	80.12
275.408	105.12
275.64	96.12
275.872	84.12
276.104	101.12
276.335	105.12
276.567	107.12
276.799	115.12
277.031	108.12
277.262	101.12
277.494	78.12
277.726	92.12
277.957	87.12
278.189	104.12
278.421	104.12
278.652	91.12
278.884	72.12
279.115	93.12
279.347	87.12
279.579	92.12
279.81	84.12
280.042	100.12
280.273	103.12
280.505	91.12
280.736	78.12
280.968	89.12
281.199	76.12
281.431	98.12
281.662	98.12
281.894	86.12
282.125	107.12
282.356	138.12
282.588	148.12
282.819	117.12
283.051	90.12
283.282	97.12
283.513	89.12
283.745	78.12
283.976	78.12
284.207	79.12
284.439	97.12
284.67	73.12
284.901	86.12
285.132	77.12
285.364	93.12
285.595	100.12
285.826	72.12
286.057	91.12
286.288	92.12
286.52	86.12
286.751	91.12
286.982	84.12
287.213	72.12
287.444	99.12
287.675	97.12
287.906	93.12
288.138	97.12
288.369	88.12
288.6	77.12
288.831	84.12
289.062	102.12
289.293	79.12
289.524	93.12
289.755	83.12
289.986	92.12
290.217	103.12
290.448	75.12
290.679	91.12
290.91	90.12
291.141	90.12
291.371	90.12
291.602	77.12
291.833	91.12
292.064	84.12
292.295	84.12
292.526	89.12
292.757	83.12
292.987	100.12
293.218	90.12
293.449	90.12
293.68	85.12
293.91	88.12
294.141	96.12
294.372	78.12
294.603	72.12
294.833	82.12
295.064	84.12
295.295	99.12
295.525	84.12
295.756	106.12
295.987	130.12
296.217	161.12
296.448	138.12
296.679	86.12
296.909	81.12
297.14	82.12
297.37	93.12
297.601	88.12
297.831	90.12
298.062	91.12
298.292	93.12
298.523	100.12
298.753	90.12
298.984	99.12
299.214	86.12
299.445	96.12
299.675	93.12
299.905	101.12
300.136	100.12
300.366	72.12
300.597	91.12
300.827	86.12
301.057	109.12
301.288	125.12
301.518	95.12
301.748	87.12
301.979	99.12
302.209	93.12
302.439	89.12
302.669	93.12
302.9	77.12
303.13	83.12
303.36	101.12
303.59	98.12
303.82	120.12
304.051	105.12
304.281	92.12
304.511	81.12
304.741	94.12
304.971	80.12
305.201	93.12
305.431	104.12
305.661	93.12
305.891	89.12
306.121	106.12
306.352	106.12
306.582	103.12
306.812	105.12
307.042	92.12
307.272	78.12
307.502	100.12
307.731	101.12
307.961	94.12
308.191	87.12
308.421	81.12
308.651	88.12
308.881	88.12
309.111	101.12
309.341	95.12
309.571	92.12
309.8	101.12
310.03	95.12
310.26	86.12
310.49	103.12
310.72	99.12
310.949	116.12
311.179	107.12
311.409	101.12
311.639	96.12
311.868	97.12
312.098	97.12
312.328	105.12
312.557	105.12
312.787	108.12
313.017	102.12
313.246	98.12
313.476	99.12
313.706	85.12
313.935	106.12
314.165	105.12
314.394	100.12
314.624	100.12
314.853	100.12
315.083	88.12
315.312	96.12
315.542	108.12
315.771	85.12
316.001	93.12
316.23	89.12
316.46	97.12
316.689	103.12
316.919	110.12
317.148	101.12
317.377	86.12
317.607	82.12
317.836	99.12
318.065	100.12
318.295	90.12
318.524	97.12
318.753	87.12
318.983	93.12
319.212	92.12
319.441	132.12
319.67	101.12
319.9	86.12
320.129	107.12
320.358	90.12
320.587	105.12
320.816	104.12
321.046	106.12
321.275	94.12
321.504	98.12
321.733	92.12
321.962	103.12
322.191	105.12
322.42	113.12
322.649	113.12
322.878	114.12
323.108	113.12
323.337	132.12
323.566	141.12
323.795	179.12
324.024	228.12
324.253	457.12
324.482	969.12
324.71	1965.12
324.939	2529.12
325.168	928.12
325.397	283.12
325.626	174.12
325.855	140.12
326.084	142.12
326.313	147.12
326.542	166.12
326.77	262.12
326.999	486.12
327.228	1004.12
327.457	1848.12
327.686	1532.12
327.914	417.12
328.143	241.12
328.372	179.12
328.6	135.12
328.829	150.12
329.058	156.12
329.287	151.12
329.515	114.12
329.744	92.12
329.972	122.12
330.201	140.12
330.43	156.12
330.658	154.12
330.887	181.12
331.115	154.12
331.344	110.12
331.572	102.12
331.801	104.12
332.03	109.12
332.258	105.12
332.486	101.12
332.715	88.12
332.943	104.12
333.172	91.12
333.4	111.12
333.629	112.12
333.857	116.12
334.085	136.12
334.314	143.12
334.542	179.12
334.771	187.12
334.999	130.12
335.227	112.12
335.455	105.12
335.684	91.12
335.912	92.12
336.14	102.12
336.369	105.12
336.597	112.12
336.825	93.12
337.053	91.12
337.281	88.12
337.51	97.12
337.738	89.12
337.966	98.12
338.194	90.12
338.422	96.12
338.65	93.12
338.878	90.12
339.106	101.12
339.334	97.12
339.562	97.12
339.79	100.12
340.018	91.12
340.246	93.12
340.474	101.12
340.702	92.12
340.93	98.12
341.158	100.12
341.386	98.12
341.614	106.12
341.842	114.12
342.07	85.12
342.298	98.12
342.526	97.12
342.754	81.12
342.981	101.12
343.209	86.12
343.437	96.12
343.665	100.12
343.893	93.12
344.12	91.12
344.348	90.12
344.576	82.12
344.804	89.12
345.031	95.12
345.259	101.12
345.487	105.12
345.714	104.12
345.942	90.12
346.17	96.12
346.397	106.12
346.625	93.12
346.853	98.12
347.08	101.12
347.308	87.12
347.535	81.12
347.763	115.12
347.99	101.12
348.218	122.12
348.445	126.12
348.673	108.12
348.9	124.12
349.128	88.12
349.355	96.12
349.583	80.12
349.81	110.12
350.037	93.12
350.265	103.12
350.492	97.12
350.72	102.12
350.947	116.12
351.174	112.12
351.402	118.12
351.629	105.12
351.856	109.12
352.083	102.12
352.311	124.12
352.538	109.12
352.765	126.12
352.992	116.12
353.22	104.12
353.447	110.12
353.674	105.12
353.901	89.12
354.128	102.12
354.355	90.12
354.583	108.12
354.81	101.12
355.037	93.12
355.264	90.12
355.491	93.12
355.718	86.12
355.945	92.12
356.172	103.12
356.399	106.12
356.626	102.12
356.853	89.12
357.08	94.12
357.307	91.12
357.534	84.12
357.761	82.12
357.988	98.12
358.215	94.12
358.441	93.12
358.668	70.12
358.895	81.12
359.122	93.12
359.349	84.12
359.576	81.12
359.802	107.12
360.029	138.12
360.256	134.12
360.483	114.12
360.709	85.12
360.936	87.12
361.163	107.12
361.39	99.12
361.616	98.12
361.843	104.12
362.07	96.12
362.296	91.12
362.523	93.12
362.749	97.12
362.976	97.12
363.203	102.12
363.429	97.12
363.656	85.12
363.882	87.12
364.109	98.12
364.335	93.12
364.562	93.12
364.788	98.12
365.015	106.12
365.241	100.12
365.468	128.12
365.694	118.12
365.92	99.12
366.147	104.12
366.373	85.12
366.599	87.12
366.826	84.12
367.052	101.12
367.278	90.12
367.505	97.12
367.731	83.12
367.957	86.12
368.184	84.12
368.41	106.12
368.636	112.12
368.862	139.12
369.089	123.12
369.315	105.12
369.541	81.12
369.767	90.12
369.993	97.12
370.219	106.12
370.445	85.12
370.672	74.12
370.898	79.12
371.124	107.12
371.35	96.12
371.576	94.12
371.802	84.12
372.028	97.12
372.254	101.12
372.48	84.12
372.706	89.12
372.932	83.12
373.158	100.12
373.384	100.12
373.61	92.12
373.835	81.12
374.061	88.12
374.287	85.12
374.513	92.12
374.739	71.12
374.965	92.12
375.191	94.12
375.416	101.12
375.642	101.12
375.868	87.12
376.094	72.12
376.319	85.12
376.545	92.12
376.771	86.12
376.997	84.12
377.222	87.12
377.448	84.12
377.674	87.12
377.899	95.12
378.125	98.12
378.35	84.12
378.576	97.12
378.802	70.12
379.027	90.12
379.253	78.12
379.478	94.12
379.704	85.12
379.929	92.12
380.155	92.12
380.38	97.12
380.606	89.12
380.831	94.12
381.057	92.12
381.282	85.12
381.507	101.12
381.733	108.12
381.958	99.12
382.184	113.12
382.409	105.12
382.634	120.12
382.86	96.12
383.085	93.12
383.31	100.12
383.535	96.12
383.761	92.12
383.986	93.12
384.211	72.12
384.436	96.12
384.662	96.12
384.887	96.12
385.112	105.12
385.337	99.12
385.562	93.12
385.787	95.12
386.013	109.12
386.238	112.12
386.463	104.12
386.688	99.12
386.913	107.12
387.138	103.12
387.363	127.12
387.588	100.12
387.813	103.12
388.038	89.12
388.263	109.12
388.488	88.12
388.713	89.12
388.938	78.12
389.163	97.12
389.387	95.12
389.612	85.12
389.837	88.12
390.062	106.12
390.287	90.12
390.512	98.12
390.736	81.12
390.961	91.12
391.186	93.12
391.411	94.12
391.636	81.12
391.86	87.12
392.085	96.12
392.31	74.12
392.534	80.12
392.759	75.12
392.984	79.12
393.208	80.12
393.433	71.12
393.658	82.12
393.882	93.12
394.107	82.12
394.331	77.12
394.556	79.12
394.78	92.12
395.005	93.12
395.229	81.12
395.454	92.12
395.678	99.12
395.903	102.12
396.127	85.12
396.352	92.12
396.576	91.12
396.801	83.12
397.025	76.12
397.249	92.12
397.474	91.12
397.698	88.12
397.922	81.12
398.147	85.12
398.371	84.12
398.595	74.12
398.82	89.12
399.044	79.12
399.268	78.12
399.492	87.12
399.717	92.12
399.941	88.12
400.165	96.12
400.389	89.12
400.613	90.12
400.837	94.12
401.062	83.12
401.286	88.12
401.51	108.12
401.734	92.12
401.958	107.12
402.182	151.12
402.406	195.12
402.63	131.12
402.854	103.12
403.078	88.12
403.302	97.12
403.526	88.12
403.75	86.12
403.974	73.12
404.198	74.12
404.422	81.12
404.645	99.12
404.869	97.12
405.093	104.12
405.317	98.12
405.541	113.12
405.765	105.12
405.988	137.12
406.212	212.12
406.436	298.12
406.66	188.12
406.883	109.12
407.107	91.12
407.331	103.12
407.555	101.12
407.778	103.12
408.002	102.12
408.226	93.12
408.449	91.12
408.673	94.12
408.896	82.12
409.12	93.12
409.344	73.12
409.567	105.12
409.791	94.12
410.014	96.12
410.238	91.12
410.461	90.12
410.685	99.12
410.908	103.12
411.132	105.12
411.355	99.12
411.578	82.12
411.802	64.12
412.025	99.12
412.249	87.12
412.472	93.12
412.695	99.12
412.919	91.12
413.142	82.12
413.365	84.12
413.589	87.12
413.812	115.12
414.035	100.12
414.258	89.12
414.482	100.12
414.705	89.12
414.928	82.12
415.151	107.12
415.374	94.12
415.597	89.12
415.821	97.12
416.044	99.12
416.267	82.12
416.49	95.12
416.713	87.12
416.936	83.12
417.159	92.12
417.382	97.12
417.605	100.12
417.828	100.12
418.051	88.12
418.274	104.12
418.497	86.12
418.72	84.12
418.943	70.12
419.166	94.12
419.389	91.12
419.611	94.12
419.834	77.12
420.057	89.12
420.28	89.12
420.503	91.12
420.726	81.12
420.948	77.12
421.171	94.12
421.394	94.12
421.617	99.12
421.839	86.12
422.062	105.12
422.285	97.12
422.507	103.12
422.73	108.12
422.953	93.12
423.175	91.12
423.398	87.12
423.621	89.12
423.843	92.12
424.066	100.12
424.288	90.12
424.511	87.12
424.733	97.12
424.956	109.12
425.178	105.12
425.401	119.12
425.623	105.12
425.846	94.12
426.068	94.12
426.291	87.12
426.513	93.12
426.735	103.12
426.958	93.12
427.18	112.12
427.402	151.12
427.625	207.12
427.847	151.12
428.069	121.12
428.292	97.12
428.514	97.12
428.736	90.12
428.958	73.12
429.181	91.12
429.403	88.12
429.625	75.12
429.847	71.12
430.069	100.12
430.292	104.12
430.514	70.12
430.736	105.12
430.958	89.12
431.18	73.12
431.402	95.12
431.624	82.12
431.846	92.12
432.068	74.12
432.29	89.12
432.512	99.12
432.734	97.12
432.956	97.12
433.178	94.12
433.4	111.12
433.622	98.12
433.844	92.12
434.066	66.12
434.287	98.12
434.509	73.12
434.731	92.12
434.953	70.12
435.175	78.12
435.397	89.12
435.618	115.12
435.84	99.12
436.062	107.12
436.284	116.12
436.505	112.12
436.727	98.12
436.949	92.12
437.17	92.12
437.392	76.12
437.614	93.12
437.835	108.12
438.057	145.12
438.278	116.12
438.5	105.12
438.721	135.12
438.943	114.12
439.165	85.12
439.386	90.12
439.608	85.12
439.829	112.12
440.05	133.12
440.272	164.12
440.493	108.12
440.715	98.12
440.936	88.12
441.158	98.12
441.379	85.12
441.6	97.12
441.822	108.12
442.043	102.12
442.264	108.12
442.486	106.12
442.707	94.12
442.928	118.12
443.149	148.12
443.371	136.12
443.592	102.12
443.813	117.12
444.034	110.12
444.255	82.12
444.476	89.12
444.698	84.12
444.919	90.12
445.14	153.12
445.361	133.12
445.582	129.12
445.803	162.12
446.024	149.12
446.245	141.12
446.466	110.12
446.687	85.12
446.908	99.12
447.129	85.12
447.35	90.12
447.571	90.12
447.792	86.12
448.013	98.12
448.234	116.12
448.455	106.12
448.675	128.12
448.896	123.12
449.117	97.12
449.338	108.12
449.559	148.12
449.779	136.12
450	91.12
450.221	111.12
450.442	85.12
450.662	107.12
450.883	107.12
451.104	118.12
451.324	85.12
451.545	84.12
451.766	103.12
451.986	99.12
452.207	102.12
452.428	105.12
452.648	115.12
452.869	101.12
453.089	117.12
453.31	123.12
453.53	103.12
453.751	85.12
453.971	120.12
454.192	125.12
454.412	99.12
454.633	80.12
454.853	87.12
455.073	94.12
455.294	87.12
455.514	103.12
455.734	97.12
455.955	94.12
456.175	83.12
456.395	87.12
456.616	88.12
456.836	87.12
457.056	92.12
457.276	72.12
457.497	80.12
457.717	84.12
457.937	74.12
458.157	81.12
458.377	82.12
458.598	121.12
458.818	182.12
459.038	185.12
459.258	138.12
459.478	96.12
459.698	85.12
459.918	81.12
460.138	81.12
460.358	101.12
460.578	86.12
460.798	89.12
461.018	99.12
461.238	70.12
461.458	97.12
461.678	83.12
461.898	98.12
462.118	92.12
462.338	102.12
462.558	83.12
462.777	82.12
462.997	81.12
463.217	82.12
463.437	81.12
463.657	83.12
463.876	85.12
464.096	86.12
464.316	102.12
464.536	99.12
464.755	97.12
464.975	117.12
465.195	209.12
465.414	191.12
465.634	94.12
465.854	89.12
466.073	83.12
466.293	76.12
466.512	85.12
466.732	85.12
466.951	89.12
467.171	101.12
467.391	97.12
467.61	101.12
467.829	106.12
468.049	116.12
468.268	128.12
468.488	104.12
468.707	82.12
468.927	81.12
469.146	78.12
469.365	95.12
469.585	106.12
469.804	107.12
470.023	95.12
470.243	96.12
470.462	101.12
470.681	131.12
470.901	97.12
471.12	98.12
471.339	83.12
471.558	90.12
471.777	100.12
471.997	109.12
472.216	143.12
472.435	215.12
472.654	126.12
472.873	87.12
473.092	84.12
473.311	80.12
473.53	92.12
473.749	90.12
473.968	94.12
474.187	115.12
474.406	100.12
474.625	84.12
474.844	94.12
475.063	92.12
475.282	89.12
475.501	86.12
475.72	89.12
475.939	98.12
476.158	78.12
476.377	83.12
476.596	96.12
476.814	105.12
477.033	95.12
477.252	95.12
477.471	81.12
477.69	96.12
477.908	93.12
478.127	94.12
478.346	94.12
478.564	82.12
478.783	107.12
479.002	98.12
479.22	91.12
479.439	100.12
479.658	105.12
479.876	104.12
480.095	92.12
480.313	99.12
480.532	94.12
480.751	108.12
480.969	151.12
481.188	324.12
481.406	227.12
481.624	115.12
481.843	86.12
482.061	92.12
482.28	83.12
482.498	92.12
482.717	78.12
482.935	82.12
483.153	97.12
483.372	88.12
483.59	89.12
483.808	87.12
484.027	90.12
484.245	103.12
484.463	104.12
484.681	98.12
484.9	73.12
485.118	86.12
485.336	93.12
485.554	92.12
485.772	104.12
485.99	105.12
486.209	101.12
486.427	113.12
486.645	101.12
486.863	119.12
487.081	102.12
487.299	101.12
487.517	102.12
487.735	89.12
487.953	89.12
488.171	91.12
488.389	106.12
488.607	100.12
488.825	97.12
489.043	99.12
489.261	105.12
489.479	98.12
489.696	103.12
489.914	95.12
490.132	98.12
490.35	80.12
490.568	93.12
490.786	102.12
491.003	110.12
491.221	87.12
491.439	87.12
491.657	109.12
491.874	96.12
492.092	75.12
492.31	92.12
492.527	99.12
492.745	96.12
492.963	89.12
493.18	102.12
493.398	101.12
493.615	113.12
493.833	92.12
494.05	91.12
494.268	98.12
494.485	89.12
494.703	89.12
494.92	98.12
495.138	77.12
495.355	96.12
495.573	92.12
495.79	77.12
496.008	83.12
496.225	90.12
496.442	94.12
496.66	97.12
496.877	109.12
497.094	88.12
497.312	99.12
497.529	83.12
497.746	88.12
497.963	91.12
498.181	86.12
498.398	101.12
498.615	118.12
498.832	107.12
499.049	93.12
499.267	87.12
499.484	85.12
499.701	100.12
499.918	92.12
500.135	90.12
500.352	82.12
500.569	88.12
500.786	93.12
501.003	89.12
501.22	91.12
501.437	97.12
501.654	86.12
501.871	110.12
502.088	96.12
502.305	114.12
502.522	87.12
502.739	99.12
502.956	84.12
503.172	81.12
503.389	95.12
503.606	94.12
503.823	107.12
504.04	100.12
504.256	92.12
504.473	89.12
504.69	91.12
504.907	85.12
505.123	87.12
505.34	84.12
505.557	85.12
505.773	85.12
505.99	99.12
506.207	100.12
506.423	82.12
506.64	94.12
506.856	81.12
507.073	90.12
507.289	93.12
507.506	94.12
507.722	128.12
507.939	124.12
508.155	110.12
508.372	85.12
508.588	91.12
508.805	102.12
509.021	102.12
509.238	89.12
509.454	115.12
509.67	106.12
509.887	101.12
510.103	158.12
510.319	242.12
510.536	998.12
510.752	3422.12
510.968	948.12
511.184	184.12
511.401	124.12
511.617	93.12
511.833	102.12
512.049	114.12
512.265	93.12
512.481	86.12
512.698	112.12
512.914	81.12
513.13	93.12
513.346	89.12
513.562	110.12
513.778	97.12
513.994	95.12
514.21	95.12
514.426	129.12
