Data from Circ_2018_H10_HRD10591_00057.txt Node
Date: Wed Jan 03 09:56:13 EST 2024
User: Yrep
Spectrometer: HR+D1059
Trigger mode: 1
Integration Time (sec): 1.000000E-1
Scans to average: 1
Electric dark correction enabled: true
Nonlinearity correction enabled: false
Boxcar width: 0
XAxis mode: Wavelengths
Number of Pixels in Spectrum: 2048
>>>>>Begin Spectral Data<<<<<
223.165	-6.19
223.4	-6.19
223.635	-6.19
223.869	-18.19
224.104	-20.19
224.338	-8.19
224.573	-14.19
224.808	-14.19
225.042	-12.19
225.277	-17.19
225.511	-1.19
225.746	2.81
225.98	18.81
226.215	15.81
226.449	21.81
226.683	4.81
226.918	22.81
227.152	24.81
227.387	34.81
227.621	29.81
227.856	55.81
228.09	52.81
228.324	55.81
228.559	58.81
228.793	60.81
229.027	72.81
229.262	60.81
229.496	70.81
229.73	85.81
229.964	99.81
230.199	75.81
230.433	59.81
230.667	87.81
230.901	76.81
231.136	84.81
231.37	67.81
231.604	66.81
231.838	67.81
232.072	87.81
232.306	83.81
232.541	80.81
232.775	72.81
233.009	84.81
233.243	85.81
233.477	90.81
233.711	77.81
233.945	76.81
234.179	69.81
234.413	66.81
234.647	66.81
234.881	82.81
235.115	96.81
235.349	93.81
235.583	89.81
235.817	88.81
236.051	81.81
236.285	77.81
236.519	76.81
236.753	87.81
236.987	80.81
237.221	80.81
237.455	83.81
237.689	66.81
237.922	66.81
238.156	77.81
238.39	78.81
238.624	72.81
238.858	82.81
239.091	79.81
239.325	68.81
239.559	90.81
239.793	95.81
240.027	68.81
240.26	80.81
240.494	68.81
240.728	82.81
240.961	69.81
241.195	70.81
241.429	70.81
241.662	95.81
241.896	81.81
242.13	79.81
242.363	73.81
242.597	69.81
242.83	87.81
243.064	77.81
243.298	84.81
243.531	62.81
243.765	74.81
243.998	76.81
244.232	72.81
244.465	80.81
244.699	73.81
244.932	83.81
245.166	73.81
245.399	81.81
245.633	79.81
245.866	77.81
246.099	73.81
246.333	76.81
246.566	63.81
246.8	88.81
247.033	86.81
247.266	80.81
247.5	92.81
247.733	92.81
247.966	77.81
248.2	78.81
248.433	79.81
248.666	73.81
248.899	86.81
249.133	85.81
249.366	107.81
249.599	107.81
249.832	90.81
250.066	81.81
250.299	88.81
250.532	93.81
250.765	56.81
250.998	78.81
251.231	79.81
251.465	78.81
251.698	88.81
251.931	80.81
252.164	61.81
252.397	72.81
252.63	77.81
252.863	81.81
253.096	66.81
253.329	90.81
253.562	66.81
253.795	69.81
254.028	76.81
254.261	60.81
254.494	88.81
254.727	79.81
254.96	80.81
255.193	101.81
255.426	96.81
255.659	76.81
255.892	88.81
256.124	75.81
256.357	69.81
256.59	81.81
256.823	74.81
257.056	74.81
257.289	84.81
257.521	69.81
257.754	78.81
257.987	82.81
258.22	73.81
258.452	77.81
258.685	66.81
258.918	81.81
259.151	85.81
259.383	95.81
259.616	74.81
259.849	87.81
260.081	86.81
260.314	82.81
260.547	71.81
260.779	78.81
261.012	69.81
261.244	87.81
261.477	101.81
261.71	116.81
261.942	121.81
262.175	137.81
262.407	103.81
262.64	69.81
262.872	58.81
263.105	83.81
263.337	86.81
263.57	89.81
263.802	88.81
264.035	82.81
264.267	86.81
264.499	91.81
264.732	94.81
264.964	81.81
265.197	87.81
265.429	83.81
265.661	69.81
265.894	77.81
266.126	82.81
266.358	70.81
266.591	70.81
266.823	80.81
267.055	78.81
267.287	85.81
267.52	88.81
267.752	84.81
267.984	70.81
268.216	76.81
268.448	87.81
268.681	76.81
268.913	92.81
269.145	80.81
269.377	89.81
269.609	71.81
269.841	79.81
270.073	79.81
270.306	103.81
270.538	84.81
270.77	68.81
271.002	85.81
271.234	80.81
271.466	92.81
271.698	90.81
271.93	74.81
272.162	83.81
272.394	90.81
272.626	81.81
272.858	68.81
273.09	80.81
273.322	84.81
273.553	100.81
273.785	79.81
274.017	81.81
274.249	66.81
274.481	89.81
274.713	109.81
274.945	75.81
275.176	86.81
275.408	80.81
275.64	88.81
275.872	93.81
276.104	86.81
276.335	90.81
276.567	97.81
276.799	132.81
277.031	112.81
277.262	89.81
277.494	95.81
277.726	83.81
277.957	88.81
278.189	78.81
278.421	83.81
278.652	74.81
278.884	82.81
279.115	87.81
279.347	83.81
279.579	79.81
279.81	86.81
280.042	72.81
280.273	88.81
280.505	82.81
280.736	84.81
280.968	99.81
281.199	84.81
281.431	93.81
281.662	98.81
281.894	87.81
282.125	103.81
282.356	129.81
282.588	164.81
282.819	130.81
283.051	99.81
283.282	90.81
283.513	96.81
283.745	79.81
283.976	89.81
284.207	99.81
284.439	84.81
284.67	97.81
284.901	91.81
285.132	79.81
285.364	88.81
285.595	86.81
285.826	87.81
286.057	78.81
286.288	68.81
286.52	76.81
286.751	87.81
286.982	98.81
287.213	96.81
287.444	83.81
287.675	94.81
287.906	95.81
288.138	88.81
288.369	82.81
288.6	99.81
288.831	80.81
289.062	86.81
289.293	81.81
289.524	97.81
289.755	85.81
289.986	101.81
290.217	81.81
290.448	82.81
290.679	81.81
290.91	88.81
291.141	103.81
291.371	81.81
291.602	96.81
291.833	71.81
292.064	69.81
292.295	90.81
292.526	95.81
292.757	99.81
292.987	75.81
293.218	98.81
293.449	82.81
293.68	89.81
293.91	87.81
294.141	67.81
294.372	75.81
294.603	98.81
294.833	91.81
295.064	88.81
295.295	101.81
295.525	112.81
295.756	105.81
295.987	132.81
296.217	172.81
296.448	157.81
296.679	105.81
296.909	86.81
297.14	90.81
297.37	91.81
297.601	79.81
297.831	91.81
298.062	95.81
298.292	85.81
298.523	91.81
298.753	86.81
298.984	96.81
299.214	83.81
299.445	89.81
299.675	90.81
299.905	95.81
300.136	97.81
300.366	79.81
300.597	100.81
300.827	95.81
301.057	105.81
301.288	119.81
301.518	94.81
301.748	86.81
301.979	88.81
302.209	94.81
302.439	94.81
302.669	103.81
302.9	82.81
303.13	98.81
303.36	87.81
303.59	105.81
303.82	107.81
304.051	74.81
304.281	82.81
304.511	88.81
304.741	73.81
304.971	89.81
305.201	86.81
305.431	86.81
305.661	81.81
305.891	87.81
306.121	100.81
306.352	117.81
306.582	122.81
306.812	90.81
307.042	90.81
307.272	106.81
307.502	109.81
307.731	86.81
307.961	93.81
308.191	82.81
308.421	102.81
308.651	79.81
308.881	89.81
309.111	95.81
309.341	95.81
309.571	84.81
309.8	93.81
310.03	106.81
310.26	97.81
310.49	90.81
310.72	113.81
310.949	115.81
311.179	97.81
311.409	89.81
311.639	94.81
311.868	105.81
312.098	97.81
312.328	97.81
312.557	108.81
312.787	124.81
313.017	113.81
313.246	94.81
313.476	103.81
313.706	89.81
313.935	98.81
314.165	111.81
314.394	91.81
314.624	104.81
314.853	106.81
315.083	100.81
315.312	96.81
315.542	87.81
315.771	79.81
316.001	78.81
316.23	92.81
316.46	80.81
316.689	90.81
316.919	88.81
317.148	97.81
317.377	85.81
317.607	99.81
317.836	99.81
318.065	87.81
318.295	82.81
318.524	95.81
318.753	108.81
318.983	101.81
319.212	101.81
319.441	125.81
319.67	102.81
319.9	111.81
320.129	99.81
320.358	100.81
320.587	95.81
320.816	106.81
321.046	113.81
321.275	97.81
321.504	94.81
321.733	93.81
321.962	95.81
322.191	98.81
322.42	117.81
322.649	126.81
322.878	113.81
323.108	122.81
323.337	139.81
323.566	150.81
323.795	204.81
324.024	242.81
324.253	524.81
324.482	1140.81
324.71	2301.81
324.939	3026.81
325.168	1103.81
325.397	297.81
325.626	182.81
325.855	140.81
326.084	137.81
326.313	155.81
326.542	173.81
326.77	272.81
326.999	559.81
327.228	1206.81
327.457	2192.81
327.686	1716.81
327.914	476.81
328.143	255.81
328.372	192.81
328.6	146.81
328.829	133.81
329.058	160.81
329.287	167.81
329.515	133.81
329.744	121.81
329.972	122.81
330.201	141.81
330.43	171.81
330.658	167.81
330.887	197.81
331.115	146.81
331.344	102.81
331.572	100.81
331.801	115.81
332.03	115.81
332.258	95.81
332.486	84.81
332.715	82.81
332.943	96.81
333.172	86.81
333.4	102.81
333.629	109.81
333.857	124.81
334.085	128.81
334.314	133.81
334.542	160.81
334.771	176.81
334.999	113.81
335.227	110.81
335.455	95.81
335.684	99.81
335.912	109.81
336.14	103.81
336.369	93.81
336.597	116.81
336.825	101.81
337.053	101.81
337.281	91.81
337.51	81.81
337.738	83.81
337.966	94.81
338.194	100.81
338.422	96.81
338.65	89.81
338.878	96.81
339.106	79.81
339.334	96.81
339.562	101.81
339.79	99.81
340.018	85.81
340.246	88.81
340.474	96.81
340.702	88.81
340.93	88.81
341.158	99.81
341.386	98.81
341.614	101.81
341.842	89.81
342.07	90.81
342.298	102.81
342.526	102.81
342.754	82.81
342.981	81.81
343.209	87.81
343.437	103.81
343.665	91.81
343.893	96.81
344.12	89.81
344.348	81.81
344.576	90.81
344.804	89.81
345.031	104.81
345.259	106.81
345.487	101.81
345.714	88.81
345.942	92.81
346.17	76.81
346.397	94.81
346.625	97.81
346.853	94.81
347.08	71.81
347.308	85.81
347.535	96.81
347.763	110.81
347.99	94.81
348.218	99.81
348.445	124.81
348.673	101.81
348.9	95.81
349.128	88.81
349.355	93.81
349.583	81.81
349.81	89.81
350.037	90.81
350.265	88.81
350.492	95.81
350.72	103.81
350.947	97.81
351.174	117.81
351.402	113.81
351.629	108.81
351.856	108.81
352.083	94.81
352.311	122.81
352.538	119.81
352.765	112.81
352.992	116.81
353.22	126.81
353.447	89.81
353.674	100.81
353.901	109.81
354.128	96.81
354.355	91.81
354.583	92.81
354.81	90.81
355.037	81.81
355.264	91.81
355.491	92.81
355.718	90.81
355.945	82.81
356.172	110.81
356.399	105.81
356.626	86.81
356.853	91.81
357.08	99.81
357.307	94.81
357.534	103.81
357.761	93.81
357.988	94.81
358.215	94.81
358.441	83.81
358.668	82.81
358.895	95.81
359.122	89.81
359.349	80.81
359.576	106.81
359.802	113.81
360.029	135.81
360.256	135.81
360.483	96.81
360.709	81.81
360.936	95.81
361.163	89.81
361.39	104.81
361.616	105.81
361.843	98.81
362.07	92.81
362.296	92.81
362.523	103.81
362.749	88.81
362.976	85.81
363.203	102.81
363.429	92.81
363.656	85.81
363.882	82.81
364.109	109.81
364.335	101.81
364.562	85.81
364.788	100.81
365.015	100.81
365.241	125.81
365.468	116.81
365.694	119.81
365.92	110.81
366.147	91.81
366.373	84.81
366.599	100.81
366.826	104.81
367.052	82.81
367.278	88.81
367.505	82.81
367.731	99.81
367.957	99.81
368.184	91.81
368.41	85.81
368.636	125.81
368.862	146.81
369.089	125.81
369.315	99.81
369.541	90.81
369.767	91.81
369.993	88.81
370.219	86.81
370.445	89.81
370.672	87.81
370.898	98.81
371.124	91.81
371.35	85.81
371.576	92.81
371.802	93.81
372.028	86.81
372.254	65.81
372.48	90.81
372.706	103.81
372.932	90.81
373.158	86.81
373.384	86.81
373.61	79.81
373.835	78.81
374.061	78.81
374.287	91.81
374.513	94.81
374.739	86.81
374.965	66.81
375.191	91.81
375.416	93.81
375.642	89.81
375.868	99.81
376.094	87.81
376.319	101.81
376.545	97.81
376.771	98.81
376.997	95.81
377.222	91.81
377.448	85.81
377.674	91.81
377.899	84.81
378.125	85.81
378.35	87.81
378.576	87.81
378.802	95.81
379.027	100.81
379.253	99.81
379.478	95.81
379.704	90.81
379.929	82.81
380.155	78.81
380.38	86.81
380.606	94.81
380.831	94.81
381.057	95.81
381.282	109.81
381.507	93.81
381.733	102.81
381.958	100.81
382.184	97.81
382.409	100.81
382.634	94.81
382.86	100.81
383.085	98.81
383.31	100.81
383.535	108.81
383.761	98.81
383.986	100.81
384.211	96.81
384.436	106.81
384.662	89.81
384.887	90.81
385.112	92.81
385.337	94.81
385.562	97.81
385.787	98.81
386.013	112.81
386.238	112.81
386.463	104.81
386.688	108.81
386.913	110.81
387.138	99.81
387.363	103.81
387.588	92.81
387.813	94.81
388.038	89.81
388.263	117.81
388.488	103.81
388.713	90.81
388.938	96.81
389.163	101.81
389.387	97.81
389.612	92.81
389.837	85.81
390.062	92.81
390.287	80.81
390.512	88.81
390.736	92.81
390.961	84.81
391.186	96.81
391.411	82.81
391.636	83.81
391.86	77.81
392.085	93.81
392.31	85.81
392.534	79.81
392.759	92.81
392.984	89.81
393.208	86.81
393.433	82.81
393.658	76.81
393.882	65.81
394.107	77.81
394.331	85.81
394.556	87.81
394.78	90.81
395.005	97.81
395.229	80.81
395.454	85.81
395.678	90.81
395.903	89.81
396.127	101.81
396.352	84.81
396.576	82.81
396.801	104.81
397.025	97.81
397.249	84.81
397.474	95.81
397.698	82.81
397.922	95.81
398.147	90.81
398.371	82.81
398.595	90.81
398.82	78.81
399.044	81.81
399.268	85.81
399.492	98.81
399.717	94.81
399.941	90.81
400.165	89.81
400.389	89.81
400.613	89.81
400.837	84.81
401.062	82.81
401.286	76.81
401.51	104.81
401.734	92.81
401.958	105.81
402.182	144.81
402.406	229.81
402.63	144.81
402.854	85.81
403.078	86.81
403.302	87.81
403.526	78.81
403.75	87.81
403.974	80.81
404.198	75.81
404.422	94.81
404.645	92.81
404.869	87.81
405.093	101.81
405.317	98.81
405.541	100.81
405.765	117.81
405.988	144.81
406.212	217.81
406.436	350.81
406.66	213.81
406.883	97.81
407.107	99.81
407.331	98.81
407.555	111.81
407.778	108.81
408.002	97.81
408.226	96.81
408.449	99.81
408.673	93.81
408.896	93.81
409.12	98.81
409.344	101.81
409.567	78.81
409.791	92.81
410.014	81.81
410.238	99.81
410.461	96.81
410.685	104.81
410.908	100.81
411.132	101.81
411.355	114.81
411.578	93.81
411.802	77.81
412.025	88.81
412.249	92.81
412.472	82.81
412.695	93.81
412.919	87.81
413.142	87.81
413.365	97.81
413.589	85.81
413.812	85.81
414.035	81.81
414.258	88.81
414.482	88.81
414.705	83.81
414.928	85.81
415.151	85.81
415.374	91.81
415.597	94.81
415.821	79.81
416.044	84.81
416.267	99.81
416.49	98.81
416.713	89.81
416.936	93.81
417.159	75.81
417.382	92.81
417.605	87.81
417.828	83.81
418.051	89.81
418.274	86.81
418.497	87.81
418.72	80.81
418.943	87.81
419.166	92.81
419.389	79.81
419.611	86.81
419.834	90.81
420.057	95.81
420.28	85.81
420.503	84.81
420.726	86.81
420.948	98.81
421.171	101.81
421.394	92.81
421.617	75.81
421.839	73.81
422.062	90.81
422.285	88.81
422.507	84.81
422.73	103.81
422.953	97.81
423.175	98.81
423.398	97.81
423.621	101.81
423.843	74.81
424.066	92.81
424.288	85.81
424.511	89.81
424.733	95.81
424.956	107.81
425.178	98.81
425.401	99.81
425.623	96.81
425.846	99.81
426.068	89.81
426.291	97.81
426.513	105.81
426.735	94.81
426.958	95.81
427.18	103.81
427.402	169.81
427.625	226.81
427.847	166.81
428.069	106.81
428.292	93.81
428.514	94.81
428.736	81.81
428.958	84.81
429.181	87.81
429.403	94.81
429.625	79.81
429.847	88.81
430.069	98.81
430.292	105.81
430.514	83.81
430.736	95.81
430.958	83.81
431.18	75.81
431.402	79.81
431.624	81.81
431.846	85.81
432.068	80.81
432.29	86.81
432.512	85.81
432.734	84.81
432.956	110.81
433.178	98.81
433.4	94.81
433.622	77.81
433.844	80.81
434.066	105.81
434.287	112.81
434.509	92.81
434.731	106.81
434.953	86.81
435.175	96.81
435.397	83.81
435.618	95.81
435.84	110.81
436.062	134.81
436.284	143.81
436.505	112.81
436.727	103.81
436.949	79.81
437.17	83.81
437.392	82.81
437.614	95.81
437.835	112.81
438.057	158.81
438.278	124.81
438.5	124.81
438.721	132.81
438.943	117.81
439.165	102.81
439.386	92.81
439.608	87.81
439.829	113.81
440.05	148.81
440.272	173.81
440.493	100.81
440.715	86.81
440.936	84.81
441.158	74.81
441.379	105.81
441.6	97.81
441.822	112.81
442.043	115.81
442.264	129.81
442.486	111.81
442.707	95.81
442.928	111.81
443.149	147.81
443.371	150.81
443.592	122.81
443.813	120.81
444.034	112.81
444.255	92.81
444.476	95.81
444.698	98.81
444.919	93.81
445.14	137.81
445.361	129.81
445.582	142.81
445.803	168.81
446.024	150.81
446.245	155.81
446.466	118.81
446.687	79.81
446.908	95.81
447.129	85.81
447.35	83.81
447.571	97.81
447.792	97.81
448.013	99.81
448.234	130.81
448.455	104.81
448.675	108.81
448.896	130.81
449.117	120.81
449.338	118.81
449.559	148.81
449.779	153.81
450	110.81
450.221	91.81
450.442	103.81
450.662	105.81
450.883	118.81
451.104	152.81
451.324	104.81
451.545	119.81
451.766	97.81
451.986	91.81
452.207	92.81
452.428	84.81
452.648	106.81
452.869	117.81
453.089	135.81
453.31	134.81
453.53	96.81
453.751	99.81
453.971	117.81
454.192	145.81
454.412	93.81
454.633	81.81
454.853	93.81
455.073	78.81
455.294	98.81
455.514	103.81
455.734	92.81
455.955	83.81
456.175	88.81
456.395	79.81
456.616	80.81
456.836	82.81
457.056	87.81
457.276	95.81
457.497	77.81
457.717	100.81
457.937	91.81
458.157	91.81
458.377	99.81
458.598	141.81
458.818	204.81
459.038	224.81
459.258	129.81
459.478	93.81
459.698	84.81
459.918	81.81
460.138	87.81
460.358	81.81
460.578	88.81
460.798	83.81
461.018	83.81
461.238	87.81
461.458	88.81
461.678	81.81
461.898	91.81
462.118	89.81
462.338	94.81
462.558	84.81
462.777	72.81
462.997	92.81
463.217	75.81
463.437	86.81
463.657	85.81
463.876	80.81
464.096	82.81
464.316	108.81
464.536	114.81
464.755	96.81
464.975	124.81
465.195	241.81
465.414	221.81
465.634	92.81
465.854	90.81
466.073	79.81
466.293	97.81
466.512	84.81
466.732	84.81
466.951	84.81
467.171	89.81
467.391	93.81
467.61	124.81
467.829	112.81
468.049	120.81
468.268	119.81
468.488	83.81
468.707	83.81
468.927	79.81
469.146	64.81
469.365	80.81
469.585	94.81
469.804	93.81
470.023	93.81
470.243	81.81
470.462	99.81
470.681	136.81
470.901	104.81
471.12	81.81
471.339	85.81
471.558	93.81
471.777	92.81
471.997	99.81
472.216	144.81
472.435	211.81
472.654	125.81
472.873	96.81
473.092	85.81
473.311	87.81
473.53	92.81
473.749	84.81
473.968	99.81
474.187	110.81
474.406	112.81
474.625	96.81
474.844	79.81
475.063	92.81
475.282	97.81
475.501	83.81
475.72	95.81
475.939	81.81
476.158	89.81
476.377	75.81
476.596	83.81
476.814	83.81
477.033	93.81
477.252	89.81
477.471	80.81
477.69	89.81
477.908	79.81
478.127	86.81
478.346	91.81
478.564	86.81
478.783	101.81
479.002	101.81
479.22	92.81
479.439	102.81
479.658	111.81
479.876	96.81
480.095	97.81
480.313	104.81
480.532	94.81
480.751	98.81
480.969	139.81
481.188	296.81
481.406	222.81
481.624	120.81
481.843	95.81
482.061	91.81
482.28	90.81
482.498	86.81
482.717	88.81
482.935	91.81
483.153	92.81
483.372	95.81
483.59	85.81
483.808	89.81
484.027	97.81
484.245	90.81
484.463	94.81
484.681	100.81
484.9	98.81
485.118	92.81
485.336	100.81
485.554	90.81
485.772	106.81
485.99	98.81
486.209	89.81
486.427	98.81
486.645	116.81
486.863	119.81
487.081	110.81
487.299	92.81
487.517	93.81
487.735	98.81
487.953	83.81
488.171	103.81
488.389	93.81
488.607	107.81
488.825	93.81
489.043	88.81
489.261	94.81
489.479	95.81
489.696	85.81
489.914	102.81
490.132	96.81
490.35	85.81
490.568	78.81
490.786	96.81
491.003	102.81
491.221	85.81
491.439	98.81
491.657	87.81
491.874	92.81
492.092	79.81
492.31	84.81
492.527	78.81
492.745	75.81
492.963	84.81
493.18	78.81
493.398	102.81
493.615	96.81
493.833	93.81
494.05	82.81
494.268	95.81
494.485	105.81
494.703	85.81
494.92	96.81
495.138	91.81
495.355	93.81
495.573	86.81
495.79	78.81
496.008	89.81
496.225	84.81
496.442	97.81
496.66	95.81
496.877	96.81
497.094	92.81
497.312	92.81
497.529	101.81
497.746	92.81
497.963	86.81
498.181	87.81
498.398	91.81
498.615	112.81
498.832	107.81
499.049	101.81
499.267	84.81
499.484	79.81
499.701	85.81
499.918	94.81
500.135	93.81
500.352	79.81
500.569	84.81
500.786	97.81
501.003	100.81
501.22	78.81
501.437	89.81
501.654	83.81
501.871	126.81
502.088	102.81
502.305	104.81
502.522	92.81
502.739	97.81
502.956	92.81
503.172	85.81
503.389	87.81
503.606	112.81
503.823	101.81
504.04	100.81
504.256	106.81
504.473	110.81
504.69	103.81
504.907	105.81
505.123	93.81
505.34	80.81
505.557	91.81
505.773	77.81
505.99	84.81
506.207	94.81
506.423	89.81
506.64	73.81
506.856	98.81
507.073	74.81
507.289	87.81
507.506	96.81
507.722	126.81
507.939	114.81
508.155	111.81
508.372	103.81
508.588	95.81
508.805	97.81
509.021	82.81
509.238	96.81
509.454	105.81
509.67	108.81
509.887	120.81
510.103	149.81
510.319	285.81
510.536	1125.81
510.752	3906.81
510.968	1063.81
511.184	210.81
511.401	134.81
511.617	124.81
511.833	95.81
512.049	96.81
512.265	86.81
512.481	88.81
512.698	96.81
512.914	86.81
513.13	95.81
513.346	96.81
513.562	93.81
513.778	95.81
513.994	106.81
514.21	114.81
514.426	145.81
514.642	163.81
514.858	152.81
515.074	226.81
