Data from Circ_2018_H10_HRD10591_00094.txt Node
Date: Wed Jan 03 09:56:20 EST 2024
User: Yrep
Spectrometer: HR+D1059
Trigger mode: 1
Integration Time (sec): 1.000000E-1
Scans to average: 1
Electric dark correction enabled: true
Nonlinearity correction enabled: false
Boxcar width: 0
XAxis mode: Wavelengths
Number of Pixels in Spectrum: 2048
>>>>>Begin Spectral Data<<<<<
223.165	-15.69
223.4	-15.69
223.635	-15.69
223.869	-29.69
224.104	-12.69
224.338	-23.69
224.573	-15.69
224.808	-7.69
225.042	-10.69
225.277	0.31
225.511	-6.69
225.746	-9.69
225.98	10.31
226.215	18.31
226.449	27.31
226.683	26.31
226.918	24.31
227.152	25.31
227.387	42.31
227.621	40.31
227.856	32.31
228.09	49.31
228.324	60.31
228.559	67.31
228.793	71.31
229.027	57.31
229.262	61.31
229.496	80.31
229.73	90.31
229.964	90.31
230.199	65.31
230.433	80.31
230.667	77.31
230.901	71.31
231.136	69.31
231.37	67.31
231.604	88.31
231.838	79.31
232.072	78.31
232.306	71.31
232.541	79.31
232.775	70.31
233.009	76.31
233.243	72.31
233.477	75.31
233.711	74.31
233.945	78.31
234.179	81.31
234.413	73.31
234.647	82.31
234.881	80.31
235.115	80.31
235.349	85.31
235.583	88.31
235.817	89.31
236.051	72.31
236.285	66.31
236.519	73.31
236.753	74.31
236.987	80.31
237.221	78.31
237.455	84.31
237.689	75.31
237.922	71.31
238.156	72.31
238.39	92.31
238.624	63.31
238.858	73.31
239.091	75.31
239.325	80.31
239.559	81.31
239.793	82.31
240.027	79.31
240.26	79.31
240.494	89.31
240.728	71.31
240.961	73.31
241.195	70.31
241.429	71.31
241.662	73.31
241.896	78.31
242.13	81.31
242.363	85.31
242.597	73.31
242.83	77.31
243.064	86.31
243.298	67.31
243.531	73.31
243.765	70.31
243.998	69.31
244.232	87.31
244.465	95.31
244.699	71.31
244.932	77.31
245.166	81.31
245.399	83.31
245.633	75.31
245.866	75.31
246.099	88.31
246.333	78.31
246.566	72.31
246.8	72.31
247.033	73.31
247.266	72.31
247.5	64.31
247.733	81.31
247.966	99.31
248.2	88.31
248.433	72.31
248.666	79.31
248.899	81.31
249.133	85.31
249.366	98.31
249.599	98.31
249.832	78.31
250.066	87.31
250.299	71.31
250.532	73.31
250.765	76.31
250.998	70.31
251.231	78.31
251.465	74.31
251.698	85.31
251.931	89.31
252.164	85.31
252.397	64.31
252.63	78.31
252.863	76.31
253.096	79.31
253.329	77.31
253.562	73.31
253.795	80.31
254.028	83.31
254.261	78.31
254.494	86.31
254.727	74.31
254.96	79.31
255.193	81.31
255.426	55.31
255.659	64.31
255.892	80.31
256.124	60.31
256.357	75.31
256.59	88.31
256.823	70.31
257.056	85.31
257.289	80.31
257.521	74.31
257.754	83.31
257.987	87.31
258.22	79.31
258.452	83.31
258.685	91.31
258.918	69.31
259.151	79.31
259.383	86.31
259.616	66.31
259.849	83.31
260.081	85.31
260.314	86.31
260.547	84.31
260.779	70.31
261.012	66.31
261.244	90.31
261.477	86.31
261.71	94.31
261.942	114.31
262.175	116.31
262.407	78.31
262.64	75.31
262.872	80.31
263.105	73.31
263.337	90.31
263.57	79.31
263.802	64.31
264.035	83.31
264.267	74.31
264.499	93.31
264.732	90.31
264.964	71.31
265.197	94.31
265.429	81.31
265.661	85.31
265.894	85.31
266.126	85.31
266.358	73.31
266.591	75.31
266.823	69.31
267.055	70.31
267.287	75.31
267.52	72.31
267.752	82.31
267.984	79.31
268.216	84.31
268.448	74.31
268.681	84.31
268.913	79.31
269.145	81.31
269.377	76.31
269.609	82.31
269.841	82.31
270.073	95.31
270.306	90.31
270.538	87.31
270.77	104.31
271.002	92.31
271.234	86.31
271.466	90.31
271.698	81.31
271.93	80.31
272.162	87.31
272.394	94.31
272.626	86.31
272.858	96.31
273.09	84.31
273.322	78.31
273.553	99.31
273.785	89.31
274.017	73.31
274.249	70.31
274.481	86.31
274.713	88.31
274.945	72.31
275.176	90.31
275.408	88.31
275.64	87.31
275.872	84.31
276.104	80.31
276.335	86.31
276.567	99.31
276.799	119.31
277.031	113.31
277.262	95.31
277.494	105.31
277.726	79.31
277.957	87.31
278.189	82.31
278.421	73.31
278.652	96.31
278.884	78.31
279.115	85.31
279.347	78.31
279.579	83.31
279.81	73.31
280.042	103.31
280.273	91.31
280.505	90.31
280.736	84.31
280.968	87.31
281.199	85.31
281.431	83.31
281.662	80.31
281.894	96.31
282.125	104.31
282.356	140.31
282.588	163.31
282.819	136.31
283.051	83.31
283.282	94.31
283.513	91.31
283.745	95.31
283.976	83.31
284.207	83.31
284.439	95.31
284.67	92.31
284.901	79.31
285.132	85.31
285.364	81.31
285.595	73.31
285.826	80.31
286.057	82.31
286.288	85.31
286.52	89.31
286.751	73.31
286.982	77.31
287.213	75.31
287.444	87.31
287.675	79.31
287.906	97.31
288.138	82.31
288.369	96.31
288.6	86.31
288.831	87.31
289.062	84.31
289.293	91.31
289.524	95.31
289.755	72.31
289.986	89.31
290.217	88.31
290.448	82.31
290.679	99.31
290.91	88.31
291.141	83.31
291.371	82.31
291.602	81.31
291.833	86.31
292.064	92.31
292.295	80.31
292.526	70.31
292.757	83.31
292.987	70.31
293.218	100.31
293.449	91.31
293.68	92.31
293.91	87.31
294.141	102.31
294.372	84.31
294.603	72.31
294.833	78.31
295.064	95.31
295.295	81.31
295.525	86.31
295.756	100.31
295.987	110.31
296.217	152.31
296.448	146.31
296.679	96.31
296.909	84.31
297.14	85.31
297.37	88.31
297.601	80.31
297.831	73.31
298.062	89.31
298.292	71.31
298.523	85.31
298.753	80.31
298.984	90.31
299.214	89.31
299.445	96.31
299.675	94.31
299.905	100.31
300.136	86.31
300.366	93.31
300.597	97.31
300.827	103.31
301.057	95.31
301.288	117.31
301.518	90.31
301.748	88.31
301.979	106.31
302.209	93.31
302.439	80.31
302.669	83.31
302.9	88.31
303.13	91.31
303.36	90.31
303.59	113.31
303.82	115.31
304.051	111.31
304.281	80.31
304.511	74.31
304.741	83.31
304.971	86.31
305.201	96.31
305.431	107.31
305.661	86.31
305.891	91.31
306.121	92.31
306.352	109.31
306.582	89.31
306.812	83.31
307.042	99.31
307.272	96.31
307.502	103.31
307.731	96.31
307.961	86.31
308.191	87.31
308.421	83.31
308.651	82.31
308.881	82.31
309.111	85.31
309.341	97.31
309.571	96.31
309.8	87.31
310.03	98.31
310.26	87.31
310.49	109.31
310.72	98.31
310.949	105.31
311.179	104.31
311.409	100.31
311.639	85.31
311.868	104.31
312.098	94.31
312.328	96.31
312.557	110.31
312.787	128.31
313.017	115.31
313.246	98.31
313.476	90.31
313.706	86.31
313.935	105.31
314.165	93.31
314.394	93.31
314.624	77.31
314.853	96.31
315.083	95.31
315.312	87.31
315.542	102.31
315.771	99.31
316.001	83.31
316.23	81.31
316.46	81.31
316.689	85.31
316.919	94.31
317.148	88.31
317.377	90.31
317.607	101.31
317.836	89.31
318.065	88.31
318.295	100.31
318.524	94.31
318.753	86.31
318.983	95.31
319.212	95.31
319.441	97.31
319.67	105.31
319.9	83.31
320.129	103.31
320.358	75.31
320.587	99.31
320.816	100.31
321.046	111.31
321.275	98.31
321.504	95.31
321.733	99.31
321.962	102.31
322.191	99.31
322.42	122.31
322.649	105.31
322.878	124.31
323.108	134.31
323.337	146.31
323.566	154.31
323.795	152.31
324.024	233.31
324.253	435.31
324.482	961.31
324.71	2011.31
324.939	2674.31
325.168	951.31
325.397	280.31
325.626	159.31
325.855	122.31
326.084	138.31
326.313	142.31
326.542	174.31
326.77	267.31
326.999	544.31
327.228	1046.31
327.457	1913.31
327.686	1513.31
327.914	436.31
328.143	230.31
328.372	198.31
328.6	143.31
328.829	124.31
329.058	143.31
329.287	142.31
329.515	124.31
329.744	114.31
329.972	131.31
330.201	165.31
330.43	208.31
330.658	171.31
330.887	166.31
331.115	150.31
331.344	107.31
331.572	100.31
331.801	99.31
332.03	111.31
332.258	105.31
332.486	89.31
332.715	111.31
332.943	91.31
333.172	99.31
333.4	89.31
333.629	110.31
333.857	130.31
334.085	139.31
334.314	162.31
334.542	231.31
334.771	234.31
334.999	128.31
335.227	115.31
335.455	103.31
335.684	91.31
335.912	98.31
336.14	100.31
336.369	94.31
336.597	99.31
336.825	103.31
337.053	89.31
337.281	82.31
337.51	84.31
337.738	85.31
337.966	97.31
338.194	89.31
338.422	91.31
338.65	86.31
338.878	91.31
339.106	83.31
339.334	101.31
339.562	83.31
339.79	87.31
340.018	82.31
340.246	89.31
340.474	98.31
340.702	105.31
340.93	96.31
341.158	98.31
341.386	94.31
341.614	95.31
341.842	98.31
342.07	94.31
342.298	83.31
342.526	89.31
342.754	84.31
342.981	83.31
343.209	71.31
343.437	88.31
343.665	103.31
343.893	86.31
344.12	106.31
344.348	92.31
344.576	98.31
344.804	88.31
345.031	106.31
345.259	105.31
345.487	103.31
345.714	82.31
345.942	89.31
346.17	90.31
346.397	71.31
346.625	84.31
346.853	98.31
347.08	87.31
347.308	83.31
347.535	110.31
347.763	105.31
347.99	100.31
348.218	93.31
348.445	92.31
348.673	110.31
348.9	101.31
349.128	96.31
349.355	92.31
349.583	102.31
349.81	94.31
350.037	99.31
350.265	92.31
350.492	105.31
350.72	108.31
350.947	98.31
351.174	119.31
351.402	127.31
351.629	111.31
351.856	107.31
352.083	126.31
352.311	124.31
352.538	112.31
352.765	108.31
352.992	103.31
353.22	98.31
353.447	98.31
353.674	96.31
353.901	84.31
354.128	96.31
354.355	89.31
354.583	94.31
354.81	95.31
355.037	87.31
355.264	99.31
355.491	89.31
355.718	88.31
355.945	97.31
356.172	83.31
356.399	106.31
356.626	100.31
356.853	82.31
357.08	103.31
357.307	79.31
357.534	85.31
357.761	104.31
357.988	101.31
358.215	92.31
358.441	89.31
358.668	99.31
358.895	83.31
359.122	91.31
359.349	76.31
359.576	94.31
359.802	112.31
360.029	136.31
360.256	112.31
360.483	119.31
360.709	84.31
360.936	88.31
361.163	98.31
361.39	103.31
361.616	99.31
361.843	95.31
362.07	102.31
362.296	107.31
362.523	94.31
362.749	95.31
362.976	109.31
363.203	89.31
363.429	81.31
363.656	90.31
363.882	89.31
364.109	101.31
364.335	89.31
364.562	95.31
364.788	90.31
365.015	91.31
365.241	102.31
365.468	120.31
365.694	110.31
365.92	105.31
366.147	91.31
366.373	81.31
366.599	88.31
366.826	104.31
367.052	75.31
367.278	101.31
367.505	87.31
367.731	91.31
367.957	104.31
368.184	99.31
368.41	108.31
368.636	113.31
368.862	136.31
369.089	107.31
369.315	105.31
369.541	105.31
369.767	82.31
369.993	88.31
370.219	97.31
370.445	90.31
370.672	94.31
370.898	83.31
371.124	79.31
371.35	76.31
371.576	95.31
371.802	77.31
372.028	92.31
372.254	99.31
372.48	86.31
372.706	79.31
372.932	81.31
373.158	73.31
373.384	89.31
373.61	94.31
373.835	78.31
374.061	91.31
374.287	95.31
374.513	87.31
374.739	80.31
374.965	90.31
375.191	87.31
375.416	63.31
375.642	73.31
375.868	90.31
376.094	96.31
376.319	84.31
376.545	86.31
376.771	97.31
376.997	76.31
377.222	98.31
377.448	85.31
377.674	88.31
377.899	77.31
378.125	88.31
378.35	80.31
378.576	87.31
378.802	95.31
379.027	86.31
379.253	83.31
379.478	90.31
379.704	81.31
379.929	90.31
380.155	103.31
380.38	87.31
380.606	100.31
380.831	92.31
381.057	102.31
381.282	100.31
381.507	97.31
381.733	79.31
381.958	90.31
382.184	97.31
382.409	97.31
382.634	90.31
382.86	89.31
383.085	88.31
383.31	111.31
383.535	110.31
383.761	101.31
383.986	99.31
384.211	101.31
384.436	102.31
384.662	94.31
384.887	105.31
385.112	115.31
385.337	96.31
385.562	98.31
385.787	124.31
386.013	107.31
386.238	118.31
386.463	103.31
386.688	120.31
386.913	94.31
387.138	101.31
387.363	99.31
387.588	99.31
387.813	105.31
388.038	111.31
388.263	126.31
388.488	110.31
388.713	80.31
388.938	90.31
389.163	92.31
389.387	72.31
389.612	104.31
389.837	101.31
390.062	87.31
390.287	95.31
390.512	96.31
390.736	98.31
390.961	77.31
391.186	86.31
391.411	92.31
391.636	88.31
391.86	78.31
392.085	73.31
392.31	86.31
392.534	80.31
392.759	97.31
392.984	76.31
393.208	83.31
393.433	69.31
393.658	82.31
393.882	82.31
394.107	71.31
394.331	84.31
394.556	85.31
394.78	71.31
395.005	79.31
395.229	80.31
395.454	95.31
395.678	70.31
395.903	87.31
396.127	82.31
396.352	79.31
396.576	87.31
396.801	78.31
397.025	92.31
397.249	84.31
397.474	85.31
397.698	71.31
397.922	88.31
398.147	91.31
398.371	86.31
398.595	99.31
398.82	82.31
399.044	81.31
399.268	84.31
399.492	86.31
399.717	81.31
399.941	100.31
400.165	101.31
400.389	88.31
400.613	80.31
400.837	89.31
401.062	95.31
401.286	94.31
401.51	90.31
401.734	95.31
401.958	95.31
402.182	153.31
402.406	198.31
402.63	130.31
402.854	100.31
403.078	81.31
403.302	78.31
403.526	91.31
403.75	93.31
403.974	82.31
404.198	93.31
404.422	94.31
404.645	69.31
404.869	97.31
405.093	105.31
405.317	107.31
405.541	97.31
405.765	104.31
405.988	131.31
406.212	214.31
406.436	318.31
406.66	191.31
406.883	102.31
407.107	85.31
407.331	95.31
407.555	112.31
407.778	96.31
408.002	92.31
408.226	103.31
408.449	86.31
408.673	88.31
408.896	91.31
409.12	101.31
409.344	85.31
409.567	82.31
409.791	97.31
410.014	94.31
410.238	95.31
410.461	91.31
410.685	87.31
410.908	80.31
411.132	115.31
411.355	100.31
411.578	96.31
411.802	72.31
412.025	92.31
412.249	98.31
412.472	89.31
412.695	92.31
412.919	90.31
413.142	79.31
413.365	93.31
413.589	79.31
413.812	76.31
414.035	87.31
414.258	76.31
414.482	74.31
414.705	83.31
414.928	86.31
415.151	88.31
415.374	87.31
415.597	91.31
415.821	87.31
416.044	91.31
416.267	97.31
416.49	90.31
416.713	92.31
416.936	99.31
417.159	77.31
417.382	82.31
417.605	88.31
417.828	99.31
418.051	94.31
418.274	71.31
418.497	83.31
418.72	85.31
418.943	82.31
419.166	96.31
419.389	89.31
419.611	94.31
419.834	93.31
420.057	102.31
420.28	90.31
420.503	73.31
420.726	90.31
420.948	93.31
421.171	84.31
421.394	86.31
421.617	100.31
421.839	81.31
422.062	104.31
422.285	97.31
422.507	84.31
422.73	97.31
422.953	94.31
423.175	95.31
423.398	95.31
423.621	90.31
423.843	75.31
424.066	91.31
424.288	70.31
424.511	107.31
424.733	95.31
424.956	110.31
425.178	102.31
425.401	101.31
425.623	109.31
425.846	95.31
426.068	84.31
426.291	93.31
426.513	92.31
426.735	82.31
426.958	84.31
427.18	95.31
427.402	148.31
427.625	193.31
427.847	145.31
428.069	133.31
428.292	89.31
428.514	94.31
428.736	78.31
428.958	74.31
429.181	87.31
429.403	79.31
429.625	90.31
429.847	98.31
430.069	99.31
430.292	99.31
430.514	84.31
430.736	77.31
430.958	86.31
431.18	76.31
431.402	82.31
431.624	90.31
431.846	86.31
432.068	85.31
432.29	82.31
432.512	83.31
432.734	94.31
432.956	92.31
433.178	95.31
433.4	94.31
433.622	73.31
433.844	82.31
434.066	83.31
434.287	100.31
434.509	86.31
434.731	83.31
434.953	76.31
435.175	88.31
435.397	93.31
435.618	100.31
435.84	104.31
436.062	124.31
436.284	120.31
436.505	99.31
436.727	101.31
436.949	96.31
437.17	90.31
437.392	87.31
437.614	93.31
437.835	117.31
438.057	140.31
438.278	121.31
438.5	89.31
438.721	126.31
438.943	111.31
439.165	98.31
439.386	83.31
439.608	86.31
439.829	113.31
440.05	137.31
440.272	149.31
440.493	107.31
440.715	76.31
440.936	79.31
441.158	95.31
441.379	92.31
441.6	91.31
441.822	105.31
442.043	96.31
442.264	114.31
442.486	113.31
442.707	105.31
442.928	121.31
443.149	151.31
443.371	145.31
443.592	123.31
443.813	130.31
444.034	114.31
444.255	88.31
444.476	75.31
444.698	91.31
444.919	88.31
445.14	147.31
445.361	125.31
445.582	134.31
445.803	155.31
446.024	158.31
446.245	146.31
446.466	130.31
446.687	95.31
446.908	107.31
447.129	98.31
447.35	91.31
447.571	98.31
447.792	100.31
448.013	99.31
448.234	122.31
448.455	102.31
448.675	105.31
448.896	116.31
449.117	103.31
449.338	111.31
449.559	119.31
449.779	145.31
450	83.31
450.221	104.31
450.442	91.31
450.662	94.31
450.883	117.31
451.104	119.31
451.324	87.31
451.545	85.31
451.766	86.31
451.986	91.31
452.207	91.31
452.428	104.31
452.648	105.31
452.869	122.31
453.089	124.31
453.31	140.31
453.53	87.31
453.751	90.31
453.971	101.31
454.192	107.31
454.412	99.31
454.633	87.31
454.853	87.31
455.073	93.31
455.294	88.31
455.514	98.31
455.734	83.31
455.955	89.31
456.175	72.31
456.395	81.31
456.616	92.31
456.836	95.31
457.056	86.31
457.276	71.31
457.497	80.31
457.717	87.31
457.937	74.31
458.157	70.31
458.377	86.31
458.598	132.31
458.818	196.31
459.038	195.31
459.258	140.31
459.478	100.31
459.698	95.31
459.918	75.31
460.138	70.31
460.358	73.31
460.578	69.31
460.798	99.31
461.018	92.31
461.238	88.31
461.458	82.31
461.678	96.31
461.898	83.31
462.118	83.31
462.338	80.31
462.558	97.31
462.777	66.31
462.997	86.31
463.217	86.31
463.437	92.31
463.657	85.31
463.876	86.31
464.096	87.31
464.316	88.31
464.536	96.31
464.755	98.31
464.975	122.31
465.195	214.31
465.414	207.31
465.634	118.31
465.854	84.31
466.073	89.31
466.293	86.31
466.512	81.31
466.732	91.31
466.951	85.31
467.171	102.31
467.391	99.31
467.61	103.31
467.829	111.31
468.049	107.31
468.268	140.31
468.488	89.31
468.707	56.31
468.927	75.31
469.146	87.31
469.365	87.31
469.585	91.31
469.804	101.31
470.023	106.31
470.243	90.31
470.462	97.31
470.681	115.31
470.901	82.31
471.12	88.31
471.339	93.31
471.558	86.31
471.777	96.31
471.997	101.31
472.216	168.31
472.435	264.31
472.654	134.31
472.873	90.31
473.092	86.31
473.311	90.31
473.53	83.31
473.749	87.31
473.968	103.31
474.187	126.31
474.406	98.31
474.625	82.31
474.844	83.31
475.063	85.31
475.282	82.31
475.501	70.31
475.72	83.31
475.939	79.31
476.158	80.31
476.377	84.31
476.596	89.31
476.814	99.31
477.033	95.31
477.252	87.31
477.471	87.31
477.69	95.31
477.908	86.31
478.127	79.31
478.346	90.31
478.564	90.31
478.783	104.31
479.002	97.31
479.22	84.31
479.439	102.31
479.658	98.31
479.876	100.31
480.095	92.31
480.313	97.31
480.532	90.31
480.751	103.31
480.969	164.31
481.188	425.31
481.406	302.31
481.624	108.31
481.843	87.31
482.061	91.31
482.28	78.31
482.498	82.31
482.717	87.31
482.935	95.31
483.153	89.31
483.372	85.31
483.59	88.31
483.808	105.31
484.027	85.31
484.245	92.31
484.463	101.31
484.681	99.31
484.9	88.31
485.118	106.31
485.336	90.31
485.554	93.31
485.772	95.31
485.99	90.31
486.209	106.31
486.427	104.31
486.645	116.31
486.863	99.31
487.081	93.31
487.299	90.31
487.517	90.31
487.735	94.31
487.953	89.31
488.171	91.31
488.389	100.31
488.607	100.31
488.825	93.31
489.043	95.31
489.261	84.31
489.479	110.31
489.696	87.31
489.914	82.31
490.132	82.31
490.35	89.31
490.568	86.31
490.786	94.31
491.003	76.31
491.221	80.31
491.439	88.31
491.657	86.31
491.874	91.31
492.092	75.31
492.31	72.31
492.527	89.31
492.745	80.31
492.963	82.31
493.18	102.31
493.398	120.31
493.615	94.31
493.833	91.31
494.05	82.31
494.268	76.31
494.485	85.31
494.703	95.31
494.92	86.31
495.138	79.31
495.355	89.31
495.573	93.31
495.79	84.31
496.008	95.31
496.225	85.31
496.442	80.31
496.66	95.31
496.877	92.31
497.094	102.31
497.312	91.31
497.529	96.31
497.746	73.31
497.963	73.31
498.181	106.31
498.398	101.31
498.615	108.31
498.832	97.31
499.049	96.31
499.267	91.31
499.484	78.31
499.701	91.31
499.918	91.31
500.135	79.31
500.352	84.31
500.569	97.31
500.786	86.31
501.003	90.31
501.22	78.31
501.437	84.31
501.654	100.31
501.871	118.31
502.088	89.31
502.305	104.31
502.522	79.31
502.739	87.31
502.956	83.31
503.172	100.31
503.389	93.31
503.606	103.31
503.823	101.31
504.04	87.31
504.256	97.31
504.473	85.31
504.69	94.31
504.907	89.31
505.123	92.31
505.34	83.31
505.557	92.31
505.773	88.31
505.99	83.31
506.207	91.31
506.423	80.31
506.64	91.31
506.856	91.31
507.073	74.31
507.289	105.31
507.506	106.31
507.722	128.31
507.939	113.31
508.155	93.31
508.372	90.31
508.588	97.31
508.805	87.31
509.021	93.31
509.238	92.31
509.454	98.31
509.67	109.31
509.887	116.31
510.103	163.31
510.319	236.31
510.536	980.31
510.752	3287.31
510.968	907.31
511.184	178.31
511.401	129.31
511.617	100.31
511.833	94.31
512.049	94.31
512.265	96.31
512.481	84.31
512.698	89.31
512.914	94.31
513.13	83.31
513.346	92.31
513.562	87.31
513.778	96.31
513.994	99.31
514.21	104.31
514.426	129.31
514.642	155.31
514.858	128.31
515.074	203.31
515.29	633.31
