Data from Circ_2018_H10_HRD10591_00050.txt Node
Date: Wed Jan 03 09:56:12 EST 2024
User: Yrep
Spectrometer: HR+D1059
Trigger mode: 1
Integration Time (sec): 1.000000E-1
Scans to average: 1
Electric dark correction enabled: true
Nonlinearity correction enabled: false
Boxcar width: 0
XAxis mode: Wavelengths
Number of Pixels in Spectrum: 2048
>>>>>Begin Spectral Data<<<<<
223.165	-7.31
223.4	-7.31
223.635	-7.31
223.869	-3.31
224.104	-34.31
224.338	-18.31
224.573	-27.31
224.808	-9.31
225.042	-11.31
225.277	-3.31
225.511	-6.31
225.746	3.69
225.98	13.69
226.215	14.69
226.449	28.69
226.683	7.69
226.918	21.69
227.152	30.69
227.387	34.69
227.621	49.69
227.856	40.69
228.09	37.69
228.324	49.69
228.559	61.69
228.793	64.69
229.027	78.69
229.262	76.69
229.496	78.69
229.73	70.69
229.964	96.69
230.199	84.69
230.433	80.69
230.667	78.69
230.901	88.69
231.136	70.69
231.37	73.69
231.604	90.69
231.838	81.69
232.072	98.69
232.306	89.69
232.541	80.69
232.775	94.69
233.009	90.69
233.243	87.69
233.477	86.69
233.711	74.69
233.945	77.69
234.179	83.69
234.413	75.69
234.647	68.69
234.881	86.69
235.115	75.69
235.349	83.69
235.583	96.69
235.817	88.69
236.051	78.69
236.285	78.69
236.519	77.69
236.753	78.69
236.987	72.69
237.221	76.69
237.455	97.69
237.689	89.69
237.922	77.69
238.156	72.69
238.39	73.69
238.624	78.69
238.858	87.69
239.091	62.69
239.325	76.69
239.559	59.69
239.793	72.69
240.027	89.69
240.26	70.69
240.494	80.69
240.728	86.69
240.961	84.69
241.195	66.69
241.429	74.69
241.662	88.69
241.896	73.69
242.13	85.69
242.363	69.69
242.597	79.69
242.83	77.69
243.064	71.69
243.298	72.69
243.531	84.69
243.765	85.69
243.998	88.69
244.232	78.69
244.465	79.69
244.699	85.69
244.932	73.69
245.166	86.69
245.399	71.69
245.633	90.69
245.866	88.69
246.099	80.69
246.333	81.69
246.566	83.69
246.8	86.69
247.033	85.69
247.266	74.69
247.5	76.69
247.733	86.69
247.966	101.69
248.2	99.69
248.433	84.69
248.666	76.69
248.899	80.69
249.133	99.69
249.366	78.69
249.599	97.69
249.832	82.69
250.066	72.69
250.299	76.69
250.532	71.69
250.765	83.69
250.998	81.69
251.231	81.69
251.465	76.69
251.698	76.69
251.931	70.69
252.164	81.69
252.397	81.69
252.63	80.69
252.863	66.69
253.096	82.69
253.329	74.69
253.562	88.69
253.795	68.69
254.028	86.69
254.261	84.69
254.494	76.69
254.727	81.69
254.96	79.69
255.193	77.69
255.426	60.69
255.659	82.69
255.892	87.69
256.124	84.69
256.357	85.69
256.59	103.69
256.823	70.69
257.056	93.69
257.289	78.69
257.521	83.69
257.754	78.69
257.987	93.69
258.22	86.69
258.452	76.69
258.685	90.69
258.918	82.69
259.151	78.69
259.383	76.69
259.616	67.69
259.849	79.69
260.081	84.69
260.314	87.69
260.547	80.69
260.779	94.69
261.012	83.69
261.244	72.69
261.477	80.69
261.71	93.69
261.942	129.69
262.175	125.69
262.407	78.69
262.64	73.69
262.872	84.69
263.105	72.69
263.337	94.69
263.57	93.69
263.802	85.69
264.035	79.69
264.267	74.69
264.499	81.69
264.732	77.69
264.964	90.69
265.197	88.69
265.429	93.69
265.661	81.69
265.894	77.69
266.126	84.69
266.358	81.69
266.591	73.69
266.823	93.69
267.055	75.69
267.287	83.69
267.52	78.69
267.752	81.69
267.984	93.69
268.216	74.69
268.448	86.69
268.681	76.69
268.913	92.69
269.145	86.69
269.377	80.69
269.609	91.69
269.841	70.69
270.073	86.69
270.306	88.69
270.538	90.69
270.77	90.69
271.002	75.69
271.234	89.69
271.466	93.69
271.698	86.69
271.93	93.69
272.162	85.69
272.394	78.69
272.626	71.69
272.858	74.69
273.09	77.69
273.322	89.69
273.553	81.69
273.785	84.69
274.017	85.69
274.249	77.69
274.481	89.69
274.713	76.69
274.945	86.69
275.176	80.69
275.408	89.69
275.64	86.69
275.872	91.69
276.104	88.69
276.335	91.69
276.567	112.69
276.799	98.69
277.031	105.69
277.262	88.69
277.494	85.69
277.726	84.69
277.957	82.69
278.189	70.69
278.421	80.69
278.652	100.69
278.884	95.69
279.115	82.69
279.347	97.69
279.579	88.69
279.81	78.69
280.042	84.69
280.273	77.69
280.505	83.69
280.736	92.69
280.968	89.69
281.199	77.69
281.431	90.69
281.662	90.69
281.894	86.69
282.125	96.69
282.356	130.69
282.588	138.69
282.819	106.69
283.051	76.69
283.282	89.69
283.513	103.69
283.745	93.69
283.976	86.69
284.207	103.69
284.439	99.69
284.67	82.69
284.901	93.69
285.132	88.69
285.364	82.69
285.595	80.69
285.826	74.69
286.057	85.69
286.288	86.69
286.52	82.69
286.751	87.69
286.982	89.69
287.213	93.69
287.444	82.69
287.675	90.69
287.906	91.69
288.138	80.69
288.369	95.69
288.6	95.69
288.831	81.69
289.062	74.69
289.293	92.69
289.524	90.69
289.755	91.69
289.986	83.69
290.217	87.69
290.448	86.69
290.679	82.69
290.91	99.69
291.141	94.69
291.371	96.69
291.602	85.69
291.833	88.69
292.064	89.69
292.295	77.69
292.526	72.69
292.757	96.69
292.987	90.69
293.218	81.69
293.449	93.69
293.68	96.69
293.91	91.69
294.141	91.69
294.372	89.69
294.603	89.69
294.833	98.69
295.064	88.69
295.295	85.69
295.525	103.69
295.756	107.69
295.987	113.69
296.217	152.69
296.448	139.69
296.679	96.69
296.909	80.69
297.14	86.69
297.37	91.69
297.601	92.69
297.831	91.69
298.062	98.69
298.292	89.69
298.523	80.69
298.753	81.69
298.984	76.69
299.214	76.69
299.445	82.69
299.675	91.69
299.905	105.69
300.136	96.69
300.366	92.69
300.597	89.69
300.827	86.69
301.057	115.69
301.288	104.69
301.518	92.69
301.748	86.69
301.979	108.69
302.209	86.69
302.439	90.69
302.669	100.69
302.9	106.69
303.13	90.69
303.36	105.69
303.59	117.69
303.82	109.69
304.051	108.69
304.281	87.69
304.511	76.69
304.741	80.69
304.971	92.69
305.201	89.69
305.431	101.69
305.661	97.69
305.891	92.69
306.121	96.69
306.352	101.69
306.582	95.69
306.812	87.69
307.042	75.69
307.272	88.69
307.502	100.69
307.731	94.69
307.961	89.69
308.191	81.69
308.421	78.69
308.651	88.69
308.881	83.69
309.111	89.69
309.341	99.69
309.571	92.69
309.8	92.69
310.03	103.69
310.26	98.69
310.49	98.69
310.72	98.69
310.949	90.69
311.179	108.69
311.409	102.69
311.639	109.69
311.868	99.69
312.098	99.69
312.328	110.69
312.557	102.69
312.787	113.69
313.017	106.69
313.246	90.69
313.476	112.69
313.706	89.69
313.935	94.69
314.165	94.69
314.394	90.69
314.624	95.69
314.853	104.69
315.083	90.69
315.312	83.69
315.542	86.69
315.771	92.69
316.001	107.69
316.23	90.69
316.46	85.69
316.689	95.69
316.919	92.69
317.148	86.69
317.377	110.69
317.607	90.69
317.836	97.69
318.065	101.69
318.295	99.69
318.524	96.69
318.753	88.69
318.983	91.69
319.212	112.69
319.441	101.69
319.67	112.69
319.9	98.69
320.129	73.69
320.358	99.69
320.587	105.69
320.816	86.69
321.046	96.69
321.275	101.69
321.504	98.69
321.733	88.69
321.962	104.69
322.191	97.69
322.42	114.69
322.649	100.69
322.878	114.69
323.108	107.69
323.337	130.69
323.566	132.69
323.795	167.69
324.024	208.69
324.253	428.69
324.482	856.69
324.71	1720.69
324.939	2202.69
325.168	835.69
325.397	266.69
325.626	151.69
325.855	136.69
326.084	132.69
326.313	144.69
326.542	154.69
326.77	236.69
326.999	460.69
327.228	944.69
327.457	1675.69
327.686	1308.69
327.914	372.69
328.143	189.69
328.372	164.69
328.6	145.69
328.829	137.69
329.058	143.69
329.287	161.69
329.515	109.69
329.744	113.69
329.972	108.69
330.201	110.69
330.43	146.69
330.658	133.69
330.887	141.69
331.115	138.69
331.344	107.69
331.572	100.69
331.801	108.69
332.03	105.69
332.258	105.69
332.486	102.69
332.715	94.69
332.943	106.69
333.172	105.69
333.4	105.69
333.629	107.69
333.857	121.69
334.085	126.69
334.314	125.69
334.542	143.69
334.771	139.69
334.999	119.69
335.227	107.69
335.455	97.69
335.684	97.69
335.912	101.69
336.14	98.69
336.369	96.69
336.597	103.69
336.825	103.69
337.053	104.69
337.281	102.69
337.51	107.69
337.738	93.69
337.966	94.69
338.194	104.69
338.422	94.69
338.65	93.69
338.878	85.69
339.106	91.69
339.334	95.69
339.562	103.69
339.79	90.69
340.018	107.69
340.246	88.69
340.474	100.69
340.702	94.69
340.93	96.69
341.158	96.69
341.386	85.69
341.614	86.69
341.842	97.69
342.07	96.69
342.298	87.69
342.526	89.69
342.754	90.69
342.981	99.69
343.209	96.69
343.437	96.69
343.665	97.69
343.893	99.69
344.12	102.69
344.348	89.69
344.576	85.69
344.804	89.69
345.031	96.69
345.259	104.69
345.487	97.69
345.714	96.69
345.942	95.69
346.17	100.69
346.397	84.69
346.625	108.69
346.853	89.69
347.08	98.69
347.308	103.69
347.535	98.69
347.763	98.69
347.99	90.69
348.218	107.69
348.445	96.69
348.673	104.69
348.9	91.69
349.128	112.69
349.355	83.69
349.583	93.69
349.81	95.69
350.037	100.69
350.265	100.69
350.492	102.69
350.72	99.69
350.947	99.69
351.174	103.69
351.402	119.69
351.629	102.69
351.856	96.69
352.083	107.69
352.311	116.69
352.538	112.69
352.765	109.69
352.992	108.69
353.22	91.69
353.447	109.69
353.674	108.69
353.901	94.69
354.128	113.69
354.355	105.69
354.583	112.69
354.81	105.69
355.037	100.69
355.264	96.69
355.491	87.69
355.718	95.69
355.945	90.69
356.172	97.69
356.399	104.69
356.626	103.69
356.853	100.69
357.08	94.69
357.307	85.69
357.534	98.69
357.761	83.69
357.988	93.69
358.215	95.69
358.441	104.69
358.668	97.69
358.895	95.69
359.122	78.69
359.349	77.69
359.576	95.69
359.802	106.69
360.029	112.69
360.256	128.69
360.483	99.69
360.709	86.69
360.936	100.69
361.163	102.69
361.39	112.69
361.616	93.69
361.843	93.69
362.07	93.69
362.296	106.69
362.523	110.69
362.749	89.69
362.976	92.69
363.203	93.69
363.429	104.69
363.656	96.69
363.882	102.69
364.109	112.69
364.335	100.69
364.562	78.69
364.788	83.69
365.015	108.69
365.241	101.69
365.468	112.69
365.694	112.69
365.92	96.69
366.147	109.69
366.373	102.69
366.599	102.69
366.826	96.69
367.052	92.69
367.278	77.69
367.505	92.69
367.731	99.69
367.957	86.69
368.184	99.69
368.41	93.69
368.636	93.69
368.862	133.69
369.089	102.69
369.315	103.69
369.541	92.69
369.767	106.69
369.993	91.69
370.219	99.69
370.445	83.69
370.672	91.69
370.898	96.69
371.124	103.69
371.35	115.69
371.576	92.69
371.802	96.69
372.028	86.69
372.254	85.69
372.48	84.69
372.706	75.69
372.932	90.69
373.158	86.69
373.384	98.69
373.61	94.69
373.835	89.69
374.061	81.69
374.287	90.69
374.513	92.69
374.739	90.69
374.965	90.69
375.191	78.69
375.416	82.69
375.642	94.69
375.868	79.69
376.094	108.69
376.319	91.69
376.545	83.69
376.771	86.69
376.997	97.69
377.222	88.69
377.448	102.69
377.674	92.69
377.899	74.69
378.125	95.69
378.35	94.69
378.576	101.69
378.802	72.69
379.027	79.69
379.253	105.69
379.478	103.69
379.704	89.69
379.929	88.69
380.155	100.69
380.38	99.69
380.606	86.69
380.831	100.69
381.057	87.69
381.282	84.69
381.507	92.69
381.733	102.69
381.958	85.69
382.184	93.69
382.409	90.69
382.634	102.69
382.86	100.69
383.085	94.69
383.31	100.69
383.535	108.69
383.761	95.69
383.986	91.69
384.211	109.69
384.436	102.69
384.662	88.69
384.887	111.69
385.112	101.69
385.337	101.69
385.562	115.69
385.787	109.69
386.013	115.69
386.238	125.69
386.463	123.69
386.688	106.69
386.913	105.69
387.138	123.69
387.363	114.69
387.588	100.69
387.813	96.69
388.038	110.69
388.263	122.69
388.488	91.69
388.713	98.69
388.938	93.69
389.163	97.69
389.387	103.69
389.612	101.69
389.837	111.69
390.062	92.69
390.287	95.69
390.512	90.69
390.736	93.69
390.961	84.69
391.186	84.69
391.411	105.69
391.636	99.69
391.86	98.69
392.085	81.69
392.31	70.69
392.534	84.69
392.759	91.69
392.984	81.69
393.208	89.69
393.433	103.69
393.658	88.69
393.882	85.69
394.107	81.69
394.331	93.69
394.556	93.69
394.78	84.69
395.005	94.69
395.229	91.69
395.454	89.69
395.678	95.69
395.903	88.69
396.127	89.69
396.352	96.69
396.576	107.69
396.801	87.69
397.025	85.69
397.249	97.69
397.474	102.69
397.698	82.69
397.922	101.69
398.147	95.69
398.371	89.69
398.595	91.69
398.82	90.69
399.044	83.69
399.268	99.69
399.492	98.69
399.717	85.69
399.941	97.69
400.165	99.69
400.389	98.69
400.613	78.69
400.837	99.69
401.062	95.69
401.286	82.69
401.51	85.69
401.734	86.69
401.958	93.69
402.182	131.69
402.406	168.69
402.63	131.69
402.854	118.69
403.078	95.69
403.302	78.69
403.526	90.69
403.75	90.69
403.974	78.69
404.198	99.69
404.422	86.69
404.645	81.69
404.869	97.69
405.093	88.69
405.317	99.69
405.541	104.69
405.765	102.69
405.988	134.69
406.212	180.69
406.436	253.69
406.66	152.69
406.883	111.69
407.107	91.69
407.331	103.69
407.555	103.69
407.778	91.69
408.002	95.69
408.226	83.69
408.449	101.69
408.673	84.69
408.896	93.69
409.12	84.69
409.344	96.69
409.567	92.69
409.791	92.69
410.014	101.69
410.238	87.69
410.461	86.69
410.685	87.69
410.908	84.69
411.132	86.69
411.355	92.69
411.578	98.69
411.802	92.69
412.025	96.69
412.249	96.69
412.472	95.69
412.695	105.69
412.919	94.69
413.142	93.69
413.365	93.69
413.589	78.69
413.812	78.69
414.035	85.69
414.258	94.69
414.482	97.69
414.705	94.69
414.928	83.69
415.151	102.69
415.374	102.69
415.597	93.69
415.821	94.69
416.044	89.69
416.267	78.69
416.49	86.69
416.713	96.69
416.936	87.69
417.159	87.69
417.382	92.69
417.605	86.69
417.828	104.69
418.051	107.69
418.274	81.69
418.497	99.69
418.72	84.69
418.943	90.69
419.166	97.69
419.389	85.69
419.611	107.69
419.834	86.69
420.057	99.69
420.28	80.69
420.503	89.69
420.726	83.69
420.948	105.69
421.171	101.69
421.394	110.69
421.617	96.69
421.839	83.69
422.062	89.69
422.285	97.69
422.507	96.69
422.73	103.69
422.953	87.69
423.175	93.69
423.398	89.69
423.621	91.69
423.843	100.69
424.066	86.69
424.288	90.69
424.511	93.69
424.733	101.69
424.956	113.69
425.178	100.69
425.401	101.69
425.623	121.69
425.846	103.69
426.068	89.69
426.291	83.69
426.513	88.69
426.735	94.69
426.958	93.69
427.18	112.69
427.402	144.69
427.625	173.69
427.847	144.69
428.069	106.69
428.292	89.69
428.514	111.69
428.736	90.69
428.958	89.69
429.181	75.69
429.403	93.69
429.625	104.69
429.847	89.69
430.069	95.69
430.292	100.69
430.514	88.69
430.736	97.69
430.958	92.69
431.18	85.69
431.402	84.69
431.624	97.69
431.846	92.69
432.068	96.69
432.29	99.69
432.512	80.69
432.734	89.69
432.956	82.69
433.178	102.69
433.4	99.69
433.622	90.69
433.844	113.69
434.066	85.69
434.287	83.69
434.509	92.69
434.731	97.69
434.953	84.69
435.175	94.69
435.397	93.69
435.618	92.69
435.84	109.69
436.062	105.69
436.284	109.69
436.505	90.69
436.727	108.69
436.949	89.69
437.17	77.69
437.392	88.69
437.614	109.69
437.835	107.69
438.057	114.69
438.278	115.69
438.5	101.69
438.721	116.69
438.943	94.69
439.165	85.69
439.386	88.69
439.608	98.69
439.829	96.69
440.05	129.69
440.272	139.69
440.493	103.69
440.715	79.69
440.936	93.69
441.158	97.69
441.379	86.69
441.6	86.69
441.822	91.69
442.043	102.69
442.264	97.69
442.486	86.69
442.707	101.69
442.928	101.69
443.149	133.69
443.371	130.69
443.592	117.69
443.813	106.69
444.034	116.69
444.255	96.69
444.476	84.69
444.698	81.69
444.919	82.69
445.14	117.69
445.361	131.69
445.582	110.69
445.803	142.69
446.024	128.69
446.245	141.69
446.466	123.69
446.687	95.69
446.908	99.69
447.129	91.69
447.35	92.69
447.571	98.69
447.792	97.69
448.013	103.69
448.234	116.69
448.455	107.69
448.675	112.69
448.896	109.69
449.117	109.69
449.338	95.69
449.559	130.69
449.779	131.69
450	97.69
450.221	95.69
450.442	83.69
450.662	99.69
450.883	107.69
451.104	119.69
451.324	97.69
451.545	98.69
451.766	87.69
451.986	81.69
452.207	84.69
452.428	94.69
452.648	101.69
452.869	108.69
453.089	95.69
453.31	117.69
453.53	92.69
453.751	99.69
453.971	94.69
454.192	125.69
454.412	96.69
454.633	88.69
454.853	88.69
455.073	86.69
455.294	95.69
455.514	107.69
455.734	114.69
455.955	96.69
456.175	92.69
456.395	85.69
456.616	88.69
456.836	76.69
457.056	95.69
457.276	82.69
457.497	82.69
457.717	91.69
457.937	85.69
458.157	91.69
458.377	98.69
458.598	80.69
458.818	167.69
459.038	179.69
459.258	126.69
459.478	95.69
459.698	88.69
459.918	92.69
460.138	91.69
460.358	94.69
460.578	89.69
460.798	65.69
461.018	92.69
461.238	88.69
461.458	77.69
461.678	82.69
461.898	92.69
462.118	77.69
462.338	94.69
462.558	87.69
462.777	80.69
462.997	93.69
463.217	86.69
463.437	93.69
463.657	88.69
463.876	82.69
464.096	100.69
464.316	102.69
464.536	91.69
464.755	93.69
464.975	119.69
465.195	186.69
465.414	184.69
465.634	111.69
465.854	106.69
466.073	78.69
466.293	86.69
466.512	77.69
466.732	87.69
466.951	95.69
467.171	89.69
467.391	100.69
467.61	109.69
467.829	99.69
468.049	91.69
468.268	100.69
468.488	70.69
468.707	88.69
468.927	88.69
469.146	88.69
469.365	88.69
469.585	85.69
469.804	100.69
470.023	93.69
470.243	86.69
470.462	93.69
470.681	105.69
470.901	92.69
471.12	100.69
471.339	81.69
471.558	89.69
471.777	90.69
471.997	100.69
472.216	112.69
472.435	150.69
472.654	106.69
472.873	84.69
473.092	88.69
473.311	77.69
473.53	78.69
473.749	98.69
473.968	93.69
474.187	104.69
474.406	96.69
474.625	93.69
474.844	84.69
475.063	102.69
475.282	86.69
475.501	77.69
475.72	94.69
475.939	81.69
476.158	78.69
476.377	102.69
476.596	89.69
476.814	95.69
477.033	101.69
477.252	101.69
477.471	86.69
477.69	84.69
477.908	92.69
478.127	98.69
478.346	88.69
478.564	87.69
478.783	103.69
479.002	100.69
479.22	90.69
479.439	109.69
479.658	111.69
479.876	94.69
480.095	96.69
480.313	89.69
480.532	97.69
480.751	99.69
480.969	114.69
481.188	203.69
481.406	161.69
481.624	105.69
481.843	100.69
482.061	98.69
482.28	102.69
482.498	80.69
482.717	94.69
482.935	101.69
483.153	97.69
483.372	102.69
483.59	104.69
483.808	94.69
484.027	88.69
484.245	84.69
484.463	99.69
484.681	98.69
484.9	93.69
485.118	97.69
485.336	89.69
485.554	88.69
485.772	102.69
485.99	97.69
486.209	104.69
486.427	108.69
486.645	88.69
486.863	110.69
487.081	100.69
487.299	114.69
487.517	86.69
487.735	101.69
487.953	113.69
488.171	103.69
488.389	77.69
488.607	104.69
488.825	99.69
489.043	89.69
489.261	98.69
489.479	96.69
489.696	84.69
489.914	108.69
490.132	88.69
490.35	88.69
490.568	82.69
490.786	93.69
491.003	91.69
491.221	97.69
491.439	93.69
491.657	98.69
491.874	80.69
492.092	89.69
492.31	88.69
492.527	80.69
492.745	85.69
492.963	81.69
493.18	83.69
493.398	91.69
493.615	106.69
493.833	83.69
494.05	77.69
494.268	85.69
494.485	86.69
494.703	92.69
494.92	90.69
495.138	96.69
495.355	84.69
495.573	92.69
495.79	95.69
496.008	108.69
496.225	91.69
496.442	88.69
496.66	97.69
496.877	106.69
497.094	88.69
497.312	92.69
497.529	91.69
497.746	83.69
497.963	89.69
498.181	92.69
498.398	90.69
498.615	124.69
498.832	96.69
499.049	91.69
499.267	105.69
499.484	86.69
499.701	82.69
499.918	91.69
500.135	94.69
500.352	87.69
500.569	90.69
500.786	101.69
501.003	91.69
501.22	93.69
501.437	90.69
501.654	92.69
501.871	124.69
502.088	102.69
502.305	97.69
502.522	108.69
502.739	82.69
502.956	91.69
503.172	89.69
503.389	96.69
503.606	101.69
503.823	105.69
504.04	86.69
504.256	92.69
504.473	82.69
504.69	101.69
504.907	86.69
505.123	77.69
505.34	90.69
505.557	88.69
505.773	86.69
505.99	85.69
506.207	100.69
506.423	101.69
506.64	84.69
506.856	86.69
507.073	107.69
507.289	86.69
507.506	108.69
507.722	113.69
507.939	118.69
508.155	100.69
508.372	95.69
508.588	111.69
508.805	92.69
509.021	99.69
509.238	94.69
509.454	96.69
509.67	106.69
509.887	110.69
510.103	140.69
510.319	213.69
510.536	865.69
510.752	2848.69
510.968	813.69
511.184	170.69
511.401	107.69
511.617	97.69
511.833	93.69
512.049	99.69
512.265	87.69
512.481	88.69
512.698	88.69
512.914	94.69
513.13	95.69
513.346	84.69
513.562	103.69
513.778	106.69
513.994	114.69
514.21	102.69
514.426	134.69
514.642	133.69
