Data from Circ_2018_H10_HRD10591_00020.txt Node
Date: Wed Jan 03 09:56:06 EST 2024
User: Yrep
Spectrometer: HR+D1059
Trigger mode: 1
Integration Time (sec): 1.000000E-1
Scans to average: 1
Electric dark correction enabled: true
Nonlinearity correction enabled: false
Boxcar width: 0
XAxis mode: Wavelengths
Number of Pixels in Spectrum: 2048
>>>>>Begin Spectral Data<<<<<
223.165	-20.75
223.4	-20.75
223.635	-20.75
223.869	-16.75
224.104	-16.75
224.338	-20.75
224.573	-19.75
224.808	-10.75
225.042	-10.75
225.277	-0.75
225.511	1.25
225.746	3.25
225.98	8.25
226.215	7.25
226.449	19.25
226.683	19.25
226.918	23.25
227.152	35.25
227.387	28.25
227.621	36.25
227.856	47.25
228.09	36.25
228.324	51.25
228.559	49.25
228.793	36.25
229.027	55.25
229.262	58.25
229.496	68.25
229.73	72.25
229.964	68.25
230.199	72.25
230.433	84.25
230.667	78.25
230.901	84.25
231.136	68.25
231.37	68.25
231.604	81.25
231.838	82.25
232.072	76.25
232.306	88.25
232.541	79.25
232.775	86.25
233.009	92.25
233.243	80.25
233.477	95.25
233.711	96.25
233.945	76.25
234.179	77.25
234.413	65.25
234.647	81.25
234.881	82.25
235.115	54.25
235.349	83.25
235.583	68.25
235.817	82.25
236.051	66.25
236.285	71.25
236.519	79.25
236.753	73.25
236.987	78.25
237.221	87.25
237.455	92.25
237.689	86.25
237.922	70.25
238.156	77.25
238.39	64.25
238.624	76.25
238.858	70.25
239.091	78.25
239.325	75.25
239.559	68.25
239.793	68.25
240.027	67.25
240.26	77.25
240.494	91.25
240.728	64.25
240.961	71.25
241.195	80.25
241.429	70.25
241.662	43.25
241.896	68.25
242.13	81.25
242.363	73.25
242.597	73.25
242.83	77.25
243.064	79.25
243.298	74.25
243.531	79.25
243.765	73.25
243.998	77.25
244.232	68.25
244.465	80.25
244.699	78.25
244.932	65.25
245.166	78.25
245.399	78.25
245.633	65.25
245.866	83.25
246.099	63.25
246.333	74.25
246.566	77.25
246.8	64.25
247.033	73.25
247.266	64.25
247.5	81.25
247.733	65.25
247.966	82.25
248.2	83.25
248.433	83.25
248.666	79.25
248.899	73.25
249.133	92.25
249.366	102.25
249.599	84.25
249.832	71.25
250.066	79.25
250.299	66.25
250.532	82.25
250.765	86.25
250.998	83.25
251.231	73.25
251.465	84.25
251.698	76.25
251.931	78.25
252.164	88.25
252.397	77.25
252.63	79.25
252.863	68.25
253.096	64.25
253.329	89.25
253.562	72.25
253.795	87.25
254.028	83.25
254.261	69.25
254.494	74.25
254.727	78.25
254.96	78.25
255.193	76.25
255.426	75.25
255.659	74.25
255.892	85.25
256.124	65.25
256.357	53.25
256.59	71.25
256.823	67.25
257.056	75.25
257.289	87.25
257.521	77.25
257.754	75.25
257.987	72.25
258.22	75.25
258.452	91.25
258.685	75.25
258.918	79.25
259.151	87.25
259.383	72.25
259.616	80.25
259.849	69.25
260.081	74.25
260.314	68.25
260.547	71.25
260.779	72.25
261.012	83.25
261.244	77.25
261.477	97.25
261.71	78.25
261.942	108.25
262.175	111.25
262.407	91.25
262.64	87.25
262.872	86.25
263.105	80.25
263.337	84.25
263.57	74.25
263.802	70.25
264.035	83.25
264.267	72.25
264.499	72.25
264.732	67.25
264.964	88.25
265.197	75.25
265.429	77.25
265.661	72.25
265.894	80.25
266.126	89.25
266.358	87.25
266.591	91.25
266.823	77.25
267.055	78.25
267.287	88.25
267.52	97.25
267.752	94.25
267.984	86.25
268.216	74.25
268.448	75.25
268.681	73.25
268.913	72.25
269.145	80.25
269.377	77.25
269.609	80.25
269.841	72.25
270.073	90.25
270.306	92.25
270.538	76.25
270.77	71.25
271.002	95.25
271.234	79.25
271.466	82.25
271.698	73.25
271.93	84.25
272.162	86.25
272.394	84.25
272.626	94.25
272.858	89.25
273.09	75.25
273.322	84.25
273.553	78.25
273.785	66.25
274.017	86.25
274.249	87.25
274.481	84.25
274.713	75.25
274.945	94.25
275.176	86.25
275.408	83.25
275.64	80.25
275.872	87.25
276.104	83.25
276.335	95.25
276.567	98.25
276.799	108.25
277.031	89.25
277.262	98.25
277.494	73.25
277.726	88.25
277.957	75.25
278.189	83.25
278.421	93.25
278.652	85.25
278.884	90.25
279.115	86.25
279.347	85.25
279.579	77.25
279.81	94.25
280.042	78.25
280.273	84.25
280.505	92.25
280.736	92.25
280.968	84.25
281.199	86.25
281.431	69.25
281.662	73.25
281.894	87.25
282.125	92.25
282.356	116.25
282.588	131.25
282.819	113.25
283.051	77.25
283.282	85.25
283.513	77.25
283.745	86.25
283.976	86.25
284.207	76.25
284.439	87.25
284.67	88.25
284.901	66.25
285.132	80.25
285.364	71.25
285.595	79.25
285.826	94.25
286.057	96.25
286.288	95.25
286.52	82.25
286.751	83.25
286.982	80.25
287.213	81.25
287.444	88.25
287.675	90.25
287.906	88.25
288.138	83.25
288.369	85.25
288.6	91.25
288.831	97.25
289.062	79.25
289.293	73.25
289.524	92.25
289.755	84.25
289.986	83.25
290.217	88.25
290.448	75.25
290.679	98.25
290.91	98.25
291.141	68.25
291.371	85.25
291.602	87.25
291.833	87.25
292.064	78.25
292.295	73.25
292.526	94.25
292.757	88.25
292.987	82.25
293.218	98.25
293.449	88.25
293.68	83.25
293.91	92.25
294.141	88.25
294.372	83.25
294.603	90.25
294.833	96.25
295.064	95.25
295.295	91.25
295.525	100.25
295.756	97.25
295.987	107.25
296.217	153.25
296.448	119.25
296.679	100.25
296.909	80.25
297.14	89.25
297.37	80.25
297.601	64.25
297.831	96.25
298.062	83.25
298.292	95.25
298.523	96.25
298.753	70.25
298.984	85.25
299.214	88.25
299.445	85.25
299.675	79.25
299.905	92.25
300.136	87.25
300.366	91.25
300.597	99.25
300.827	82.25
301.057	102.25
301.288	92.25
301.518	98.25
301.748	89.25
301.979	100.25
302.209	72.25
302.439	93.25
302.669	89.25
302.9	89.25
303.13	97.25
303.36	81.25
303.59	111.25
303.82	110.25
304.051	80.25
304.281	75.25
304.511	82.25
304.741	94.25
304.971	90.25
305.201	96.25
305.431	82.25
305.661	96.25
305.891	79.25
306.121	91.25
306.352	86.25
306.582	100.25
306.812	94.25
307.042	96.25
307.272	92.25
307.502	78.25
307.731	81.25
307.961	79.25
308.191	88.25
308.421	94.25
308.651	83.25
308.881	86.25
309.111	85.25
309.341	92.25
309.571	96.25
309.8	79.25
310.03	94.25
310.26	96.25
310.49	84.25
310.72	93.25
310.949	97.25
311.179	115.25
311.409	86.25
311.639	84.25
311.868	102.25
312.098	100.25
312.328	92.25
312.557	94.25
312.787	91.25
313.017	87.25
313.246	80.25
313.476	82.25
313.706	88.25
313.935	98.25
314.165	91.25
314.394	93.25
314.624	88.25
314.853	117.25
315.083	103.25
315.312	95.25
315.542	85.25
315.771	81.25
316.001	84.25
316.23	94.25
316.46	72.25
316.689	83.25
316.919	87.25
317.148	80.25
317.377	80.25
317.607	85.25
317.836	81.25
318.065	88.25
318.295	111.25
318.524	88.25
318.753	88.25
318.983	100.25
319.212	92.25
319.441	99.25
319.67	102.25
319.9	83.25
320.129	80.25
320.358	88.25
320.587	93.25
320.816	94.25
321.046	95.25
321.275	101.25
321.504	98.25
321.733	100.25
321.962	101.25
322.191	87.25
322.42	105.25
322.649	109.25
322.878	95.25
323.108	109.25
323.337	123.25
323.566	129.25
323.795	149.25
324.024	216.25
324.253	409.25
324.482	829.25
324.71	1699.25
324.939	2221.25
325.168	833.25
325.397	269.25
325.626	142.25
325.855	137.25
326.084	120.25
326.313	134.25
326.542	155.25
326.77	245.25
326.999	464.25
327.228	919.25
327.457	1644.25
327.686	1322.25
327.914	375.25
328.143	185.25
328.372	149.25
328.6	126.25
328.829	123.25
329.058	141.25
329.287	151.25
329.515	98.25
329.744	97.25
329.972	113.25
330.201	113.25
330.43	121.25
330.658	138.25
330.887	145.25
331.115	133.25
331.344	95.25
331.572	98.25
331.801	96.25
332.03	97.25
332.258	93.25
332.486	83.25
332.715	99.25
332.943	84.25
333.172	91.25
333.4	85.25
333.629	109.25
333.857	114.25
334.085	118.25
334.314	109.25
334.542	125.25
334.771	108.25
334.999	95.25
335.227	93.25
335.455	91.25
335.684	101.25
335.912	90.25
336.14	94.25
336.369	91.25
336.597	98.25
336.825	97.25
337.053	94.25
337.281	81.25
337.51	87.25
337.738	81.25
337.966	84.25
338.194	107.25
338.422	95.25
338.65	99.25
338.878	76.25
339.106	81.25
339.334	91.25
339.562	99.25
339.79	89.25
340.018	96.25
340.246	80.25
340.474	94.25
340.702	91.25
340.93	73.25
341.158	101.25
341.386	98.25
341.614	98.25
341.842	97.25
342.07	98.25
342.298	82.25
342.526	86.25
342.754	79.25
342.981	76.25
343.209	83.25
343.437	98.25
343.665	84.25
343.893	87.25
344.12	101.25
344.348	93.25
344.576	83.25
344.804	97.25
345.031	85.25
345.259	98.25
345.487	89.25
345.714	99.25
345.942	85.25
346.17	83.25
346.397	88.25
346.625	92.25
346.853	85.25
347.08	92.25
347.308	103.25
347.535	79.25
347.763	111.25
347.99	96.25
348.218	96.25
348.445	112.25
348.673	96.25
348.9	108.25
349.128	97.25
349.355	84.25
349.583	74.25
349.81	85.25
350.037	86.25
350.265	87.25
350.492	99.25
350.72	93.25
350.947	107.25
351.174	109.25
351.402	101.25
351.629	112.25
351.856	109.25
352.083	96.25
352.311	99.25
352.538	108.25
352.765	113.25
352.992	124.25
353.22	125.25
353.447	92.25
353.674	105.25
353.901	87.25
354.128	73.25
354.355	85.25
354.583	91.25
354.81	103.25
355.037	96.25
355.264	82.25
355.491	86.25
355.718	92.25
355.945	94.25
356.172	101.25
356.399	106.25
356.626	95.25
356.853	92.25
357.08	92.25
357.307	83.25
357.534	83.25
357.761	88.25
357.988	102.25
358.215	91.25
358.441	95.25
358.668	89.25
358.895	92.25
359.122	93.25
359.349	112.25
359.576	96.25
359.802	101.25
360.029	126.25
360.256	113.25
360.483	100.25
360.709	84.25
360.936	92.25
361.163	95.25
361.39	89.25
361.616	99.25
361.843	88.25
362.07	79.25
362.296	84.25
362.523	88.25
362.749	80.25
362.976	89.25
363.203	86.25
363.429	66.25
363.656	80.25
363.882	86.25
364.109	89.25
364.335	84.25
364.562	92.25
364.788	83.25
365.015	88.25
365.241	96.25
365.468	112.25
365.694	110.25
365.92	90.25
366.147	83.25
366.373	99.25
366.599	108.25
366.826	93.25
367.052	88.25
367.278	88.25
367.505	88.25
367.731	72.25
367.957	95.25
368.184	83.25
368.41	91.25
368.636	112.25
368.862	133.25
369.089	103.25
369.315	87.25
369.541	84.25
369.767	94.25
369.993	90.25
370.219	88.25
370.445	84.25
370.672	86.25
370.898	96.25
371.124	84.25
371.35	93.25
371.576	84.25
371.802	89.25
372.028	90.25
372.254	76.25
372.48	85.25
372.706	96.25
372.932	88.25
373.158	69.25
373.384	88.25
373.61	91.25
373.835	88.25
374.061	86.25
374.287	92.25
374.513	83.25
374.739	103.25
374.965	74.25
375.191	87.25
375.416	88.25
375.642	88.25
375.868	89.25
376.094	96.25
376.319	96.25
376.545	89.25
376.771	89.25
376.997	83.25
377.222	94.25
377.448	89.25
377.674	83.25
377.899	90.25
378.125	84.25
378.35	97.25
378.576	93.25
378.802	80.25
379.027	92.25
379.253	101.25
379.478	92.25
379.704	103.25
379.929	98.25
380.155	98.25
380.38	77.25
380.606	95.25
380.831	86.25
381.057	85.25
381.282	102.25
381.507	91.25
381.733	84.25
381.958	82.25
382.184	93.25
382.409	90.25
382.634	108.25
382.86	101.25
383.085	88.25
383.31	91.25
383.535	94.25
383.761	103.25
383.986	98.25
384.211	99.25
384.436	97.25
384.662	97.25
384.887	95.25
385.112	102.25
385.337	107.25
385.562	96.25
385.787	114.25
386.013	105.25
386.238	107.25
386.463	97.25
386.688	101.25
386.913	100.25
387.138	109.25
387.363	93.25
387.588	91.25
387.813	103.25
388.038	106.25
388.263	114.25
388.488	99.25
388.713	93.25
388.938	89.25
389.163	72.25
389.387	95.25
389.612	94.25
389.837	89.25
390.062	92.25
390.287	99.25
390.512	100.25
390.736	99.25
390.961	80.25
391.186	93.25
391.411	92.25
391.636	102.25
391.86	86.25
392.085	84.25
392.31	83.25
392.534	80.25
392.759	85.25
392.984	78.25
393.208	85.25
393.433	91.25
393.658	91.25
393.882	96.25
394.107	88.25
394.331	98.25
394.556	86.25
394.78	81.25
395.005	86.25
395.229	80.25
395.454	74.25
395.678	72.25
395.903	87.25
396.127	83.25
396.352	84.25
396.576	83.25
396.801	88.25
397.025	85.25
397.249	94.25
397.474	77.25
397.698	78.25
397.922	90.25
398.147	65.25
398.371	80.25
398.595	85.25
398.82	80.25
399.044	92.25
399.268	87.25
399.492	92.25
399.717	92.25
399.941	84.25
400.165	86.25
400.389	87.25
400.613	84.25
400.837	87.25
401.062	85.25
401.286	86.25
401.51	83.25
401.734	100.25
401.958	97.25
402.182	141.25
402.406	177.25
402.63	138.25
402.854	92.25
403.078	89.25
403.302	74.25
403.526	81.25
403.75	86.25
403.974	68.25
404.198	94.25
404.422	82.25
404.645	83.25
404.869	72.25
405.093	93.25
405.317	93.25
405.541	104.25
405.765	89.25
405.988	121.25
406.212	187.25
406.436	247.25
406.66	145.25
406.883	86.25
407.107	86.25
407.331	100.25
407.555	94.25
407.778	97.25
408.002	91.25
408.226	88.25
408.449	87.25
408.673	85.25
408.896	97.25
409.12	89.25
409.344	83.25
409.567	95.25
409.791	92.25
410.014	83.25
410.238	86.25
410.461	87.25
410.685	102.25
410.908	99.25
411.132	96.25
411.355	91.25
411.578	81.25
411.802	84.25
412.025	75.25
412.249	94.25
412.472	93.25
412.695	94.25
412.919	82.25
413.142	82.25
413.365	77.25
413.589	104.25
413.812	85.25
414.035	85.25
414.258	91.25
414.482	92.25
414.705	81.25
414.928	86.25
415.151	98.25
415.374	107.25
415.597	94.25
415.821	96.25
416.044	88.25
416.267	84.25
416.49	83.25
416.713	100.25
416.936	98.25
417.159	92.25
417.382	77.25
417.605	87.25
417.828	90.25
418.051	88.25
418.274	86.25
418.497	87.25
418.72	78.25
418.943	90.25
419.166	78.25
419.389	84.25
419.611	85.25
419.834	81.25
420.057	92.25
420.28	74.25
420.503	79.25
420.726	96.25
420.948	87.25
421.171	88.25
421.394	87.25
421.617	67.25
421.839	96.25
422.062	80.25
422.285	91.25
422.507	101.25
422.73	111.25
422.953	81.25
423.175	70.25
423.398	84.25
423.621	86.25
423.843	91.25
424.066	93.25
424.288	89.25
424.511	88.25
424.733	100.25
424.956	101.25
425.178	88.25
425.401	100.25
425.623	106.25
425.846	79.25
426.068	93.25
426.291	89.25
426.513	88.25
426.735	72.25
426.958	96.25
427.18	104.25
427.402	129.25
427.625	166.25
427.847	140.25
428.069	103.25
428.292	79.25
428.514	77.25
428.736	80.25
428.958	88.25
429.181	80.25
429.403	82.25
429.625	77.25
429.847	89.25
430.069	100.25
430.292	88.25
430.514	83.25
430.736	97.25
430.958	91.25
431.18	74.25
431.402	84.25
431.624	78.25
431.846	82.25
432.068	82.25
432.29	91.25
432.512	78.25
432.734	77.25
432.956	87.25
433.178	84.25
433.4	102.25
433.622	92.25
433.844	92.25
434.066	84.25
434.287	96.25
434.509	88.25
434.731	86.25
434.953	81.25
435.175	80.25
435.397	80.25
435.618	97.25
435.84	105.25
436.062	112.25
436.284	116.25
436.505	91.25
436.727	83.25
436.949	88.25
437.17	87.25
437.392	96.25
437.614	101.25
437.835	111.25
438.057	131.25
438.278	117.25
438.5	99.25
438.721	101.25
438.943	105.25
439.165	92.25
439.386	100.25
439.608	87.25
439.829	93.25
440.05	117.25
440.272	125.25
440.493	100.25
440.715	97.25
440.936	84.25
441.158	93.25
441.379	75.25
441.6	101.25
441.822	88.25
442.043	91.25
442.264	104.25
442.486	99.25
442.707	101.25
442.928	125.25
443.149	121.25
443.371	127.25
443.592	115.25
443.813	115.25
444.034	96.25
444.255	91.25
444.476	96.25
444.698	74.25
444.919	74.25
445.14	144.25
445.361	130.25
445.582	110.25
445.803	148.25
446.024	133.25
446.245	128.25
446.466	109.25
446.687	86.25
446.908	86.25
447.129	83.25
447.35	96.25
447.571	91.25
447.792	94.25
448.013	102.25
448.234	109.25
448.455	97.25
448.675	115.25
448.896	113.25
449.117	104.25
449.338	106.25
449.559	121.25
449.779	133.25
450	103.25
450.221	85.25
450.442	86.25
450.662	103.25
450.883	115.25
451.104	121.25
451.324	98.25
451.545	81.25
451.766	80.25
451.986	94.25
452.207	91.25
452.428	90.25
452.648	91.25
452.869	114.25
453.089	111.25
453.31	127.25
453.53	91.25
453.751	87.25
453.971	108.25
454.192	122.25
454.412	96.25
454.633	85.25
454.853	87.25
455.073	83.25
455.294	94.25
455.514	84.25
455.734	65.25
455.955	76.25
456.175	87.25
456.395	92.25
456.616	89.25
456.836	78.25
457.056	90.25
457.276	86.25
457.497	64.25
457.717	84.25
457.937	102.25
458.157	79.25
458.377	81.25
458.598	108.25
458.818	147.25
459.038	166.25
459.258	115.25
459.478	83.25
459.698	81.25
459.918	85.25
460.138	81.25
460.358	75.25
460.578	88.25
460.798	90.25
461.018	95.25
461.238	75.25
461.458	99.25
461.678	81.25
461.898	72.25
462.118	100.25
462.338	73.25
462.558	74.25
462.777	79.25
462.997	73.25
463.217	100.25
463.437	84.25
463.657	78.25
463.876	84.25
464.096	77.25
464.316	104.25
464.536	98.25
464.755	95.25
464.975	95.25
465.195	172.25
465.414	196.25
465.634	92.25
465.854	83.25
466.073	76.25
466.293	93.25
466.512	80.25
466.732	74.25
466.951	70.25
467.171	86.25
467.391	96.25
467.61	108.25
467.829	96.25
468.049	88.25
468.268	107.25
468.488	80.25
468.707	79.25
468.927	83.25
469.146	70.25
469.365	76.25
469.585	91.25
469.804	95.25
470.023	93.25
470.243	86.25
470.462	95.25
470.681	122.25
470.901	93.25
471.12	88.25
471.339	89.25
471.558	95.25
471.777	92.25
471.997	93.25
472.216	107.25
472.435	133.25
472.654	91.25
472.873	79.25
473.092	86.25
473.311	79.25
473.53	75.25
473.749	76.25
473.968	96.25
474.187	90.25
474.406	108.25
474.625	76.25
474.844	85.25
475.063	74.25
475.282	93.25
475.501	96.25
475.72	98.25
475.939	85.25
476.158	79.25
476.377	73.25
476.596	79.25
476.814	73.25
477.033	106.25
477.252	79.25
477.471	76.25
477.69	85.25
477.908	101.25
478.127	102.25
478.346	84.25
478.564	84.25
478.783	85.25
479.002	111.25
479.22	99.25
479.439	103.25
479.658	120.25
479.876	89.25
480.095	85.25
480.313	80.25
480.532	74.25
480.751	86.25
480.969	99.25
481.188	175.25
481.406	131.25
481.624	100.25
481.843	77.25
482.061	84.25
482.28	91.25
482.498	77.25
482.717	69.25
482.935	72.25
483.153	73.25
483.372	91.25
483.59	85.25
483.808	85.25
484.027	96.25
484.245	83.25
484.463	75.25
484.681	94.25
484.9	100.25
485.118	100.25
485.336	80.25
485.554	108.25
485.772	95.25
485.99	103.25
486.209	92.25
486.427	104.25
486.645	94.25
486.863	109.25
487.081	92.25
487.299	84.25
487.517	87.25
487.735	90.25
487.953	96.25
488.171	96.25
488.389	86.25
488.607	95.25
488.825	83.25
489.043	94.25
489.261	96.25
489.479	73.25
489.696	82.25
489.914	79.25
490.132	94.25
490.35	95.25
490.568	79.25
490.786	82.25
491.003	92.25
491.221	88.25
491.439	82.25
491.657	81.25
491.874	87.25
492.092	77.25
492.31	80.25
492.527	96.25
492.745	77.25
492.963	86.25
493.18	94.25
493.398	86.25
493.615	81.25
493.833	103.25
494.05	82.25
494.268	68.25
494.485	81.25
494.703	92.25
494.92	93.25
495.138	100.25
495.355	82.25
495.573	94.25
495.79	83.25
496.008	95.25
496.225	84.25
496.442	100.25
496.66	97.25
496.877	93.25
497.094	85.25
497.312	93.25
497.529	96.25
497.746	91.25
497.963	93.25
498.181	81.25
498.398	102.25
498.615	108.25
498.832	99.25
499.049	77.25
499.267	93.25
499.484	77.25
499.701	82.25
499.918	99.25
500.135	83.25
500.352	80.25
500.569	81.25
500.786	90.25
501.003	91.25
501.22	95.25
501.437	82.25
501.654	88.25
501.871	117.25
502.088	92.25
502.305	90.25
502.522	86.25
502.739	84.25
502.956	90.25
503.172	94.25
503.389	95.25
503.606	112.25
503.823	82.25
504.04	95.25
504.256	78.25
504.473	96.25
504.69	78.25
504.907	99.25
505.123	85.25
505.34	88.25
505.557	99.25
505.773	100.25
505.99	92.25
506.207	84.25
506.423	81.25
506.64	87.25
506.856	95.25
507.073	86.25
507.289	95.25
507.506	100.25
507.722	111.25
507.939	107.25
508.155	97.25
508.372	84.25
508.588	87.25
508.805	85.25
509.021	103.25
509.238	98.25
509.454	96.25
509.67	102.25
509.887	109.25
510.103	136.25
510.319	242.25
510.536	911.25
510.752	3007.25
510.968	823.25
511.184	175.25
511.401	103.25
511.617	89.25
511.833	98.25
512.049	91.25
512.265	88.25
512.481	85.25
512.698	99.25
512.914	93.25
513.13	96.25
513.346	99.25
513.562	78.25
513.778	89.25
513.994	90.25
514.21	98.25
514.426	125.25
514.642	150.25
514.858	119.25
515.074	168.25
515.29	544.25
515.506	1923.25
515.721	694.25
515.937	161.25
516.153	109.25
516.369	84.25
