Data from Circ_2018_H10_HRD10591_00030.txt Node
Date: Wed Jan 03 09:56:08 EST 2024
User: Yrep
Spectrometer: HR+D1059
Trigger mode: 1
Integration Time (sec): 1.000000E-1
Scans to average: 1
Electric dark correction enabled: true
Nonlinearity correction enabled: false
Boxcar width: 0
XAxis mode: Wavelengths
Number of Pixels in Spectrum: 2048
>>>>>Begin Spectral Data<<<<<
223.165	-30.44
223.4	-30.44
223.635	-30.44
223.869	-25.44
224.104	-12.44
224.338	-12.44
224.573	-12.44
224.808	-18.44
225.042	-10.44
225.277	7.56
225.511	1.56
225.746	2.56
225.98	1.56
226.215	14.56
226.449	12.56
226.683	17.56
226.918	29.56
227.152	34.56
227.387	30.56
227.621	50.56
227.856	45.56
228.09	33.56
228.324	49.56
228.559	65.56
228.793	62.56
229.027	59.56
229.262	64.56
229.496	77.56
229.73	80.56
229.964	91.56
230.199	88.56
230.433	79.56
230.667	87.56
230.901	88.56
231.136	74.56
231.37	77.56
231.604	94.56
231.838	94.56
232.072	81.56
232.306	94.56
232.541	71.56
232.775	85.56
233.009	88.56
233.243	79.56
233.477	84.56
233.711	73.56
233.945	76.56
234.179	71.56
234.413	82.56
234.647	86.56
234.881	77.56
235.115	74.56
235.349	75.56
235.583	79.56
235.817	90.56
236.051	87.56
236.285	94.56
236.519	65.56
236.753	82.56
236.987	80.56
237.221	92.56
237.455	86.56
237.689	82.56
237.922	78.56
238.156	71.56
238.39	85.56
238.624	77.56
238.858	86.56
239.091	81.56
239.325	79.56
239.559	92.56
239.793	88.56
240.027	66.56
240.26	80.56
240.494	85.56
240.728	82.56
240.961	84.56
241.195	85.56
241.429	85.56
241.662	72.56
241.896	72.56
242.13	83.56
242.363	84.56
242.597	91.56
242.83	76.56
243.064	83.56
243.298	95.56
243.531	79.56
243.765	86.56
243.998	81.56
244.232	84.56
244.465	81.56
244.699	76.56
244.932	73.56
245.166	84.56
245.399	71.56
245.633	81.56
245.866	72.56
246.099	77.56
246.333	72.56
246.566	68.56
246.8	88.56
247.033	70.56
247.266	84.56
247.5	81.56
247.733	89.56
247.966	82.56
248.2	90.56
248.433	84.56
248.666	89.56
248.899	94.56
249.133	83.56
249.366	100.56
249.599	87.56
249.832	92.56
250.066	83.56
250.299	82.56
250.532	81.56
250.765	74.56
250.998	79.56
251.231	85.56
251.465	76.56
251.698	75.56
251.931	92.56
252.164	77.56
252.397	84.56
252.63	86.56
252.863	92.56
253.096	95.56
253.329	85.56
253.562	82.56
253.795	86.56
254.028	79.56
254.261	97.56
254.494	89.56
254.727	95.56
254.96	72.56
255.193	76.56
255.426	84.56
255.659	72.56
255.892	86.56
256.124	89.56
256.357	94.56
256.59	79.56
256.823	87.56
257.056	90.56
257.289	92.56
257.521	91.56
257.754	94.56
257.987	74.56
258.22	101.56
258.452	90.56
258.685	94.56
258.918	100.56
259.151	87.56
259.383	77.56
259.616	96.56
259.849	91.56
260.081	79.56
260.314	79.56
260.547	83.56
260.779	93.56
261.012	87.56
261.244	79.56
261.477	99.56
261.71	94.56
261.942	119.56
262.175	132.56
262.407	84.56
262.64	86.56
262.872	80.56
263.105	73.56
263.337	80.56
263.57	87.56
263.802	75.56
264.035	73.56
264.267	87.56
264.499	87.56
264.732	87.56
264.964	85.56
265.197	88.56
265.429	102.56
265.661	89.56
265.894	97.56
266.126	80.56
266.358	92.56
266.591	77.56
266.823	73.56
267.055	81.56
267.287	91.56
267.52	78.56
267.752	94.56
267.984	88.56
268.216	84.56
268.448	94.56
268.681	89.56
268.913	95.56
269.145	86.56
269.377	80.56
269.609	86.56
269.841	99.56
270.073	85.56
270.306	86.56
270.538	88.56
270.77	69.56
271.002	79.56
271.234	85.56
271.466	88.56
271.698	89.56
271.93	91.56
272.162	89.56
272.394	75.56
272.626	93.56
272.858	75.56
273.09	83.56
273.322	82.56
273.553	101.56
273.785	101.56
274.017	73.56
274.249	86.56
274.481	85.56
274.713	90.56
274.945	96.56
275.176	93.56
275.408	86.56
275.64	78.56
275.872	94.56
276.104	86.56
276.335	108.56
276.567	108.56
276.799	126.56
277.031	100.56
277.262	95.56
277.494	91.56
277.726	97.56
277.957	89.56
278.189	87.56
278.421	92.56
278.652	92.56
278.884	85.56
279.115	91.56
279.347	83.56
279.579	87.56
279.81	91.56
280.042	90.56
280.273	96.56
280.505	85.56
280.736	93.56
280.968	90.56
281.199	85.56
281.431	82.56
281.662	90.56
281.894	100.56
282.125	105.56
282.356	106.56
282.588	165.56
282.819	116.56
283.051	101.56
283.282	103.56
283.513	98.56
283.745	70.56
283.976	86.56
284.207	82.56
284.439	87.56
284.67	105.56
284.901	85.56
285.132	93.56
285.364	91.56
285.595	83.56
285.826	84.56
286.057	106.56
286.288	94.56
286.52	78.56
286.751	101.56
286.982	86.56
287.213	92.56
287.444	82.56
287.675	104.56
287.906	86.56
288.138	99.56
288.369	81.56
288.6	98.56
288.831	89.56
289.062	88.56
289.293	97.56
289.524	91.56
289.755	79.56
289.986	108.56
290.217	78.56
290.448	80.56
290.679	81.56
290.91	89.56
291.141	83.56
291.371	79.56
291.602	79.56
291.833	93.56
292.064	90.56
292.295	78.56
292.526	93.56
292.757	95.56
292.987	89.56
293.218	94.56
293.449	98.56
293.68	94.56
293.91	89.56
294.141	95.56
294.372	75.56
294.603	79.56
294.833	87.56
295.064	81.56
295.295	86.56
295.525	90.56
295.756	108.56
295.987	123.56
296.217	164.56
296.448	138.56
296.679	88.56
296.909	88.56
297.14	100.56
297.37	86.56
297.601	97.56
297.831	85.56
298.062	91.56
298.292	91.56
298.523	95.56
298.753	88.56
298.984	92.56
299.214	90.56
299.445	93.56
299.675	106.56
299.905	91.56
300.136	99.56
300.366	93.56
300.597	83.56
300.827	97.56
301.057	116.56
301.288	101.56
301.518	104.56
301.748	99.56
301.979	102.56
302.209	100.56
302.439	100.56
302.669	88.56
302.9	80.56
303.13	82.56
303.36	90.56
303.59	109.56
303.82	91.56
304.051	102.56
304.281	115.56
304.511	99.56
304.741	100.56
304.971	80.56
305.201	94.56
305.431	89.56
305.661	92.56
305.891	101.56
306.121	97.56
306.352	103.56
306.582	114.56
306.812	99.56
307.042	104.56
307.272	95.56
307.502	98.56
307.731	93.56
307.961	100.56
308.191	80.56
308.421	97.56
308.651	91.56
308.881	94.56
309.111	102.56
309.341	94.56
309.571	92.56
309.8	114.56
310.03	117.56
310.26	106.56
310.49	90.56
310.72	97.56
310.949	114.56
311.179	100.56
311.409	102.56
311.639	93.56
311.868	92.56
312.098	96.56
312.328	113.56
312.557	116.56
312.787	108.56
313.017	106.56
313.246	92.56
313.476	89.56
313.706	95.56
313.935	103.56
314.165	111.56
314.394	100.56
314.624	98.56
314.853	85.56
315.083	100.56
315.312	104.56
315.542	85.56
315.771	101.56
316.001	90.56
316.23	90.56
316.46	101.56
316.689	95.56
316.919	94.56
317.148	104.56
317.377	98.56
317.607	101.56
317.836	105.56
318.065	114.56
318.295	105.56
318.524	90.56
318.753	97.56
318.983	86.56
319.212	108.56
319.441	121.56
319.67	98.56
319.9	97.56
320.129	102.56
320.358	103.56
320.587	107.56
320.816	97.56
321.046	107.56
321.275	105.56
321.504	86.56
321.733	94.56
321.962	86.56
322.191	119.56
322.42	121.56
322.649	116.56
322.878	124.56
323.108	130.56
323.337	125.56
323.566	147.56
323.795	174.56
324.024	251.56
324.253	450.56
324.482	958.56
324.71	1986.56
324.939	2584.56
325.168	939.56
325.397	275.56
325.626	162.56
325.855	139.56
326.084	147.56
326.313	155.56
326.542	167.56
326.77	262.56
326.999	528.56
327.228	1060.56
327.457	1953.56
327.686	1550.56
327.914	451.56
328.143	221.56
328.372	185.56
328.6	147.56
328.829	142.56
329.058	153.56
329.287	150.56
329.515	113.56
329.744	117.56
329.972	125.56
330.201	143.56
330.43	165.56
330.658	141.56
330.887	155.56
331.115	146.56
331.344	103.56
331.572	101.56
331.801	101.56
332.03	107.56
332.258	110.56
332.486	82.56
332.715	102.56
332.943	94.56
333.172	102.56
333.4	100.56
333.629	110.56
333.857	137.56
334.085	133.56
334.314	122.56
334.542	152.56
334.771	160.56
334.999	103.56
335.227	89.56
335.455	86.56
335.684	94.56
335.912	90.56
336.14	98.56
336.369	95.56
336.597	103.56
336.825	99.56
337.053	97.56
337.281	96.56
337.51	103.56
337.738	99.56
337.966	90.56
338.194	102.56
338.422	107.56
338.65	114.56
338.878	97.56
339.106	106.56
339.334	99.56
339.562	97.56
339.79	106.56
340.018	109.56
340.246	94.56
340.474	103.56
340.702	99.56
340.93	97.56
341.158	90.56
341.386	101.56
341.614	114.56
341.842	116.56
342.07	98.56
342.298	109.56
342.526	106.56
342.754	83.56
342.981	94.56
343.209	94.56
343.437	86.56
343.665	97.56
343.893	90.56
344.12	105.56
344.348	86.56
344.576	100.56
344.804	81.56
345.031	94.56
345.259	106.56
345.487	104.56
345.714	95.56
345.942	96.56
346.17	105.56
346.397	82.56
346.625	100.56
346.853	105.56
347.08	106.56
347.308	105.56
347.535	98.56
347.763	101.56
347.99	92.56
348.218	112.56
348.445	121.56
348.673	105.56
348.9	105.56
349.128	86.56
349.355	79.56
349.583	97.56
349.81	110.56
350.037	84.56
350.265	99.56
350.492	104.56
350.72	93.56
350.947	113.56
351.174	117.56
351.402	126.56
351.629	110.56
351.856	120.56
352.083	117.56
352.311	113.56
352.538	113.56
352.765	123.56
352.992	122.56
353.22	115.56
353.447	123.56
353.674	110.56
353.901	105.56
354.128	100.56
354.355	98.56
354.583	103.56
354.81	103.56
355.037	108.56
355.264	108.56
355.491	74.56
355.718	85.56
355.945	82.56
356.172	105.56
356.399	100.56
356.626	101.56
356.853	101.56
357.08	99.56
357.307	101.56
357.534	85.56
357.761	90.56
357.988	84.56
358.215	91.56
358.441	98.56
358.668	82.56
358.895	90.56
359.122	97.56
359.349	103.56
359.576	90.56
359.802	103.56
360.029	132.56
360.256	115.56
360.483	106.56
360.709	85.56
360.936	106.56
361.163	84.56
361.39	99.56
361.616	106.56
361.843	94.56
362.07	91.56
362.296	119.56
362.523	107.56
362.749	101.56
362.976	95.56
363.203	97.56
363.429	91.56
363.656	86.56
363.882	78.56
364.109	87.56
364.335	97.56
364.562	113.56
364.788	120.56
365.015	104.56
365.241	100.56
365.468	102.56
365.694	93.56
365.92	118.56
366.147	101.56
366.373	102.56
366.599	89.56
366.826	99.56
367.052	103.56
367.278	102.56
367.505	90.56
367.731	93.56
367.957	95.56
368.184	101.56
368.41	110.56
368.636	116.56
368.862	137.56
369.089	94.56
369.315	94.56
369.541	96.56
369.767	90.56
369.993	93.56
370.219	108.56
370.445	94.56
370.672	100.56
370.898	81.56
371.124	100.56
371.35	85.56
371.576	91.56
371.802	90.56
372.028	91.56
372.254	106.56
372.48	86.56
372.706	86.56
372.932	82.56
373.158	82.56
373.384	88.56
373.61	92.56
373.835	94.56
374.061	99.56
374.287	97.56
374.513	80.56
374.739	88.56
374.965	93.56
375.191	91.56
375.416	90.56
375.642	82.56
375.868	102.56
376.094	104.56
376.319	85.56
376.545	91.56
376.771	85.56
376.997	90.56
377.222	96.56
377.448	101.56
377.674	103.56
377.899	92.56
378.125	94.56
378.35	101.56
378.576	87.56
378.802	77.56
379.027	101.56
379.253	92.56
379.478	106.56
379.704	108.56
379.929	94.56
380.155	95.56
380.38	113.56
380.606	102.56
380.831	93.56
381.057	99.56
381.282	92.56
381.507	92.56
381.733	98.56
381.958	107.56
382.184	95.56
382.409	102.56
382.634	94.56
382.86	91.56
383.085	113.56
383.31	103.56
383.535	109.56
383.761	104.56
383.986	101.56
384.211	97.56
384.436	109.56
384.662	107.56
384.887	103.56
385.112	107.56
385.337	102.56
385.562	108.56
385.787	115.56
386.013	110.56
386.238	118.56
386.463	116.56
386.688	116.56
386.913	101.56
387.138	113.56
387.363	98.56
387.588	104.56
387.813	98.56
388.038	102.56
388.263	106.56
388.488	99.56
388.713	94.56
388.938	99.56
389.163	87.56
389.387	96.56
389.612	88.56
389.837	98.56
390.062	94.56
390.287	100.56
390.512	95.56
390.736	95.56
390.961	89.56
391.186	90.56
391.411	94.56
391.636	93.56
391.86	90.56
392.085	86.56
392.31	89.56
392.534	70.56
392.759	95.56
392.984	85.56
393.208	80.56
393.433	78.56
393.658	100.56
393.882	88.56
394.107	93.56
394.331	93.56
394.556	91.56
394.78	103.56
395.005	89.56
395.229	88.56
395.454	82.56
395.678	99.56
395.903	98.56
396.127	88.56
396.352	95.56
396.576	79.56
396.801	98.56
397.025	97.56
397.249	89.56
397.474	81.56
397.698	105.56
397.922	99.56
398.147	93.56
398.371	85.56
398.595	91.56
398.82	92.56
399.044	86.56
399.268	82.56
399.492	92.56
399.717	100.56
399.941	90.56
400.165	83.56
400.389	97.56
400.613	93.56
400.837	86.56
401.062	89.56
401.286	93.56
401.51	81.56
401.734	88.56
401.958	116.56
402.182	139.56
402.406	167.56
402.63	140.56
402.854	105.56
403.078	91.56
403.302	100.56
403.526	92.56
403.75	89.56
403.974	102.56
404.198	89.56
404.422	91.56
404.645	92.56
404.869	74.56
405.093	93.56
405.317	92.56
405.541	106.56
405.765	121.56
405.988	139.56
406.212	205.56
406.436	289.56
406.66	196.56
406.883	91.56
407.107	96.56
407.331	106.56
407.555	100.56
407.778	99.56
408.002	99.56
408.226	91.56
408.449	99.56
408.673	107.56
408.896	104.56
409.12	106.56
409.344	93.56
409.567	94.56
409.791	73.56
410.014	89.56
410.238	101.56
410.461	95.56
410.685	99.56
410.908	83.56
411.132	97.56
411.355	99.56
411.578	98.56
411.802	92.56
412.025	83.56
412.249	96.56
412.472	87.56
412.695	90.56
412.919	93.56
413.142	88.56
413.365	87.56
413.589	103.56
413.812	88.56
414.035	103.56
414.258	88.56
414.482	83.56
414.705	82.56
414.928	100.56
415.151	98.56
415.374	99.56
415.597	98.56
415.821	83.56
416.044	97.56
416.267	91.56
416.49	89.56
416.713	90.56
416.936	99.56
417.159	90.56
417.382	90.56
417.605	74.56
417.828	83.56
418.051	93.56
418.274	100.56
418.497	93.56
418.72	93.56
418.943	89.56
419.166	103.56
419.389	73.56
419.611	83.56
419.834	82.56
420.057	87.56
420.28	97.56
420.503	94.56
420.726	86.56
420.948	102.56
421.171	98.56
421.394	104.56
421.617	94.56
421.839	102.56
422.062	98.56
422.285	89.56
422.507	116.56
422.73	102.56
422.953	101.56
423.175	91.56
423.398	90.56
423.621	89.56
423.843	88.56
424.066	100.56
424.288	93.56
424.511	94.56
424.733	102.56
424.956	115.56
425.178	110.56
425.401	123.56
425.623	104.56
425.846	99.56
426.068	105.56
426.291	91.56
426.513	107.56
426.735	109.56
426.958	96.56
427.18	104.56
427.402	157.56
427.625	193.56
427.847	154.56
428.069	131.56
428.292	95.56
428.514	86.56
428.736	80.56
428.958	88.56
429.181	81.56
429.403	99.56
429.625	88.56
429.847	92.56
430.069	106.56
430.292	85.56
430.514	91.56
430.736	85.56
430.958	85.56
431.18	86.56
431.402	93.56
431.624	76.56
431.846	85.56
432.068	83.56
432.29	100.56
432.512	87.56
432.734	79.56
432.956	92.56
433.178	115.56
433.4	130.56
433.622	88.56
433.844	92.56
434.066	102.56
434.287	91.56
434.509	83.56
434.731	98.56
434.953	104.56
435.175	79.56
435.397	94.56
435.618	104.56
435.84	102.56
436.062	122.56
436.284	139.56
436.505	104.56
436.727	89.56
436.949	91.56
437.17	86.56
437.392	97.56
437.614	99.56
437.835	125.56
438.057	122.56
438.278	132.56
438.5	109.56
438.721	128.56
438.943	102.56
439.165	96.56
439.386	86.56
439.608	101.56
439.829	109.56
440.05	123.56
440.272	167.56
440.493	113.56
440.715	89.56
440.936	101.56
441.158	69.56
441.379	82.56
441.6	100.56
441.822	98.56
442.043	103.56
442.264	115.56
442.486	89.56
442.707	94.56
442.928	117.56
443.149	145.56
443.371	140.56
443.592	113.56
443.813	126.56
444.034	118.56
444.255	95.56
444.476	104.56
444.698	83.56
444.919	90.56
445.14	130.56
445.361	126.56
445.582	121.56
445.803	154.56
446.024	169.56
446.245	153.56
446.466	133.56
446.687	103.56
446.908	91.56
447.129	93.56
447.35	90.56
447.571	87.56
447.792	98.56
448.013	102.56
448.234	130.56
448.455	103.56
448.675	124.56
448.896	121.56
449.117	98.56
449.338	117.56
449.559	137.56
449.779	136.56
450	117.56
450.221	92.56
450.442	99.56
450.662	95.56
450.883	117.56
451.104	123.56
451.324	106.56
451.545	85.56
451.766	87.56
451.986	96.56
452.207	83.56
452.428	104.56
452.648	108.56
452.869	121.56
453.089	139.56
453.31	142.56
453.53	101.56
453.751	99.56
453.971	117.56
454.192	141.56
454.412	105.56
454.633	84.56
454.853	83.56
455.073	93.56
455.294	93.56
455.514	107.56
455.734	90.56
455.955	90.56
456.175	65.56
456.395	84.56
456.616	80.56
456.836	85.56
457.056	78.56
457.276	89.56
457.497	76.56
457.717	101.56
457.937	92.56
458.157	89.56
458.377	107.56
458.598	120.56
458.818	172.56
459.038	186.56
459.258	138.56
459.478	102.56
459.698	90.56
459.918	95.56
460.138	98.56
460.358	88.56
460.578	89.56
460.798	96.56
461.018	91.56
461.238	74.56
461.458	106.56
461.678	85.56
461.898	83.56
462.118	97.56
462.338	90.56
462.558	98.56
462.777	98.56
462.997	87.56
463.217	76.56
463.437	81.56
463.657	87.56
463.876	102.56
464.096	102.56
464.316	89.56
464.536	99.56
464.755	118.56
464.975	113.56
465.195	204.56
465.414	196.56
465.634	113.56
465.854	86.56
466.073	83.56
466.293	92.56
466.512	83.56
466.732	92.56
466.951	89.56
467.171	100.56
467.391	105.56
467.61	113.56
467.829	98.56
468.049	103.56
468.268	107.56
468.488	82.56
468.707	83.56
468.927	85.56
469.146	74.56
469.365	83.56
469.585	93.56
469.804	99.56
470.023	101.56
470.243	94.56
470.462	99.56
470.681	108.56
470.901	102.56
471.12	93.56
471.339	92.56
471.558	100.56
471.777	78.56
471.997	92.56
472.216	110.56
472.435	172.56
472.654	98.56
472.873	94.56
473.092	83.56
473.311	86.56
473.53	91.56
473.749	91.56
473.968	107.56
474.187	109.56
474.406	91.56
474.625	83.56
474.844	82.56
475.063	95.56
475.282	95.56
475.501	86.56
475.72	100.56
475.939	83.56
476.158	79.56
476.377	110.56
476.596	88.56
476.814	97.56
477.033	97.56
477.252	104.56
477.471	93.56
477.69	83.56
477.908	79.56
478.127	84.56
478.346	96.56
478.564	86.56
478.783	99.56
479.002	87.56
479.22	97.56
479.439	91.56
479.658	122.56
479.876	97.56
480.095	94.56
480.313	108.56
480.532	89.56
480.751	94.56
480.969	127.56
481.188	245.56
481.406	185.56
481.624	108.56
481.843	94.56
482.061	92.56
482.28	89.56
482.498	93.56
482.717	78.56
482.935	91.56
483.153	108.56
483.372	91.56
483.59	88.56
483.808	97.56
484.027	89.56
484.245	97.56
484.463	99.56
484.681	91.56
484.9	90.56
485.118	79.56
485.336	74.56
485.554	91.56
485.772	98.56
485.99	95.56
486.209	91.56
486.427	93.56
486.645	119.56
486.863	118.56
487.081	110.56
487.299	101.56
487.517	87.56
487.735	95.56
487.953	101.56
488.171	97.56
488.389	95.56
488.607	95.56
488.825	102.56
489.043	82.56
489.261	85.56
489.479	88.56
489.696	94.56
489.914	83.56
490.132	91.56
490.35	100.56
490.568	95.56
490.786	95.56
491.003	76.56
491.221	86.56
491.439	89.56
491.657	94.56
491.874	114.56
492.092	99.56
492.31	92.56
492.527	78.56
492.745	95.56
492.963	86.56
493.18	86.56
493.398	101.56
493.615	99.56
493.833	100.56
494.05	90.56
494.268	98.56
494.485	90.56
494.703	95.56
494.92	92.56
495.138	90.56
495.355	87.56
495.573	77.56
495.79	85.56
496.008	98.56
496.225	95.56
496.442	80.56
496.66	95.56
496.877	99.56
497.094	91.56
497.312	119.56
497.529	95.56
497.746	102.56
497.963	94.56
498.181	99.56
498.398	101.56
498.615	120.56
498.832	117.56
499.049	95.56
499.267	91.56
499.484	99.56
499.701	104.56
499.918	104.56
500.135	90.56
500.352	97.56
500.569	84.56
500.786	86.56
501.003	86.56
501.22	84.56
501.437	90.56
501.654	90.56
501.871	100.56
502.088	86.56
502.305	87.56
502.522	90.56
502.739	92.56
502.956	94.56
503.172	103.56
503.389	99.56
503.606	127.56
503.823	105.56
504.04	84.56
504.256	95.56
504.473	90.56
504.69	93.56
504.907	109.56
505.123	98.56
505.34	90.56
505.557	75.56
505.773	91.56
505.99	93.56
506.207	96.56
506.423	96.56
506.64	91.56
506.856	102.56
507.073	99.56
507.289	96.56
507.506	99.56
507.722	114.56
507.939	119.56
508.155	101.56
508.372	105.56
508.588	99.56
508.805	109.56
509.021	93.56
509.238	100.56
509.454	103.56
509.67	103.56
509.887	123.56
510.103	140.56
510.319	261.56
510.536	930.56
510.752	3147.56
510.968	892.56
511.184	181.56
511.401	115.56
511.617	102.56
511.833	101.56
512.049	84.56
512.265	97.56
512.481	85.56
512.698	97.56
512.914	93.56
513.13	97.56
513.346	80.56
513.562	97.56
513.778	98.56
