Data from Circ_2018_H10_HRD10591_00013.txt Node
Date: Wed Jan 03 09:56:04 EST 2024
User: Yrep
Spectrometer: HR+D1059
Trigger mode: 1
Integration Time (sec): 1.000000E-1
Scans to average: 1
Electric dark correction enabled: true
Nonlinearity correction enabled: false
Boxcar width: 0
XAxis mode: Wavelengths
Number of Pixels in Spectrum: 2048
>>>>>Begin Spectral Data<<<<<
223.165	-5.88
223.4	-5.88
223.635	-5.88
223.869	-5.88
224.104	-21.88
224.338	-14.88
224.573	-12.88
224.808	-15.88
225.042	1.12
225.277	-7.88
225.511	3.12
225.746	-4.88
225.98	-1.88
226.215	6.12
226.449	15.12
226.683	21.12
226.918	22.12
227.152	23.12
227.387	39.12
227.621	42.12
227.856	47.12
228.09	53.12
228.324	55.12
228.559	56.12
228.793	63.12
229.027	64.12
229.262	66.12
229.496	75.12
229.73	84.12
229.964	90.12
230.199	73.12
230.433	77.12
230.667	77.12
230.901	80.12
231.136	84.12
231.37	69.12
231.604	82.12
231.838	75.12
232.072	86.12
232.306	81.12
232.541	72.12
232.775	76.12
233.009	79.12
233.243	80.12
233.477	88.12
233.711	87.12
233.945	88.12
234.179	96.12
234.413	77.12
234.647	65.12
234.881	76.12
235.115	74.12
235.349	82.12
235.583	75.12
235.817	75.12
236.051	65.12
236.285	73.12
236.519	75.12
236.753	68.12
236.987	64.12
237.221	76.12
237.455	86.12
237.689	80.12
237.922	80.12
238.156	70.12
238.39	83.12
238.624	86.12
238.858	78.12
239.091	72.12
239.325	76.12
239.559	94.12
239.793	76.12
240.027	76.12
240.26	76.12
240.494	81.12
240.728	72.12
240.961	70.12
241.195	67.12
241.429	66.12
241.662	68.12
241.896	72.12
242.13	82.12
242.363	78.12
242.597	72.12
242.83	76.12
243.064	77.12
243.298	68.12
243.531	73.12
243.765	72.12
243.998	67.12
244.232	74.12
244.465	84.12
244.699	93.12
244.932	94.12
245.166	82.12
245.399	83.12
245.633	64.12
245.866	69.12
246.099	56.12
246.333	84.12
246.566	72.12
246.8	82.12
247.033	80.12
247.266	75.12
247.5	89.12
247.733	69.12
247.966	78.12
248.2	75.12
248.433	84.12
248.666	67.12
248.899	87.12
249.133	80.12
249.366	108.12
249.599	95.12
249.832	82.12
250.066	78.12
250.299	94.12
250.532	83.12
250.765	74.12
250.998	80.12
251.231	70.12
251.465	76.12
251.698	78.12
251.931	88.12
252.164	83.12
252.397	70.12
252.63	69.12
252.863	81.12
253.096	91.12
253.329	94.12
253.562	75.12
253.795	73.12
254.028	92.12
254.261	79.12
254.494	87.12
254.727	87.12
254.96	80.12
255.193	80.12
255.426	83.12
255.659	84.12
255.892	87.12
256.124	79.12
256.357	72.12
256.59	85.12
256.823	73.12
257.056	86.12
257.289	83.12
257.521	73.12
257.754	78.12
257.987	77.12
258.22	89.12
258.452	80.12
258.685	89.12
258.918	63.12
259.151	89.12
259.383	75.12
259.616	86.12
259.849	80.12
260.081	82.12
260.314	92.12
260.547	72.12
260.779	82.12
261.012	86.12
261.244	86.12
261.477	97.12
261.71	98.12
261.942	117.12
262.175	124.12
262.407	84.12
262.64	75.12
262.872	87.12
263.105	79.12
263.337	71.12
263.57	84.12
263.802	87.12
264.035	79.12
264.267	85.12
264.499	87.12
264.732	83.12
264.964	73.12
265.197	91.12
265.429	70.12
265.661	91.12
265.894	85.12
266.126	78.12
266.358	71.12
266.591	95.12
266.823	73.12
267.055	75.12
267.287	84.12
267.52	88.12
267.752	87.12
267.984	76.12
268.216	93.12
268.448	85.12
268.681	84.12
268.913	74.12
269.145	83.12
269.377	85.12
269.609	76.12
269.841	86.12
270.073	86.12
270.306	79.12
270.538	85.12
270.77	96.12
271.002	82.12
271.234	79.12
271.466	91.12
271.698	81.12
271.93	62.12
272.162	88.12
272.394	96.12
272.626	80.12
272.858	79.12
273.09	91.12
273.322	96.12
273.553	92.12
273.785	90.12
274.017	103.12
274.249	90.12
274.481	73.12
274.713	69.12
274.945	95.12
275.176	92.12
275.408	75.12
275.64	75.12
275.872	89.12
276.104	94.12
276.335	87.12
276.567	91.12
276.799	108.12
277.031	99.12
277.262	90.12
277.494	78.12
277.726	88.12
277.957	82.12
278.189	80.12
278.421	86.12
278.652	94.12
278.884	85.12
279.115	74.12
279.347	88.12
279.579	93.12
279.81	97.12
280.042	92.12
280.273	81.12
280.505	83.12
280.736	99.12
280.968	104.12
281.199	79.12
281.431	84.12
281.662	87.12
281.894	80.12
282.125	106.12
282.356	119.12
282.588	144.12
282.819	113.12
283.051	106.12
283.282	103.12
283.513	98.12
283.745	88.12
283.976	82.12
284.207	97.12
284.439	73.12
284.67	86.12
284.901	90.12
285.132	94.12
285.364	96.12
285.595	92.12
285.826	89.12
286.057	77.12
286.288	88.12
286.52	87.12
286.751	85.12
286.982	89.12
287.213	96.12
287.444	77.12
287.675	89.12
287.906	89.12
288.138	79.12
288.369	93.12
288.6	86.12
288.831	71.12
289.062	86.12
289.293	98.12
289.524	87.12
289.755	75.12
289.986	95.12
290.217	91.12
290.448	87.12
290.679	88.12
290.91	84.12
291.141	78.12
291.371	85.12
291.602	89.12
291.833	67.12
292.064	94.12
292.295	92.12
292.526	86.12
292.757	91.12
292.987	82.12
293.218	82.12
293.449	98.12
293.68	88.12
293.91	95.12
294.141	91.12
294.372	80.12
294.603	89.12
294.833	87.12
295.064	83.12
295.295	100.12
295.525	106.12
295.756	101.12
295.987	123.12
296.217	138.12
296.448	139.12
296.679	103.12
296.909	75.12
297.14	83.12
297.37	83.12
297.601	83.12
297.831	90.12
298.062	86.12
298.292	70.12
298.523	87.12
298.753	84.12
298.984	82.12
299.214	93.12
299.445	88.12
299.675	88.12
299.905	85.12
300.136	107.12
300.366	95.12
300.597	91.12
300.827	89.12
301.057	110.12
301.288	102.12
301.518	97.12
301.748	94.12
301.979	89.12
302.209	85.12
302.439	81.12
302.669	74.12
302.9	96.12
303.13	76.12
303.36	96.12
303.59	106.12
303.82	114.12
304.051	94.12
304.281	96.12
304.511	89.12
304.741	84.12
304.971	100.12
305.201	90.12
305.431	94.12
305.661	86.12
305.891	83.12
306.121	104.12
306.352	97.12
306.582	98.12
306.812	91.12
307.042	94.12
307.272	97.12
307.502	74.12
307.731	93.12
307.961	107.12
308.191	91.12
308.421	85.12
308.651	80.12
308.881	86.12
309.111	88.12
309.341	90.12
309.571	98.12
309.8	95.12
310.03	99.12
310.26	86.12
310.49	98.12
310.72	99.12
310.949	113.12
311.179	99.12
311.409	108.12
311.639	91.12
311.868	99.12
312.098	104.12
312.328	99.12
312.557	103.12
312.787	101.12
313.017	90.12
313.246	92.12
313.476	102.12
313.706	98.12
313.935	104.12
314.165	98.12
314.394	100.12
314.624	105.12
314.853	98.12
315.083	102.12
315.312	104.12
315.542	82.12
315.771	97.12
316.001	89.12
316.23	88.12
316.46	89.12
316.689	91.12
316.919	100.12
317.148	91.12
317.377	75.12
317.607	96.12
317.836	94.12
318.065	90.12
318.295	92.12
318.524	96.12
318.753	96.12
318.983	99.12
319.212	93.12
319.441	106.12
319.67	100.12
319.9	91.12
320.129	88.12
320.358	87.12
320.587	104.12
320.816	98.12
321.046	97.12
321.275	111.12
321.504	105.12
321.733	87.12
321.962	94.12
322.191	93.12
322.42	100.12
322.649	115.12
322.878	113.12
323.108	102.12
323.337	126.12
323.566	132.12
323.795	160.12
324.024	216.12
324.253	403.12
324.482	849.12
324.71	1734.12
324.939	2267.12
325.168	842.12
325.397	251.12
325.626	159.12
325.855	127.12
326.084	134.12
326.313	129.12
326.542	148.12
326.77	231.12
326.999	462.12
327.228	920.12
327.457	1692.12
327.686	1363.12
327.914	372.12
328.143	201.12
328.372	150.12
328.6	121.12
328.829	118.12
329.058	130.12
329.287	104.12
329.515	116.12
329.744	106.12
329.972	99.12
330.201	111.12
330.43	120.12
330.658	129.12
330.887	148.12
331.115	134.12
331.344	105.12
331.572	105.12
331.801	101.12
332.03	110.12
332.258	97.12
332.486	103.12
332.715	89.12
332.943	81.12
333.172	112.12
333.4	91.12
333.629	104.12
333.857	102.12
334.085	112.12
334.314	110.12
334.542	116.12
334.771	139.12
334.999	96.12
335.227	96.12
335.455	94.12
335.684	88.12
335.912	102.12
336.14	88.12
336.369	106.12
336.597	99.12
336.825	103.12
337.053	83.12
337.281	88.12
337.51	93.12
337.738	100.12
337.966	92.12
338.194	97.12
338.422	97.12
338.65	83.12
338.878	92.12
339.106	94.12
339.334	88.12
339.562	91.12
339.79	87.12
340.018	86.12
340.246	94.12
340.474	90.12
340.702	98.12
340.93	94.12
341.158	83.12
341.386	107.12
341.614	85.12
341.842	97.12
342.07	90.12
342.298	87.12
342.526	87.12
342.754	88.12
342.981	88.12
343.209	89.12
343.437	104.12
343.665	101.12
343.893	92.12
344.12	92.12
344.348	92.12
344.576	97.12
344.804	85.12
345.031	104.12
345.259	104.12
345.487	98.12
345.714	97.12
345.942	91.12
346.17	95.12
346.397	100.12
346.625	108.12
346.853	85.12
347.08	88.12
347.308	87.12
347.535	97.12
347.763	81.12
347.99	95.12
348.218	110.12
348.445	104.12
348.673	100.12
348.9	97.12
349.128	69.12
349.355	87.12
349.583	96.12
349.81	97.12
350.037	101.12
350.265	83.12
350.492	84.12
350.72	92.12
350.947	95.12
351.174	123.12
351.402	107.12
351.629	100.12
351.856	118.12
352.083	105.12
352.311	100.12
352.538	97.12
352.765	104.12
352.992	110.12
353.22	111.12
353.447	100.12
353.674	88.12
353.901	97.12
354.128	91.12
354.355	105.12
354.583	98.12
354.81	120.12
355.037	91.12
355.264	86.12
355.491	76.12
355.718	98.12
355.945	92.12
356.172	103.12
356.399	104.12
356.626	85.12
356.853	96.12
357.08	91.12
357.307	89.12
357.534	91.12
357.761	95.12
357.988	100.12
358.215	84.12
358.441	91.12
358.668	73.12
358.895	84.12
359.122	96.12
359.349	99.12
359.576	91.12
359.802	98.12
360.029	123.12
360.256	118.12
360.483	99.12
360.709	96.12
360.936	85.12
361.163	109.12
361.39	95.12
361.616	95.12
361.843	90.12
362.07	85.12
362.296	80.12
362.523	101.12
362.749	96.12
362.976	86.12
363.203	88.12
363.429	75.12
363.656	97.12
363.882	88.12
364.109	109.12
364.335	98.12
364.562	98.12
364.788	87.12
365.015	98.12
365.241	95.12
365.468	111.12
365.694	122.12
365.92	88.12
366.147	92.12
366.373	79.12
366.599	97.12
366.826	108.12
367.052	88.12
367.278	87.12
367.505	103.12
367.731	99.12
367.957	94.12
368.184	94.12
368.41	97.12
368.636	107.12
368.862	131.12
369.089	116.12
369.315	98.12
369.541	88.12
369.767	94.12
369.993	95.12
370.219	107.12
370.445	88.12
370.672	90.12
370.898	90.12
371.124	92.12
371.35	106.12
371.576	99.12
371.802	86.12
372.028	82.12
372.254	85.12
372.48	75.12
372.706	84.12
372.932	88.12
373.158	87.12
373.384	88.12
373.61	86.12
373.835	93.12
374.061	86.12
374.287	102.12
374.513	95.12
374.739	95.12
374.965	86.12
375.191	85.12
375.416	97.12
375.642	95.12
375.868	95.12
376.094	83.12
376.319	91.12
376.545	82.12
376.771	95.12
376.997	98.12
377.222	99.12
377.448	91.12
377.674	82.12
377.899	73.12
378.125	84.12
378.35	87.12
378.576	97.12
378.802	103.12
379.027	77.12
379.253	93.12
379.478	108.12
379.704	92.12
379.929	107.12
380.155	92.12
380.38	82.12
380.606	90.12
380.831	105.12
381.057	84.12
381.282	99.12
381.507	92.12
381.733	86.12
381.958	91.12
382.184	98.12
382.409	91.12
382.634	99.12
382.86	99.12
383.085	92.12
383.31	100.12
383.535	92.12
383.761	92.12
383.986	104.12
384.211	101.12
384.436	97.12
384.662	105.12
384.887	103.12
385.112	102.12
385.337	101.12
385.562	115.12
385.787	114.12
386.013	100.12
386.238	130.12
386.463	110.12
386.688	115.12
386.913	111.12
387.138	110.12
387.363	106.12
387.588	90.12
387.813	79.12
388.038	108.12
388.263	130.12
388.488	106.12
388.713	91.12
388.938	91.12
389.163	79.12
389.387	87.12
389.612	102.12
389.837	90.12
390.062	91.12
390.287	90.12
390.512	92.12
390.736	86.12
390.961	88.12
391.186	103.12
391.411	104.12
391.636	99.12
391.86	84.12
392.085	98.12
392.31	90.12
392.534	84.12
392.759	99.12
392.984	87.12
393.208	79.12
393.433	90.12
393.658	85.12
393.882	90.12
394.107	80.12
394.331	92.12
394.556	87.12
394.78	84.12
395.005	91.12
395.229	79.12
395.454	78.12
395.678	86.12
395.903	92.12
396.127	100.12
396.352	77.12
396.576	91.12
396.801	93.12
397.025	81.12
397.249	80.12
397.474	88.12
397.698	79.12
397.922	92.12
398.147	83.12
398.371	95.12
398.595	97.12
398.82	79.12
399.044	95.12
399.268	82.12
399.492	93.12
399.717	97.12
399.941	82.12
400.165	87.12
400.389	92.12
400.613	84.12
400.837	80.12
401.062	82.12
401.286	77.12
401.51	103.12
401.734	97.12
401.958	105.12
402.182	134.12
402.406	171.12
402.63	122.12
402.854	91.12
403.078	96.12
403.302	92.12
403.526	90.12
403.75	89.12
403.974	86.12
404.198	90.12
404.422	91.12
404.645	73.12
404.869	100.12
405.093	86.12
405.317	95.12
405.541	90.12
405.765	107.12
405.988	109.12
406.212	193.12
406.436	235.12
406.66	157.12
406.883	100.12
407.107	96.12
407.331	103.12
407.555	111.12
407.778	90.12
408.002	99.12
408.226	78.12
408.449	80.12
408.673	86.12
408.896	96.12
409.12	84.12
409.344	90.12
409.567	74.12
409.791	87.12
410.014	100.12
410.238	87.12
410.461	95.12
410.685	89.12
410.908	95.12
411.132	105.12
411.355	100.12
411.578	92.12
411.802	98.12
412.025	89.12
412.249	83.12
412.472	90.12
412.695	98.12
412.919	88.12
413.142	92.12
413.365	89.12
413.589	89.12
413.812	108.12
414.035	89.12
414.258	98.12
414.482	75.12
414.705	101.12
414.928	76.12
415.151	92.12
415.374	80.12
415.597	75.12
415.821	89.12
416.044	89.12
416.267	78.12
416.49	90.12
416.713	99.12
416.936	87.12
417.159	81.12
417.382	84.12
417.605	80.12
417.828	97.12
418.051	106.12
418.274	73.12
418.497	82.12
418.72	85.12
418.943	102.12
419.166	86.12
419.389	98.12
419.611	80.12
419.834	94.12
420.057	91.12
420.28	90.12
420.503	90.12
420.726	82.12
420.948	86.12
421.171	90.12
421.394	87.12
421.617	90.12
421.839	86.12
422.062	93.12
422.285	87.12
422.507	98.12
422.73	83.12
422.953	98.12
423.175	95.12
423.398	104.12
423.621	79.12
423.843	82.12
424.066	88.12
424.288	97.12
424.511	88.12
424.733	111.12
424.956	110.12
425.178	100.12
425.401	110.12
425.623	96.12
425.846	103.12
426.068	92.12
426.291	81.12
426.513	89.12
426.735	102.12
426.958	91.12
427.18	96.12
427.402	139.12
427.625	171.12
427.847	141.12
428.069	129.12
428.292	96.12
428.514	91.12
428.736	79.12
428.958	78.12
429.181	84.12
429.403	81.12
429.625	80.12
429.847	96.12
430.069	102.12
430.292	110.12
430.514	78.12
430.736	83.12
430.958	85.12
431.18	74.12
431.402	77.12
431.624	98.12
431.846	98.12
432.068	85.12
432.29	85.12
432.512	87.12
432.734	82.12
432.956	94.12
433.178	90.12
433.4	94.12
433.622	94.12
433.844	96.12
434.066	89.12
434.287	84.12
434.509	82.12
434.731	87.12
434.953	88.12
435.175	96.12
435.397	93.12
435.618	87.12
435.84	103.12
436.062	112.12
436.284	114.12
436.505	110.12
436.727	97.12
436.949	80.12
437.17	93.12
437.392	97.12
437.614	87.12
437.835	110.12
438.057	124.12
438.278	120.12
438.5	107.12
438.721	130.12
438.943	91.12
439.165	86.12
439.386	88.12
439.608	105.12
439.829	84.12
440.05	135.12
440.272	133.12
440.493	110.12
440.715	86.12
440.936	79.12
441.158	82.12
441.379	88.12
441.6	82.12
441.822	114.12
442.043	104.12
442.264	95.12
442.486	85.12
442.707	94.12
442.928	104.12
443.149	139.12
443.371	141.12
443.592	105.12
443.813	100.12
444.034	95.12
444.255	91.12
444.476	80.12
444.698	90.12
444.919	87.12
445.14	134.12
445.361	115.12
445.582	101.12
445.803	131.12
446.024	137.12
446.245	128.12
446.466	104.12
446.687	87.12
446.908	80.12
447.129	88.12
447.35	63.12
447.571	84.12
447.792	94.12
448.013	98.12
448.234	114.12
448.455	127.12
448.675	116.12
448.896	110.12
449.117	102.12
449.338	99.12
449.559	126.12
449.779	148.12
450	97.12
450.221	87.12
450.442	96.12
450.662	88.12
450.883	111.12
451.104	110.12
451.324	110.12
451.545	91.12
451.766	95.12
451.986	84.12
452.207	95.12
452.428	114.12
452.648	94.12
452.869	113.12
453.089	132.12
453.31	118.12
453.53	84.12
453.751	88.12
453.971	103.12
454.192	114.12
454.412	102.12
454.633	83.12
454.853	79.12
455.073	91.12
455.294	95.12
455.514	99.12
455.734	104.12
455.955	67.12
456.175	82.12
456.395	73.12
456.616	87.12
456.836	93.12
457.056	90.12
457.276	95.12
457.497	78.12
457.717	89.12
457.937	89.12
458.157	93.12
458.377	98.12
458.598	117.12
458.818	159.12
459.038	180.12
459.258	115.12
459.478	99.12
459.698	82.12
459.918	83.12
460.138	84.12
460.358	89.12
460.578	86.12
460.798	91.12
461.018	86.12
461.238	78.12
461.458	78.12
461.678	84.12
461.898	83.12
462.118	96.12
462.338	83.12
462.558	94.12
462.777	79.12
462.997	86.12
463.217	89.12
463.437	90.12
463.657	77.12
463.876	87.12
464.096	96.12
464.316	88.12
464.536	81.12
464.755	101.12
464.975	111.12
465.195	178.12
465.414	188.12
465.634	80.12
465.854	87.12
466.073	92.12
466.293	89.12
466.512	88.12
466.732	91.12
466.951	86.12
467.171	93.12
467.391	86.12
467.61	116.12
467.829	89.12
468.049	105.12
468.268	101.12
468.488	85.12
468.707	87.12
468.927	77.12
469.146	92.12
469.365	79.12
469.585	91.12
469.804	86.12
470.023	117.12
470.243	100.12
470.462	107.12
470.681	119.12
470.901	95.12
471.12	78.12
471.339	96.12
471.558	70.12
471.777	76.12
471.997	109.12
472.216	106.12
472.435	133.12
472.654	105.12
472.873	83.12
473.092	89.12
473.311	89.12
473.53	82.12
473.749	86.12
473.968	98.12
474.187	106.12
474.406	97.12
474.625	81.12
474.844	75.12
475.063	83.12
475.282	87.12
475.501	75.12
475.72	79.12
475.939	93.12
476.158	88.12
476.377	85.12
476.596	80.12
476.814	101.12
477.033	100.12
477.252	101.12
477.471	84.12
477.69	91.12
477.908	91.12
478.127	89.12
478.346	80.12
478.564	91.12
478.783	97.12
479.002	84.12
479.22	81.12
479.439	97.12
479.658	112.12
479.876	90.12
480.095	86.12
480.313	87.12
480.532	94.12
480.751	88.12
480.969	112.12
481.188	179.12
481.406	145.12
481.624	106.12
481.843	96.12
482.061	95.12
482.28	91.12
482.498	83.12
482.717	78.12
482.935	86.12
483.153	100.12
483.372	99.12
483.59	88.12
483.808	80.12
484.027	97.12
484.245	80.12
484.463	88.12
484.681	102.12
484.9	95.12
485.118	104.12
485.336	114.12
485.554	100.12
485.772	89.12
485.99	90.12
486.209	99.12
486.427	102.12
486.645	110.12
486.863	95.12
487.081	106.12
487.299	106.12
487.517	90.12
487.735	91.12
487.953	97.12
488.171	76.12
488.389	87.12
488.607	104.12
488.825	88.12
489.043	95.12
489.261	91.12
489.479	96.12
489.696	82.12
489.914	86.12
490.132	80.12
490.35	86.12
490.568	101.12
490.786	91.12
491.003	82.12
491.221	99.12
491.439	95.12
491.657	84.12
491.874	107.12
492.092	90.12
492.31	95.12
492.527	101.12
492.745	98.12
492.963	86.12
493.18	85.12
493.398	97.12
493.615	87.12
493.833	96.12
494.05	93.12
494.268	87.12
494.485	75.12
494.703	89.12
494.92	78.12
495.138	81.12
495.355	89.12
495.573	82.12
495.79	91.12
496.008	82.12
496.225	91.12
496.442	85.12
496.66	84.12
496.877	101.12
497.094	96.12
497.312	98.12
497.529	98.12
497.746	79.12
497.963	104.12
498.181	91.12
498.398	86.12
498.615	124.12
498.832	107.12
499.049	81.12
499.267	81.12
499.484	92.12
499.701	94.12
499.918	90.12
500.135	105.12
500.352	76.12
500.569	98.12
500.786	87.12
501.003	82.12
501.22	89.12
501.437	92.12
501.654	91.12
501.871	107.12
502.088	96.12
502.305	87.12
502.522	96.12
502.739	83.12
502.956	75.12
503.172	95.12
503.389	81.12
503.606	98.12
503.823	98.12
504.04	91.12
504.256	91.12
504.473	83.12
504.69	100.12
504.907	90.12
505.123	89.12
505.34	76.12
505.557	88.12
505.773	80.12
505.99	97.12
506.207	87.12
506.423	95.12
506.64	102.12
506.856	93.12
507.073	109.12
507.289	99.12
507.506	94.12
507.722	123.12
507.939	132.12
508.155	103.12
508.372	88.12
508.588	94.12
508.805	105.12
509.021	85.12
509.238	98.12
509.454	110.12
509.67	100.12
509.887	107.12
510.103	144.12
510.319	226.12
510.536	821.12
510.752	2878.12
510.968	816.12
511.184	182.12
511.401	116.12
511.617	103.12
511.833	91.12
512.049	97.12
512.265	109.12
512.481	97.12
512.698	104.12
512.914	99.12
513.13	106.12
513.346	93.12
513.562	95.12
513.778	89.12
513.994	103.12
514.21	94.12
514.426	115.12
514.642	134.12
514.858	128.12
515.074	162.12
515.29	511.12
515.506	1823.12
