Data from Circ_2018_H10_HRD10591_00090.txt Node
Date: Wed Jan 03 09:56:20 EST 2024
User: Yrep
Spectrometer: HR+D1059
Trigger mode: 1
Integration Time (sec): 1.000000E-1
Scans to average: 1
Electric dark correction enabled: true
Nonlinearity correction enabled: false
Boxcar width: 0
XAxis mode: Wavelengths
Number of Pixels in Spectrum: 2048
>>>>>Begin Spectral Data<<<<<
223.165	-19.12
223.4	-19.12
223.635	-19.12
223.869	-8.12
224.104	-7.12
224.338	-21.12
224.573	-30.12
224.808	-10.12
225.042	-10.12
225.277	-12.12
225.511	3.88
225.746	9.88
225.98	4.88
226.215	4.88
226.449	18.88
226.683	25.88
226.918	19.88
227.152	29.88
227.387	26.88
227.621	22.88
227.856	44.88
228.09	37.88
228.324	44.88
228.559	59.88
228.793	58.88
229.027	70.88
229.262	69.88
229.496	85.88
229.73	89.88
229.964	85.88
230.199	76.88
230.433	91.88
230.667	79.88
230.901	73.88
231.136	76.88
231.37	86.88
231.604	71.88
231.838	82.88
232.072	76.88
232.306	98.88
232.541	53.88
232.775	72.88
233.009	87.88
233.243	98.88
233.477	85.88
233.711	81.88
233.945	81.88
234.179	71.88
234.413	80.88
234.647	64.88
234.881	79.88
235.115	82.88
235.349	86.88
235.583	67.88
235.817	84.88
236.051	79.88
236.285	83.88
236.519	73.88
236.753	86.88
236.987	77.88
237.221	99.88
237.455	92.88
237.689	82.88
237.922	80.88
238.156	74.88
238.39	84.88
238.624	71.88
238.858	75.88
239.091	68.88
239.325	74.88
239.559	74.88
239.793	78.88
240.027	80.88
240.26	81.88
240.494	83.88
240.728	68.88
240.961	83.88
241.195	77.88
241.429	77.88
241.662	87.88
241.896	70.88
242.13	81.88
242.363	69.88
242.597	76.88
242.83	86.88
243.064	74.88
243.298	64.88
243.531	73.88
243.765	76.88
243.998	87.88
244.232	80.88
244.465	81.88
244.699	87.88
244.932	72.88
245.166	71.88
245.399	82.88
245.633	72.88
245.866	70.88
246.099	68.88
246.333	82.88
246.566	73.88
246.8	82.88
247.033	72.88
247.266	96.88
247.5	81.88
247.733	90.88
247.966	90.88
248.2	82.88
248.433	75.88
248.666	74.88
248.899	74.88
249.133	81.88
249.366	87.88
249.599	89.88
249.832	82.88
250.066	84.88
250.299	82.88
250.532	78.88
250.765	78.88
250.998	92.88
251.231	62.88
251.465	68.88
251.698	84.88
251.931	73.88
252.164	98.88
252.397	85.88
252.63	87.88
252.863	86.88
253.096	78.88
253.329	88.88
253.562	76.88
253.795	78.88
254.028	67.88
254.261	76.88
254.494	81.88
254.727	86.88
254.96	88.88
255.193	95.88
255.426	91.88
255.659	75.88
255.892	95.88
256.124	84.88
256.357	85.88
256.59	76.88
256.823	98.88
257.056	87.88
257.289	89.88
257.521	73.88
257.754	75.88
257.987	82.88
258.22	85.88
258.452	77.88
258.685	91.88
258.918	78.88
259.151	80.88
259.383	85.88
259.616	92.88
259.849	84.88
260.081	84.88
260.314	83.88
260.547	86.88
260.779	84.88
261.012	79.88
261.244	82.88
261.477	88.88
261.71	92.88
261.942	104.88
262.175	138.88
262.407	89.88
262.64	82.88
262.872	83.88
263.105	80.88
263.337	81.88
263.57	96.88
263.802	85.88
264.035	85.88
264.267	94.88
264.499	74.88
264.732	70.88
264.964	63.88
265.197	100.88
265.429	74.88
265.661	70.88
265.894	70.88
266.126	87.88
266.358	80.88
266.591	72.88
266.823	84.88
267.055	78.88
267.287	85.88
267.52	84.88
267.752	84.88
267.984	80.88
268.216	79.88
268.448	75.88
268.681	87.88
268.913	88.88
269.145	82.88
269.377	83.88
269.609	83.88
269.841	70.88
270.073	94.88
270.306	74.88
270.538	80.88
270.77	67.88
271.002	86.88
271.234	82.88
271.466	83.88
271.698	94.88
271.93	102.88
272.162	82.88
272.394	87.88
272.626	95.88
272.858	84.88
273.09	77.88
273.322	82.88
273.553	76.88
273.785	86.88
274.017	72.88
274.249	91.88
274.481	89.88
274.713	83.88
274.945	93.88
275.176	79.88
275.408	87.88
275.64	84.88
275.872	85.88
276.104	88.88
276.335	92.88
276.567	104.88
276.799	107.88
277.031	101.88
277.262	84.88
277.494	100.88
277.726	90.88
277.957	77.88
278.189	86.88
278.421	86.88
278.652	82.88
278.884	81.88
279.115	89.88
279.347	77.88
279.579	90.88
279.81	73.88
280.042	79.88
280.273	87.88
280.505	83.88
280.736	83.88
280.968	70.88
281.199	78.88
281.431	84.88
281.662	92.88
281.894	80.88
282.125	101.88
282.356	134.88
282.588	145.88
282.819	134.88
283.051	98.88
283.282	78.88
283.513	81.88
283.745	84.88
283.976	86.88
284.207	79.88
284.439	83.88
284.67	65.88
284.901	75.88
285.132	68.88
285.364	77.88
285.595	88.88
285.826	98.88
286.057	107.88
286.288	80.88
286.52	87.88
286.751	83.88
286.982	75.88
287.213	60.88
287.444	85.88
287.675	80.88
287.906	93.88
288.138	72.88
288.369	83.88
288.6	85.88
288.831	83.88
289.062	90.88
289.293	102.88
289.524	71.88
289.755	79.88
289.986	83.88
290.217	91.88
290.448	86.88
290.679	85.88
290.91	85.88
291.141	85.88
291.371	81.88
291.602	84.88
291.833	88.88
292.064	91.88
292.295	76.88
292.526	83.88
292.757	91.88
292.987	95.88
293.218	86.88
293.449	82.88
293.68	92.88
293.91	90.88
294.141	80.88
294.372	90.88
294.603	74.88
294.833	96.88
295.064	101.88
295.295	89.88
295.525	76.88
295.756	101.88
295.987	134.88
296.217	142.88
296.448	132.88
296.679	90.88
296.909	90.88
297.14	91.88
297.37	84.88
297.601	83.88
297.831	75.88
298.062	98.88
298.292	85.88
298.523	104.88
298.753	75.88
298.984	98.88
299.214	84.88
299.445	87.88
299.675	97.88
299.905	99.88
300.136	90.88
300.366	94.88
300.597	93.88
300.827	90.88
301.057	106.88
301.288	116.88
301.518	98.88
301.748	79.88
301.979	94.88
302.209	96.88
302.439	89.88
302.669	77.88
302.9	102.88
303.13	89.88
303.36	91.88
303.59	95.88
303.82	105.88
304.051	85.88
304.281	91.88
304.511	94.88
304.741	91.88
304.971	102.88
305.201	96.88
305.431	78.88
305.661	99.88
305.891	87.88
306.121	92.88
306.352	105.88
306.582	114.88
306.812	89.88
307.042	99.88
307.272	89.88
307.502	111.88
307.731	97.88
307.961	114.88
308.191	78.88
308.421	85.88
308.651	110.88
308.881	96.88
309.111	84.88
309.341	98.88
309.571	97.88
309.8	112.88
310.03	96.88
310.26	86.88
310.49	91.88
310.72	105.88
310.949	117.88
311.179	98.88
311.409	92.88
311.639	98.88
311.868	98.88
312.098	91.88
312.328	94.88
312.557	92.88
312.787	112.88
313.017	126.88
313.246	100.88
313.476	78.88
313.706	83.88
313.935	90.88
314.165	83.88
314.394	112.88
314.624	84.88
314.853	94.88
315.083	99.88
315.312	90.88
315.542	97.88
315.771	88.88
316.001	102.88
316.23	93.88
316.46	83.88
316.689	92.88
316.919	97.88
317.148	85.88
317.377	94.88
317.607	82.88
317.836	90.88
318.065	87.88
318.295	91.88
318.524	93.88
318.753	86.88
318.983	93.88
319.212	92.88
319.441	114.88
319.67	118.88
319.9	105.88
320.129	95.88
320.358	93.88
320.587	94.88
320.816	97.88
321.046	96.88
321.275	88.88
321.504	90.88
321.733	106.88
321.962	98.88
322.191	102.88
322.42	109.88
322.649	110.88
322.878	121.88
323.108	127.88
323.337	125.88
323.566	144.88
323.795	147.88
324.024	208.88
324.253	412.88
324.482	886.88
324.71	1766.88
324.939	2394.88
325.168	890.88
325.397	247.88
325.626	162.88
325.855	134.88
326.084	135.88
326.313	132.88
326.542	158.88
326.77	243.88
326.999	464.88
327.228	942.88
327.457	1724.88
327.686	1427.88
327.914	398.88
328.143	218.88
328.372	188.88
328.6	154.88
328.829	126.88
329.058	159.88
329.287	147.88
329.515	105.88
329.744	113.88
329.972	121.88
330.201	160.88
330.43	190.88
330.658	170.88
330.887	161.88
331.115	140.88
331.344	115.88
331.572	97.88
331.801	105.88
332.03	101.88
332.258	101.88
332.486	98.88
332.715	87.88
332.943	97.88
333.172	84.88
333.4	98.88
333.629	115.88
333.857	106.88
334.085	140.88
334.314	142.88
334.542	218.88
334.771	209.88
334.999	117.88
335.227	103.88
335.455	97.88
335.684	96.88
335.912	88.88
336.14	105.88
336.369	87.88
336.597	102.88
336.825	89.88
337.053	81.88
337.281	87.88
337.51	91.88
337.738	97.88
337.966	92.88
338.194	98.88
338.422	89.88
338.65	80.88
338.878	90.88
339.106	72.88
339.334	89.88
339.562	92.88
339.79	89.88
340.018	96.88
340.246	93.88
340.474	105.88
340.702	102.88
340.93	87.88
341.158	80.88
341.386	90.88
341.614	106.88
341.842	96.88
342.07	97.88
342.298	92.88
342.526	90.88
342.754	82.88
342.981	97.88
343.209	94.88
343.437	96.88
343.665	81.88
343.893	73.88
344.12	97.88
344.348	92.88
344.576	84.88
344.804	83.88
345.031	88.88
345.259	100.88
345.487	94.88
345.714	97.88
345.942	85.88
346.17	83.88
346.397	98.88
346.625	97.88
346.853	90.88
347.08	94.88
347.308	101.88
347.535	104.88
347.763	99.88
347.99	113.88
348.218	110.88
348.445	97.88
348.673	95.88
348.9	84.88
349.128	79.88
349.355	98.88
349.583	88.88
349.81	93.88
350.037	89.88
350.265	105.88
350.492	90.88
350.72	99.88
350.947	112.88
351.174	106.88
351.402	128.88
351.629	106.88
351.856	100.88
352.083	101.88
352.311	102.88
352.538	115.88
352.765	120.88
352.992	110.88
353.22	126.88
353.447	100.88
353.674	102.88
353.901	103.88
354.128	108.88
354.355	95.88
354.583	95.88
354.81	87.88
355.037	99.88
355.264	85.88
355.491	82.88
355.718	91.88
355.945	100.88
356.172	88.88
356.399	89.88
356.626	81.88
356.853	92.88
357.08	102.88
357.307	96.88
357.534	89.88
357.761	112.88
357.988	96.88
358.215	89.88
358.441	87.88
358.668	83.88
358.895	94.88
359.122	86.88
359.349	95.88
359.576	90.88
359.802	100.88
360.029	128.88
360.256	129.88
360.483	111.88
360.709	90.88
360.936	92.88
361.163	103.88
361.39	92.88
361.616	87.88
361.843	96.88
362.07	101.88
362.296	89.88
362.523	87.88
362.749	83.88
362.976	87.88
363.203	90.88
363.429	82.88
363.656	85.88
363.882	95.88
364.109	98.88
364.335	89.88
364.562	90.88
364.788	98.88
365.015	85.88
365.241	101.88
365.468	116.88
365.694	125.88
365.92	94.88
366.147	88.88
366.373	91.88
366.599	95.88
366.826	80.88
367.052	74.88
367.278	89.88
367.505	90.88
367.731	97.88
367.957	97.88
368.184	103.88
368.41	100.88
368.636	101.88
368.862	123.88
369.089	116.88
369.315	86.88
369.541	99.88
369.767	99.88
369.993	95.88
370.219	90.88
370.445	104.88
370.672	91.88
370.898	76.88
371.124	94.88
371.35	79.88
371.576	95.88
371.802	86.88
372.028	84.88
372.254	85.88
372.48	88.88
372.706	91.88
372.932	94.88
373.158	88.88
373.384	99.88
373.61	96.88
373.835	92.88
374.061	82.88
374.287	99.88
374.513	90.88
374.739	95.88
374.965	81.88
375.191	78.88
375.416	84.88
375.642	94.88
375.868	107.88
376.094	90.88
376.319	80.88
376.545	89.88
376.771	104.88
376.997	89.88
377.222	98.88
377.448	98.88
377.674	79.88
377.899	100.88
378.125	83.88
378.35	85.88
378.576	83.88
378.802	96.88
379.027	83.88
379.253	85.88
379.478	83.88
379.704	75.88
379.929	83.88
380.155	89.88
380.38	90.88
380.606	102.88
380.831	104.88
381.057	97.88
381.282	98.88
381.507	87.88
381.733	88.88
381.958	88.88
382.184	98.88
382.409	90.88
382.634	94.88
382.86	93.88
383.085	99.88
383.31	87.88
383.535	102.88
383.761	102.88
383.986	98.88
384.211	111.88
384.436	85.88
384.662	92.88
384.887	97.88
385.112	92.88
385.337	103.88
385.562	99.88
385.787	97.88
386.013	90.88
386.238	98.88
386.463	106.88
386.688	111.88
386.913	102.88
387.138	106.88
387.363	98.88
387.588	88.88
387.813	97.88
388.038	98.88
388.263	99.88
388.488	102.88
388.713	103.88
388.938	75.88
389.163	94.88
389.387	95.88
389.612	85.88
389.837	97.88
390.062	87.88
390.287	87.88
390.512	97.88
390.736	89.88
390.961	82.88
391.186	86.88
391.411	98.88
391.636	89.88
391.86	84.88
392.085	79.88
392.31	75.88
392.534	81.88
392.759	85.88
392.984	89.88
393.208	89.88
393.433	97.88
393.658	66.88
393.882	87.88
394.107	85.88
394.331	85.88
394.556	89.88
394.78	81.88
395.005	76.88
395.229	86.88
395.454	81.88
395.678	91.88
395.903	97.88
396.127	86.88
396.352	92.88
396.576	71.88
396.801	82.88
397.025	94.88
397.249	84.88
397.474	103.88
397.698	97.88
397.922	73.88
398.147	99.88
398.371	89.88
398.595	84.88
398.82	82.88
399.044	92.88
399.268	79.88
399.492	89.88
399.717	99.88
399.941	97.88
400.165	90.88
400.389	96.88
400.613	87.88
400.837	82.88
401.062	86.88
401.286	81.88
401.51	95.88
401.734	90.88
401.958	104.88
402.182	152.88
402.406	191.88
402.63	115.88
402.854	89.88
403.078	105.88
403.302	78.88
403.526	85.88
403.75	89.88
403.974	82.88
404.198	81.88
404.422	94.88
404.645	89.88
404.869	90.88
405.093	95.88
405.317	90.88
405.541	99.88
405.765	95.88
405.988	127.88
406.212	184.88
406.436	294.88
406.66	176.88
406.883	102.88
407.107	108.88
407.331	90.88
407.555	99.88
407.778	76.88
408.002	88.88
408.226	87.88
408.449	104.88
408.673	95.88
408.896	84.88
409.12	93.88
409.344	81.88
409.567	90.88
409.791	84.88
410.014	90.88
410.238	83.88
410.461	89.88
410.685	81.88
410.908	87.88
411.132	115.88
411.355	99.88
411.578	81.88
411.802	76.88
412.025	86.88
412.249	90.88
412.472	97.88
412.695	98.88
412.919	101.88
413.142	92.88
413.365	87.88
413.589	95.88
413.812	84.88
414.035	91.88
414.258	85.88
414.482	100.88
414.705	102.88
414.928	94.88
415.151	85.88
415.374	90.88
415.597	91.88
415.821	76.88
416.044	88.88
416.267	99.88
416.49	80.88
416.713	90.88
416.936	85.88
417.159	81.88
417.382	98.88
417.605	100.88
417.828	107.88
418.051	104.88
418.274	96.88
418.497	94.88
418.72	102.88
418.943	93.88
419.166	93.88
419.389	98.88
419.611	98.88
419.834	82.88
420.057	81.88
420.28	89.88
420.503	75.88
420.726	87.88
420.948	84.88
421.171	101.88
421.394	95.88
421.617	80.88
421.839	84.88
422.062	89.88
422.285	90.88
422.507	87.88
422.73	95.88
422.953	99.88
423.175	88.88
423.398	83.88
423.621	101.88
423.843	86.88
424.066	78.88
424.288	87.88
424.511	89.88
424.733	110.88
424.956	112.88
425.178	98.88
425.401	99.88
425.623	113.88
425.846	99.88
426.068	107.88
426.291	95.88
426.513	83.88
426.735	94.88
426.958	112.88
427.18	103.88
427.402	142.88
427.625	177.88
427.847	142.88
428.069	118.88
428.292	90.88
428.514	74.88
428.736	91.88
428.958	90.88
429.181	90.88
429.403	89.88
429.625	95.88
429.847	99.88
430.069	100.88
430.292	99.88
430.514	82.88
430.736	89.88
430.958	89.88
431.18	77.88
431.402	84.88
431.624	93.88
431.846	82.88
432.068	89.88
432.29	85.88
432.512	80.88
432.734	86.88
432.956	103.88
433.178	93.88
433.4	106.88
433.622	90.88
433.844	106.88
434.066	82.88
434.287	90.88
434.509	93.88
434.731	89.88
434.953	88.88
435.175	80.88
435.397	89.88
435.618	83.88
435.84	102.88
436.062	117.88
436.284	111.88
436.505	102.88
436.727	95.88
436.949	93.88
437.17	84.88
437.392	99.88
437.614	78.88
437.835	116.88
438.057	131.88
438.278	129.88
438.5	116.88
438.721	128.88
438.943	106.88
439.165	84.88
439.386	87.88
439.608	86.88
439.829	106.88
440.05	123.88
440.272	162.88
440.493	111.88
440.715	91.88
440.936	82.88
441.158	95.88
441.379	101.88
441.6	100.88
441.822	95.88
442.043	96.88
442.264	113.88
442.486	105.88
442.707	89.88
442.928	108.88
443.149	149.88
443.371	142.88
443.592	115.88
443.813	126.88
444.034	110.88
444.255	91.88
444.476	90.88
444.698	86.88
444.919	84.88
445.14	137.88
445.361	137.88
445.582	122.88
445.803	124.88
446.024	151.88
446.245	138.88
446.466	114.88
446.687	93.88
446.908	86.88
447.129	95.88
447.35	104.88
447.571	97.88
447.792	85.88
448.013	95.88
448.234	99.88
448.455	122.88
448.675	107.88
448.896	111.88
449.117	89.88
449.338	99.88
449.559	138.88
449.779	134.88
450	101.88
450.221	85.88
450.442	101.88
450.662	90.88
450.883	104.88
451.104	121.88
451.324	94.88
451.545	93.88
451.766	86.88
451.986	96.88
452.207	76.88
452.428	88.88
452.648	109.88
452.869	124.88
453.089	123.88
453.31	124.88
453.53	101.88
453.751	73.88
453.971	100.88
454.192	113.88
454.412	97.88
454.633	90.88
454.853	79.88
455.073	97.88
455.294	107.88
455.514	105.88
455.734	87.88
455.955	83.88
456.175	83.88
456.395	83.88
456.616	82.88
456.836	97.88
457.056	91.88
457.276	90.88
457.497	80.88
457.717	102.88
457.937	83.88
458.157	96.88
458.377	92.88
458.598	124.88
458.818	180.88
459.038	194.88
459.258	136.88
459.478	89.88
459.698	84.88
459.918	86.88
460.138	90.88
460.358	68.88
460.578	71.88
460.798	90.88
461.018	102.88
461.238	95.88
461.458	88.88
461.678	89.88
461.898	87.88
462.118	77.88
462.338	79.88
462.558	91.88
462.777	89.88
462.997	97.88
463.217	93.88
463.437	83.88
463.657	87.88
463.876	81.88
464.096	95.88
464.316	104.88
464.536	100.88
464.755	88.88
464.975	116.88
465.195	191.88
465.414	191.88
465.634	97.88
465.854	84.88
466.073	74.88
466.293	74.88
466.512	95.88
466.732	82.88
466.951	87.88
467.171	85.88
467.391	96.88
467.61	106.88
467.829	108.88
468.049	113.88
468.268	142.88
468.488	106.88
468.707	99.88
468.927	79.88
469.146	89.88
469.365	88.88
469.585	83.88
469.804	91.88
470.023	97.88
470.243	96.88
470.462	107.88
470.681	123.88
470.901	99.88
471.12	92.88
471.339	82.88
471.558	78.88
471.777	95.88
471.997	119.88
472.216	163.88
472.435	259.88
472.654	130.88
472.873	98.88
473.092	83.88
473.311	100.88
473.53	87.88
473.749	69.88
473.968	108.88
474.187	96.88
474.406	101.88
474.625	95.88
474.844	72.88
475.063	89.88
475.282	89.88
475.501	76.88
475.72	82.88
475.939	78.88
476.158	80.88
476.377	86.88
476.596	87.88
476.814	92.88
477.033	87.88
477.252	73.88
477.471	76.88
477.69	88.88
477.908	93.88
478.127	96.88
478.346	97.88
478.564	105.88
478.783	103.88
479.002	85.88
479.22	89.88
479.439	96.88
479.658	107.88
479.876	98.88
480.095	100.88
480.313	95.88
480.532	81.88
480.751	122.88
480.969	158.88
481.188	421.88
481.406	306.88
481.624	104.88
481.843	92.88
482.061	87.88
482.28	94.88
482.498	81.88
482.717	86.88
482.935	80.88
483.153	94.88
483.372	98.88
483.59	87.88
483.808	80.88
484.027	95.88
484.245	84.88
484.463	81.88
484.681	106.88
484.9	94.88
485.118	85.88
485.336	81.88
485.554	92.88
485.772	87.88
485.99	91.88
486.209	109.88
486.427	84.88
486.645	112.88
486.863	115.88
487.081	102.88
487.299	94.88
487.517	88.88
487.735	86.88
487.953	92.88
488.171	87.88
488.389	80.88
488.607	102.88
488.825	93.88
489.043	88.88
489.261	90.88
489.479	82.88
489.696	84.88
489.914	87.88
490.132	84.88
490.35	85.88
490.568	88.88
490.786	87.88
491.003	86.88
491.221	94.88
491.439	95.88
491.657	102.88
491.874	94.88
492.092	111.88
492.31	90.88
492.527	95.88
492.745	90.88
492.963	102.88
493.18	85.88
493.398	85.88
493.615	83.88
493.833	99.88
494.05	91.88
494.268	93.88
494.485	91.88
494.703	92.88
494.92	78.88
495.138	85.88
495.355	80.88
495.573	84.88
495.79	83.88
496.008	93.88
496.225	85.88
496.442	86.88
496.66	106.88
496.877	99.88
497.094	91.88
497.312	101.88
497.529	90.88
497.746	78.88
497.963	76.88
498.181	90.88
498.398	94.88
498.615	103.88
498.832	112.88
499.049	96.88
499.267	88.88
499.484	90.88
499.701	86.88
499.918	88.88
500.135	79.88
500.352	83.88
500.569	95.88
500.786	86.88
501.003	79.88
501.22	88.88
501.437	77.88
501.654	88.88
501.871	111.88
502.088	86.88
502.305	88.88
502.522	80.88
502.739	90.88
502.956	82.88
503.172	79.88
503.389	95.88
503.606	114.88
503.823	101.88
504.04	94.88
504.256	87.88
504.473	77.88
504.69	97.88
504.907	87.88
505.123	77.88
505.34	82.88
505.557	86.88
505.773	83.88
505.99	103.88
506.207	113.88
506.423	95.88
506.64	91.88
506.856	96.88
507.073	94.88
507.289	88.88
507.506	100.88
507.722	112.88
507.939	125.88
508.155	110.88
508.372	110.88
508.588	96.88
508.805	98.88
509.021	93.88
509.238	85.88
509.454	110.88
509.67	104.88
509.887	103.88
510.103	152.88
510.319	243.88
510.536	919.88
510.752	3179.88
510.968	871.88
511.184	179.88
511.401	123.88
511.617	96.88
511.833	106.88
512.049	87.88
512.265	107.88
512.481	106.88
512.698	88.88
512.914	92.88
513.13	92.88
513.346	109.88
513.562	99.88
513.778	105.88
513.994	94.88
514.21	94.88
514.426	131.88
514.642	149.88
514.858	133.88
515.074	191.88
515.29	547.88
515.506	2050.88
