Data from Circ_2018_H10_HRD10591_00004.txt Node
Date: Wed Jan 03 09:56:02 EST 2024
User: Yrep
Spectrometer: HR+D1059
Trigger mode: 1
Integration Time (sec): 1.000000E-1
Scans to average: 1
Electric dark correction enabled: true
Nonlinearity correction enabled: false
Boxcar width: 0
XAxis mode: Wavelengths
Number of Pixels in Spectrum: 2048
>>>>>Begin Spectral Data<<<<<
223.165	-20.12
223.4	-20.12
223.635	-20.12
223.869	-20.12
224.104	-13.12
224.338	-13.12
224.573	-14.12
224.808	-18.12
225.042	-9.12
225.277	-7.12
225.511	0.88
225.746	7.88
225.98	10.88
226.215	-10.12
226.449	11.88
226.683	12.88
226.918	40.88
227.152	39.88
227.387	43.88
227.621	40.88
227.856	34.88
228.09	45.88
228.324	34.88
228.559	61.88
228.793	151.88
229.027	431.88
229.262	523.88
229.496	609.88
229.73	826.88
229.964	785.88
230.199	527.88
230.433	506.88
230.667	457.88
230.901	443.88
231.136	434.88
231.37	449.88
231.604	447.88
231.838	457.88
232.072	452.88
232.306	457.88
232.541	450.88
232.775	460.88
233.009	487.88
233.243	460.88
233.477	464.88
233.711	466.88
233.945	489.88
234.179	508.88
234.413	507.88
234.647	509.88
234.881	523.88
235.115	520.88
235.349	559.88
235.583	559.88
235.817	588.88
236.051	629.88
236.285	603.88
236.519	615.88
236.753	688.88
236.987	903.88
237.221	1365.88
237.455	1494.88
237.689	903.88
237.922	718.88
238.156	695.88
238.39	674.88
238.624	657.88
238.858	602.88
239.091	645.88
239.325	676.88
239.559	669.88
239.793	702.88
240.027	771.88
240.26	917.88
240.494	945.88
240.728	955.88
240.961	889.88
241.195	785.88
241.429	787.88
241.662	762.88
241.896	762.88
242.13	730.88
242.363	783.88
242.597	763.88
242.83	810.88
243.064	801.88
243.298	797.88
243.531	779.88
243.765	816.88
243.998	827.88
244.232	858.88
244.465	877.88
244.699	908.88
244.932	907.88
245.166	900.88
245.399	890.88
245.633	888.88
245.866	870.88
246.099	917.88
246.333	946.88
246.566	958.88
246.8	957.88
247.033	973.88
247.266	1031.88
247.5	1117.88
247.733	1094.88
247.966	1108.88
248.2	1135.88
248.433	1124.88
248.666	1209.88
248.899	1291.88
249.133	1407.88
249.366	1391.88
249.599	1305.88
249.832	1199.88
250.066	1182.88
250.299	1236.88
250.532	1374.88
250.765	1512.88
250.998	1630.88
251.231	1578.88
251.465	1461.88
251.698	1382.88
251.931	1354.88
252.164	1336.88
252.397	1394.88
252.63	1409.88
252.863	1533.88
253.096	1639.88
253.329	1696.88
253.562	1598.88
253.795	1550.88
254.028	1519.88
254.261	1562.88
254.494	1788.88
254.727	2105.88
254.96	2211.88
255.193	1884.88
255.426	1748.88
255.659	1603.88
255.892	1621.88
256.124	1650.88
256.357	1626.88
256.59	1537.88
256.823	1519.88
257.056	1512.88
257.289	1493.88
257.521	1528.88
257.754	1517.88
257.987	1509.88
258.22	1485.88
258.452	1499.88
258.685	1543.88
258.918	1528.88
259.151	1603.88
259.383	1673.88
259.616	1638.88
259.849	1718.88
260.081	1907.88
260.314	2020.88
260.547	1973.88
260.779	1770.88
261.012	1722.88
261.244	1633.88
261.477	1632.88
261.71	1722.88
261.942	1780.88
262.175	1796.88
262.407	1713.88
262.64	1646.88
262.872	1648.88
263.105	1615.88
263.337	1623.88
263.57	1697.88
263.802	1649.88
264.035	1668.88
264.267	1651.88
264.499	1681.88
264.732	1677.88
264.964	1659.88
265.197	1664.88
265.429	1668.88
265.661	1689.88
265.894	1725.88
266.126	1758.88
266.358	1781.88
266.591	1801.88
266.823	1836.88
267.055	1900.88
267.287	1859.88
267.52	1842.88
267.752	1831.88
267.984	1813.88
268.216	1862.88
268.448	1895.88
268.681	1942.88
268.913	2077.88
269.145	2301.88
269.377	2343.88
269.609	2238.88
269.841	2243.88
270.073	2330.88
270.306	2642.88
270.538	2787.88
270.77	2637.88
271.002	2439.88
271.234	2405.88
271.466	2616.88
271.698	2695.88
271.93	2702.88
272.162	2694.88
272.394	2592.88
272.626	2504.88
272.858	2338.88
273.09	2260.88
273.322	2271.88
273.553	2212.88
273.785	2224.88
274.017	2217.88
274.249	2195.88
274.481	2195.88
274.713	2241.88
274.945	2303.88
275.176	2285.88
275.408	2239.88
275.64	2227.88
275.872	2230.88
276.104	2296.88
276.335	2281.88
276.567	2381.88
276.799	2554.88
277.031	2749.88
277.262	2887.88
277.494	2689.88
277.726	2557.88
277.957	2436.88
278.189	2420.88
278.421	2387.88
278.652	2348.88
278.884	2366.88
279.115	2325.88
279.347	2321.88
279.579	2395.88
279.81	2352.88
280.042	2361.88
280.273	2392.88
280.505	2409.88
280.736	2383.88
280.968	2380.88
281.199	2400.88
281.431	2393.88
281.662	2407.88
281.894	2491.88
282.125	2497.88
282.356	2705.88
282.588	2866.88
282.819	2685.88
283.051	2564.88
283.282	2515.88
283.513	2581.88
283.745	2570.88
283.976	2618.88
284.207	2619.88
284.439	2585.88
284.67	2610.88
284.901	2643.88
285.132	2631.88
285.364	2590.88
285.595	2621.88
285.826	2585.88
286.057	2637.88
286.288	2620.88
286.52	2698.88
286.751	2669.88
286.982	2647.88
287.213	2691.88
287.444	2714.88
287.675	2833.88
287.906	2929.88
288.138	2933.88
288.369	2865.88
288.6	2879.88
288.831	2830.88
289.062	2783.88
289.293	2817.88
289.524	2774.88
289.755	2779.88
289.986	2767.88
290.217	2819.88
290.448	2801.88
290.679	2796.88
290.91	2826.88
291.141	2806.88
291.371	2777.88
291.602	2786.88
291.833	2770.88
292.064	2802.88
292.295	2833.88
292.526	2806.88
292.757	2762.88
292.987	2781.88
293.218	2821.88
293.449	2865.88
293.68	2835.88
293.91	2848.88
294.141	2785.88
294.372	2802.88
294.603	2827.88
294.833	2831.88
295.064	2821.88
295.295	2933.88
295.525	2872.88
295.756	2938.88
295.987	3038.88
296.217	3194.88
296.448	3137.88
296.679	2965.88
296.909	2915.88
297.14	3005.88
297.37	3037.88
297.601	3024.88
297.831	3008.88
298.062	3031.88
298.292	3127.88
298.523	3123.88
298.753	3145.88
298.984	3063.88
299.214	3086.88
299.445	3030.88
299.675	3097.88
299.905	3126.88
300.136	3098.88
300.366	3168.88
300.597	3143.88
300.827	3217.88
301.057	3387.88
301.288	3406.88
301.518	3342.88
301.748	3337.88
301.979	3358.88
302.209	3380.88
302.439	3382.88
302.669	3360.88
302.9	3277.88
303.13	3231.88
303.36	3317.88
303.59	3325.88
303.82	3370.88
304.051	3322.88
304.281	3368.88
304.511	3279.88
304.741	3336.88
304.971	3251.88
305.201	3250.88
305.431	3254.88
305.661	3256.88
305.891	3225.88
306.121	3303.88
306.352	3298.88
306.582	3260.88
306.812	3239.88
307.042	3238.88
307.272	3221.88
307.502	3259.88
307.731	3256.88
307.961	3293.88
308.191	3253.88
308.421	3277.88
308.651	3267.88
308.881	3303.88
309.111	3328.88
309.341	3330.88
309.571	3424.88
309.8	3523.88
310.03	3570.88
310.26	3589.88
310.49	3593.88
310.72	3678.88
310.949	3859.88
311.179	3770.88
311.409	3641.88
311.639	3630.88
311.868	3670.88
312.098	3688.88
312.328	3733.88
312.557	3936.88
312.787	3989.88
313.017	3892.88
313.246	3783.88
313.476	3693.88
313.706	3823.88
313.935	3919.88
314.165	3975.88
314.394	3955.88
314.624	3953.88
314.853	3840.88
315.083	3749.88
315.312	3761.88
315.542	3735.88
315.771	3635.88
316.001	3669.88
316.23	3648.88
316.46	3656.88
316.689	3753.88
316.919	3715.88
317.148	3834.88
317.377	3758.88
317.607	3704.88
317.836	3707.88
318.065	3667.88
318.295	3670.88
318.524	3658.88
318.753	3609.88
318.983	3667.88
319.212	3738.88
319.441	3784.88
319.67	3768.88
319.9	3668.88
320.129	3722.88
320.358	3676.88
320.587	3747.88
320.816	3809.88
321.046	3908.88
321.275	3828.88
321.504	3860.88
321.733	3905.88
321.962	3909.88
322.191	4023.88
322.42	4117.88
322.649	4250.88
322.878	4286.88
323.108	4313.88
323.337	4587.88
323.566	4777.88
323.795	5091.88
324.024	5762.88
324.253	7813.88
324.482	11736.88
324.71	15595.88
324.939	15595.88
325.168	13564.88
325.397	6776.88
325.626	5453.88
325.855	4958.88
326.084	4825.88
326.313	4845.88
326.542	5027.88
326.77	5724.88
326.999	7376.88
327.228	10905.88
327.457	14789.88
327.686	14083.88
327.914	7645.88
328.143	5952.88
328.372	5612.88
328.6	5294.88
328.829	5268.88
329.058	5444.88
329.287	5361.88
329.515	5101.88
329.744	4867.88
329.972	4946.88
330.201	5077.88
330.43	5373.88
330.658	5600.88
330.887	5834.88
331.115	5481.88
331.344	4964.88
331.572	4917.88
331.801	5044.88
332.03	5023.88
332.258	4883.88
332.486	4905.88
332.715	5089.88
332.943	5155.88
333.172	5357.88
333.4	5555.88
333.629	5551.88
333.857	5790.88
334.085	5696.88
334.314	5723.88
334.542	5787.88
334.771	5701.88
334.999	5377.88
335.227	5231.88
335.455	5147.88
335.684	5122.88
335.912	4982.88
336.14	4975.88
336.369	4993.88
336.597	5038.88
336.825	4966.88
337.053	4875.88
337.281	4789.88
337.51	4751.88
337.738	4795.88
337.966	4774.88
338.194	4712.88
338.422	4563.88
338.65	4531.88
338.878	4531.88
339.106	4534.88
339.334	4562.88
339.562	4433.88
339.79	4363.88
340.018	4405.88
340.246	4427.88
340.474	4383.88
340.702	4400.88
340.93	4423.88
341.158	4379.88
341.386	4399.88
341.614	4485.88
341.842	4400.88
342.07	4342.88
342.298	4322.88
342.526	4289.88
342.754	4281.88
342.981	4306.88
343.209	4433.88
343.437	4677.88
343.665	4922.88
343.893	5201.88
344.12	5203.88
344.348	4997.88
344.576	4745.88
344.804	4718.88
345.031	4631.88
345.259	4648.88
345.487	4458.88
345.714	4380.88
345.942	4262.88
346.17	4229.88
346.397	4253.88
346.625	4209.88
346.853	4211.88
347.08	4157.88
347.308	4257.88
347.535	4318.88
347.763	4356.88
347.99	4285.88
348.218	4337.88
348.445	4297.88
348.673	4231.88
348.9	4198.88
349.128	4128.88
349.355	4132.88
349.583	4075.88
349.81	4033.88
350.037	3982.88
350.265	4069.88
350.492	4071.88
350.72	4072.88
350.947	4126.88
351.174	4207.88
351.402	4279.88
351.629	4180.88
351.856	4219.88
352.083	4241.88
352.311	4307.88
352.538	4257.88
352.765	4235.88
352.992	4205.88
353.22	4085.88
353.447	4150.88
353.674	4036.88
353.901	3948.88
354.128	3984.88
354.355	3998.88
354.583	4011.88
354.81	3979.88
355.037	3937.88
355.264	3963.88
355.491	3922.88
355.718	3920.88
355.945	3958.88
356.172	3914.88
356.399	3891.88
356.626	3930.88
356.853	3944.88
357.08	3917.88
357.307	3949.88
357.534	3930.88
357.761	3990.88
357.988	3975.88
358.215	3962.88
358.441	3967.88
358.668	3995.88
358.895	4037.88
359.122	4009.88
359.349	4164.88
359.576	4279.88
359.802	4495.88
360.029	4678.88
360.256	4649.88
360.483	4455.88
360.709	4262.88
360.936	4205.88
361.163	4226.88
361.39	4263.88
361.616	4251.88
361.843	4161.88
362.07	4243.88
362.296	4281.88
362.523	4176.88
362.749	4197.88
362.976	4151.88
363.203	4122.88
363.429	4069.88
363.656	4131.88
363.882	4041.88
364.109	4027.88
364.335	4004.88
364.562	4093.88
364.788	4050.88
365.015	4021.88
365.241	4132.88
365.468	4093.88
365.694	4168.88
365.92	4139.88
366.147	4078.88
366.373	4040.88
366.599	4023.88
366.826	4009.88
367.052	4015.88
367.278	4042.88
367.505	4081.88
367.731	4078.88
367.957	4088.88
368.184	4146.88
368.41	4246.88
368.636	4294.88
368.862	4296.88
369.089	4193.88
369.315	4183.88
369.541	4115.88
369.767	4191.88
369.993	4144.88
370.219	4116.88
370.445	4213.88
370.672	4209.88
370.898	4221.88
371.124	4246.88
371.35	4322.88
371.576	4321.88
371.802	4297.88
372.028	4233.88
372.254	4320.88
372.48	4281.88
372.706	4542.88
372.932	4477.88
373.158	4411.88
373.384	4325.88
373.61	4314.88
373.835	4323.88
374.061	4354.88
374.287	4439.88
374.513	4461.88
374.739	4647.88
374.965	4727.88
375.191	4730.88
375.416	4639.88
375.642	4495.88
375.868	4508.88
376.094	4438.88
376.319	4433.88
376.545	4389.88
376.771	4330.88
376.997	4334.88
377.222	4312.88
377.448	4311.88
377.674	4336.88
377.899	4258.88
378.125	4254.88
378.35	4285.88
378.576	4227.88
378.802	4226.88
379.027	4229.88
379.253	4324.88
379.478	4266.88
379.704	4264.88
379.929	4306.88
380.155	4300.88
380.38	4233.88
380.606	4367.88
380.831	4241.88
381.057	4342.88
381.282	4313.88
381.507	4353.88
381.733	4425.88
381.958	4380.88
382.184	4500.88
382.409	4520.88
382.634	4551.88
382.86	4602.88
383.085	4634.88
383.31	4629.88
383.535	4732.88
383.761	4820.88
383.986	4875.88
384.211	4980.88
384.436	5004.88
384.662	5045.88
384.887	5178.88
385.112	5081.88
385.337	5171.88
385.562	5152.88
385.787	5266.88
386.013	5311.88
386.238	5381.88
386.463	5293.88
386.688	5325.88
386.913	5101.88
387.138	5178.88
387.363	5148.88
387.588	5065.88
387.813	5120.88
388.038	5121.88
388.263	5188.88
388.488	5194.88
388.713	5148.88
388.938	5101.88
389.163	5013.88
389.387	5096.88
389.612	5025.88
389.837	5095.88
390.062	5057.88
390.287	5019.88
390.512	5093.88
390.736	5109.88
390.961	5133.88
391.186	5291.88
391.411	5521.88
391.636	5577.88
391.86	5805.88
392.085	5825.88
392.31	5733.88
392.534	5469.88
392.759	5506.88
392.984	5391.88
393.208	5351.88
393.433	5369.88
393.658	5328.88
393.882	5305.88
394.107	5357.88
394.331	5404.88
394.556	5381.88
394.78	5527.88
395.005	5578.88
395.229	5589.88
395.454	5730.88
395.678	5753.88
395.903	5801.88
396.127	5835.88
396.352	5689.88
396.576	5423.88
396.801	5479.88
397.025	5531.88
397.249	5570.88
397.474	5796.88
397.698	5818.88
397.922	5971.88
398.147	6111.88
398.371	6176.88
398.595	6344.88
398.82	6575.88
399.044	7165.88
399.268	7961.88
399.492	9125.88
399.717	9709.88
399.941	9415.88
400.165	8769.88
400.389	8151.88
400.613	7269.88
400.837	6772.88
401.062	6716.88
401.286	6599.88
401.51	6466.88
401.734	6481.88
401.958	6693.88
402.182	6837.88
402.406	6895.88
402.63	6935.88
402.854	7048.88
403.078	7126.88
403.302	7261.88
403.526	7364.88
403.75	7358.88
403.974	7373.88
404.198	7355.88
404.422	7542.88
404.645	7433.88
404.869	7434.88
405.093	7591.88
405.317	7833.88
405.541	7779.88
405.765	7352.88
405.988	7349.88
406.212	7547.88
406.436	7857.88
406.66	7808.88
406.883	7739.88
407.107	8393.88
407.331	8915.88
407.555	9441.88
407.778	9013.88
408.002	8295.88
408.226	7927.88
408.449	7755.88
408.673	7694.88
408.896	7840.88
409.12	7966.88
409.344	7549.88
409.567	7162.88
409.791	7107.88
410.014	7045.88
410.238	7025.88
410.461	7049.88
410.685	7086.88
410.908	7150.88
411.132	7366.88
411.355	7374.88
411.578	7069.88
411.802	6783.88
412.025	6794.88
412.249	6867.88
412.472	6955.88
412.695	6970.88
412.919	6672.88
413.142	6670.88
413.365	6502.88
413.589	6462.88
413.812	6391.88
414.035	6294.88
414.258	6412.88
414.482	6470.88
414.705	6415.88
414.928	6382.88
415.151	6381.88
415.374	6416.88
415.597	6349.88
415.821	6189.88
416.044	6245.88
416.267	6233.88
416.49	6277.88
416.713	6202.88
416.936	6325.88
417.159	6291.88
417.382	6413.88
417.605	6411.88
417.828	6481.88
418.051	6679.88
418.274	6545.88
418.497	6429.88
418.72	6534.88
418.943	6431.88
419.166	6935.88
419.389	7202.88
419.611	7152.88
419.834	6972.88
420.057	6794.88
420.28	6699.88
420.503	6500.88
420.726	6463.88
420.948	6707.88
421.171	7029.88
421.394	7016.88
421.617	6533.88
421.839	6559.88
422.062	6582.88
422.285	6834.88
422.507	7508.88
422.73	7972.88
422.953	7373.88
423.175	6980.88
423.398	6898.88
423.621	7089.88
423.843	7202.88
424.066	7256.88
424.288	7192.88
424.511	7334.88
424.733	7791.88
424.956	8381.88
425.178	7776.88
425.401	7937.88
425.623	7844.88
425.846	6820.88
426.068	6768.88
426.291	6577.88
426.513	6661.88
426.735	6703.88
426.958	7219.88
427.18	7902.88
427.402	9054.88
427.625	9243.88
427.847	7779.88
428.069	7046.88
428.292	6491.88
428.514	6080.88
428.736	5994.88
428.958	6034.88
429.181	5731.88
429.403	5846.88
429.625	5953.88
429.847	6322.88
430.069	6858.88
430.292	6429.88
430.514	5821.88
430.736	5790.88
430.958	5774.88
431.18	5593.88
431.402	5715.88
431.624	5667.88
431.846	5689.88
432.068	5717.88
432.29	5898.88
432.512	5771.88
432.734	5915.88
432.956	5663.88
433.178	5833.88
433.4	5883.88
433.622	5760.88
433.844	5793.88
434.066	5796.88
434.287	5966.88
434.509	6138.88
434.731	6380.88
434.953	6516.88
435.175	6608.88
435.397	6691.88
435.618	6754.88
435.84	7058.88
436.062	7791.88
436.284	7897.88
436.505	6555.88
436.727	6349.88
436.949	5990.88
437.17	5802.88
437.392	5836.88
437.614	6038.88
437.835	6473.88
438.057	7425.88
438.278	8077.88
438.5	8035.88
438.721	8701.88
438.943	7634.88
439.165	6419.88
439.386	6250.88
439.608	6329.88
439.829	6422.88
440.05	6833.88
440.272	7130.88
440.493	6573.88
440.715	6203.88
440.936	6139.88
441.158	6171.88
441.379	6325.88
441.6	6628.88
441.822	6928.88
442.043	7377.88
442.264	8155.88
442.486	7934.88
442.707	6988.88
442.928	6813.88
443.149	7074.88
443.371	7196.88
443.592	7770.88
443.813	8675.88
444.034	8679.88
444.255	7666.88
444.476	7421.88
444.698	7604.88
444.919	7706.88
445.14	7494.88
445.361	7304.88
445.582	7485.88
445.803	8195.88
446.024	8758.88
446.245	8371.88
446.466	7517.88
446.687	6529.88
446.908	6237.88
447.129	5853.88
447.35	5735.88
447.571	5765.88
447.792	5641.88
448.013	5669.88
448.234	5950.88
448.455	6649.88
448.675	7807.88
448.896	8245.88
449.117	6829.88
449.338	7112.88
449.559	8269.88
449.779	8478.88
450	6497.88
450.221	5837.88
450.442	5609.88
450.662	5576.88
450.883	5583.88
451.104	5687.88
451.324	5554.88
451.545	5304.88
451.766	5205.88
451.986	5127.88
452.207	5126.88
452.428	5120.88
452.648	5077.88
452.869	5171.88
453.089	5181.88
453.31	5309.88
453.53	5081.88
453.751	5086.88
453.971	5100.88
454.192	5294.88
454.412	5087.88
454.633	4940.88
454.853	4898.88
455.073	4974.88
455.294	5339.88
455.514	5943.88
455.734	5372.88
455.955	4891.88
456.175	4773.88
456.395	4688.88
456.616	4621.88
456.836	4671.88
457.056	4689.88
457.276	4583.88
457.497	4699.88
457.717	4672.88
457.937	4794.88
458.157	4849.88
458.377	5011.88
458.598	5362.88
458.818	6088.88
459.038	6851.88
459.258	6752.88
459.478	5970.88
459.698	5879.88
459.918	5925.88
460.138	6166.88
460.358	6321.88
460.578	6309.88
460.798	6423.88
461.018	6531.88
461.238	6276.88
461.458	6299.88
461.678	6211.88
461.898	6348.88
462.118	6471.88
462.338	6770.88
462.558	6902.88
462.777	7205.88
462.997	7817.88
463.217	8227.88
463.437	7979.88
463.657	7454.88
463.876	7112.88
464.096	7317.88
464.316	7258.88
464.536	7377.88
464.755	7126.88
464.975	6945.88
465.195	7226.88
465.414	7318.88
465.634	6366.88
465.854	5920.88
466.073	5708.88
466.293	5581.88
466.512	5382.88
466.732	5298.88
466.951	5229.88
467.171	5260.88
467.391	5337.88
467.61	5407.88
467.829	5458.88
468.049	5256.88
468.268	5121.88
468.488	5050.88
468.707	4955.88
468.927	4969.88
469.146	5026.88
469.365	5039.88
469.585	5066.88
469.804	5314.88
470.023	5535.88
470.243	5434.88
470.462	5513.88
470.681	5653.88
470.901	5545.88
471.12	5401.88
471.339	5317.88
471.558	5342.88
471.777	5243.88
471.997	5046.88
472.216	5174.88
472.435	5180.88
472.654	5124.88
472.873	5028.88
473.092	4995.88
473.311	4967.88
473.53	5022.88
473.749	5166.88
473.968	5744.88
474.187	6704.88
474.406	6317.88
474.625	5315.88
474.844	5085.88
475.063	5014.88
475.282	4986.88
475.501	5125.88
475.72	5150.88
475.939	5181.88
476.158	5204.88
476.377	5209.88
476.596	5202.88
476.814	5340.88
477.033	5483.88
477.252	5439.88
477.471	5516.88
477.69	5668.88
477.908	5837.88
478.127	5989.88
478.346	6092.88
478.564	6099.88
478.783	6145.88
479.002	6281.88
479.22	6398.88
479.439	6443.88
479.658	6628.88
479.876	6692.88
480.095	6922.88
480.313	7225.88
480.532	7023.88
480.751	6961.88
480.969	6879.88
481.188	6982.88
481.406	6810.88
481.624	6351.88
481.843	6189.88
482.061	6051.88
482.28	6033.88
482.498	5906.88
482.717	5841.88
482.935	5831.88
483.153	5828.88
483.372	5863.88
483.59	5837.88
483.808	5851.88
484.027	5883.88
484.245	5942.88
484.463	5983.88
484.681	6056.88
484.9	6089.88
485.118	6128.88
485.336	6155.88
485.554	6182.88
485.772	6247.88
485.99	6279.88
486.209	6300.88
486.427	6351.88
486.645	6358.88
486.863	6525.88
487.081	6434.88
487.299	6329.88
487.517	6360.88
487.735	6324.88
487.953	6279.88
