Data from Circ_2018_H10_HRD10591_00034.txt Node
Date: Wed Jan 03 09:56:08 EST 2024
User: Yrep
Spectrometer: HR+D1059
Trigger mode: 1
Integration Time (sec): 1.000000E-1
Scans to average: 1
Electric dark correction enabled: true
Nonlinearity correction enabled: false
Boxcar width: 0
XAxis mode: Wavelengths
Number of Pixels in Spectrum: 2048
>>>>>Begin Spectral Data<<<<<
223.165	-8.56
223.4	-8.56
223.635	-8.56
223.869	-25.56
224.104	-27.56
224.338	-31.56
224.573	-21.56
224.808	-11.56
225.042	-6.56
225.277	-10.56
225.511	-0.56
225.746	3.44
225.98	16.44
226.215	20.44
226.449	18.44
226.683	32.44
226.918	20.44
227.152	32.44
227.387	33.44
227.621	28.44
227.856	41.44
228.09	52.44
228.324	68.44
228.559	58.44
228.793	68.44
229.027	64.44
229.262	77.44
229.496	74.44
229.73	85.44
229.964	81.44
230.199	65.44
230.433	74.44
230.667	69.44
230.901	64.44
231.136	78.44
231.37	69.44
231.604	72.44
231.838	65.44
232.072	85.44
232.306	70.44
232.541	67.44
232.775	73.44
233.009	81.44
233.243	67.44
233.477	82.44
233.711	89.44
233.945	78.44
234.179	77.44
234.413	89.44
234.647	82.44
234.881	61.44
235.115	71.44
235.349	69.44
235.583	93.44
235.817	69.44
236.051	75.44
236.285	73.44
236.519	72.44
236.753	80.44
236.987	78.44
237.221	70.44
237.455	85.44
237.689	72.44
237.922	67.44
238.156	77.44
238.39	86.44
238.624	75.44
238.858	85.44
239.091	73.44
239.325	84.44
239.559	87.44
239.793	79.44
240.027	74.44
240.26	89.44
240.494	87.44
240.728	85.44
240.961	73.44
241.195	74.44
241.429	88.44
241.662	62.44
241.896	86.44
242.13	76.44
242.363	56.44
242.597	74.44
242.83	58.44
243.064	81.44
243.298	66.44
243.531	81.44
243.765	81.44
243.998	86.44
244.232	91.44
244.465	91.44
244.699	74.44
244.932	77.44
245.166	78.44
245.399	80.44
245.633	75.44
245.866	74.44
246.099	97.44
246.333	86.44
246.566	65.44
246.8	69.44
247.033	79.44
247.266	90.44
247.5	79.44
247.733	68.44
247.966	67.44
248.2	81.44
248.433	78.44
248.666	87.44
248.899	85.44
249.133	77.44
249.366	103.44
249.599	96.44
249.832	81.44
250.066	86.44
250.299	90.44
250.532	86.44
250.765	67.44
250.998	90.44
251.231	81.44
251.465	85.44
251.698	78.44
251.931	77.44
252.164	79.44
252.397	81.44
252.63	84.44
252.863	82.44
253.096	70.44
253.329	76.44
253.562	83.44
253.795	79.44
254.028	78.44
254.261	81.44
254.494	78.44
254.727	93.44
254.96	78.44
255.193	71.44
255.426	74.44
255.659	72.44
255.892	79.44
256.124	81.44
256.357	83.44
256.59	85.44
256.823	75.44
257.056	74.44
257.289	77.44
257.521	70.44
257.754	75.44
257.987	89.44
258.22	85.44
258.452	78.44
258.685	74.44
258.918	69.44
259.151	81.44
259.383	87.44
259.616	84.44
259.849	95.44
260.081	75.44
260.314	69.44
260.547	85.44
260.779	70.44
261.012	88.44
261.244	72.44
261.477	87.44
261.71	104.44
261.942	121.44
262.175	115.44
262.407	106.44
262.64	74.44
262.872	76.44
263.105	74.44
263.337	93.44
263.57	83.44
263.802	75.44
264.035	71.44
264.267	66.44
264.499	82.44
264.732	90.44
264.964	78.44
265.197	91.44
265.429	88.44
265.661	83.44
265.894	93.44
266.126	79.44
266.358	78.44
266.591	77.44
266.823	97.44
267.055	86.44
267.287	86.44
267.52	86.44
267.752	90.44
267.984	69.44
268.216	86.44
268.448	83.44
268.681	86.44
268.913	86.44
269.145	86.44
269.377	86.44
269.609	79.44
269.841	91.44
270.073	86.44
270.306	89.44
270.538	80.44
270.77	66.44
271.002	75.44
271.234	89.44
271.466	88.44
271.698	89.44
271.93	88.44
272.162	84.44
272.394	85.44
272.626	81.44
272.858	86.44
273.09	83.44
273.322	75.44
273.553	84.44
273.785	90.44
274.017	94.44
274.249	77.44
274.481	79.44
274.713	82.44
274.945	87.44
275.176	79.44
275.408	104.44
275.64	87.44
275.872	88.44
276.104	89.44
276.335	100.44
276.567	111.44
276.799	114.44
277.031	104.44
277.262	97.44
277.494	88.44
277.726	88.44
277.957	93.44
278.189	94.44
278.421	85.44
278.652	80.44
278.884	85.44
279.115	80.44
279.347	92.44
279.579	78.44
279.81	102.44
280.042	97.44
280.273	99.44
280.505	86.44
280.736	81.44
280.968	82.44
281.199	88.44
281.431	87.44
281.662	93.44
281.894	103.44
282.125	89.44
282.356	122.44
282.588	152.44
282.819	114.44
283.051	87.44
283.282	72.44
283.513	86.44
283.745	83.44
283.976	91.44
284.207	94.44
284.439	80.44
284.67	72.44
284.901	86.44
285.132	86.44
285.364	79.44
285.595	93.44
285.826	88.44
286.057	85.44
286.288	81.44
286.52	76.44
286.751	95.44
286.982	79.44
287.213	79.44
287.444	77.44
287.675	78.44
287.906	89.44
288.138	91.44
288.369	90.44
288.6	89.44
288.831	79.44
289.062	83.44
289.293	87.44
289.524	100.44
289.755	72.44
289.986	90.44
290.217	86.44
290.448	87.44
290.679	86.44
290.91	87.44
291.141	72.44
291.371	78.44
291.602	73.44
291.833	91.44
292.064	83.44
292.295	84.44
292.526	78.44
292.757	79.44
292.987	75.44
293.218	96.44
293.449	83.44
293.68	88.44
293.91	82.44
294.141	103.44
294.372	79.44
294.603	77.44
294.833	79.44
295.064	78.44
295.295	84.44
295.525	94.44
295.756	101.44
295.987	143.44
296.217	143.44
296.448	130.44
296.679	110.44
296.909	78.44
297.14	81.44
297.37	89.44
297.601	86.44
297.831	78.44
298.062	83.44
298.292	87.44
298.523	79.44
298.753	94.44
298.984	91.44
299.214	84.44
299.445	99.44
299.675	94.44
299.905	93.44
300.136	83.44
300.366	86.44
300.597	88.44
300.827	94.44
301.057	87.44
301.288	93.44
301.518	102.44
301.748	97.44
301.979	99.44
302.209	86.44
302.439	81.44
302.669	97.44
302.9	97.44
303.13	105.44
303.36	104.44
303.59	112.44
303.82	105.44
304.051	97.44
304.281	101.44
304.511	83.44
304.741	75.44
304.971	80.44
305.201	94.44
305.431	78.44
305.661	88.44
305.891	93.44
306.121	106.44
306.352	84.44
306.582	119.44
306.812	96.44
307.042	96.44
307.272	96.44
307.502	106.44
307.731	102.44
307.961	69.44
308.191	87.44
308.421	88.44
308.651	101.44
308.881	93.44
309.111	89.44
309.341	100.44
309.571	101.44
309.8	106.44
310.03	99.44
310.26	112.44
310.49	99.44
310.72	101.44
310.949	109.44
311.179	94.44
311.409	109.44
311.639	90.44
311.868	95.44
312.098	83.44
312.328	98.44
312.557	115.44
312.787	104.44
313.017	101.44
313.246	91.44
313.476	96.44
313.706	83.44
313.935	85.44
314.165	106.44
314.394	91.44
314.624	99.44
314.853	101.44
315.083	102.44
315.312	91.44
315.542	96.44
315.771	90.44
316.001	89.44
316.23	89.44
316.46	78.44
316.689	78.44
316.919	96.44
317.148	101.44
317.377	79.44
317.607	96.44
317.836	88.44
318.065	87.44
318.295	85.44
318.524	81.44
318.753	93.44
318.983	96.44
319.212	94.44
319.441	111.44
319.67	105.44
319.9	84.44
320.129	107.44
320.358	91.44
320.587	88.44
320.816	96.44
321.046	110.44
321.275	106.44
321.504	102.44
321.733	92.44
321.962	94.44
322.191	105.44
322.42	111.44
322.649	111.44
322.878	118.44
323.108	123.44
323.337	139.44
323.566	145.44
323.795	180.44
324.024	221.44
324.253	442.44
324.482	949.44
324.71	1898.44
324.939	2532.44
325.168	938.44
325.397	266.44
325.626	151.44
325.855	140.44
326.084	135.44
326.313	130.44
326.542	163.44
326.77	261.44
326.999	500.44
327.228	992.44
327.457	1798.44
327.686	1445.44
327.914	410.44
328.143	221.44
328.372	166.44
328.6	137.44
328.829	135.44
329.058	137.44
329.287	138.44
329.515	130.44
329.744	106.44
329.972	120.44
330.201	149.44
330.43	177.44
330.658	161.44
330.887	174.44
331.115	147.44
331.344	101.44
331.572	85.44
331.801	101.44
332.03	115.44
332.258	111.44
332.486	97.44
332.715	100.44
332.943	102.44
333.172	86.44
333.4	102.44
333.629	107.44
333.857	123.44
334.085	127.44
334.314	140.44
334.542	177.44
334.771	177.44
334.999	112.44
335.227	101.44
335.455	94.44
335.684	102.44
335.912	87.44
336.14	102.44
336.369	83.44
336.597	112.44
336.825	106.44
337.053	89.44
337.281	96.44
337.51	91.44
337.738	93.44
337.966	95.44
338.194	100.44
338.422	109.44
338.65	84.44
338.878	81.44
339.106	85.44
339.334	80.44
339.562	84.44
339.79	90.44
340.018	89.44
340.246	81.44
340.474	101.44
340.702	89.44
340.93	97.44
341.158	100.44
341.386	98.44
341.614	87.44
341.842	99.44
342.07	106.44
342.298	95.44
342.526	106.44
342.754	99.44
342.981	91.44
343.209	93.44
343.437	97.44
343.665	85.44
343.893	95.44
344.12	88.44
344.348	87.44
344.576	76.44
344.804	102.44
345.031	92.44
345.259	91.44
345.487	93.44
345.714	91.44
345.942	90.44
346.17	84.44
346.397	104.44
346.625	103.44
346.853	98.44
347.08	95.44
347.308	84.44
347.535	103.44
347.763	85.44
347.99	103.44
348.218	113.44
348.445	105.44
348.673	102.44
348.9	79.44
349.128	95.44
349.355	100.44
349.583	79.44
349.81	91.44
350.037	101.44
350.265	98.44
350.492	92.44
350.72	95.44
350.947	101.44
351.174	126.44
351.402	98.44
351.629	106.44
351.856	105.44
352.083	122.44
352.311	111.44
352.538	129.44
352.765	111.44
352.992	110.44
353.22	107.44
353.447	103.44
353.674	94.44
353.901	94.44
354.128	101.44
354.355	103.44
354.583	95.44
354.81	88.44
355.037	88.44
355.264	98.44
355.491	85.44
355.718	85.44
355.945	84.44
356.172	90.44
356.399	107.44
356.626	108.44
356.853	94.44
357.08	88.44
357.307	91.44
357.534	79.44
357.761	95.44
357.988	92.44
358.215	114.44
358.441	89.44
358.668	83.44
358.895	99.44
359.122	85.44
359.349	89.44
359.576	95.44
359.802	101.44
360.029	112.44
360.256	116.44
360.483	99.44
360.709	99.44
360.936	97.44
361.163	84.44
361.39	101.44
361.616	94.44
361.843	85.44
362.07	97.44
362.296	105.44
362.523	98.44
362.749	99.44
362.976	97.44
363.203	79.44
363.429	91.44
363.656	85.44
363.882	91.44
364.109	84.44
364.335	81.44
364.562	88.44
364.788	84.44
365.015	90.44
365.241	99.44
365.468	107.44
365.694	120.44
365.92	106.44
366.147	86.44
366.373	88.44
366.599	92.44
366.826	77.44
367.052	76.44
367.278	90.44
367.505	98.44
367.731	84.44
367.957	93.44
368.184	80.44
368.41	115.44
368.636	109.44
368.862	130.44
369.089	109.44
369.315	97.44
369.541	85.44
369.767	102.44
369.993	91.44
370.219	81.44
370.445	82.44
370.672	82.44
370.898	95.44
371.124	90.44
371.35	92.44
371.576	75.44
371.802	79.44
372.028	73.44
372.254	87.44
372.48	73.44
372.706	101.44
372.932	92.44
373.158	94.44
373.384	92.44
373.61	94.44
373.835	84.44
374.061	70.44
374.287	86.44
374.513	94.44
374.739	81.44
374.965	96.44
375.191	93.44
375.416	89.44
375.642	92.44
375.868	91.44
376.094	79.44
376.319	77.44
376.545	86.44
376.771	90.44
376.997	95.44
377.222	94.44
377.448	86.44
377.674	92.44
377.899	74.44
378.125	88.44
378.35	83.44
378.576	81.44
378.802	77.44
379.027	90.44
379.253	88.44
379.478	97.44
379.704	109.44
379.929	102.44
380.155	84.44
380.38	102.44
380.606	87.44
380.831	88.44
381.057	98.44
381.282	90.44
381.507	97.44
381.733	91.44
381.958	82.44
382.184	86.44
382.409	99.44
382.634	88.44
382.86	98.44
383.085	94.44
383.31	95.44
383.535	87.44
383.761	104.44
383.986	93.44
384.211	94.44
384.436	101.44
384.662	101.44
384.887	98.44
385.112	104.44
385.337	101.44
385.562	101.44
385.787	117.44
386.013	110.44
386.238	91.44
386.463	113.44
386.688	104.44
386.913	106.44
387.138	106.44
387.363	98.44
387.588	95.44
387.813	96.44
388.038	109.44
388.263	107.44
388.488	96.44
388.713	97.44
388.938	93.44
389.163	98.44
389.387	97.44
389.612	101.44
389.837	75.44
390.062	77.44
390.287	82.44
390.512	84.44
390.736	89.44
390.961	99.44
391.186	91.44
391.411	97.44
391.636	106.44
391.86	84.44
392.085	85.44
392.31	59.44
392.534	87.44
392.759	83.44
392.984	95.44
393.208	80.44
393.433	82.44
393.658	85.44
393.882	75.44
394.107	88.44
394.331	90.44
394.556	65.44
394.78	88.44
395.005	93.44
395.229	82.44
395.454	84.44
395.678	82.44
395.903	66.44
396.127	76.44
396.352	78.44
396.576	88.44
396.801	89.44
397.025	86.44
397.249	74.44
397.474	82.44
397.698	90.44
397.922	94.44
398.147	90.44
398.371	87.44
398.595	94.44
398.82	72.44
399.044	74.44
399.268	84.44
399.492	85.44
399.717	96.44
399.941	73.44
400.165	92.44
400.389	85.44
400.613	89.44
400.837	90.44
401.062	84.44
401.286	86.44
401.51	81.44
401.734	94.44
401.958	105.44
402.182	144.44
402.406	183.44
402.63	139.44
402.854	95.44
403.078	93.44
403.302	86.44
403.526	103.44
403.75	98.44
403.974	91.44
404.198	88.44
404.422	82.44
404.645	82.44
404.869	86.44
405.093	106.44
405.317	95.44
405.541	89.44
405.765	90.44
405.988	121.44
406.212	210.44
406.436	293.44
406.66	166.44
406.883	106.44
407.107	107.44
407.331	99.44
407.555	103.44
407.778	89.44
408.002	85.44
408.226	77.44
408.449	87.44
408.673	103.44
408.896	112.44
409.12	87.44
409.344	102.44
409.567	82.44
409.791	95.44
410.014	97.44
410.238	90.44
410.461	85.44
410.685	100.44
410.908	94.44
411.132	93.44
411.355	87.44
411.578	100.44
411.802	88.44
412.025	78.44
412.249	94.44
412.472	93.44
412.695	100.44
412.919	87.44
413.142	83.44
413.365	93.44
413.589	90.44
413.812	92.44
414.035	83.44
414.258	86.44
414.482	80.44
414.705	85.44
414.928	91.44
415.151	96.44
415.374	88.44
415.597	90.44
415.821	94.44
416.044	81.44
416.267	94.44
416.49	85.44
416.713	106.44
416.936	91.44
417.159	78.44
417.382	95.44
417.605	99.44
417.828	83.44
418.051	87.44
418.274	100.44
418.497	86.44
418.72	75.44
418.943	89.44
419.166	83.44
419.389	84.44
419.611	91.44
419.834	88.44
420.057	89.44
420.28	80.44
420.503	78.44
420.726	78.44
420.948	91.44
421.171	96.44
421.394	96.44
421.617	91.44
421.839	78.44
422.062	97.44
422.285	87.44
422.507	91.44
422.73	98.44
422.953	94.44
423.175	94.44
423.398	72.44
423.621	94.44
423.843	73.44
424.066	90.44
424.288	97.44
424.511	103.44
424.733	91.44
424.956	100.44
425.178	100.44
425.401	105.44
425.623	99.44
425.846	88.44
426.068	91.44
426.291	87.44
426.513	93.44
426.735	81.44
426.958	111.44
427.18	113.44
427.402	148.44
427.625	187.44
427.847	175.44
428.069	128.44
428.292	101.44
428.514	82.44
428.736	77.44
428.958	71.44
429.181	81.44
429.403	82.44
429.625	99.44
429.847	100.44
430.069	100.44
430.292	81.44
430.514	86.44
430.736	71.44
430.958	97.44
431.18	91.44
431.402	88.44
431.624	89.44
431.846	87.44
432.068	76.44
432.29	74.44
432.512	85.44
432.734	77.44
432.956	85.44
433.178	86.44
433.4	88.44
433.622	95.44
433.844	77.44
434.066	93.44
434.287	86.44
434.509	77.44
434.731	101.44
434.953	95.44
435.175	104.44
435.397	90.44
435.618	98.44
435.84	109.44
436.062	109.44
436.284	113.44
436.505	95.44
436.727	101.44
436.949	83.44
437.17	90.44
437.392	87.44
437.614	100.44
437.835	112.44
438.057	121.44
438.278	125.44
438.5	113.44
438.721	109.44
438.943	101.44
439.165	83.44
439.386	96.44
439.608	99.44
439.829	105.44
440.05	130.44
440.272	162.44
440.493	90.44
440.715	90.44
440.936	86.44
441.158	80.44
441.379	83.44
441.6	102.44
441.822	85.44
442.043	106.44
442.264	99.44
442.486	110.44
442.707	99.44
442.928	117.44
443.149	145.44
443.371	136.44
443.592	116.44
443.813	110.44
444.034	111.44
444.255	97.44
444.476	79.44
444.698	79.44
444.919	71.44
445.14	129.44
445.361	119.44
445.582	123.44
445.803	145.44
446.024	144.44
446.245	139.44
446.466	129.44
446.687	87.44
446.908	98.44
447.129	81.44
447.35	96.44
447.571	89.44
447.792	84.44
448.013	90.44
448.234	118.44
448.455	101.44
448.675	101.44
448.896	117.44
449.117	109.44
449.338	104.44
449.559	132.44
449.779	109.44
450	85.44
450.221	82.44
450.442	78.44
450.662	91.44
450.883	128.44
451.104	121.44
451.324	90.44
451.545	89.44
451.766	84.44
451.986	102.44
452.207	101.44
452.428	93.44
452.648	97.44
452.869	117.44
453.089	123.44
453.31	127.44
453.53	93.44
453.751	101.44
453.971	108.44
454.192	125.44
454.412	94.44
454.633	74.44
454.853	66.44
455.073	93.44
455.294	91.44
455.514	100.44
455.734	86.44
455.955	82.44
456.175	87.44
456.395	94.44
456.616	76.44
456.836	78.44
457.056	95.44
457.276	85.44
457.497	79.44
457.717	89.44
457.937	90.44
458.157	90.44
458.377	90.44
458.598	119.44
458.818	170.44
459.038	201.44
459.258	136.44
459.478	85.44
459.698	86.44
459.918	78.44
460.138	91.44
460.358	96.44
460.578	91.44
460.798	83.44
461.018	81.44
461.238	86.44
461.458	93.44
461.678	89.44
461.898	81.44
462.118	87.44
462.338	82.44
462.558	91.44
462.777	82.44
462.997	83.44
463.217	95.44
463.437	100.44
463.657	72.44
463.876	89.44
464.096	92.44
464.316	89.44
464.536	89.44
464.755	102.44
464.975	110.44
465.195	198.44
465.414	205.44
465.634	95.44
465.854	90.44
466.073	85.44
466.293	86.44
466.512	80.44
466.732	90.44
466.951	75.44
467.171	96.44
467.391	91.44
467.61	118.44
467.829	92.44
468.049	117.44
468.268	126.44
468.488	92.44
468.707	88.44
468.927	95.44
469.146	83.44
469.365	72.44
469.585	104.44
469.804	84.44
470.023	98.44
470.243	83.44
470.462	120.44
470.681	117.44
470.901	97.44
471.12	76.44
471.339	87.44
471.558	87.44
471.777	87.44
471.997	90.44
472.216	140.44
472.435	222.44
472.654	118.44
472.873	90.44
473.092	91.44
473.311	93.44
473.53	87.44
473.749	79.44
473.968	106.44
474.187	114.44
474.406	113.44
474.625	83.44
474.844	74.44
475.063	81.44
475.282	102.44
475.501	93.44
475.72	93.44
475.939	96.44
476.158	104.44
476.377	76.44
476.596	76.44
476.814	89.44
477.033	97.44
477.252	94.44
477.471	89.44
477.69	88.44
477.908	88.44
478.127	88.44
478.346	69.44
478.564	98.44
478.783	102.44
479.002	98.44
479.22	78.44
479.439	89.44
479.658	109.44
479.876	97.44
480.095	100.44
480.313	97.44
480.532	90.44
480.751	96.44
480.969	141.44
481.188	320.44
481.406	228.44
481.624	109.44
481.843	98.44
482.061	89.44
482.28	80.44
482.498	85.44
482.717	73.44
482.935	97.44
483.153	88.44
483.372	114.44
483.59	90.44
483.808	72.44
484.027	82.44
484.245	84.44
484.463	105.44
484.681	84.44
484.9	79.44
485.118	85.44
485.336	88.44
485.554	99.44
485.772	95.44
485.99	86.44
486.209	102.44
486.427	107.44
486.645	121.44
486.863	116.44
487.081	91.44
487.299	83.44
487.517	101.44
487.735	96.44
487.953	98.44
488.171	96.44
488.389	102.44
488.607	88.44
488.825	94.44
489.043	86.44
489.261	81.44
489.479	97.44
489.696	91.44
489.914	81.44
490.132	86.44
490.35	88.44
490.568	82.44
490.786	88.44
491.003	86.44
491.221	100.44
491.439	93.44
491.657	91.44
491.874	77.44
492.092	102.44
492.31	89.44
492.527	91.44
492.745	86.44
492.963	91.44
493.18	84.44
493.398	104.44
493.615	93.44
493.833	97.44
494.05	90.44
494.268	82.44
494.485	82.44
494.703	78.44
494.92	84.44
495.138	86.44
495.355	88.44
495.573	87.44
495.79	92.44
496.008	87.44
496.225	89.44
496.442	81.44
496.66	86.44
496.877	82.44
497.094	82.44
497.312	80.44
497.529	100.44
497.746	85.44
497.963	87.44
498.181	100.44
498.398	82.44
498.615	127.44
498.832	128.44
499.049	86.44
499.267	102.44
499.484	113.44
499.701	91.44
499.918	90.44
500.135	86.44
500.352	88.44
500.569	85.44
500.786	83.44
501.003	91.44
501.22	102.44
501.437	93.44
501.654	93.44
501.871	116.44
502.088	86.44
502.305	85.44
502.522	77.44
502.739	81.44
502.956	100.44
503.172	96.44
503.389	100.44
503.606	104.44
503.823	100.44
504.04	90.44
504.256	90.44
504.473	85.44
504.69	94.44
504.907	93.44
505.123	83.44
505.34	82.44
505.557	98.44
505.773	97.44
505.99	84.44
506.207	95.44
506.423	83.44
506.64	90.44
506.856	95.44
507.073	105.44
507.289	81.44
507.506	112.44
507.722	113.44
507.939	121.44
508.155	76.44
508.372	101.44
508.588	71.44
508.805	85.44
509.021	101.44
509.238	86.44
509.454	105.44
509.67	102.44
509.887	130.44
510.103	140.44
510.319	262.44
510.536	951.44
510.752	3296.44
510.968	912.44
511.184	169.44
511.401	125.44
511.617	99.44
511.833	99.44
512.049	91.44
512.265	87.44
512.481	94.44
512.698	92.44
512.914	90.44
513.13	88.44
513.346	90.44
513.562	96.44
513.778	101.44
513.994	97.44
514.21	97.44
514.426	127.44
514.642	149.44
514.858	145.44
515.074	203.44
515.29	603.44
