Data from Circ_2018_H10_HRD10591_00032.txt Node
Date: Wed Jan 03 09:56:08 EST 2024
User: Yrep
Spectrometer: HR+D1059
Trigger mode: 1
Integration Time (sec): 1.000000E-1
Scans to average: 1
Electric dark correction enabled: true
Nonlinearity correction enabled: false
Boxcar width: 0
XAxis mode: Wavelengths
Number of Pixels in Spectrum: 2048
>>>>>Begin Spectral Data<<<<<
223.165	-15.44
223.4	-15.44
223.635	-15.44
223.869	-19.44
224.104	-9.44
224.338	-2.44
224.573	-14.44
224.808	-19.44
225.042	-23.44
225.277	-3.44
225.511	-3.44
225.746	3.56
225.98	7.56
226.215	6.56
226.449	9.56
226.683	21.56
226.918	26.56
227.152	35.56
227.387	33.56
227.621	39.56
227.856	49.56
228.09	52.56
228.324	43.56
228.559	52.56
228.793	54.56
229.027	79.56
229.262	63.56
229.496	79.56
229.73	73.56
229.964	95.56
230.199	70.56
230.433	78.56
230.667	82.56
230.901	78.56
231.136	79.56
231.37	66.56
231.604	85.56
231.838	68.56
232.072	87.56
232.306	89.56
232.541	73.56
232.775	87.56
233.009	90.56
233.243	88.56
233.477	70.56
233.711	66.56
233.945	77.56
234.179	84.56
234.413	83.56
234.647	59.56
234.881	77.56
235.115	75.56
235.349	74.56
235.583	93.56
235.817	98.56
236.051	75.56
236.285	79.56
236.519	88.56
236.753	81.56
236.987	88.56
237.221	80.56
237.455	95.56
237.689	83.56
237.922	66.56
238.156	71.56
238.39	82.56
238.624	85.56
238.858	69.56
239.091	76.56
239.325	74.56
239.559	89.56
239.793	88.56
240.027	71.56
240.26	70.56
240.494	70.56
240.728	76.56
240.961	81.56
241.195	73.56
241.429	80.56
241.662	84.56
241.896	72.56
242.13	76.56
242.363	73.56
242.597	61.56
242.83	81.56
243.064	77.56
243.298	78.56
243.531	81.56
243.765	79.56
243.998	80.56
244.232	85.56
244.465	79.56
244.699	69.56
244.932	88.56
245.166	68.56
245.399	73.56
245.633	73.56
245.866	84.56
246.099	78.56
246.333	79.56
246.566	71.56
246.8	83.56
247.033	86.56
247.266	96.56
247.5	82.56
247.733	78.56
247.966	83.56
248.2	76.56
248.433	87.56
248.666	74.56
248.899	85.56
249.133	85.56
249.366	113.56
249.599	82.56
249.832	84.56
250.066	92.56
250.299	81.56
250.532	81.56
250.765	76.56
250.998	74.56
251.231	69.56
251.465	77.56
251.698	73.56
251.931	85.56
252.164	94.56
252.397	93.56
252.63	85.56
252.863	83.56
253.096	77.56
253.329	82.56
253.562	80.56
253.795	72.56
254.028	100.56
254.261	84.56
254.494	78.56
254.727	73.56
254.96	77.56
255.193	98.56
255.426	83.56
255.659	75.56
255.892	84.56
256.124	84.56
256.357	77.56
256.59	73.56
256.823	73.56
257.056	71.56
257.289	74.56
257.521	82.56
257.754	80.56
257.987	82.56
258.22	94.56
258.452	83.56
258.685	89.56
258.918	82.56
259.151	84.56
259.383	85.56
259.616	80.56
259.849	75.56
260.081	88.56
260.314	93.56
260.547	88.56
260.779	84.56
261.012	101.56
261.244	81.56
261.477	88.56
261.71	100.56
261.942	141.56
262.175	132.56
262.407	98.56
262.64	92.56
262.872	94.56
263.105	87.56
263.337	85.56
263.57	82.56
263.802	77.56
264.035	83.56
264.267	86.56
264.499	91.56
264.732	91.56
264.964	83.56
265.197	84.56
265.429	90.56
265.661	80.56
265.894	71.56
266.126	82.56
266.358	84.56
266.591	85.56
266.823	77.56
267.055	85.56
267.287	91.56
267.52	78.56
267.752	85.56
267.984	92.56
268.216	77.56
268.448	76.56
268.681	90.56
268.913	83.56
269.145	72.56
269.377	76.56
269.609	99.56
269.841	84.56
270.073	78.56
270.306	83.56
270.538	93.56
270.77	99.56
271.002	89.56
271.234	84.56
271.466	84.56
271.698	81.56
271.93	68.56
272.162	88.56
272.394	94.56
272.626	100.56
272.858	94.56
273.09	98.56
273.322	82.56
273.553	82.56
273.785	87.56
274.017	80.56
274.249	87.56
274.481	86.56
274.713	85.56
274.945	89.56
275.176	84.56
275.408	82.56
275.64	86.56
275.872	97.56
276.104	85.56
276.335	84.56
276.567	101.56
276.799	113.56
277.031	120.56
277.262	100.56
277.494	89.56
277.726	91.56
277.957	96.56
278.189	78.56
278.421	69.56
278.652	86.56
278.884	92.56
279.115	103.56
279.347	90.56
279.579	68.56
279.81	93.56
280.042	79.56
280.273	96.56
280.505	84.56
280.736	85.56
280.968	91.56
281.199	92.56
281.431	85.56
281.662	85.56
281.894	111.56
282.125	92.56
282.356	114.56
282.588	152.56
282.819	136.56
283.051	87.56
283.282	86.56
283.513	92.56
283.745	79.56
283.976	87.56
284.207	96.56
284.439	80.56
284.67	82.56
284.901	79.56
285.132	97.56
285.364	83.56
285.595	89.56
285.826	97.56
286.057	90.56
286.288	76.56
286.52	76.56
286.751	63.56
286.982	88.56
287.213	94.56
287.444	82.56
287.675	87.56
287.906	94.56
288.138	101.56
288.369	90.56
288.6	103.56
288.831	92.56
289.062	80.56
289.293	83.56
289.524	82.56
289.755	100.56
289.986	84.56
290.217	86.56
290.448	80.56
290.679	87.56
290.91	83.56
291.141	94.56
291.371	100.56
291.602	94.56
291.833	77.56
292.064	84.56
292.295	84.56
292.526	81.56
292.757	100.56
292.987	87.56
293.218	83.56
293.449	62.56
293.68	103.56
293.91	83.56
294.141	90.56
294.372	89.56
294.603	94.56
294.833	96.56
295.064	86.56
295.295	100.56
295.525	95.56
295.756	110.56
295.987	138.56
296.217	160.56
296.448	134.56
296.679	97.56
296.909	99.56
297.14	96.56
297.37	99.56
297.601	87.56
297.831	93.56
298.062	94.56
298.292	93.56
298.523	98.56
298.753	91.56
298.984	90.56
299.214	85.56
299.445	98.56
299.675	108.56
299.905	94.56
300.136	113.56
300.366	96.56
300.597	100.56
300.827	99.56
301.057	101.56
301.288	107.56
301.518	94.56
301.748	94.56
301.979	94.56
302.209	90.56
302.439	86.56
302.669	82.56
302.9	93.56
303.13	75.56
303.36	97.56
303.59	125.56
303.82	107.56
304.051	81.56
304.281	88.56
304.511	77.56
304.741	97.56
304.971	100.56
305.201	94.56
305.431	98.56
305.661	89.56
305.891	85.56
306.121	106.56
306.352	107.56
306.582	100.56
306.812	113.56
307.042	97.56
307.272	102.56
307.502	91.56
307.731	96.56
307.961	89.56
308.191	80.56
308.421	100.56
308.651	100.56
308.881	99.56
309.111	93.56
309.341	106.56
309.571	104.56
309.8	86.56
310.03	93.56
310.26	96.56
310.49	92.56
310.72	89.56
310.949	110.56
311.179	101.56
311.409	112.56
311.639	103.56
311.868	86.56
312.098	93.56
312.328	97.56
312.557	103.56
312.787	124.56
313.017	122.56
313.246	106.56
313.476	92.56
313.706	94.56
313.935	99.56
314.165	97.56
314.394	113.56
314.624	103.56
314.853	96.56
315.083	89.56
315.312	96.56
315.542	91.56
315.771	112.56
316.001	89.56
316.23	99.56
316.46	99.56
316.689	97.56
316.919	78.56
317.148	95.56
317.377	97.56
317.607	100.56
317.836	110.56
318.065	106.56
318.295	86.56
318.524	106.56
318.753	109.56
318.983	93.56
319.212	109.56
319.441	127.56
319.67	119.56
319.9	89.56
320.129	92.56
320.358	95.56
320.587	105.56
320.816	95.56
321.046	114.56
321.275	86.56
321.504	107.56
321.733	84.56
321.962	109.56
322.191	114.56
322.42	101.56
322.649	116.56
322.878	127.56
323.108	134.56
323.337	140.56
323.566	169.56
323.795	165.56
324.024	238.56
324.253	454.56
324.482	1010.56
324.71	2041.56
324.939	2754.56
325.168	1004.56
325.397	277.56
325.626	170.56
325.855	136.56
326.084	132.56
326.313	159.56
326.542	163.56
326.77	272.56
326.999	532.56
327.228	1083.56
327.457	1976.56
327.686	1546.56
327.914	438.56
328.143	221.56
328.372	182.56
328.6	153.56
328.829	137.56
329.058	152.56
329.287	160.56
329.515	122.56
329.744	110.56
329.972	112.56
330.201	140.56
330.43	164.56
330.658	157.56
330.887	168.56
331.115	141.56
331.344	100.56
331.572	106.56
331.801	107.56
332.03	106.56
332.258	98.56
332.486	106.56
332.715	97.56
332.943	96.56
333.172	115.56
333.4	100.56
333.629	121.56
333.857	124.56
334.085	121.56
334.314	126.56
334.542	165.56
334.771	174.56
334.999	128.56
335.227	90.56
335.455	97.56
335.684	105.56
335.912	110.56
336.14	105.56
336.369	84.56
336.597	116.56
336.825	97.56
337.053	90.56
337.281	80.56
337.51	98.56
337.738	84.56
337.966	93.56
338.194	95.56
338.422	106.56
338.65	100.56
338.878	105.56
339.106	94.56
339.334	93.56
339.562	80.56
339.79	99.56
340.018	91.56
340.246	95.56
340.474	99.56
340.702	97.56
340.93	99.56
341.158	103.56
341.386	92.56
341.614	110.56
341.842	101.56
342.07	98.56
342.298	103.56
342.526	88.56
342.754	84.56
342.981	90.56
343.209	79.56
343.437	103.56
343.665	99.56
343.893	90.56
344.12	101.56
344.348	87.56
344.576	97.56
344.804	92.56
345.031	110.56
345.259	99.56
345.487	102.56
345.714	105.56
345.942	91.56
346.17	92.56
346.397	98.56
346.625	98.56
346.853	93.56
347.08	99.56
347.308	99.56
347.535	113.56
347.763	107.56
347.99	113.56
348.218	102.56
348.445	110.56
348.673	99.56
348.9	94.56
349.128	88.56
349.355	98.56
349.583	98.56
349.81	103.56
350.037	97.56
350.265	97.56
350.492	106.56
350.72	103.56
350.947	112.56
351.174	129.56
351.402	131.56
351.629	111.56
351.856	105.56
352.083	116.56
352.311	104.56
352.538	115.56
352.765	103.56
352.992	134.56
353.22	114.56
353.447	108.56
353.674	100.56
353.901	93.56
354.128	95.56
354.355	101.56
354.583	92.56
354.81	107.56
355.037	104.56
355.264	96.56
355.491	87.56
355.718	91.56
355.945	99.56
356.172	98.56
356.399	107.56
356.626	100.56
356.853	80.56
357.08	88.56
357.307	94.56
357.534	89.56
357.761	107.56
357.988	100.56
358.215	104.56
358.441	97.56
358.668	91.56
358.895	85.56
359.122	96.56
359.349	94.56
359.576	89.56
359.802	107.56
360.029	130.56
360.256	129.56
360.483	106.56
360.709	94.56
360.936	106.56
361.163	95.56
361.39	98.56
361.616	90.56
361.843	90.56
362.07	104.56
362.296	109.56
362.523	81.56
362.749	97.56
362.976	94.56
363.203	107.56
363.429	97.56
363.656	100.56
363.882	72.56
364.109	97.56
364.335	88.56
364.562	96.56
364.788	95.56
365.015	105.56
365.241	112.56
365.468	103.56
365.694	122.56
365.92	116.56
366.147	87.56
366.373	95.56
366.599	75.56
366.826	94.56
367.052	82.56
367.278	97.56
367.505	89.56
367.731	105.56
367.957	81.56
368.184	80.56
368.41	91.56
368.636	125.56
368.862	144.56
369.089	130.56
369.315	104.56
369.541	93.56
369.767	104.56
369.993	87.56
370.219	92.56
370.445	87.56
370.672	94.56
370.898	104.56
371.124	79.56
371.35	91.56
371.576	97.56
371.802	89.56
372.028	87.56
372.254	79.56
372.48	97.56
372.706	85.56
372.932	93.56
373.158	80.56
373.384	93.56
373.61	84.56
373.835	103.56
374.061	94.56
374.287	81.56
374.513	88.56
374.739	99.56
374.965	91.56
375.191	82.56
375.416	97.56
375.642	91.56
375.868	90.56
376.094	89.56
376.319	68.56
376.545	94.56
376.771	91.56
376.997	105.56
377.222	97.56
377.448	87.56
377.674	88.56
377.899	76.56
378.125	94.56
378.35	83.56
378.576	89.56
378.802	89.56
379.027	93.56
379.253	90.56
379.478	94.56
379.704	88.56
379.929	103.56
380.155	97.56
380.38	105.56
380.606	89.56
380.831	98.56
381.057	91.56
381.282	98.56
381.507	105.56
381.733	96.56
381.958	87.56
382.184	88.56
382.409	95.56
382.634	109.56
382.86	96.56
383.085	96.56
383.31	101.56
383.535	90.56
383.761	104.56
383.986	99.56
384.211	101.56
384.436	105.56
384.662	95.56
384.887	97.56
385.112	106.56
385.337	106.56
385.562	98.56
385.787	102.56
386.013	114.56
386.238	124.56
386.463	103.56
386.688	96.56
386.913	100.56
387.138	101.56
387.363	94.56
387.588	113.56
387.813	104.56
388.038	110.56
388.263	105.56
388.488	112.56
388.713	93.56
388.938	91.56
389.163	103.56
389.387	95.56
389.612	87.56
389.837	80.56
390.062	87.56
390.287	88.56
390.512	87.56
390.736	83.56
390.961	95.56
391.186	101.56
391.411	94.56
391.636	91.56
391.86	97.56
392.085	95.56
392.31	80.56
392.534	75.56
392.759	93.56
392.984	77.56
393.208	85.56
393.433	84.56
393.658	87.56
393.882	77.56
394.107	85.56
394.331	75.56
394.556	96.56
394.78	91.56
395.005	86.56
395.229	97.56
395.454	77.56
395.678	80.56
395.903	93.56
396.127	96.56
396.352	88.56
396.576	84.56
396.801	92.56
397.025	70.56
397.249	70.56
397.474	85.56
397.698	92.56
397.922	90.56
398.147	84.56
398.371	78.56
398.595	74.56
398.82	88.56
399.044	82.56
399.268	93.56
399.492	105.56
399.717	88.56
399.941	88.56
400.165	91.56
400.389	96.56
400.613	85.56
400.837	85.56
401.062	105.56
401.286	83.56
401.51	102.56
401.734	96.56
401.958	115.56
402.182	144.56
402.406	199.56
402.63	132.56
402.854	102.56
403.078	90.56
403.302	90.56
403.526	89.56
403.75	89.56
403.974	73.56
404.198	93.56
404.422	98.56
404.645	98.56
404.869	92.56
405.093	91.56
405.317	106.56
405.541	116.56
405.765	110.56
405.988	127.56
406.212	219.56
406.436	324.56
406.66	182.56
406.883	106.56
407.107	103.56
407.331	96.56
407.555	100.56
407.778	112.56
408.002	100.56
408.226	78.56
408.449	84.56
408.673	93.56
408.896	115.56
409.12	107.56
409.344	95.56
409.567	96.56
409.791	104.56
410.014	95.56
410.238	90.56
410.461	104.56
410.685	103.56
410.908	84.56
411.132	112.56
411.355	91.56
411.578	91.56
411.802	89.56
412.025	91.56
412.249	90.56
412.472	88.56
412.695	106.56
412.919	83.56
413.142	92.56
413.365	88.56
413.589	101.56
413.812	85.56
414.035	102.56
414.258	92.56
414.482	90.56
414.705	100.56
414.928	107.56
415.151	81.56
415.374	87.56
415.597	83.56
415.821	98.56
416.044	96.56
416.267	89.56
416.49	80.56
416.713	85.56
416.936	91.56
417.159	94.56
417.382	88.56
417.605	76.56
417.828	83.56
418.051	103.56
418.274	85.56
418.497	76.56
418.72	84.56
418.943	71.56
419.166	77.56
419.389	83.56
419.611	95.56
419.834	73.56
420.057	86.56
420.28	81.56
420.503	84.56
420.726	91.56
420.948	84.56
421.171	97.56
421.394	107.56
421.617	99.56
421.839	109.56
422.062	101.56
422.285	93.56
422.507	92.56
422.73	99.56
422.953	94.56
423.175	91.56
423.398	100.56
423.621	94.56
423.843	92.56
424.066	83.56
424.288	99.56
424.511	86.56
424.733	93.56
424.956	104.56
425.178	101.56
425.401	107.56
425.623	106.56
425.846	101.56
426.068	93.56
426.291	82.56
426.513	94.56
426.735	97.56
426.958	96.56
427.18	100.56
427.402	153.56
427.625	214.56
427.847	174.56
428.069	118.56
428.292	88.56
428.514	90.56
428.736	88.56
428.958	89.56
429.181	86.56
429.403	92.56
429.625	102.56
429.847	104.56
430.069	99.56
430.292	77.56
430.514	88.56
430.736	84.56
430.958	93.56
431.18	92.56
431.402	94.56
431.624	91.56
431.846	98.56
432.068	84.56
432.29	97.56
432.512	81.56
432.734	93.56
432.956	80.56
433.178	106.56
433.4	94.56
433.622	79.56
433.844	97.56
434.066	98.56
434.287	99.56
434.509	112.56
434.731	94.56
434.953	88.56
435.175	87.56
435.397	105.56
435.618	97.56
435.84	116.56
436.062	119.56
436.284	123.56
436.505	116.56
436.727	108.56
436.949	99.56
437.17	98.56
437.392	97.56
437.614	84.56
437.835	114.56
438.057	150.56
438.278	113.56
438.5	113.56
438.721	138.56
438.943	125.56
439.165	97.56
439.386	97.56
439.608	98.56
439.829	109.56
440.05	132.56
440.272	176.56
440.493	106.56
440.715	99.56
440.936	98.56
441.158	82.56
441.379	84.56
441.6	102.56
441.822	95.56
442.043	102.56
442.264	97.56
442.486	108.56
442.707	91.56
442.928	116.56
443.149	163.56
443.371	157.56
443.592	115.56
443.813	104.56
444.034	119.56
444.255	95.56
444.476	91.56
444.698	92.56
444.919	98.56
445.14	124.56
445.361	127.56
445.582	137.56
445.803	161.56
446.024	167.56
446.245	164.56
446.466	135.56
446.687	81.56
446.908	110.56
447.129	84.56
447.35	99.56
447.571	115.56
447.792	90.56
448.013	102.56
448.234	136.56
448.455	105.56
448.675	115.56
448.896	140.56
449.117	100.56
449.338	104.56
449.559	127.56
449.779	138.56
450	100.56
450.221	88.56
450.442	83.56
450.662	100.56
450.883	121.56
451.104	117.56
451.324	104.56
451.545	87.56
451.766	93.56
451.986	77.56
452.207	91.56
452.428	102.56
452.648	98.56
452.869	130.56
453.089	132.56
453.31	137.56
453.53	105.56
453.751	96.56
453.971	122.56
454.192	129.56
454.412	102.56
454.633	94.56
454.853	100.56
455.073	68.56
455.294	76.56
455.514	101.56
455.734	99.56
455.955	84.56
456.175	78.56
456.395	97.56
456.616	99.56
456.836	97.56
457.056	90.56
457.276	78.56
457.497	85.56
457.717	97.56
457.937	98.56
458.157	89.56
458.377	97.56
458.598	120.56
458.818	180.56
459.038	205.56
459.258	142.56
459.478	77.56
459.698	100.56
459.918	86.56
460.138	85.56
460.358	78.56
460.578	91.56
460.798	94.56
461.018	91.56
461.238	80.56
461.458	87.56
461.678	98.56
461.898	92.56
462.118	93.56
462.338	81.56
462.558	77.56
462.777	105.56
462.997	85.56
463.217	99.56
463.437	95.56
463.657	87.56
463.876	75.56
464.096	68.56
464.316	107.56
464.536	105.56
464.755	94.56
464.975	131.56
465.195	221.56
465.414	205.56
465.634	117.56
465.854	91.56
466.073	98.56
466.293	84.56
466.512	86.56
466.732	78.56
466.951	74.56
467.171	94.56
467.391	105.56
467.61	114.56
467.829	118.56
468.049	104.56
468.268	121.56
468.488	85.56
468.707	90.56
468.927	69.56
469.146	80.56
469.365	87.56
469.585	89.56
469.804	95.56
470.023	100.56
470.243	95.56
470.462	117.56
470.681	125.56
470.901	93.56
471.12	91.56
471.339	93.56
471.558	91.56
471.777	96.56
471.997	92.56
472.216	138.56
472.435	199.56
472.654	105.56
472.873	89.56
473.092	90.56
473.311	88.56
473.53	84.56
473.749	82.56
473.968	112.56
474.187	102.56
474.406	98.56
474.625	88.56
474.844	83.56
475.063	94.56
475.282	76.56
475.501	92.56
475.72	89.56
475.939	78.56
476.158	86.56
476.377	79.56
476.596	79.56
476.814	82.56
477.033	98.56
477.252	87.56
477.471	80.56
477.69	73.56
477.908	98.56
478.127	91.56
478.346	83.56
478.564	104.56
478.783	121.56
479.002	90.56
479.22	98.56
479.439	105.56
479.658	107.56
479.876	107.56
480.095	108.56
480.313	88.56
480.532	84.56
480.751	104.56
480.969	133.56
481.188	290.56
481.406	210.56
481.624	112.56
481.843	92.56
482.061	94.56
482.28	104.56
482.498	94.56
482.717	89.56
482.935	87.56
483.153	73.56
483.372	88.56
483.59	74.56
483.808	88.56
484.027	89.56
484.245	100.56
484.463	105.56
484.681	99.56
484.9	91.56
485.118	97.56
485.336	93.56
485.554	105.56
485.772	109.56
485.99	93.56
486.209	108.56
486.427	115.56
486.645	122.56
486.863	117.56
487.081	108.56
487.299	114.56
487.517	93.56
487.735	95.56
487.953	95.56
488.171	104.56
488.389	79.56
488.607	98.56
488.825	89.56
489.043	89.56
489.261	110.56
489.479	88.56
489.696	86.56
489.914	88.56
490.132	83.56
490.35	89.56
490.568	96.56
490.786	77.56
491.003	91.56
491.221	96.56
491.439	91.56
491.657	89.56
491.874	107.56
492.092	98.56
492.31	90.56
492.527	92.56
492.745	92.56
492.963	98.56
493.18	98.56
493.398	87.56
493.615	87.56
493.833	90.56
494.05	101.56
494.268	107.56
494.485	86.56
494.703	96.56
494.92	94.56
495.138	85.56
495.355	92.56
495.573	99.56
495.79	84.56
496.008	100.56
496.225	96.56
496.442	84.56
496.66	96.56
496.877	106.56
497.094	104.56
497.312	108.56
497.529	88.56
497.746	71.56
497.963	90.56
498.181	82.56
498.398	97.56
498.615	106.56
498.832	112.56
499.049	84.56
499.267	100.56
499.484	96.56
499.701	104.56
499.918	92.56
500.135	101.56
500.352	89.56
500.569	77.56
500.786	92.56
501.003	90.56
501.22	82.56
501.437	92.56
501.654	92.56
501.871	120.56
502.088	100.56
502.305	78.56
502.522	90.56
502.739	99.56
502.956	94.56
503.172	81.56
503.389	94.56
503.606	126.56
503.823	116.56
504.04	97.56
504.256	102.56
504.473	96.56
504.69	104.56
504.907	96.56
505.123	94.56
505.34	102.56
505.557	117.56
505.773	97.56
505.99	92.56
506.207	77.56
506.423	96.56
506.64	102.56
506.856	86.56
507.073	88.56
507.289	96.56
507.506	104.56
507.722	127.56
507.939	128.56
508.155	108.56
508.372	98.56
508.588	86.56
508.805	91.56
509.021	104.56
509.238	91.56
509.454	110.56
509.67	115.56
509.887	113.56
510.103	141.56
510.319	258.56
510.536	1024.56
510.752	3581.56
510.968	991.56
511.184	197.56
511.401	122.56
511.617	98.56
511.833	100.56
512.049	96.56
512.265	87.56
512.481	90.56
512.698	104.56
512.914	93.56
513.13	93.56
513.346	92.56
513.562	105.56
513.778	112.56
513.994	114.56
514.21	108.56
