Data from Circ_2018_H10_HRD10591_00023.txt Node
Date: Wed Jan 03 09:56:06 EST 2024
User: Yrep
Spectrometer: HR+D1059
Trigger mode: 1
Integration Time (sec): 1.000000E-1
Scans to average: 1
Electric dark correction enabled: true
Nonlinearity correction enabled: false
Boxcar width: 0
XAxis mode: Wavelengths
Number of Pixels in Spectrum: 2048
>>>>>Begin Spectral Data<<<<<
223.165	-13.62
223.4	-13.62
223.635	-13.62
223.869	-10.62
224.104	-13.62
224.338	-23.62
224.573	-21.62
224.808	-10.62
225.042	-4.62
225.277	-1.62
225.511	-7.62
225.746	2.38
225.98	17.38
226.215	9.38
226.449	18.38
226.683	14.38
226.918	28.38
227.152	17.38
227.387	52.38
227.621	21.38
227.856	44.38
228.09	56.38
228.324	62.38
228.559	53.38
228.793	59.38
229.027	64.38
229.262	60.38
229.496	70.38
229.73	76.38
229.964	84.38
230.199	78.38
230.433	85.38
230.667	86.38
230.901	81.38
231.136	75.38
231.37	74.38
231.604	64.38
231.838	89.38
232.072	78.38
232.306	94.38
232.541	75.38
232.775	73.38
233.009	87.38
233.243	89.38
233.477	81.38
233.711	76.38
233.945	74.38
234.179	95.38
234.413	93.38
234.647	81.38
234.881	84.38
235.115	84.38
235.349	89.38
235.583	72.38
235.817	82.38
236.051	78.38
236.285	79.38
236.519	82.38
236.753	89.38
236.987	90.38
237.221	78.38
237.455	91.38
237.689	76.38
237.922	66.38
238.156	66.38
238.39	78.38
238.624	82.38
238.858	75.38
239.091	89.38
239.325	85.38
239.559	90.38
239.793	89.38
240.027	83.38
240.26	81.38
240.494	81.38
240.728	75.38
240.961	86.38
241.195	78.38
241.429	90.38
241.662	84.38
241.896	87.38
242.13	81.38
242.363	70.38
242.597	80.38
242.83	74.38
243.064	71.38
243.298	85.38
243.531	69.38
243.765	71.38
243.998	81.38
244.232	91.38
244.465	87.38
244.699	89.38
244.932	84.38
245.166	80.38
245.399	78.38
245.633	83.38
245.866	66.38
246.099	76.38
246.333	86.38
246.566	80.38
246.8	69.38
247.033	84.38
247.266	81.38
247.5	69.38
247.733	89.38
247.966	80.38
248.2	76.38
248.433	88.38
248.666	84.38
248.899	87.38
249.133	78.38
249.366	90.38
249.599	106.38
249.832	84.38
250.066	83.38
250.299	71.38
250.532	78.38
250.765	75.38
250.998	82.38
251.231	78.38
251.465	77.38
251.698	83.38
251.931	78.38
252.164	78.38
252.397	77.38
252.63	82.38
252.863	70.38
253.096	87.38
253.329	96.38
253.562	84.38
253.795	90.38
254.028	83.38
254.261	80.38
254.494	74.38
254.727	70.38
254.96	92.38
255.193	78.38
255.426	83.38
255.659	80.38
255.892	76.38
256.124	80.38
256.357	75.38
256.59	88.38
256.823	82.38
257.056	84.38
257.289	88.38
257.521	83.38
257.754	90.38
257.987	95.38
258.22	88.38
258.452	77.38
258.685	97.38
258.918	78.38
259.151	102.38
259.383	80.38
259.616	73.38
259.849	76.38
260.081	93.38
260.314	88.38
260.547	89.38
260.779	91.38
261.012	86.38
261.244	84.38
261.477	97.38
261.71	99.38
261.942	112.38
262.175	110.38
262.407	78.38
262.64	79.38
262.872	81.38
263.105	90.38
263.337	89.38
263.57	80.38
263.802	96.38
264.035	93.38
264.267	88.38
264.499	82.38
264.732	81.38
264.964	80.38
265.197	61.38
265.429	77.38
265.661	95.38
265.894	88.38
266.126	100.38
266.358	93.38
266.591	101.38
266.823	91.38
267.055	77.38
267.287	87.38
267.52	81.38
267.752	84.38
267.984	97.38
268.216	89.38
268.448	85.38
268.681	80.38
268.913	82.38
269.145	73.38
269.377	92.38
269.609	79.38
269.841	86.38
270.073	76.38
270.306	91.38
270.538	87.38
270.77	90.38
271.002	88.38
271.234	93.38
271.466	84.38
271.698	74.38
271.93	80.38
272.162	83.38
272.394	90.38
272.626	84.38
272.858	80.38
273.09	66.38
273.322	76.38
273.553	94.38
273.785	86.38
274.017	75.38
274.249	70.38
274.481	90.38
274.713	90.38
274.945	94.38
275.176	89.38
275.408	98.38
275.64	86.38
275.872	88.38
276.104	90.38
276.335	93.38
276.567	101.38
276.799	114.38
277.031	106.38
277.262	93.38
277.494	97.38
277.726	81.38
277.957	91.38
278.189	92.38
278.421	89.38
278.652	85.38
278.884	100.38
279.115	92.38
279.347	95.38
279.579	94.38
279.81	89.38
280.042	93.38
280.273	85.38
280.505	74.38
280.736	73.38
280.968	87.38
281.199	95.38
281.431	86.38
281.662	94.38
281.894	103.38
282.125	122.38
282.356	126.38
282.588	151.38
282.819	114.38
283.051	88.38
283.282	74.38
283.513	89.38
283.745	89.38
283.976	75.38
284.207	100.38
284.439	100.38
284.67	74.38
284.901	86.38
285.132	83.38
285.364	99.38
285.595	88.38
285.826	93.38
286.057	97.38
286.288	100.38
286.52	91.38
286.751	95.38
286.982	89.38
287.213	86.38
287.444	76.38
287.675	77.38
287.906	91.38
288.138	87.38
288.369	101.38
288.6	104.38
288.831	99.38
289.062	88.38
289.293	98.38
289.524	81.38
289.755	92.38
289.986	90.38
290.217	84.38
290.448	79.38
290.679	102.38
290.91	98.38
291.141	95.38
291.371	90.38
291.602	91.38
291.833	89.38
292.064	92.38
292.295	98.38
292.526	85.38
292.757	88.38
292.987	85.38
293.218	94.38
293.449	90.38
293.68	88.38
293.91	91.38
294.141	96.38
294.372	93.38
294.603	82.38
294.833	96.38
295.064	94.38
295.295	89.38
295.525	84.38
295.756	109.38
295.987	126.38
296.217	144.38
296.448	146.38
296.679	113.38
296.909	84.38
297.14	91.38
297.37	69.38
297.601	99.38
297.831	99.38
298.062	91.38
298.292	96.38
298.523	96.38
298.753	85.38
298.984	91.38
299.214	86.38
299.445	91.38
299.675	83.38
299.905	94.38
300.136	90.38
300.366	99.38
300.597	101.38
300.827	99.38
301.057	115.38
301.288	108.38
301.518	102.38
301.748	97.38
301.979	90.38
302.209	99.38
302.439	93.38
302.669	104.38
302.9	89.38
303.13	97.38
303.36	92.38
303.59	92.38
303.82	97.38
304.051	89.38
304.281	87.38
304.511	103.38
304.741	104.38
304.971	94.38
305.201	98.38
305.431	97.38
305.661	104.38
305.891	90.38
306.121	95.38
306.352	116.38
306.582	100.38
306.812	107.38
307.042	102.38
307.272	93.38
307.502	102.38
307.731	101.38
307.961	87.38
308.191	82.38
308.421	94.38
308.651	96.38
308.881	96.38
309.111	82.38
309.341	101.38
309.571	105.38
309.8	86.38
310.03	93.38
310.26	102.38
310.49	96.38
310.72	101.38
310.949	92.38
311.179	109.38
311.409	101.38
311.639	100.38
311.868	92.38
312.098	104.38
312.328	104.38
312.557	106.38
312.787	102.38
313.017	103.38
313.246	94.38
313.476	98.38
313.706	104.38
313.935	105.38
314.165	100.38
314.394	101.38
314.624	101.38
314.853	105.38
315.083	93.38
315.312	97.38
315.542	98.38
315.771	84.38
316.001	97.38
316.23	93.38
316.46	96.38
316.689	92.38
316.919	105.38
317.148	95.38
317.377	81.38
317.607	96.38
317.836	88.38
318.065	88.38
318.295	99.38
318.524	82.38
318.753	91.38
318.983	90.38
319.212	91.38
319.441	116.38
319.67	116.38
319.9	103.38
320.129	92.38
320.358	101.38
320.587	99.38
320.816	107.38
321.046	109.38
321.275	101.38
321.504	100.38
321.733	107.38
321.962	101.38
322.191	91.38
322.42	113.38
322.649	118.38
322.878	107.38
323.108	117.38
323.337	144.38
323.566	132.38
323.795	161.38
324.024	229.38
324.253	440.38
324.482	932.38
324.71	1914.38
324.939	2438.38
325.168	912.38
325.397	256.38
325.626	150.38
325.855	144.38
326.084	137.38
326.313	137.38
326.542	153.38
326.77	265.38
326.999	491.38
327.228	1010.38
327.457	1812.38
327.686	1453.38
327.914	399.38
328.143	209.38
328.372	168.38
328.6	105.38
328.829	117.38
329.058	134.38
329.287	161.38
329.515	121.38
329.744	105.38
329.972	117.38
330.201	105.38
330.43	136.38
330.658	132.38
330.887	145.38
331.115	133.38
331.344	98.38
331.572	91.38
331.801	96.38
332.03	114.38
332.258	112.38
332.486	96.38
332.715	91.38
332.943	92.38
333.172	92.38
333.4	103.38
333.629	108.38
333.857	119.38
334.085	116.38
334.314	129.38
334.542	135.38
334.771	128.38
334.999	90.38
335.227	99.38
335.455	94.38
335.684	98.38
335.912	112.38
336.14	109.38
336.369	104.38
336.597	103.38
336.825	99.38
337.053	94.38
337.281	99.38
337.51	109.38
337.738	94.38
337.966	106.38
338.194	93.38
338.422	92.38
338.65	92.38
338.878	84.38
339.106	91.38
339.334	90.38
339.562	80.38
339.79	96.38
340.018	105.38
340.246	109.38
340.474	105.38
340.702	85.38
340.93	88.38
341.158	95.38
341.386	91.38
341.614	88.38
341.842	102.38
342.07	88.38
342.298	91.38
342.526	93.38
342.754	105.38
342.981	94.38
343.209	95.38
343.437	92.38
343.665	105.38
343.893	94.38
344.12	86.38
344.348	97.38
344.576	92.38
344.804	100.38
345.031	89.38
345.259	107.38
345.487	96.38
345.714	107.38
345.942	102.38
346.17	101.38
346.397	77.38
346.625	103.38
346.853	97.38
347.08	92.38
347.308	91.38
347.535	106.38
347.763	107.38
347.99	87.38
348.218	103.38
348.445	118.38
348.673	95.38
348.9	92.38
349.128	108.38
349.355	90.38
349.583	90.38
349.81	96.38
350.037	99.38
350.265	83.38
350.492	101.38
350.72	100.38
350.947	97.38
351.174	106.38
351.402	123.38
351.629	97.38
351.856	100.38
352.083	119.38
352.311	104.38
352.538	109.38
352.765	107.38
352.992	124.38
353.22	109.38
353.447	112.38
353.674	107.38
353.901	106.38
354.128	103.38
354.355	93.38
354.583	97.38
354.81	97.38
355.037	118.38
355.264	90.38
355.491	93.38
355.718	90.38
355.945	97.38
356.172	89.38
356.399	105.38
356.626	105.38
356.853	93.38
357.08	89.38
357.307	94.38
357.534	86.38
357.761	95.38
357.988	92.38
358.215	101.38
358.441	96.38
358.668	103.38
358.895	77.38
359.122	112.38
359.349	93.38
359.576	104.38
359.802	123.38
360.029	121.38
360.256	136.38
360.483	114.38
360.709	93.38
360.936	88.38
361.163	104.38
361.39	104.38
361.616	87.38
361.843	104.38
362.07	98.38
362.296	87.38
362.523	83.38
362.749	92.38
362.976	104.38
363.203	93.38
363.429	99.38
363.656	89.38
363.882	89.38
364.109	92.38
364.335	88.38
364.562	96.38
364.788	85.38
365.015	101.38
365.241	100.38
365.468	100.38
365.694	105.38
365.92	86.38
366.147	100.38
366.373	92.38
366.599	97.38
366.826	89.38
367.052	99.38
367.278	105.38
367.505	95.38
367.731	88.38
367.957	96.38
368.184	90.38
368.41	97.38
368.636	116.38
368.862	152.38
369.089	115.38
369.315	99.38
369.541	98.38
369.767	97.38
369.993	82.38
370.219	98.38
370.445	95.38
370.672	90.38
370.898	88.38
371.124	75.38
371.35	103.38
371.576	88.38
371.802	92.38
372.028	78.38
372.254	95.38
372.48	87.38
372.706	98.38
372.932	89.38
373.158	87.38
373.384	82.38
373.61	94.38
373.835	91.38
374.061	95.38
374.287	89.38
374.513	98.38
374.739	86.38
374.965	84.38
375.191	84.38
375.416	89.38
375.642	97.38
375.868	96.38
376.094	98.38
376.319	93.38
376.545	98.38
376.771	84.38
376.997	84.38
377.222	86.38
377.448	81.38
377.674	83.38
377.899	83.38
378.125	84.38
378.35	83.38
378.576	92.38
378.802	86.38
379.027	84.38
379.253	98.38
379.478	82.38
379.704	100.38
379.929	92.38
380.155	84.38
380.38	96.38
380.606	108.38
380.831	90.38
381.057	97.38
381.282	95.38
381.507	97.38
381.733	101.38
381.958	98.38
382.184	86.38
382.409	112.38
382.634	106.38
382.86	89.38
383.085	90.38
383.31	98.38
383.535	118.38
383.761	88.38
383.986	87.38
384.211	108.38
384.436	83.38
384.662	101.38
384.887	107.38
385.112	103.38
385.337	101.38
385.562	109.38
385.787	111.38
386.013	107.38
386.238	112.38
386.463	109.38
386.688	101.38
386.913	103.38
387.138	91.38
387.363	111.38
387.588	86.38
387.813	100.38
388.038	122.38
388.263	128.38
388.488	109.38
388.713	106.38
388.938	93.38
389.163	104.38
389.387	79.38
389.612	91.38
389.837	96.38
390.062	86.38
390.287	85.38
390.512	83.38
390.736	97.38
390.961	105.38
391.186	95.38
391.411	89.38
391.636	89.38
391.86	92.38
392.085	82.38
392.31	107.38
392.534	89.38
392.759	85.38
392.984	106.38
393.208	102.38
393.433	98.38
393.658	84.38
393.882	78.38
394.107	90.38
394.331	85.38
394.556	101.38
394.78	94.38
395.005	83.38
395.229	91.38
395.454	77.38
395.678	76.38
395.903	77.38
396.127	93.38
396.352	95.38
396.576	88.38
396.801	81.38
397.025	82.38
397.249	79.38
397.474	89.38
397.698	93.38
397.922	92.38
398.147	93.38
398.371	89.38
398.595	69.38
398.82	87.38
399.044	86.38
399.268	87.38
399.492	75.38
399.717	84.38
399.941	83.38
400.165	92.38
400.389	91.38
400.613	84.38
400.837	84.38
401.062	84.38
401.286	90.38
401.51	112.38
401.734	106.38
401.958	99.38
402.182	141.38
402.406	164.38
402.63	124.38
402.854	103.38
403.078	101.38
403.302	95.38
403.526	94.38
403.75	98.38
403.974	89.38
404.198	89.38
404.422	88.38
404.645	95.38
404.869	91.38
405.093	97.38
405.317	92.38
405.541	106.38
405.765	108.38
405.988	116.38
406.212	187.38
406.436	256.38
406.66	156.38
406.883	98.38
407.107	112.38
407.331	91.38
407.555	107.38
407.778	102.38
408.002	90.38
408.226	91.38
408.449	84.38
408.673	86.38
408.896	88.38
409.12	102.38
409.344	93.38
409.567	88.38
409.791	73.38
410.014	101.38
410.238	92.38
410.461	90.38
410.685	104.38
410.908	106.38
411.132	105.38
411.355	93.38
411.578	93.38
411.802	89.38
412.025	83.38
412.249	105.38
412.472	101.38
412.695	85.38
412.919	87.38
413.142	87.38
413.365	86.38
413.589	81.38
413.812	94.38
414.035	105.38
414.258	100.38
414.482	100.38
414.705	92.38
414.928	78.38
415.151	84.38
415.374	104.38
415.597	85.38
415.821	98.38
416.044	81.38
416.267	96.38
416.49	93.38
416.713	95.38
416.936	101.38
417.159	105.38
417.382	87.38
417.605	97.38
417.828	85.38
418.051	78.38
418.274	88.38
418.497	118.38
418.72	82.38
418.943	89.38
419.166	103.38
419.389	92.38
419.611	96.38
419.834	101.38
420.057	95.38
420.28	93.38
420.503	85.38
420.726	91.38
420.948	86.38
421.171	103.38
421.394	93.38
421.617	86.38
421.839	91.38
422.062	80.38
422.285	102.38
422.507	91.38
422.73	102.38
422.953	92.38
423.175	82.38
423.398	78.38
423.621	89.38
423.843	84.38
424.066	92.38
424.288	93.38
424.511	92.38
424.733	97.38
424.956	126.38
425.178	103.38
425.401	102.38
425.623	110.38
425.846	93.38
426.068	91.38
426.291	98.38
426.513	86.38
426.735	94.38
426.958	81.38
427.18	113.38
427.402	135.38
427.625	170.38
427.847	142.38
428.069	129.38
428.292	99.38
428.514	85.38
428.736	79.38
428.958	96.38
429.181	85.38
429.403	82.38
429.625	92.38
429.847	89.38
430.069	96.38
430.292	82.38
430.514	86.38
430.736	89.38
430.958	89.38
431.18	92.38
431.402	89.38
431.624	80.38
431.846	81.38
432.068	93.38
432.29	84.38
432.512	83.38
432.734	98.38
432.956	96.38
433.178	102.38
433.4	102.38
433.622	92.38
433.844	93.38
434.066	91.38
434.287	84.38
434.509	93.38
434.731	85.38
434.953	81.38
435.175	94.38
435.397	99.38
435.618	109.38
435.84	93.38
436.062	129.38
436.284	118.38
436.505	102.38
436.727	112.38
436.949	107.38
437.17	86.38
437.392	91.38
437.614	92.38
437.835	107.38
438.057	129.38
438.278	121.38
438.5	97.38
438.721	122.38
438.943	118.38
439.165	86.38
439.386	83.38
439.608	94.38
439.829	107.38
440.05	136.38
440.272	156.38
440.493	93.38
440.715	87.38
440.936	100.38
441.158	90.38
441.379	89.38
441.6	116.38
441.822	112.38
442.043	100.38
442.264	103.38
442.486	97.38
442.707	97.38
442.928	113.38
443.149	146.38
443.371	132.38
443.592	120.38
443.813	130.38
444.034	115.38
444.255	82.38
444.476	85.38
444.698	85.38
444.919	85.38
445.14	146.38
445.361	133.38
445.582	133.38
445.803	148.38
446.024	138.38
446.245	133.38
446.466	117.38
446.687	96.38
446.908	93.38
447.129	85.38
447.35	84.38
447.571	96.38
447.792	81.38
448.013	115.38
448.234	91.38
448.455	100.38
448.675	115.38
448.896	124.38
449.117	107.38
449.338	117.38
449.559	133.38
449.779	122.38
450	101.38
450.221	88.38
450.442	90.38
450.662	114.38
450.883	109.38
451.104	118.38
451.324	102.38
451.545	89.38
451.766	87.38
451.986	83.38
452.207	97.38
452.428	99.38
452.648	117.38
452.869	118.38
453.089	130.38
453.31	114.38
453.53	90.38
453.751	100.38
453.971	118.38
454.192	128.38
454.412	112.38
454.633	88.38
454.853	95.38
455.073	98.38
455.294	85.38
455.514	105.38
455.734	86.38
455.955	86.38
456.175	88.38
456.395	80.38
456.616	83.38
456.836	92.38
457.056	101.38
457.276	101.38
457.497	99.38
457.717	93.38
457.937	79.38
458.157	93.38
458.377	101.38
458.598	118.38
458.818	168.38
459.038	177.38
459.258	125.38
459.478	94.38
459.698	93.38
459.918	94.38
460.138	82.38
460.358	90.38
460.578	85.38
460.798	101.38
461.018	84.38
461.238	80.38
461.458	94.38
461.678	93.38
461.898	85.38
462.118	90.38
462.338	92.38
462.558	86.38
462.777	75.38
462.997	80.38
463.217	93.38
463.437	77.38
463.657	84.38
463.876	89.38
464.096	94.38
464.316	102.38
464.536	101.38
464.755	99.38
464.975	118.38
465.195	190.38
465.414	174.38
465.634	96.38
465.854	96.38
466.073	109.38
466.293	85.38
466.512	97.38
466.732	98.38
466.951	81.38
467.171	91.38
467.391	116.38
467.61	113.38
467.829	105.38
468.049	83.38
468.268	92.38
468.488	90.38
468.707	84.38
468.927	81.38
469.146	105.38
469.365	86.38
469.585	91.38
469.804	88.38
470.023	95.38
470.243	98.38
470.462	101.38
470.681	106.38
470.901	99.38
471.12	84.38
471.339	91.38
471.558	85.38
471.777	92.38
471.997	86.38
472.216	112.38
472.435	138.38
472.654	100.38
472.873	92.38
473.092	95.38
473.311	96.38
473.53	94.38
473.749	98.38
473.968	91.38
474.187	109.38
474.406	112.38
474.625	81.38
474.844	88.38
475.063	79.38
475.282	82.38
475.501	82.38
475.72	88.38
475.939	92.38
476.158	82.38
476.377	88.38
476.596	106.38
476.814	99.38
477.033	93.38
477.252	83.38
477.471	90.38
477.69	85.38
477.908	96.38
478.127	82.38
478.346	85.38
478.564	101.38
478.783	86.38
479.002	103.38
479.22	93.38
479.439	109.38
479.658	115.38
479.876	108.38
480.095	74.38
480.313	96.38
480.532	92.38
480.751	90.38
480.969	113.38
481.188	188.38
481.406	135.38
481.624	96.38
481.843	85.38
482.061	77.38
482.28	90.38
482.498	91.38
482.717	97.38
482.935	89.38
483.153	83.38
483.372	89.38
483.59	78.38
483.808	100.38
484.027	108.38
484.245	94.38
484.463	92.38
484.681	97.38
484.9	97.38
485.118	100.38
485.336	99.38
485.554	105.38
485.772	110.38
485.99	108.38
486.209	115.38
486.427	96.38
486.645	116.38
486.863	116.38
487.081	98.38
487.299	96.38
487.517	84.38
487.735	105.38
487.953	91.38
488.171	93.38
488.389	107.38
488.607	108.38
488.825	92.38
489.043	87.38
489.261	88.38
489.479	94.38
489.696	93.38
489.914	94.38
490.132	91.38
490.35	80.38
490.568	92.38
490.786	95.38
491.003	99.38
491.221	93.38
491.439	85.38
491.657	102.38
491.874	95.38
492.092	84.38
492.31	101.38
492.527	100.38
492.745	87.38
492.963	94.38
493.18	96.38
493.398	97.38
493.615	100.38
493.833	99.38
494.05	100.38
494.268	92.38
494.485	93.38
494.703	88.38
494.92	85.38
495.138	69.38
495.355	87.38
495.573	100.38
495.79	94.38
496.008	91.38
496.225	100.38
496.442	85.38
496.66	90.38
496.877	89.38
497.094	86.38
497.312	93.38
497.529	101.38
497.746	93.38
497.963	102.38
498.181	102.38
498.398	101.38
498.615	107.38
498.832	88.38
499.049	90.38
499.267	97.38
499.484	78.38
499.701	104.38
499.918	95.38
500.135	98.38
500.352	92.38
500.569	90.38
500.786	102.38
501.003	105.38
501.22	96.38
501.437	96.38
501.654	98.38
501.871	105.38
502.088	99.38
502.305	93.38
502.522	96.38
502.739	84.38
502.956	86.38
503.172	70.38
503.389	92.38
503.606	114.38
503.823	97.38
504.04	101.38
504.256	104.38
504.473	108.38
504.69	87.38
504.907	107.38
505.123	103.38
505.34	96.38
505.557	95.38
505.773	98.38
505.99	96.38
506.207	101.38
506.423	97.38
506.64	106.38
506.856	92.38
507.073	80.38
507.289	96.38
507.506	97.38
507.722	125.38
507.939	120.38
508.155	88.38
508.372	85.38
508.588	92.38
508.805	95.38
509.021	103.38
509.238	100.38
509.454	115.38
509.67	106.38
509.887	119.38
510.103	133.38
510.319	246.38
510.536	917.38
510.752	3108.38
510.968	876.38
511.184	185.38
511.401	117.38
511.617	114.38
511.833	98.38
512.049	93.38
512.265	85.38
512.481	97.38
512.698	105.38
512.914	104.38
513.13	81.38
513.346	97.38
513.562	97.38
513.778	102.38
513.994	107.38
514.21	114.38
514.426	134.38
