Data from Circ_2018_H10_HRD10591_00033.txt Node
Date: Wed Jan 03 09:56:08 EST 2024
User: Yrep
Spectrometer: HR+D1059
Trigger mode: 1
Integration Time (sec): 1.000000E-1
Scans to average: 1
Electric dark correction enabled: true
Nonlinearity correction enabled: false
Boxcar width: 0
XAxis mode: Wavelengths
Number of Pixels in Spectrum: 2048
>>>>>Begin Spectral Data<<<<<
223.165	-8.88
223.4	-8.88
223.635	-8.88
223.869	-10.88
224.104	-27.88
224.338	-20.88
224.573	-15.88
224.808	-15.88
225.042	-14.88
225.277	-9.88
225.511	-7.88
225.746	18.12
225.98	-5.88
226.215	17.12
226.449	27.12
226.683	27.12
226.918	17.12
227.152	32.12
227.387	38.12
227.621	43.12
227.856	35.12
228.09	39.12
228.324	46.12
228.559	50.12
228.793	46.12
229.027	74.12
229.262	65.12
229.496	72.12
229.73	93.12
229.964	98.12
230.199	83.12
230.433	91.12
230.667	106.12
230.901	92.12
231.136	84.12
231.37	95.12
231.604	71.12
231.838	77.12
232.072	78.12
232.306	76.12
232.541	86.12
232.775	83.12
233.009	75.12
233.243	85.12
233.477	93.12
233.711	73.12
233.945	90.12
234.179	80.12
234.413	81.12
234.647	87.12
234.881	71.12
235.115	83.12
235.349	87.12
235.583	82.12
235.817	78.12
236.051	68.12
236.285	97.12
236.519	84.12
236.753	77.12
236.987	94.12
237.221	78.12
237.455	97.12
237.689	78.12
237.922	83.12
238.156	72.12
238.39	77.12
238.624	78.12
238.858	74.12
239.091	78.12
239.325	91.12
239.559	73.12
239.793	94.12
240.027	79.12
240.26	86.12
240.494	83.12
240.728	91.12
240.961	95.12
241.195	77.12
241.429	76.12
241.662	87.12
241.896	77.12
242.13	77.12
242.363	78.12
242.597	68.12
242.83	98.12
243.064	80.12
243.298	75.12
243.531	81.12
243.765	68.12
243.998	67.12
244.232	78.12
244.465	87.12
244.699	82.12
244.932	88.12
245.166	71.12
245.399	72.12
245.633	80.12
245.866	80.12
246.099	79.12
246.333	78.12
246.566	85.12
246.8	86.12
247.033	72.12
247.266	105.12
247.5	98.12
247.733	77.12
247.966	89.12
248.2	85.12
248.433	76.12
248.666	72.12
248.899	82.12
249.133	88.12
249.366	106.12
249.599	110.12
249.832	99.12
250.066	92.12
250.299	91.12
250.532	80.12
250.765	81.12
250.998	82.12
251.231	93.12
251.465	86.12
251.698	80.12
251.931	87.12
252.164	77.12
252.397	74.12
252.63	78.12
252.863	82.12
253.096	102.12
253.329	79.12
253.562	82.12
253.795	90.12
254.028	88.12
254.261	87.12
254.494	71.12
254.727	90.12
254.96	82.12
255.193	97.12
255.426	94.12
255.659	87.12
255.892	79.12
256.124	94.12
256.357	76.12
256.59	92.12
256.823	91.12
257.056	74.12
257.289	85.12
257.521	77.12
257.754	76.12
257.987	85.12
258.22	96.12
258.452	91.12
258.685	89.12
258.918	81.12
259.151	63.12
259.383	89.12
259.616	80.12
259.849	78.12
260.081	93.12
260.314	83.12
260.547	86.12
260.779	88.12
261.012	100.12
261.244	86.12
261.477	87.12
261.71	102.12
261.942	126.12
262.175	124.12
262.407	87.12
262.64	89.12
262.872	85.12
263.105	104.12
263.337	93.12
263.57	79.12
263.802	91.12
264.035	84.12
264.267	84.12
264.499	90.12
264.732	79.12
264.964	92.12
265.197	84.12
265.429	93.12
265.661	87.12
265.894	86.12
266.126	83.12
266.358	95.12
266.591	89.12
266.823	90.12
267.055	94.12
267.287	85.12
267.52	85.12
267.752	97.12
267.984	81.12
268.216	89.12
268.448	77.12
268.681	88.12
268.913	96.12
269.145	81.12
269.377	91.12
269.609	81.12
269.841	94.12
270.073	78.12
270.306	77.12
270.538	100.12
270.77	81.12
271.002	99.12
271.234	88.12
271.466	87.12
271.698	89.12
271.93	95.12
272.162	87.12
272.394	101.12
272.626	99.12
272.858	104.12
273.09	98.12
273.322	99.12
273.553	94.12
273.785	100.12
274.017	80.12
274.249	108.12
274.481	92.12
274.713	85.12
274.945	96.12
275.176	99.12
275.408	83.12
275.64	81.12
275.872	83.12
276.104	86.12
276.335	87.12
276.567	113.12
276.799	125.12
277.031	103.12
277.262	93.12
277.494	104.12
277.726	88.12
277.957	93.12
278.189	79.12
278.421	91.12
278.652	86.12
278.884	85.12
279.115	92.12
279.347	92.12
279.579	89.12
279.81	88.12
280.042	102.12
280.273	87.12
280.505	80.12
280.736	94.12
280.968	97.12
281.199	93.12
281.431	91.12
281.662	89.12
281.894	92.12
282.125	112.12
282.356	134.12
282.588	169.12
282.819	125.12
283.051	99.12
283.282	96.12
283.513	87.12
283.745	94.12
283.976	93.12
284.207	80.12
284.439	95.12
284.67	91.12
284.901	97.12
285.132	86.12
285.364	94.12
285.595	81.12
285.826	79.12
286.057	92.12
286.288	94.12
286.52	94.12
286.751	98.12
286.982	96.12
287.213	94.12
287.444	100.12
287.675	88.12
287.906	101.12
288.138	86.12
288.369	82.12
288.6	103.12
288.831	83.12
289.062	93.12
289.293	108.12
289.524	96.12
289.755	85.12
289.986	85.12
290.217	90.12
290.448	97.12
290.679	82.12
290.91	88.12
291.141	92.12
291.371	95.12
291.602	85.12
291.833	92.12
292.064	95.12
292.295	91.12
292.526	97.12
292.757	83.12
292.987	84.12
293.218	88.12
293.449	102.12
293.68	89.12
293.91	92.12
294.141	93.12
294.372	91.12
294.603	96.12
294.833	99.12
295.064	91.12
295.295	88.12
295.525	99.12
295.756	108.12
295.987	146.12
296.217	167.12
296.448	142.12
296.679	111.12
296.909	90.12
297.14	99.12
297.37	113.12
297.601	95.12
297.831	85.12
298.062	98.12
298.292	79.12
298.523	74.12
298.753	86.12
298.984	99.12
299.214	103.12
299.445	94.12
299.675	79.12
299.905	105.12
300.136	106.12
300.366	88.12
300.597	103.12
300.827	103.12
301.057	98.12
301.288	100.12
301.518	89.12
301.748	94.12
301.979	104.12
302.209	93.12
302.439	96.12
302.669	76.12
302.9	83.12
303.13	92.12
303.36	92.12
303.59	107.12
303.82	104.12
304.051	91.12
304.281	101.12
304.511	102.12
304.741	103.12
304.971	102.12
305.201	87.12
305.431	84.12
305.661	92.12
305.891	89.12
306.121	99.12
306.352	122.12
306.582	119.12
306.812	88.12
307.042	79.12
307.272	95.12
307.502	104.12
307.731	110.12
307.961	100.12
308.191	93.12
308.421	104.12
308.651	94.12
308.881	104.12
309.111	97.12
309.341	110.12
309.571	109.12
309.8	104.12
310.03	105.12
310.26	104.12
310.49	106.12
310.72	101.12
310.949	123.12
311.179	107.12
311.409	109.12
311.639	93.12
311.868	95.12
312.098	89.12
312.328	101.12
312.557	115.12
312.787	128.12
313.017	113.12
313.246	99.12
313.476	102.12
313.706	95.12
313.935	99.12
314.165	115.12
314.394	130.12
314.624	111.12
314.853	103.12
315.083	81.12
315.312	101.12
315.542	93.12
315.771	86.12
316.001	89.12
316.23	93.12
316.46	101.12
316.689	88.12
316.919	102.12
317.148	108.12
317.377	98.12
317.607	102.12
317.836	93.12
318.065	97.12
318.295	101.12
318.524	91.12
318.753	100.12
318.983	120.12
319.212	123.12
319.441	127.12
319.67	115.12
319.9	99.12
320.129	98.12
320.358	79.12
320.587	96.12
320.816	106.12
321.046	108.12
321.275	101.12
321.504	90.12
321.733	104.12
321.962	102.12
322.191	102.12
322.42	120.12
322.649	115.12
322.878	139.12
323.108	127.12
323.337	140.12
323.566	156.12
323.795	175.12
324.024	230.12
324.253	469.12
324.482	980.12
324.71	1952.12
324.939	2588.12
325.168	967.12
325.397	291.12
325.626	150.12
325.855	137.12
326.084	143.12
326.313	158.12
326.542	165.12
326.77	267.12
326.999	503.12
327.228	1052.12
327.457	1849.12
327.686	1483.12
327.914	428.12
328.143	231.12
328.372	193.12
328.6	149.12
328.829	130.12
329.058	162.12
329.287	155.12
329.515	118.12
329.744	110.12
329.972	109.12
330.201	135.12
330.43	149.12
330.658	142.12
330.887	181.12
331.115	146.12
331.344	121.12
331.572	104.12
331.801	111.12
332.03	121.12
332.258	106.12
332.486	104.12
332.715	107.12
332.943	102.12
333.172	106.12
333.4	113.12
333.629	104.12
333.857	130.12
334.085	128.12
334.314	116.12
334.542	134.12
334.771	139.12
334.999	108.12
335.227	98.12
335.455	98.12
335.684	90.12
335.912	104.12
336.14	106.12
336.369	104.12
336.597	118.12
336.825	110.12
337.053	103.12
337.281	92.12
337.51	89.12
337.738	100.12
337.966	101.12
338.194	110.12
338.422	100.12
338.65	93.12
338.878	104.12
339.106	91.12
339.334	93.12
339.562	103.12
339.79	101.12
340.018	106.12
340.246	109.12
340.474	110.12
340.702	91.12
340.93	101.12
341.158	100.12
341.386	106.12
341.614	104.12
341.842	91.12
342.07	96.12
342.298	89.12
342.526	100.12
342.754	83.12
342.981	77.12
343.209	83.12
343.437	100.12
343.665	96.12
343.893	98.12
344.12	111.12
344.348	106.12
344.576	90.12
344.804	99.12
345.031	130.12
345.259	114.12
345.487	102.12
345.714	102.12
345.942	100.12
346.17	101.12
346.397	94.12
346.625	101.12
346.853	102.12
347.08	103.12
347.308	94.12
347.535	88.12
347.763	109.12
347.99	111.12
348.218	112.12
348.445	116.12
348.673	119.12
348.9	113.12
349.128	98.12
349.355	95.12
349.583	97.12
349.81	96.12
350.037	108.12
350.265	97.12
350.492	103.12
350.72	96.12
350.947	100.12
351.174	118.12
351.402	119.12
351.629	103.12
351.856	110.12
352.083	114.12
352.311	126.12
352.538	133.12
352.765	123.12
352.992	123.12
353.22	119.12
353.447	104.12
353.674	95.12
353.901	95.12
354.128	105.12
354.355	97.12
354.583	104.12
354.81	108.12
355.037	109.12
355.264	89.12
355.491	101.12
355.718	89.12
355.945	109.12
356.172	93.12
356.399	94.12
356.626	113.12
356.853	92.12
357.08	101.12
357.307	102.12
357.534	98.12
357.761	104.12
357.988	111.12
358.215	92.12
358.441	95.12
358.668	95.12
358.895	96.12
359.122	91.12
359.349	84.12
359.576	91.12
359.802	116.12
360.029	123.12
360.256	128.12
360.483	112.12
360.709	89.12
360.936	104.12
361.163	103.12
361.39	122.12
361.616	84.12
361.843	100.12
362.07	82.12
362.296	125.12
362.523	104.12
362.749	98.12
362.976	100.12
363.203	97.12
363.429	89.12
363.656	102.12
363.882	101.12
364.109	107.12
364.335	93.12
364.562	104.12
364.788	94.12
365.015	102.12
365.241	107.12
365.468	124.12
365.694	111.12
365.92	97.12
366.147	92.12
366.373	101.12
366.599	107.12
366.826	104.12
367.052	99.12
367.278	90.12
367.505	82.12
367.731	97.12
367.957	99.12
368.184	91.12
368.41	95.12
368.636	135.12
368.862	139.12
369.089	125.12
369.315	109.12
369.541	96.12
369.767	105.12
369.993	88.12
370.219	81.12
370.445	87.12
370.672	96.12
370.898	115.12
371.124	97.12
371.35	77.12
371.576	91.12
371.802	101.12
372.028	92.12
372.254	84.12
372.48	92.12
372.706	78.12
372.932	91.12
373.158	107.12
373.384	83.12
373.61	95.12
373.835	89.12
374.061	94.12
374.287	100.12
374.513	95.12
374.739	104.12
374.965	98.12
375.191	93.12
375.416	100.12
375.642	96.12
375.868	112.12
376.094	105.12
376.319	97.12
376.545	94.12
376.771	91.12
376.997	99.12
377.222	107.12
377.448	95.12
377.674	97.12
377.899	93.12
378.125	88.12
378.35	112.12
378.576	93.12
378.802	97.12
379.027	94.12
379.253	100.12
379.478	117.12
379.704	89.12
379.929	92.12
380.155	98.12
380.38	81.12
380.606	101.12
380.831	103.12
381.057	99.12
381.282	97.12
381.507	96.12
381.733	96.12
381.958	108.12
382.184	101.12
382.409	99.12
382.634	110.12
382.86	114.12
383.085	94.12
383.31	102.12
383.535	106.12
383.761	106.12
383.986	103.12
384.211	112.12
384.436	117.12
384.662	123.12
384.887	113.12
385.112	110.12
385.337	111.12
385.562	103.12
385.787	112.12
386.013	126.12
386.238	113.12
386.463	111.12
386.688	107.12
386.913	109.12
387.138	125.12
387.363	112.12
387.588	111.12
387.813	111.12
388.038	116.12
388.263	122.12
388.488	117.12
388.713	98.12
388.938	93.12
389.163	105.12
389.387	95.12
389.612	111.12
389.837	93.12
390.062	99.12
390.287	91.12
390.512	94.12
390.736	96.12
390.961	106.12
391.186	88.12
391.411	104.12
391.636	96.12
391.86	78.12
392.085	84.12
392.31	96.12
392.534	94.12
392.759	95.12
392.984	87.12
393.208	95.12
393.433	104.12
393.658	100.12
393.882	97.12
394.107	98.12
394.331	79.12
394.556	100.12
394.78	86.12
395.005	93.12
395.229	86.12
395.454	96.12
395.678	95.12
395.903	85.12
396.127	96.12
396.352	79.12
396.576	86.12
396.801	76.12
397.025	94.12
397.249	90.12
397.474	88.12
397.698	77.12
397.922	93.12
398.147	96.12
398.371	84.12
398.595	84.12
398.82	92.12
399.044	74.12
399.268	85.12
399.492	83.12
399.717	96.12
399.941	95.12
400.165	108.12
400.389	83.12
400.613	83.12
400.837	87.12
401.062	88.12
401.286	97.12
401.51	106.12
401.734	97.12
401.958	110.12
402.182	145.12
402.406	198.12
402.63	153.12
402.854	96.12
403.078	101.12
403.302	90.12
403.526	94.12
403.75	106.12
403.974	100.12
404.198	107.12
404.422	94.12
404.645	84.12
404.869	92.12
405.093	92.12
405.317	107.12
405.541	111.12
405.765	118.12
405.988	139.12
406.212	223.12
406.436	302.12
406.66	170.12
406.883	110.12
407.107	94.12
407.331	97.12
407.555	94.12
407.778	103.12
408.002	96.12
408.226	104.12
408.449	90.12
408.673	87.12
408.896	108.12
409.12	100.12
409.344	88.12
409.567	87.12
409.791	101.12
410.014	101.12
410.238	91.12
410.461	89.12
410.685	99.12
410.908	93.12
411.132	106.12
411.355	104.12
411.578	93.12
411.802	90.12
412.025	101.12
412.249	94.12
412.472	92.12
412.695	97.12
412.919	91.12
413.142	92.12
413.365	92.12
413.589	106.12
413.812	113.12
414.035	95.12
414.258	85.12
414.482	86.12
414.705	97.12
414.928	100.12
415.151	99.12
415.374	100.12
415.597	94.12
415.821	92.12
416.044	80.12
416.267	103.12
416.49	92.12
416.713	92.12
416.936	92.12
417.159	99.12
417.382	88.12
417.605	76.12
417.828	90.12
418.051	91.12
418.274	102.12
418.497	93.12
418.72	90.12
418.943	77.12
419.166	84.12
419.389	82.12
419.611	80.12
419.834	94.12
420.057	99.12
420.28	83.12
420.503	83.12
420.726	92.12
420.948	100.12
421.171	97.12
421.394	96.12
421.617	93.12
421.839	102.12
422.062	104.12
422.285	95.12
422.507	99.12
422.73	106.12
422.953	103.12
423.175	89.12
423.398	98.12
423.621	92.12
423.843	84.12
424.066	108.12
424.288	101.12
424.511	91.12
424.733	106.12
424.956	120.12
425.178	118.12
425.401	97.12
425.623	112.12
425.846	93.12
426.068	101.12
426.291	88.12
426.513	100.12
426.735	82.12
426.958	100.12
427.18	116.12
427.402	158.12
427.625	205.12
427.847	140.12
428.069	118.12
428.292	102.12
428.514	106.12
428.736	87.12
428.958	87.12
429.181	81.12
429.403	85.12
429.625	88.12
429.847	97.12
430.069	111.12
430.292	105.12
430.514	88.12
430.736	95.12
430.958	104.12
431.18	99.12
431.402	103.12
431.624	81.12
431.846	86.12
432.068	90.12
432.29	95.12
432.512	104.12
432.734	85.12
432.956	96.12
433.178	105.12
433.4	101.12
433.622	97.12
433.844	85.12
434.066	87.12
434.287	92.12
434.509	94.12
434.731	85.12
434.953	85.12
435.175	102.12
435.397	102.12
435.618	99.12
435.84	87.12
436.062	124.12
436.284	123.12
436.505	101.12
436.727	111.12
436.949	95.12
437.17	102.12
437.392	93.12
437.614	104.12
437.835	127.12
438.057	118.12
438.278	122.12
438.5	102.12
438.721	127.12
438.943	97.12
439.165	96.12
439.386	78.12
439.608	95.12
439.829	92.12
440.05	137.12
440.272	159.12
440.493	104.12
440.715	104.12
440.936	86.12
441.158	79.12
441.379	94.12
441.6	97.12
441.822	103.12
442.043	93.12
442.264	114.12
442.486	103.12
442.707	102.12
442.928	110.12
443.149	150.12
443.371	156.12
443.592	121.12
443.813	129.12
444.034	116.12
444.255	94.12
444.476	72.12
444.698	91.12
444.919	96.12
445.14	129.12
445.361	140.12
445.582	112.12
445.803	171.12
446.024	151.12
446.245	151.12
446.466	110.12
446.687	91.12
446.908	100.12
447.129	81.12
447.35	81.12
447.571	106.12
447.792	103.12
448.013	114.12
448.234	118.12
448.455	97.12
448.675	119.12
448.896	133.12
449.117	109.12
449.338	104.12
449.559	141.12
449.779	135.12
450	91.12
450.221	93.12
450.442	98.12
450.662	104.12
450.883	125.12
451.104	127.12
451.324	107.12
451.545	94.12
451.766	88.12
451.986	81.12
452.207	89.12
452.428	99.12
452.648	108.12
452.869	105.12
453.089	139.12
453.31	152.12
453.53	100.12
453.751	120.12
453.971	112.12
454.192	129.12
454.412	94.12
454.633	107.12
454.853	91.12
455.073	103.12
455.294	102.12
455.514	118.12
455.734	96.12
455.955	88.12
456.175	86.12
456.395	94.12
456.616	106.12
456.836	88.12
457.056	104.12
457.276	88.12
457.497	77.12
457.717	85.12
457.937	104.12
458.157	97.12
458.377	86.12
458.598	115.12
458.818	168.12
459.038	198.12
459.258	139.12
459.478	89.12
459.698	98.12
459.918	83.12
460.138	88.12
460.358	97.12
460.578	97.12
460.798	100.12
461.018	84.12
461.238	86.12
461.458	76.12
461.678	90.12
461.898	93.12
462.118	87.12
462.338	85.12
462.558	89.12
462.777	89.12
462.997	90.12
463.217	99.12
463.437	91.12
463.657	96.12
463.876	89.12
464.096	104.12
464.316	115.12
464.536	98.12
464.755	103.12
464.975	120.12
465.195	192.12
465.414	205.12
465.634	108.12
465.854	89.12
466.073	96.12
466.293	99.12
466.512	94.12
466.732	88.12
466.951	97.12
467.171	85.12
467.391	98.12
467.61	117.12
467.829	108.12
468.049	95.12
468.268	104.12
468.488	104.12
468.707	94.12
468.927	89.12
469.146	90.12
469.365	105.12
469.585	102.12
469.804	108.12
470.023	115.12
470.243	102.12
470.462	123.12
470.681	124.12
470.901	100.12
471.12	97.12
471.339	98.12
471.558	96.12
471.777	96.12
471.997	96.12
472.216	117.12
472.435	123.12
472.654	103.12
472.873	100.12
473.092	99.12
473.311	80.12
473.53	82.12
473.749	90.12
473.968	111.12
474.187	116.12
474.406	113.12
474.625	83.12
474.844	96.12
475.063	73.12
475.282	99.12
475.501	95.12
475.72	91.12
475.939	102.12
476.158	87.12
476.377	96.12
476.596	93.12
476.814	95.12
477.033	109.12
477.252	103.12
477.471	79.12
477.69	103.12
477.908	100.12
478.127	98.12
478.346	102.12
478.564	91.12
478.783	99.12
479.002	96.12
479.22	103.12
479.439	102.12
479.658	108.12
479.876	103.12
480.095	95.12
480.313	84.12
480.532	88.12
480.751	95.12
480.969	120.12
481.188	169.12
481.406	152.12
481.624	109.12
481.843	92.12
482.061	97.12
482.28	85.12
482.498	87.12
482.717	85.12
482.935	92.12
483.153	87.12
483.372	85.12
483.59	99.12
483.808	86.12
484.027	99.12
484.245	86.12
484.463	94.12
484.681	101.12
484.9	98.12
485.118	96.12
485.336	101.12
485.554	100.12
485.772	97.12
485.99	92.12
486.209	106.12
486.427	106.12
486.645	118.12
486.863	113.12
487.081	103.12
487.299	97.12
487.517	96.12
487.735	81.12
487.953	100.12
488.171	99.12
488.389	102.12
488.607	101.12
488.825	92.12
489.043	89.12
489.261	97.12
489.479	86.12
489.696	101.12
489.914	99.12
490.132	81.12
490.35	74.12
490.568	96.12
490.786	96.12
491.003	88.12
491.221	86.12
491.439	102.12
491.657	74.12
491.874	91.12
492.092	93.12
492.31	107.12
492.527	95.12
492.745	108.12
492.963	94.12
493.18	110.12
493.398	94.12
493.615	108.12
493.833	92.12
494.05	104.12
494.268	94.12
494.485	89.12
494.703	95.12
494.92	94.12
495.138	91.12
495.355	92.12
495.573	81.12
495.79	90.12
496.008	94.12
496.225	93.12
496.442	85.12
496.66	97.12
496.877	100.12
497.094	87.12
497.312	84.12
497.529	90.12
497.746	100.12
497.963	104.12
498.181	109.12
498.398	95.12
498.615	112.12
498.832	123.12
499.049	101.12
499.267	96.12
499.484	92.12
499.701	84.12
499.918	98.12
500.135	95.12
500.352	95.12
500.569	97.12
500.786	99.12
501.003	86.12
501.22	108.12
501.437	89.12
501.654	101.12
501.871	121.12
502.088	107.12
502.305	104.12
502.522	99.12
502.739	94.12
502.956	102.12
503.172	103.12
503.389	100.12
503.606	132.12
503.823	118.12
504.04	105.12
504.256	86.12
504.473	97.12
504.69	96.12
504.907	95.12
505.123	94.12
505.34	110.12
505.557	105.12
505.773	91.12
505.99	89.12
506.207	101.12
506.423	87.12
506.64	109.12
506.856	94.12
507.073	89.12
507.289	94.12
507.506	99.12
507.722	130.12
507.939	137.12
508.155	110.12
508.372	98.12
508.588	93.12
508.805	101.12
509.021	95.12
509.238	111.12
509.454	109.12
509.67	112.12
509.887	125.12
510.103	151.12
510.319	254.12
510.536	1040.12
510.752	3539.12
510.968	985.12
511.184	200.12
511.401	133.12
511.617	120.12
511.833	109.12
512.049	95.12
512.265	111.12
512.481	86.12
512.698	92.12
