Data from Circ_2018_H10_HRD10591_00029.txt Node
Date: Wed Jan 03 09:56:07 EST 2024
User: Yrep
Spectrometer: HR+D1059
Trigger mode: 1
Integration Time (sec): 1.000000E-1
Scans to average: 1
Electric dark correction enabled: true
Nonlinearity correction enabled: false
Boxcar width: 0
XAxis mode: Wavelengths
Number of Pixels in Spectrum: 2048
>>>>>Begin Spectral Data<<<<<
223.165	-10.69
223.4	-10.69
223.635	-10.69
223.869	-24.69
224.104	-27.69
224.338	-24.69
224.573	3.31
224.808	-13.69
225.042	-6.69
225.277	3.31
225.511	0.31
225.746	6.31
225.98	-1.69
226.215	1.31
226.449	18.31
226.683	12.31
226.918	21.31
227.152	43.31
227.387	38.31
227.621	18.31
227.856	41.31
228.09	35.31
228.324	55.31
228.559	50.31
228.793	71.31
229.027	81.31
229.262	76.31
229.496	60.31
229.73	80.31
229.964	85.31
230.199	81.31
230.433	74.31
230.667	76.31
230.901	72.31
231.136	75.31
231.37	77.31
231.604	75.31
231.838	69.31
232.072	94.31
232.306	80.31
232.541	81.31
232.775	80.31
233.009	81.31
233.243	99.31
233.477	90.31
233.711	82.31
233.945	67.31
234.179	79.31
234.413	81.31
234.647	73.31
234.881	72.31
235.115	65.31
235.349	70.31
235.583	87.31
235.817	75.31
236.051	74.31
236.285	83.31
236.519	75.31
236.753	80.31
236.987	83.31
237.221	93.31
237.455	83.31
237.689	80.31
237.922	84.31
238.156	58.31
238.39	67.31
238.624	70.31
238.858	79.31
239.091	59.31
239.325	65.31
239.559	66.31
239.793	80.31
240.027	80.31
240.26	75.31
240.494	73.31
240.728	73.31
240.961	75.31
241.195	86.31
241.429	70.31
241.662	85.31
241.896	65.31
242.13	67.31
242.363	67.31
242.597	76.31
242.83	66.31
243.064	81.31
243.298	75.31
243.531	68.31
243.765	79.31
243.998	80.31
244.232	88.31
244.465	85.31
244.699	90.31
244.932	62.31
245.166	79.31
245.399	82.31
245.633	79.31
245.866	84.31
246.099	86.31
246.333	76.31
246.566	71.31
246.8	83.31
247.033	72.31
247.266	80.31
247.5	76.31
247.733	73.31
247.966	79.31
248.2	74.31
248.433	78.31
248.666	65.31
248.899	77.31
249.133	97.31
249.366	103.31
249.599	91.31
249.832	84.31
250.066	80.31
250.299	76.31
250.532	80.31
250.765	70.31
250.998	86.31
251.231	86.31
251.465	69.31
251.698	81.31
251.931	73.31
252.164	82.31
252.397	74.31
252.63	77.31
252.863	79.31
253.096	84.31
253.329	88.31
253.562	91.31
253.795	69.31
254.028	75.31
254.261	88.31
254.494	73.31
254.727	75.31
254.96	73.31
255.193	83.31
255.426	81.31
255.659	75.31
255.892	89.31
256.124	74.31
256.357	90.31
256.59	90.31
256.823	87.31
257.056	75.31
257.289	87.31
257.521	77.31
257.754	75.31
257.987	68.31
258.22	87.31
258.452	80.31
258.685	84.31
258.918	75.31
259.151	74.31
259.383	82.31
259.616	80.31
259.849	92.31
260.081	88.31
260.314	83.31
260.547	64.31
260.779	78.31
261.012	92.31
261.244	71.31
261.477	97.31
261.71	111.31
261.942	104.31
262.175	130.31
262.407	84.31
262.64	84.31
262.872	80.31
263.105	77.31
263.337	87.31
263.57	89.31
263.802	82.31
264.035	75.31
264.267	87.31
264.499	80.31
264.732	75.31
264.964	70.31
265.197	88.31
265.429	74.31
265.661	68.31
265.894	87.31
266.126	91.31
266.358	85.31
266.591	75.31
266.823	79.31
267.055	93.31
267.287	97.31
267.52	92.31
267.752	77.31
267.984	82.31
268.216	80.31
268.448	81.31
268.681	79.31
268.913	77.31
269.145	85.31
269.377	92.31
269.609	91.31
269.841	73.31
270.073	72.31
270.306	77.31
270.538	76.31
270.77	96.31
271.002	79.31
271.234	79.31
271.466	81.31
271.698	79.31
271.93	75.31
272.162	97.31
272.394	85.31
272.626	95.31
272.858	93.31
273.09	92.31
273.322	88.31
273.553	95.31
273.785	81.31
274.017	79.31
274.249	88.31
274.481	95.31
274.713	94.31
274.945	85.31
275.176	91.31
275.408	96.31
275.64	79.31
275.872	97.31
276.104	87.31
276.335	96.31
276.567	99.31
276.799	112.31
277.031	98.31
277.262	93.31
277.494	84.31
277.726	90.31
277.957	88.31
278.189	73.31
278.421	84.31
278.652	82.31
278.884	97.31
279.115	89.31
279.347	102.31
279.579	79.31
279.81	79.31
280.042	75.31
280.273	99.31
280.505	87.31
280.736	99.31
280.968	91.31
281.199	83.31
281.431	83.31
281.662	91.31
281.894	88.31
282.125	108.31
282.356	129.31
282.588	140.31
282.819	118.31
283.051	86.31
283.282	87.31
283.513	86.31
283.745	82.31
283.976	79.31
284.207	91.31
284.439	96.31
284.67	86.31
284.901	84.31
285.132	82.31
285.364	80.31
285.595	91.31
285.826	85.31
286.057	84.31
286.288	95.31
286.52	86.31
286.751	86.31
286.982	97.31
287.213	90.31
287.444	97.31
287.675	83.31
287.906	96.31
288.138	78.31
288.369	93.31
288.6	94.31
288.831	88.31
289.062	94.31
289.293	89.31
289.524	83.31
289.755	89.31
289.986	94.31
290.217	80.31
290.448	84.31
290.679	81.31
290.91	94.31
291.141	88.31
291.371	90.31
291.602	96.31
291.833	88.31
292.064	87.31
292.295	92.31
292.526	83.31
292.757	84.31
292.987	95.31
293.218	91.31
293.449	91.31
293.68	82.31
293.91	96.31
294.141	84.31
294.372	87.31
294.603	92.31
294.833	85.31
295.064	99.31
295.295	94.31
295.525	87.31
295.756	93.31
295.987	118.31
296.217	147.31
296.448	134.31
296.679	103.31
296.909	94.31
297.14	89.31
297.37	92.31
297.601	99.31
297.831	90.31
298.062	92.31
298.292	100.31
298.523	103.31
298.753	102.31
298.984	93.31
299.214	96.31
299.445	92.31
299.675	89.31
299.905	97.31
300.136	85.31
300.366	90.31
300.597	84.31
300.827	96.31
301.057	99.31
301.288	116.31
301.518	84.31
301.748	92.31
301.979	95.31
302.209	84.31
302.439	84.31
302.669	99.31
302.9	102.31
303.13	76.31
303.36	92.31
303.59	112.31
303.82	102.31
304.051	85.31
304.281	83.31
304.511	99.31
304.741	89.31
304.971	81.31
305.201	87.31
305.431	76.31
305.661	100.31
305.891	98.31
306.121	107.31
306.352	101.31
306.582	100.31
306.812	91.31
307.042	97.31
307.272	97.31
307.502	88.31
307.731	100.31
307.961	93.31
308.191	97.31
308.421	93.31
308.651	106.31
308.881	79.31
309.111	98.31
309.341	103.31
309.571	99.31
309.8	89.31
310.03	102.31
310.26	103.31
310.49	110.31
310.72	107.31
310.949	99.31
311.179	96.31
311.409	99.31
311.639	83.31
311.868	105.31
312.098	103.31
312.328	95.31
312.557	90.31
312.787	112.31
313.017	107.31
313.246	95.31
313.476	89.31
313.706	88.31
313.935	104.31
314.165	107.31
314.394	103.31
314.624	96.31
314.853	109.31
315.083	89.31
315.312	90.31
315.542	89.31
315.771	98.31
316.001	103.31
316.23	92.31
316.46	90.31
316.689	84.31
316.919	100.31
317.148	84.31
317.377	88.31
317.607	106.31
317.836	94.31
318.065	89.31
318.295	97.31
318.524	96.31
318.753	82.31
318.983	104.31
319.212	109.31
319.441	99.31
319.67	105.31
319.9	95.31
320.129	84.31
320.358	92.31
320.587	85.31
320.816	106.31
321.046	114.31
321.275	117.31
321.504	103.31
321.733	94.31
321.962	93.31
322.191	112.31
322.42	98.31
322.649	115.31
322.878	112.31
323.108	126.31
323.337	127.31
323.566	140.31
323.795	166.31
324.024	212.31
324.253	415.31
324.482	855.31
324.71	1768.31
324.939	2332.31
325.168	884.31
325.397	255.31
325.626	160.31
325.855	136.31
326.084	118.31
326.313	142.31
326.542	166.31
326.77	228.31
326.999	481.31
327.228	961.31
327.457	1694.31
327.686	1361.31
327.914	370.31
328.143	201.31
328.372	164.31
328.6	143.31
328.829	136.31
329.058	134.31
329.287	135.31
329.515	106.31
329.744	102.31
329.972	95.31
330.201	107.31
330.43	129.31
330.658	133.31
330.887	158.31
331.115	115.31
331.344	88.31
331.572	112.31
331.801	112.31
332.03	105.31
332.258	93.31
332.486	95.31
332.715	94.31
332.943	101.31
333.172	87.31
333.4	97.31
333.629	100.31
333.857	128.31
334.085	124.31
334.314	114.31
334.542	139.31
334.771	133.31
334.999	89.31
335.227	90.31
335.455	95.31
335.684	103.31
335.912	97.31
336.14	91.31
336.369	74.31
336.597	110.31
336.825	98.31
337.053	95.31
337.281	91.31
337.51	95.31
337.738	97.31
337.966	99.31
338.194	95.31
338.422	102.31
338.65	99.31
338.878	93.31
339.106	90.31
339.334	99.31
339.562	89.31
339.79	107.31
340.018	90.31
340.246	99.31
340.474	113.31
340.702	105.31
340.93	93.31
341.158	97.31
341.386	104.31
341.614	104.31
341.842	94.31
342.07	79.31
342.298	98.31
342.526	81.31
342.754	83.31
342.981	94.31
343.209	84.31
343.437	94.31
343.665	83.31
343.893	86.31
344.12	102.31
344.348	91.31
344.576	95.31
344.804	81.31
345.031	102.31
345.259	99.31
345.487	103.31
345.714	96.31
345.942	96.31
346.17	90.31
346.397	97.31
346.625	102.31
346.853	98.31
347.08	78.31
347.308	101.31
347.535	102.31
347.763	100.31
347.99	93.31
348.218	105.31
348.445	108.31
348.673	104.31
348.9	93.31
349.128	99.31
349.355	81.31
349.583	94.31
349.81	102.31
350.037	101.31
350.265	91.31
350.492	66.31
350.72	95.31
350.947	93.31
351.174	98.31
351.402	120.31
351.629	107.31
351.856	100.31
352.083	109.31
352.311	91.31
352.538	105.31
352.765	124.31
352.992	106.31
353.22	111.31
353.447	114.31
353.674	94.31
353.901	90.31
354.128	101.31
354.355	87.31
354.583	99.31
354.81	97.31
355.037	88.31
355.264	87.31
355.491	95.31
355.718	91.31
355.945	109.31
356.172	98.31
356.399	103.31
356.626	89.31
356.853	96.31
357.08	97.31
357.307	98.31
357.534	87.31
357.761	97.31
357.988	86.31
358.215	96.31
358.441	90.31
358.668	89.31
358.895	93.31
359.122	90.31
359.349	77.31
359.576	86.31
359.802	115.31
360.029	128.31
360.256	126.31
360.483	112.31
360.709	97.31
360.936	87.31
361.163	97.31
361.39	99.31
361.616	101.31
361.843	87.31
362.07	97.31
362.296	99.31
362.523	82.31
362.749	85.31
362.976	90.31
363.203	97.31
363.429	82.31
363.656	96.31
363.882	101.31
364.109	85.31
364.335	73.31
364.562	90.31
364.788	89.31
365.015	87.31
365.241	96.31
365.468	106.31
365.694	108.31
365.92	100.31
366.147	89.31
366.373	84.31
366.599	84.31
366.826	82.31
367.052	89.31
367.278	81.31
367.505	76.31
367.731	91.31
367.957	77.31
368.184	99.31
368.41	105.31
368.636	101.31
368.862	145.31
369.089	114.31
369.315	101.31
369.541	98.31
369.767	92.31
369.993	83.31
370.219	94.31
370.445	75.31
370.672	88.31
370.898	88.31
371.124	94.31
371.35	107.31
371.576	86.31
371.802	89.31
372.028	77.31
372.254	88.31
372.48	103.31
372.706	101.31
372.932	95.31
373.158	84.31
373.384	96.31
373.61	98.31
373.835	86.31
374.061	83.31
374.287	89.31
374.513	83.31
374.739	81.31
374.965	101.31
375.191	103.31
375.416	86.31
375.642	76.31
375.868	84.31
376.094	89.31
376.319	88.31
376.545	82.31
376.771	98.31
376.997	87.31
377.222	85.31
377.448	99.31
377.674	102.31
377.899	91.31
378.125	98.31
378.35	91.31
378.576	86.31
378.802	84.31
379.027	101.31
379.253	95.31
379.478	84.31
379.704	76.31
379.929	74.31
380.155	92.31
380.38	88.31
380.606	112.31
380.831	105.31
381.057	100.31
381.282	88.31
381.507	90.31
381.733	98.31
381.958	95.31
382.184	99.31
382.409	104.31
382.634	79.31
382.86	89.31
383.085	96.31
383.31	103.31
383.535	100.31
383.761	105.31
383.986	91.31
384.211	100.31
384.436	95.31
384.662	110.31
384.887	96.31
385.112	103.31
385.337	98.31
385.562	100.31
385.787	116.31
386.013	119.31
386.238	122.31
386.463	122.31
386.688	111.31
386.913	91.31
387.138	90.31
387.363	98.31
387.588	104.31
387.813	94.31
388.038	107.31
388.263	110.31
388.488	140.31
388.713	100.31
388.938	87.31
389.163	86.31
389.387	89.31
389.612	86.31
389.837	90.31
390.062	85.31
390.287	85.31
390.512	90.31
390.736	86.31
390.961	78.31
391.186	96.31
391.411	100.31
391.636	82.31
391.86	83.31
392.085	83.31
392.31	90.31
392.534	80.31
392.759	89.31
392.984	88.31
393.208	99.31
393.433	91.31
393.658	82.31
393.882	92.31
394.107	81.31
394.331	101.31
394.556	87.31
394.78	90.31
395.005	90.31
395.229	87.31
395.454	80.31
395.678	77.31
395.903	70.31
396.127	78.31
396.352	83.31
396.576	79.31
396.801	81.31
397.025	74.31
397.249	96.31
397.474	98.31
397.698	83.31
397.922	96.31
398.147	83.31
398.371	91.31
398.595	90.31
398.82	91.31
399.044	83.31
399.268	83.31
399.492	70.31
399.717	76.31
399.941	91.31
400.165	97.31
400.389	82.31
400.613	79.31
400.837	87.31
401.062	101.31
401.286	87.31
401.51	106.31
401.734	93.31
401.958	92.31
402.182	134.31
402.406	193.31
402.63	126.31
402.854	87.31
403.078	82.31
403.302	74.31
403.526	79.31
403.75	83.31
403.974	80.31
404.198	87.31
404.422	72.31
404.645	95.31
404.869	93.31
405.093	86.31
405.317	97.31
405.541	111.31
405.765	97.31
405.988	126.31
406.212	196.31
406.436	272.31
406.66	146.31
406.883	101.31
407.107	82.31
407.331	102.31
407.555	99.31
407.778	122.31
408.002	90.31
408.226	91.31
408.449	89.31
408.673	90.31
408.896	98.31
409.12	97.31
409.344	94.31
409.567	96.31
409.791	82.31
410.014	94.31
410.238	83.31
410.461	88.31
410.685	95.31
410.908	85.31
411.132	110.31
411.355	84.31
411.578	96.31
411.802	83.31
412.025	95.31
412.249	112.31
412.472	101.31
412.695	98.31
412.919	88.31
413.142	78.31
413.365	83.31
413.589	95.31
413.812	98.31
414.035	80.31
414.258	77.31
414.482	91.31
414.705	97.31
414.928	95.31
415.151	96.31
415.374	95.31
415.597	85.31
415.821	76.31
416.044	101.31
416.267	71.31
416.49	90.31
416.713	97.31
416.936	98.31
417.159	98.31
417.382	91.31
417.605	97.31
417.828	86.31
418.051	95.31
418.274	90.31
418.497	67.31
418.72	80.31
418.943	80.31
419.166	87.31
419.389	81.31
419.611	92.31
419.834	81.31
420.057	94.31
420.28	83.31
420.503	75.31
420.726	87.31
420.948	90.31
421.171	97.31
421.394	93.31
421.617	95.31
421.839	84.31
422.062	78.31
422.285	95.31
422.507	89.31
422.73	105.31
422.953	95.31
423.175	90.31
423.398	88.31
423.621	79.31
423.843	76.31
424.066	85.31
424.288	94.31
424.511	94.31
424.733	94.31
424.956	103.31
425.178	83.31
425.401	94.31
425.623	102.31
425.846	92.31
426.068	91.31
426.291	92.31
426.513	103.31
426.735	87.31
426.958	102.31
427.18	100.31
427.402	149.31
427.625	184.31
427.847	132.31
428.069	120.31
428.292	82.31
428.514	89.31
428.736	83.31
428.958	60.31
429.181	92.31
429.403	69.31
429.625	95.31
429.847	107.31
430.069	110.31
430.292	106.31
430.514	82.31
430.736	94.31
430.958	81.31
431.18	83.31
431.402	81.31
431.624	86.31
431.846	88.31
432.068	85.31
432.29	83.31
432.512	107.31
432.734	95.31
432.956	89.31
433.178	108.31
433.4	93.31
433.622	97.31
433.844	89.31
434.066	87.31
434.287	96.31
434.509	92.31
434.731	83.31
434.953	77.31
435.175	88.31
435.397	84.31
435.618	90.31
435.84	100.31
436.062	120.31
436.284	114.31
436.505	113.31
436.727	96.31
436.949	102.31
437.17	93.31
437.392	80.31
437.614	87.31
437.835	111.31
438.057	123.31
438.278	138.31
438.5	109.31
438.721	127.31
438.943	106.31
439.165	95.31
439.386	92.31
439.608	82.31
439.829	104.31
440.05	131.31
440.272	148.31
440.493	101.31
440.715	80.31
440.936	68.31
441.158	101.31
441.379	89.31
441.6	83.31
441.822	104.31
442.043	100.31
442.264	101.31
442.486	87.31
442.707	95.31
442.928	90.31
443.149	128.31
443.371	142.31
443.592	110.31
443.813	120.31
444.034	108.31
444.255	81.31
444.476	92.31
444.698	94.31
444.919	94.31
445.14	114.31
445.361	128.31
445.582	111.31
445.803	158.31
446.024	153.31
446.245	133.31
446.466	90.31
446.687	76.31
446.908	85.31
447.129	95.31
447.35	88.31
447.571	82.31
447.792	88.31
448.013	113.31
448.234	112.31
448.455	71.31
448.675	119.31
448.896	122.31
449.117	114.31
449.338	100.31
449.559	132.31
449.779	116.31
450	102.31
450.221	99.31
450.442	89.31
450.662	91.31
450.883	126.31
451.104	122.31
451.324	95.31
451.545	85.31
451.766	74.31
451.986	89.31
452.207	96.31
452.428	95.31
452.648	103.31
452.869	111.31
453.089	114.31
453.31	124.31
453.53	96.31
453.751	101.31
453.971	105.31
454.192	115.31
454.412	97.31
454.633	90.31
454.853	86.31
455.073	79.31
455.294	84.31
455.514	92.31
455.734	78.31
455.955	71.31
456.175	73.31
456.395	83.31
456.616	84.31
456.836	76.31
457.056	97.31
457.276	77.31
457.497	90.31
457.717	76.31
457.937	69.31
458.157	87.31
458.377	89.31
458.598	114.31
458.818	171.31
459.038	190.31
459.258	132.31
459.478	80.31
459.698	81.31
459.918	94.31
460.138	74.31
460.358	82.31
460.578	81.31
460.798	81.31
461.018	87.31
461.238	83.31
461.458	84.31
461.678	81.31
461.898	88.31
462.118	100.31
462.338	83.31
462.558	97.31
462.777	90.31
462.997	83.31
463.217	73.31
463.437	86.31
463.657	95.31
463.876	86.31
464.096	86.31
464.316	108.31
464.536	104.31
464.755	100.31
464.975	111.31
465.195	186.31
465.414	185.31
465.634	111.31
465.854	83.31
466.073	89.31
466.293	91.31
466.512	82.31
466.732	88.31
466.951	81.31
467.171	92.31
467.391	85.31
467.61	90.31
467.829	97.31
468.049	92.31
468.268	106.31
468.488	93.31
468.707	78.31
468.927	79.31
469.146	82.31
469.365	73.31
469.585	76.31
469.804	107.31
470.023	97.31
470.243	89.31
470.462	113.31
470.681	107.31
470.901	83.31
471.12	102.31
471.339	93.31
471.558	95.31
471.777	83.31
471.997	102.31
472.216	105.31
472.435	125.31
472.654	91.31
472.873	79.31
473.092	94.31
473.311	97.31
473.53	90.31
473.749	80.31
473.968	95.31
474.187	102.31
474.406	105.31
474.625	99.31
474.844	87.31
475.063	81.31
475.282	92.31
475.501	80.31
475.72	88.31
475.939	86.31
476.158	86.31
476.377	96.31
476.596	99.31
476.814	100.31
477.033	85.31
477.252	89.31
477.471	87.31
477.69	88.31
477.908	95.31
478.127	80.31
478.346	87.31
478.564	84.31
478.783	99.31
479.002	98.31
479.22	88.31
479.439	107.31
479.658	97.31
479.876	89.31
480.095	85.31
480.313	88.31
480.532	82.31
480.751	92.31
480.969	103.31
481.188	187.31
481.406	144.31
481.624	86.31
481.843	85.31
482.061	85.31
482.28	87.31
482.498	93.31
482.717	82.31
482.935	92.31
483.153	98.31
483.372	101.31
483.59	81.31
483.808	95.31
484.027	92.31
484.245	88.31
484.463	87.31
484.681	91.31
484.9	87.31
485.118	85.31
485.336	104.31
485.554	94.31
485.772	112.31
485.99	111.31
486.209	101.31
486.427	105.31
486.645	112.31
486.863	100.31
487.081	92.31
487.299	103.31
487.517	91.31
487.735	85.31
487.953	88.31
488.171	95.31
488.389	119.31
488.607	105.31
488.825	92.31
489.043	88.31
489.261	95.31
489.479	92.31
489.696	87.31
489.914	93.31
490.132	103.31
490.35	89.31
490.568	75.31
490.786	93.31
491.003	86.31
491.221	89.31
491.439	94.31
491.657	78.31
491.874	87.31
492.092	79.31
492.31	84.31
492.527	90.31
492.745	82.31
492.963	89.31
493.18	95.31
493.398	94.31
493.615	95.31
493.833	100.31
494.05	102.31
494.268	94.31
494.485	97.31
494.703	81.31
494.92	89.31
495.138	84.31
495.355	81.31
495.573	91.31
495.79	91.31
496.008	85.31
496.225	88.31
496.442	96.31
496.66	88.31
496.877	70.31
497.094	86.31
497.312	83.31
497.529	94.31
497.746	87.31
497.963	99.31
498.181	77.31
498.398	87.31
498.615	113.31
498.832	110.31
499.049	87.31
499.267	92.31
499.484	95.31
499.701	83.31
499.918	79.31
500.135	88.31
500.352	104.31
500.569	85.31
500.786	102.31
501.003	83.31
501.22	95.31
501.437	104.31
501.654	95.31
501.871	124.31
502.088	113.31
502.305	93.31
502.522	89.31
502.739	109.31
502.956	92.31
503.172	103.31
503.389	102.31
503.606	111.31
503.823	80.31
504.04	88.31
504.256	105.31
504.473	81.31
504.69	91.31
504.907	84.31
505.123	94.31
505.34	83.31
505.557	93.31
505.773	90.31
505.99	102.31
506.207	87.31
506.423	87.31
506.64	88.31
506.856	92.31
507.073	104.31
507.289	97.31
507.506	99.31
507.722	125.31
507.939	126.31
508.155	85.31
508.372	100.31
508.588	95.31
508.805	106.31
509.021	91.31
509.238	95.31
509.454	91.31
509.67	102.31
509.887	120.31
510.103	155.31
510.319	238.31
510.536	934.31
510.752	3068.31
510.968	885.31
511.184	188.31
511.401	126.31
511.617	104.31
511.833	85.31
512.049	83.31
512.265	94.31
512.481	89.31
512.698	96.31
512.914	95.31
513.13	88.31
513.346	89.31
513.562	90.31
513.778	100.31
513.994	102.31
514.21	119.31
514.426	116.31
514.642	150.31
514.858	147.31
515.074	191.31
515.29	569.31
515.506	1970.31
