Data from Circ_2018_H10_HRD10591_00003.txt Node
Date: Wed Jan 03 09:56:02 EST 2024
User: Yrep
Spectrometer: HR+D1059
Trigger mode: 1
Integration Time (sec): 1.000000E-1
Scans to average: 1
Electric dark correction enabled: true
Nonlinearity correction enabled: false
Boxcar width: 0
XAxis mode: Wavelengths
Number of Pixels in Spectrum: 2048
>>>>>Begin Spectral Data<<<<<
223.165	-12.19
223.4	-12.19
223.635	-12.19
223.869	-25.19
224.104	-27.19
224.338	-13.19
224.573	-11.19
224.808	-7.19
225.042	-6.19
225.277	-8.19
225.511	-0.19
225.746	-4.19
225.98	-6.19
226.215	25.81
226.449	24.81
226.683	24.81
226.918	22.81
227.152	22.81
227.387	43.81
227.621	31.81
227.856	59.81
228.09	68.81
228.324	55.81
228.559	48.81
228.793	49.81
229.027	79.81
229.262	84.81
229.496	76.81
229.73	92.81
229.964	106.81
230.199	82.81
230.433	87.81
230.667	76.81
230.901	69.81
231.136	62.81
231.37	77.81
231.604	83.81
231.838	89.81
232.072	81.81
232.306	88.81
232.541	75.81
232.775	87.81
233.009	89.81
233.243	90.81
233.477	87.81
233.711	85.81
233.945	73.81
234.179	82.81
234.413	87.81
234.647	83.81
234.881	94.81
235.115	82.81
235.349	58.81
235.583	74.81
235.817	81.81
236.051	71.81
236.285	77.81
236.519	71.81
236.753	74.81
236.987	81.81
237.221	76.81
237.455	82.81
237.689	80.81
237.922	81.81
238.156	79.81
238.39	71.81
238.624	88.81
238.858	95.81
239.091	64.81
239.325	74.81
239.559	96.81
239.793	81.81
240.027	88.81
240.26	81.81
240.494	72.81
240.728	79.81
240.961	87.81
241.195	73.81
241.429	86.81
241.662	68.81
241.896	75.81
242.13	82.81
242.363	79.81
242.597	68.81
242.83	69.81
243.064	73.81
243.298	76.81
243.531	78.81
243.765	77.81
243.998	84.81
244.232	80.81
244.465	83.81
244.699	91.81
244.932	85.81
245.166	80.81
245.399	83.81
245.633	71.81
245.866	81.81
246.099	66.81
246.333	68.81
246.566	79.81
246.8	76.81
247.033	63.81
247.266	85.81
247.5	81.81
247.733	74.81
247.966	76.81
248.2	83.81
248.433	74.81
248.666	95.81
248.899	89.81
249.133	91.81
249.366	109.81
249.599	103.81
249.832	79.81
250.066	75.81
250.299	56.81
250.532	79.81
250.765	83.81
250.998	78.81
251.231	80.81
251.465	83.81
251.698	68.81
251.931	100.81
252.164	79.81
252.397	73.81
252.63	77.81
252.863	76.81
253.096	91.81
253.329	78.81
253.562	70.81
253.795	88.81
254.028	80.81
254.261	81.81
254.494	92.81
254.727	96.81
254.96	81.81
255.193	88.81
255.426	94.81
255.659	84.81
255.892	90.81
256.124	79.81
256.357	87.81
256.59	76.81
256.823	71.81
257.056	76.81
257.289	84.81
257.521	99.81
257.754	80.81
257.987	82.81
258.22	101.81
258.452	88.81
258.685	70.81
258.918	80.81
259.151	73.81
259.383	74.81
259.616	89.81
259.849	90.81
260.081	79.81
260.314	95.81
260.547	82.81
260.779	87.81
261.012	79.81
261.244	87.81
261.477	91.81
261.71	111.81
261.942	123.81
262.175	134.81
262.407	117.81
262.64	73.81
262.872	75.81
263.105	87.81
263.337	94.81
263.57	86.81
263.802	89.81
264.035	91.81
264.267	80.81
264.499	82.81
264.732	76.81
264.964	81.81
265.197	87.81
265.429	79.81
265.661	88.81
265.894	83.81
266.126	77.81
266.358	80.81
266.591	83.81
266.823	82.81
267.055	95.81
267.287	87.81
267.52	70.81
267.752	83.81
267.984	83.81
268.216	84.81
268.448	81.81
268.681	78.81
268.913	84.81
269.145	94.81
269.377	88.81
269.609	86.81
269.841	80.81
270.073	74.81
270.306	76.81
270.538	77.81
270.77	86.81
271.002	86.81
271.234	90.81
271.466	89.81
271.698	88.81
271.93	91.81
272.162	88.81
272.394	80.81
272.626	83.81
272.858	90.81
273.09	87.81
273.322	85.81
273.553	84.81
273.785	70.81
274.017	77.81
274.249	90.81
274.481	92.81
274.713	90.81
274.945	92.81
275.176	88.81
275.408	87.81
275.64	73.81
275.872	65.81
276.104	88.81
276.335	101.81
276.567	110.81
276.799	124.81
277.031	103.81
277.262	98.81
277.494	90.81
277.726	87.81
277.957	94.81
278.189	91.81
278.421	83.81
278.652	73.81
278.884	84.81
279.115	81.81
279.347	90.81
279.579	91.81
279.81	84.81
280.042	93.81
280.273	85.81
280.505	101.81
280.736	81.81
280.968	86.81
281.199	91.81
281.431	84.81
281.662	91.81
281.894	95.81
282.125	112.81
282.356	126.81
282.588	178.81
282.819	129.81
283.051	102.81
283.282	91.81
283.513	79.81
283.745	79.81
283.976	86.81
284.207	74.81
284.439	91.81
284.67	84.81
284.901	96.81
285.132	88.81
285.364	89.81
285.595	86.81
285.826	87.81
286.057	86.81
286.288	83.81
286.52	77.81
286.751	68.81
286.982	84.81
287.213	85.81
287.444	97.81
287.675	88.81
287.906	92.81
288.138	103.81
288.369	98.81
288.6	100.81
288.831	87.81
289.062	76.81
289.293	75.81
289.524	85.81
289.755	88.81
289.986	76.81
290.217	74.81
290.448	76.81
290.679	88.81
290.91	79.81
291.141	77.81
291.371	69.81
291.602	69.81
291.833	91.81
292.064	84.81
292.295	103.81
292.526	83.81
292.757	91.81
292.987	85.81
293.218	90.81
293.449	85.81
293.68	81.81
293.91	84.81
294.141	83.81
294.372	97.81
294.603	85.81
294.833	88.81
295.064	82.81
295.295	94.81
295.525	96.81
295.756	119.81
295.987	136.81
296.217	185.81
296.448	135.81
296.679	95.81
296.909	75.81
297.14	84.81
297.37	101.81
297.601	85.81
297.831	92.81
298.062	98.81
298.292	85.81
298.523	89.81
298.753	93.81
298.984	81.81
299.214	97.81
299.445	97.81
299.675	94.81
299.905	99.81
300.136	97.81
300.366	83.81
300.597	91.81
300.827	97.81
301.057	104.81
301.288	106.81
301.518	96.81
301.748	86.81
301.979	87.81
302.209	84.81
302.439	105.81
302.669	93.81
302.9	87.81
303.13	95.81
303.36	98.81
303.59	113.81
303.82	107.81
304.051	84.81
304.281	81.81
304.511	88.81
304.741	87.81
304.971	96.81
305.201	84.81
305.431	81.81
305.661	97.81
305.891	89.81
306.121	94.81
306.352	128.81
306.582	127.81
306.812	101.81
307.042	91.81
307.272	114.81
307.502	100.81
307.731	87.81
307.961	84.81
308.191	108.81
308.421	87.81
308.651	116.81
308.881	94.81
309.111	96.81
309.341	92.81
309.571	100.81
309.8	102.81
310.03	101.81
310.26	102.81
310.49	92.81
310.72	112.81
310.949	112.81
311.179	105.81
311.409	106.81
311.639	89.81
311.868	89.81
312.098	101.81
312.328	110.81
312.557	89.81
312.787	127.81
313.017	105.81
313.246	98.81
313.476	97.81
313.706	92.81
313.935	99.81
314.165	102.81
314.394	111.81
314.624	104.81
314.853	93.81
315.083	87.81
315.312	89.81
315.542	94.81
315.771	91.81
316.001	95.81
316.23	96.81
316.46	84.81
316.689	86.81
316.919	87.81
317.148	100.81
317.377	103.81
317.607	88.81
317.836	95.81
318.065	105.81
318.295	87.81
318.524	96.81
318.753	98.81
318.983	97.81
319.212	115.81
319.441	118.81
319.67	111.81
319.9	90.81
320.129	90.81
320.358	98.81
320.587	90.81
320.816	118.81
321.046	98.81
321.275	105.81
321.504	91.81
321.733	105.81
321.962	102.81
322.191	101.81
322.42	111.81
322.649	119.81
322.878	127.81
323.108	121.81
323.337	126.81
323.566	144.81
323.795	170.81
324.024	252.81
324.253	510.81
324.482	1120.81
324.71	2222.81
324.939	2935.81
325.168	1083.81
325.397	307.81
325.626	171.81
325.855	136.81
326.084	144.81
326.313	146.81
326.542	190.81
326.77	275.81
326.999	558.81
327.228	1156.81
327.457	2166.81
327.686	1653.81
327.914	473.81
328.143	233.81
328.372	176.81
328.6	146.81
328.829	130.81
329.058	167.81
329.287	170.81
329.515	104.81
329.744	129.81
329.972	105.81
330.201	122.81
330.43	120.81
330.658	155.81
330.887	190.81
331.115	155.81
331.344	114.81
331.572	114.81
331.801	125.81
332.03	102.81
332.258	104.81
332.486	88.81
332.715	96.81
332.943	94.81
333.172	99.81
333.4	95.81
333.629	104.81
333.857	135.81
334.085	114.81
334.314	102.81
334.542	122.81
334.771	118.81
334.999	101.81
335.227	105.81
335.455	91.81
335.684	97.81
335.912	105.81
336.14	111.81
336.369	95.81
336.597	100.81
336.825	98.81
337.053	78.81
337.281	91.81
337.51	89.81
337.738	103.81
337.966	100.81
338.194	102.81
338.422	90.81
338.65	87.81
338.878	107.81
339.106	94.81
339.334	82.81
339.562	98.81
339.79	92.81
340.018	103.81
340.246	111.81
340.474	95.81
340.702	94.81
340.93	95.81
341.158	92.81
341.386	100.81
341.614	108.81
341.842	97.81
342.07	89.81
342.298	99.81
342.526	80.81
342.754	83.81
342.981	82.81
343.209	103.81
343.437	97.81
343.665	95.81
343.893	95.81
344.12	84.81
344.348	93.81
344.576	95.81
344.804	99.81
345.031	99.81
345.259	99.81
345.487	116.81
345.714	101.81
345.942	103.81
346.17	87.81
346.397	101.81
346.625	95.81
346.853	84.81
347.08	81.81
347.308	103.81
347.535	106.81
347.763	113.81
347.99	96.81
348.218	116.81
348.445	110.81
348.673	110.81
348.9	108.81
349.128	84.81
349.355	99.81
349.583	103.81
349.81	102.81
350.037	102.81
350.265	85.81
350.492	76.81
350.72	100.81
350.947	114.81
351.174	100.81
351.402	117.81
351.629	98.81
351.856	116.81
352.083	99.81
352.311	117.81
352.538	108.81
352.765	107.81
352.992	116.81
353.22	120.81
353.447	111.81
353.674	102.81
353.901	88.81
354.128	100.81
354.355	90.81
354.583	96.81
354.81	111.81
355.037	100.81
355.264	91.81
355.491	95.81
355.718	91.81
355.945	97.81
356.172	100.81
356.399	111.81
356.626	98.81
356.853	94.81
357.08	91.81
357.307	100.81
357.534	112.81
357.761	87.81
357.988	95.81
358.215	86.81
358.441	95.81
358.668	108.81
358.895	72.81
359.122	84.81
359.349	85.81
359.576	118.81
359.802	112.81
360.029	125.81
360.256	138.81
360.483	112.81
360.709	84.81
360.936	100.81
361.163	101.81
361.39	110.81
361.616	105.81
361.843	92.81
362.07	93.81
362.296	98.81
362.523	89.81
362.749	98.81
362.976	101.81
363.203	89.81
363.429	109.81
363.656	90.81
363.882	111.81
364.109	91.81
364.335	105.81
364.562	89.81
364.788	98.81
365.015	112.81
365.241	110.81
365.468	134.81
365.694	120.81
365.92	89.81
366.147	96.81
366.373	99.81
366.599	82.81
366.826	97.81
367.052	93.81
367.278	92.81
367.505	94.81
367.731	97.81
367.957	94.81
368.184	102.81
368.41	108.81
368.636	124.81
368.862	131.81
369.089	115.81
369.315	91.81
369.541	100.81
369.767	92.81
369.993	94.81
370.219	93.81
370.445	83.81
370.672	82.81
370.898	85.81
371.124	83.81
371.35	93.81
371.576	73.81
371.802	89.81
372.028	78.81
372.254	94.81
372.48	94.81
372.706	98.81
372.932	82.81
373.158	79.81
373.384	90.81
373.61	97.81
373.835	81.81
374.061	86.81
374.287	95.81
374.513	84.81
374.739	97.81
374.965	107.81
375.191	95.81
375.416	91.81
375.642	86.81
375.868	88.81
376.094	91.81
376.319	93.81
376.545	103.81
376.771	93.81
376.997	77.81
377.222	90.81
377.448	103.81
377.674	80.81
377.899	94.81
378.125	93.81
378.35	89.81
378.576	91.81
378.802	76.81
379.027	88.81
379.253	89.81
379.478	100.81
379.704	90.81
379.929	90.81
380.155	84.81
380.38	99.81
380.606	99.81
380.831	93.81
381.057	98.81
381.282	99.81
381.507	115.81
381.733	100.81
381.958	95.81
382.184	103.81
382.409	104.81
382.634	91.81
382.86	98.81
383.085	98.81
383.31	99.81
383.535	87.81
383.761	94.81
383.986	89.81
384.211	101.81
384.436	100.81
384.662	88.81
384.887	116.81
385.112	98.81
385.337	97.81
385.562	109.81
385.787	124.81
386.013	116.81
386.238	132.81
386.463	104.81
386.688	103.81
386.913	104.81
387.138	115.81
387.363	102.81
387.588	107.81
387.813	91.81
388.038	104.81
388.263	110.81
388.488	116.81
388.713	85.81
388.938	84.81
389.163	101.81
389.387	108.81
389.612	98.81
389.837	89.81
390.062	94.81
390.287	88.81
390.512	89.81
390.736	82.81
390.961	95.81
391.186	103.81
391.411	97.81
391.636	94.81
391.86	77.81
392.085	89.81
392.31	90.81
392.534	88.81
392.759	88.81
392.984	77.81
393.208	88.81
393.433	85.81
393.658	92.81
393.882	93.81
394.107	86.81
394.331	87.81
394.556	94.81
394.78	92.81
395.005	72.81
395.229	75.81
395.454	89.81
395.678	97.81
395.903	87.81
396.127	78.81
396.352	78.81
396.576	82.81
396.801	86.81
397.025	83.81
397.249	86.81
397.474	95.81
397.698	94.81
397.922	83.81
398.147	83.81
398.371	89.81
398.595	90.81
398.82	94.81
399.044	78.81
399.268	80.81
399.492	98.81
399.717	84.81
399.941	102.81
400.165	96.81
400.389	94.81
400.613	82.81
400.837	94.81
401.062	84.81
401.286	107.81
401.51	97.81
401.734	95.81
401.958	111.81
402.182	148.81
402.406	211.81
402.63	148.81
402.854	107.81
403.078	90.81
403.302	93.81
403.526	102.81
403.75	97.81
403.974	92.81
404.198	86.81
404.422	90.81
404.645	95.81
404.869	95.81
405.093	96.81
405.317	103.81
405.541	108.81
405.765	105.81
405.988	148.81
406.212	210.81
406.436	320.81
406.66	194.81
406.883	117.81
407.107	96.81
407.331	82.81
407.555	98.81
407.778	94.81
408.002	80.81
408.226	89.81
408.449	95.81
408.673	98.81
408.896	88.81
409.12	102.81
409.344	97.81
409.567	88.81
409.791	89.81
410.014	97.81
410.238	83.81
410.461	91.81
410.685	105.81
410.908	99.81
411.132	107.81
411.355	94.81
411.578	84.81
411.802	100.81
412.025	110.81
412.249	96.81
412.472	99.81
412.695	101.81
412.919	87.81
413.142	90.81
413.365	82.81
413.589	85.81
413.812	98.81
414.035	105.81
414.258	81.81
414.482	87.81
414.705	95.81
414.928	101.81
415.151	92.81
415.374	86.81
415.597	77.81
415.821	81.81
416.044	92.81
416.267	88.81
416.49	89.81
416.713	82.81
416.936	88.81
417.159	94.81
417.382	97.81
417.605	89.81
417.828	99.81
418.051	103.81
418.274	80.81
418.497	93.81
418.72	98.81
418.943	94.81
419.166	82.81
419.389	95.81
419.611	84.81
419.834	87.81
420.057	85.81
420.28	89.81
420.503	84.81
420.726	97.81
420.948	96.81
421.171	97.81
421.394	95.81
421.617	91.81
421.839	94.81
422.062	94.81
422.285	103.81
422.507	100.81
422.73	98.81
422.953	94.81
423.175	95.81
423.398	96.81
423.621	71.81
423.843	83.81
424.066	91.81
424.288	76.81
424.511	83.81
424.733	106.81
424.956	127.81
425.178	106.81
425.401	116.81
425.623	99.81
425.846	97.81
426.068	110.81
426.291	96.81
426.513	97.81
426.735	89.81
426.958	82.81
427.18	107.81
427.402	165.81
427.625	223.81
427.847	147.81
428.069	104.81
428.292	96.81
428.514	92.81
428.736	98.81
428.958	87.81
429.181	75.81
429.403	73.81
429.625	93.81
429.847	81.81
430.069	104.81
430.292	98.81
430.514	91.81
430.736	88.81
430.958	103.81
431.18	91.81
431.402	83.81
431.624	94.81
431.846	88.81
432.068	90.81
432.29	81.81
432.512	100.81
432.734	85.81
432.956	94.81
433.178	100.81
433.4	103.81
433.622	91.81
433.844	91.81
434.066	97.81
434.287	91.81
434.509	90.81
434.731	105.81
434.953	95.81
435.175	86.81
435.397	88.81
435.618	100.81
435.84	106.81
436.062	130.81
436.284	131.81
436.505	128.81
436.727	88.81
436.949	91.81
437.17	93.81
437.392	91.81
437.614	92.81
437.835	122.81
438.057	146.81
438.278	119.81
438.5	103.81
438.721	118.81
438.943	123.81
439.165	87.81
439.386	84.81
439.608	100.81
439.829	120.81
440.05	141.81
440.272	174.81
440.493	107.81
440.715	100.81
440.936	88.81
441.158	81.81
441.379	82.81
441.6	96.81
441.822	103.81
442.043	98.81
442.264	105.81
442.486	113.81
442.707	97.81
442.928	110.81
443.149	153.81
443.371	154.81
443.592	116.81
443.813	131.81
444.034	119.81
444.255	115.81
444.476	82.81
444.698	103.81
444.919	100.81
445.14	144.81
445.361	129.81
445.582	131.81
445.803	152.81
446.024	138.81
446.245	158.81
446.466	119.81
446.687	95.81
446.908	82.81
447.129	89.81
447.35	102.81
447.571	97.81
447.792	107.81
448.013	97.81
448.234	122.81
448.455	105.81
448.675	105.81
448.896	126.81
449.117	91.81
449.338	108.81
449.559	141.81
449.779	146.81
450	107.81
450.221	89.81
450.442	94.81
450.662	97.81
450.883	131.81
451.104	120.81
451.324	103.81
451.545	112.81
451.766	91.81
451.986	92.81
452.207	97.81
452.428	99.81
452.648	99.81
452.869	121.81
453.089	135.81
453.31	142.81
453.53	102.81
453.751	100.81
453.971	111.81
454.192	143.81
454.412	99.81
454.633	97.81
454.853	102.81
455.073	102.81
455.294	89.81
455.514	99.81
455.734	82.81
455.955	84.81
456.175	72.81
456.395	84.81
456.616	90.81
456.836	87.81
457.056	97.81
457.276	82.81
457.497	80.81
457.717	95.81
457.937	85.81
458.157	107.81
458.377	94.81
458.598	127.81
458.818	202.81
459.038	222.81
459.258	149.81
459.478	94.81
459.698	84.81
459.918	92.81
460.138	91.81
460.358	82.81
460.578	96.81
460.798	95.81
461.018	106.81
461.238	86.81
461.458	87.81
461.678	94.81
461.898	90.81
462.118	91.81
462.338	84.81
462.558	76.81
462.777	101.81
462.997	93.81
463.217	90.81
463.437	93.81
463.657	76.81
463.876	74.81
464.096	88.81
464.316	98.81
464.536	94.81
464.755	89.81
464.975	129.81
465.195	233.81
465.414	227.81
465.634	102.81
465.854	91.81
466.073	81.81
466.293	81.81
466.512	94.81
466.732	86.81
466.951	95.81
467.171	97.81
467.391	89.81
467.61	115.81
467.829	116.81
468.049	95.81
468.268	79.81
468.488	90.81
468.707	97.81
468.927	91.81
469.146	84.81
469.365	87.81
469.585	88.81
469.804	103.81
470.023	98.81
470.243	100.81
470.462	91.81
470.681	128.81
470.901	117.81
471.12	89.81
471.339	92.81
471.558	80.81
471.777	86.81
471.997	88.81
472.216	110.81
472.435	112.81
472.654	104.81
472.873	67.81
473.092	76.81
473.311	85.81
473.53	80.81
473.749	99.81
473.968	85.81
474.187	113.81
474.406	106.81
474.625	97.81
474.844	92.81
475.063	98.81
475.282	84.81
475.501	82.81
475.72	95.81
475.939	94.81
476.158	86.81
476.377	89.81
476.596	87.81
476.814	103.81
477.033	90.81
477.252	84.81
477.471	89.81
477.69	94.81
477.908	95.81
478.127	85.81
478.346	68.81
478.564	88.81
478.783	97.81
479.002	87.81
479.22	102.81
479.439	111.81
479.658	106.81
479.876	104.81
480.095	90.81
480.313	107.81
480.532	77.81
480.751	83.81
480.969	108.81
481.188	148.81
481.406	117.81
481.624	105.81
481.843	82.81
482.061	102.81
482.28	84.81
482.498	86.81
482.717	79.81
482.935	92.81
483.153	90.81
483.372	96.81
483.59	91.81
483.808	86.81
484.027	87.81
484.245	87.81
484.463	99.81
484.681	100.81
484.9	98.81
485.118	97.81
485.336	99.81
485.554	104.81
485.772	98.81
485.99	94.81
486.209	98.81
486.427	112.81
486.645	123.81
486.863	131.81
487.081	108.81
487.299	105.81
487.517	91.81
487.735	90.81
487.953	92.81
488.171	76.81
488.389	103.81
488.607	112.81
488.825	103.81
489.043	85.81
489.261	83.81
489.479	83.81
489.696	78.81
489.914	88.81
490.132	92.81
490.35	82.81
490.568	83.81
490.786	101.81
491.003	99.81
491.221	98.81
491.439	98.81
491.657	91.81
491.874	84.81
492.092	88.81
492.31	102.81
492.527	91.81
492.745	82.81
492.963	75.81
493.18	98.81
493.398	88.81
493.615	87.81
493.833	95.81
494.05	95.81
494.268	94.81
494.485	87.81
494.703	85.81
494.92	91.81
495.138	91.81
495.355	111.81
495.573	104.81
495.79	113.81
496.008	102.81
496.225	98.81
496.442	86.81
496.66	80.81
496.877	80.81
497.094	85.81
497.312	86.81
497.529	82.81
497.746	88.81
497.963	82.81
498.181	93.81
498.398	89.81
498.615	131.81
498.832	122.81
499.049	84.81
499.267	96.81
499.484	95.81
499.701	77.81
499.918	83.81
500.135	107.81
500.352	87.81
500.569	85.81
500.786	86.81
501.003	97.81
501.22	86.81
501.437	94.81
501.654	101.81
501.871	124.81
502.088	83.81
502.305	89.81
502.522	87.81
502.739	90.81
502.956	110.81
503.172	86.81
503.389	103.81
503.606	113.81
503.823	98.81
504.04	107.81
504.256	92.81
504.473	101.81
504.69	87.81
504.907	91.81
505.123	83.81
505.34	102.81
505.557	106.81
505.773	91.81
505.99	99.81
506.207	94.81
506.423	73.81
506.64	94.81
506.856	95.81
507.073	106.81
507.289	101.81
507.506	111.81
507.722	137.81
507.939	135.81
508.155	106.81
508.372	92.81
508.588	88.81
508.805	95.81
509.021	88.81
509.238	102.81
509.454	90.81
509.67	112.81
509.887	112.81
510.103	158.81
510.319	244.81
510.536	1035.81
510.752	3618.81
510.968	1002.81
511.184	198.81
511.401	134.81
511.617	94.81
511.833	99.81
512.049	98.81
512.265	89.81
512.481	87.81
512.698	105.81
512.914	98.81
513.13	78.81
513.346	91.81
513.562	105.81
513.778	90.81
513.994	111.81
514.21	128.81
514.426	139.81
