Data from Circ_2018_H10_HRD10591_00049.txt Node
Date: Wed Jan 03 09:56:11 EST 2024
User: Yrep
Spectrometer: HR+D1059
Trigger mode: 1
Integration Time (sec): 1.000000E-1
Scans to average: 1
Electric dark correction enabled: true
Nonlinearity correction enabled: false
Boxcar width: 0
XAxis mode: Wavelengths
Number of Pixels in Spectrum: 2048
>>>>>Begin Spectral Data<<<<<
223.165	-14.75
223.4	-14.75
223.635	-14.75
223.869	-14.75
224.104	-19.75
224.338	-18.75
224.573	-5.75
224.808	-14.75
225.042	-14.75
225.277	-0.75
225.511	-2.75
225.746	-2.75
225.98	2.25
226.215	7.25
226.449	12.25
226.683	23.25
226.918	28.25
227.152	36.25
227.387	24.25
227.621	33.25
227.856	45.25
228.09	46.25
228.324	47.25
228.559	59.25
228.793	71.25
229.027	82.25
229.262	70.25
229.496	55.25
229.73	83.25
229.964	85.25
230.199	79.25
230.433	82.25
230.667	81.25
230.901	79.25
231.136	75.25
231.37	78.25
231.604	72.25
231.838	71.25
232.072	86.25
232.306	91.25
232.541	79.25
232.775	85.25
233.009	85.25
233.243	86.25
233.477	83.25
233.711	68.25
233.945	97.25
234.179	87.25
234.413	90.25
234.647	85.25
234.881	80.25
235.115	82.25
235.349	69.25
235.583	78.25
235.817	79.25
236.051	84.25
236.285	87.25
236.519	86.25
236.753	95.25
236.987	77.25
237.221	83.25
237.455	99.25
237.689	78.25
237.922	65.25
238.156	85.25
238.39	72.25
238.624	73.25
238.858	78.25
239.091	84.25
239.325	71.25
239.559	90.25
239.793	81.25
240.027	80.25
240.26	75.25
240.494	85.25
240.728	85.25
240.961	81.25
241.195	81.25
241.429	67.25
241.662	73.25
241.896	85.25
242.13	92.25
242.363	85.25
242.597	86.25
242.83	88.25
243.064	76.25
243.298	71.25
243.531	79.25
243.765	65.25
243.998	74.25
244.232	86.25
244.465	79.25
244.699	84.25
244.932	78.25
245.166	79.25
245.399	68.25
245.633	82.25
245.866	73.25
246.099	87.25
246.333	71.25
246.566	77.25
246.8	87.25
247.033	68.25
247.266	88.25
247.5	72.25
247.733	78.25
247.966	84.25
248.2	80.25
248.433	85.25
248.666	97.25
248.899	86.25
249.133	81.25
249.366	90.25
249.599	97.25
249.832	71.25
250.066	83.25
250.299	86.25
250.532	77.25
250.765	93.25
250.998	73.25
251.231	78.25
251.465	86.25
251.698	81.25
251.931	85.25
252.164	84.25
252.397	88.25
252.63	78.25
252.863	87.25
253.096	82.25
253.329	81.25
253.562	77.25
253.795	73.25
254.028	71.25
254.261	87.25
254.494	76.25
254.727	70.25
254.96	90.25
255.193	77.25
255.426	69.25
255.659	75.25
255.892	82.25
256.124	95.25
256.357	89.25
256.59	81.25
256.823	90.25
257.056	85.25
257.289	78.25
257.521	85.25
257.754	70.25
257.987	86.25
258.22	95.25
258.452	74.25
258.685	92.25
258.918	82.25
259.151	92.25
259.383	74.25
259.616	79.25
259.849	76.25
260.081	96.25
260.314	87.25
260.547	85.25
260.779	73.25
261.012	78.25
261.244	76.25
261.477	84.25
261.71	96.25
261.942	114.25
262.175	125.25
262.407	102.25
262.64	81.25
262.872	92.25
263.105	84.25
263.337	87.25
263.57	94.25
263.802	87.25
264.035	83.25
264.267	85.25
264.499	86.25
264.732	88.25
264.964	87.25
265.197	90.25
265.429	83.25
265.661	79.25
265.894	96.25
266.126	96.25
266.358	97.25
266.591	84.25
266.823	90.25
267.055	86.25
267.287	89.25
267.52	82.25
267.752	82.25
267.984	91.25
268.216	94.25
268.448	91.25
268.681	80.25
268.913	95.25
269.145	77.25
269.377	78.25
269.609	82.25
269.841	85.25
270.073	83.25
270.306	95.25
270.538	87.25
270.77	88.25
271.002	86.25
271.234	79.25
271.466	80.25
271.698	86.25
271.93	82.25
272.162	88.25
272.394	98.25
272.626	81.25
272.858	78.25
273.09	90.25
273.322	84.25
273.553	80.25
273.785	76.25
274.017	84.25
274.249	85.25
274.481	86.25
274.713	87.25
274.945	93.25
275.176	76.25
275.408	90.25
275.64	75.25
275.872	79.25
276.104	96.25
276.335	96.25
276.567	113.25
276.799	107.25
277.031	111.25
277.262	93.25
277.494	82.25
277.726	84.25
277.957	92.25
278.189	95.25
278.421	92.25
278.652	87.25
278.884	100.25
279.115	91.25
279.347	97.25
279.579	93.25
279.81	82.25
280.042	89.25
280.273	79.25
280.505	98.25
280.736	97.25
280.968	100.25
281.199	89.25
281.431	90.25
281.662	77.25
281.894	85.25
282.125	95.25
282.356	125.25
282.588	160.25
282.819	121.25
283.051	70.25
283.282	83.25
283.513	95.25
283.745	107.25
283.976	77.25
284.207	77.25
284.439	105.25
284.67	79.25
284.901	94.25
285.132	83.25
285.364	85.25
285.595	83.25
285.826	99.25
286.057	81.25
286.288	92.25
286.52	85.25
286.751	92.25
286.982	94.25
287.213	85.25
287.444	110.25
287.675	81.25
287.906	81.25
288.138	83.25
288.369	89.25
288.6	94.25
288.831	87.25
289.062	79.25
289.293	89.25
289.524	103.25
289.755	85.25
289.986	101.25
290.217	99.25
290.448	84.25
290.679	92.25
290.91	89.25
291.141	85.25
291.371	97.25
291.602	91.25
291.833	91.25
292.064	90.25
292.295	88.25
292.526	85.25
292.757	98.25
292.987	92.25
293.218	97.25
293.449	97.25
293.68	98.25
293.91	87.25
294.141	101.25
294.372	101.25
294.603	103.25
294.833	92.25
295.064	90.25
295.295	83.25
295.525	94.25
295.756	108.25
295.987	115.25
296.217	154.25
296.448	120.25
296.679	92.25
296.909	79.25
297.14	94.25
297.37	101.25
297.601	85.25
297.831	100.25
298.062	89.25
298.292	97.25
298.523	87.25
298.753	76.25
298.984	96.25
299.214	88.25
299.445	92.25
299.675	90.25
299.905	98.25
300.136	88.25
300.366	101.25
300.597	108.25
300.827	93.25
301.057	103.25
301.288	105.25
301.518	90.25
301.748	92.25
301.979	108.25
302.209	98.25
302.439	97.25
302.669	75.25
302.9	85.25
303.13	97.25
303.36	90.25
303.59	126.25
303.82	121.25
304.051	101.25
304.281	91.25
304.511	92.25
304.741	92.25
304.971	106.25
305.201	109.25
305.431	97.25
305.661	88.25
305.891	105.25
306.121	93.25
306.352	99.25
306.582	113.25
306.812	95.25
307.042	90.25
307.272	87.25
307.502	93.25
307.731	98.25
307.961	101.25
308.191	82.25
308.421	111.25
308.651	102.25
308.881	89.25
309.111	89.25
309.341	100.25
309.571	107.25
309.8	102.25
310.03	99.25
310.26	98.25
310.49	106.25
310.72	104.25
310.949	113.25
311.179	108.25
311.409	89.25
311.639	100.25
311.868	107.25
312.098	111.25
312.328	102.25
312.557	117.25
312.787	97.25
313.017	115.25
313.246	102.25
313.476	83.25
313.706	98.25
313.935	104.25
314.165	114.25
314.394	110.25
314.624	97.25
314.853	114.25
315.083	83.25
315.312	94.25
315.542	101.25
315.771	91.25
316.001	93.25
316.23	87.25
316.46	96.25
316.689	82.25
316.919	90.25
317.148	105.25
317.377	95.25
317.607	99.25
317.836	106.25
318.065	97.25
318.295	103.25
318.524	94.25
318.753	102.25
318.983	96.25
319.212	99.25
319.441	123.25
319.67	111.25
319.9	84.25
320.129	91.25
320.358	75.25
320.587	93.25
320.816	113.25
321.046	122.25
321.275	105.25
321.504	95.25
321.733	95.25
321.962	102.25
322.191	108.25
322.42	119.25
322.649	118.25
322.878	116.25
323.108	119.25
323.337	122.25
323.566	143.25
323.795	146.25
324.024	240.25
324.253	443.25
324.482	927.25
324.71	1802.25
324.939	2377.25
325.168	871.25
325.397	259.25
325.626	164.25
325.855	141.25
326.084	125.25
326.313	139.25
326.542	159.25
326.77	257.25
326.999	468.25
327.228	969.25
327.457	1754.25
327.686	1363.25
327.914	402.25
328.143	231.25
328.372	169.25
328.6	123.25
328.829	132.25
329.058	129.25
329.287	147.25
329.515	120.25
329.744	105.25
329.972	134.25
330.201	134.25
330.43	151.25
330.658	141.25
330.887	149.25
331.115	140.25
331.344	114.25
331.572	118.25
331.801	105.25
332.03	117.25
332.258	102.25
332.486	95.25
332.715	101.25
332.943	103.25
333.172	108.25
333.4	89.25
333.629	111.25
333.857	125.25
334.085	113.25
334.314	119.25
334.542	166.25
334.771	151.25
334.999	110.25
335.227	98.25
335.455	103.25
335.684	115.25
335.912	106.25
336.14	99.25
336.369	89.25
336.597	109.25
336.825	99.25
337.053	104.25
337.281	97.25
337.51	94.25
337.738	107.25
337.966	100.25
338.194	106.25
338.422	97.25
338.65	85.25
338.878	98.25
339.106	90.25
339.334	94.25
339.562	87.25
339.79	89.25
340.018	117.25
340.246	97.25
340.474	97.25
340.702	115.25
340.93	90.25
341.158	102.25
341.386	114.25
341.614	113.25
341.842	90.25
342.07	76.25
342.298	95.25
342.526	98.25
342.754	101.25
342.981	96.25
343.209	90.25
343.437	103.25
343.665	85.25
343.893	95.25
344.12	95.25
344.348	103.25
344.576	93.25
344.804	89.25
345.031	109.25
345.259	115.25
345.487	108.25
345.714	84.25
345.942	94.25
346.17	103.25
346.397	93.25
346.625	98.25
346.853	106.25
347.08	106.25
347.308	101.25
347.535	103.25
347.763	118.25
347.99	91.25
348.218	109.25
348.445	110.25
348.673	108.25
348.9	107.25
349.128	109.25
349.355	111.25
349.583	86.25
349.81	93.25
350.037	88.25
350.265	93.25
350.492	97.25
350.72	100.25
350.947	103.25
351.174	110.25
351.402	117.25
351.629	125.25
351.856	96.25
352.083	95.25
352.311	105.25
352.538	94.25
352.765	113.25
352.992	129.25
353.22	113.25
353.447	113.25
353.674	104.25
353.901	89.25
354.128	102.25
354.355	108.25
354.583	99.25
354.81	104.25
355.037	101.25
355.264	92.25
355.491	95.25
355.718	93.25
355.945	94.25
356.172	89.25
356.399	93.25
356.626	100.25
356.853	94.25
357.08	101.25
357.307	90.25
357.534	87.25
357.761	83.25
357.988	87.25
358.215	108.25
358.441	99.25
358.668	91.25
358.895	98.25
359.122	97.25
359.349	82.25
359.576	94.25
359.802	108.25
360.029	139.25
360.256	124.25
360.483	98.25
360.709	100.25
360.936	90.25
361.163	98.25
361.39	107.25
361.616	104.25
361.843	96.25
362.07	104.25
362.296	102.25
362.523	99.25
362.749	108.25
362.976	89.25
363.203	116.25
363.429	90.25
363.656	84.25
363.882	93.25
364.109	86.25
364.335	93.25
364.562	97.25
364.788	102.25
365.015	97.25
365.241	96.25
365.468	121.25
365.694	106.25
365.92	98.25
366.147	90.25
366.373	89.25
366.599	103.25
366.826	101.25
367.052	97.25
367.278	103.25
367.505	78.25
367.731	98.25
367.957	88.25
368.184	105.25
368.41	109.25
368.636	114.25
368.862	128.25
369.089	116.25
369.315	103.25
369.541	98.25
369.767	93.25
369.993	104.25
370.219	107.25
370.445	97.25
370.672	85.25
370.898	86.25
371.124	96.25
371.35	87.25
371.576	94.25
371.802	103.25
372.028	79.25
372.254	81.25
372.48	90.25
372.706	80.25
372.932	74.25
373.158	85.25
373.384	102.25
373.61	92.25
373.835	86.25
374.061	88.25
374.287	105.25
374.513	108.25
374.739	83.25
374.965	92.25
375.191	94.25
375.416	83.25
375.642	80.25
375.868	91.25
376.094	90.25
376.319	92.25
376.545	94.25
376.771	106.25
376.997	100.25
377.222	83.25
377.448	92.25
377.674	85.25
377.899	101.25
378.125	98.25
378.35	90.25
378.576	82.25
378.802	80.25
379.027	96.25
379.253	89.25
379.478	100.25
379.704	92.25
379.929	103.25
380.155	111.25
380.38	94.25
380.606	96.25
380.831	106.25
381.057	86.25
381.282	90.25
381.507	108.25
381.733	112.25
381.958	115.25
382.184	102.25
382.409	90.25
382.634	95.25
382.86	105.25
383.085	101.25
383.31	103.25
383.535	100.25
383.761	99.25
383.986	83.25
384.211	100.25
384.436	106.25
384.662	117.25
384.887	108.25
385.112	94.25
385.337	104.25
385.562	109.25
385.787	97.25
386.013	114.25
386.238	118.25
386.463	105.25
386.688	108.25
386.913	116.25
387.138	110.25
387.363	101.25
387.588	101.25
387.813	98.25
388.038	110.25
388.263	105.25
388.488	103.25
388.713	98.25
388.938	113.25
389.163	114.25
389.387	101.25
389.612	89.25
389.837	89.25
390.062	94.25
390.287	99.25
390.512	106.25
390.736	76.25
390.961	89.25
391.186	92.25
391.411	85.25
391.636	91.25
391.86	93.25
392.085	104.25
392.31	85.25
392.534	83.25
392.759	93.25
392.984	88.25
393.208	82.25
393.433	81.25
393.658	82.25
393.882	94.25
394.107	94.25
394.331	88.25
394.556	98.25
394.78	95.25
395.005	94.25
395.229	67.25
395.454	85.25
395.678	96.25
395.903	94.25
396.127	96.25
396.352	79.25
396.576	79.25
396.801	90.25
397.025	82.25
397.249	107.25
397.474	98.25
397.698	80.25
397.922	97.25
398.147	99.25
398.371	87.25
398.595	94.25
398.82	78.25
399.044	81.25
399.268	90.25
399.492	95.25
399.717	98.25
399.941	105.25
400.165	96.25
400.389	90.25
400.613	85.25
400.837	82.25
401.062	96.25
401.286	90.25
401.51	103.25
401.734	92.25
401.958	110.25
402.182	127.25
402.406	190.25
402.63	135.25
402.854	98.25
403.078	92.25
403.302	84.25
403.526	96.25
403.75	103.25
403.974	101.25
404.198	79.25
404.422	96.25
404.645	92.25
404.869	101.25
405.093	95.25
405.317	95.25
405.541	114.25
405.765	97.25
405.988	119.25
406.212	190.25
406.436	265.25
406.66	162.25
406.883	115.25
407.107	94.25
407.331	105.25
407.555	107.25
407.778	97.25
408.002	86.25
408.226	89.25
408.449	91.25
408.673	81.25
408.896	100.25
409.12	116.25
409.344	100.25
409.567	98.25
409.791	86.25
410.014	94.25
410.238	102.25
410.461	103.25
410.685	112.25
410.908	127.25
411.132	107.25
411.355	102.25
411.578	76.25
411.802	93.25
412.025	93.25
412.249	99.25
412.472	85.25
412.695	93.25
412.919	86.25
413.142	92.25
413.365	91.25
413.589	104.25
413.812	87.25
414.035	81.25
414.258	80.25
414.482	91.25
414.705	90.25
414.928	87.25
415.151	97.25
415.374	95.25
415.597	97.25
415.821	92.25
416.044	95.25
416.267	79.25
416.49	105.25
416.713	94.25
416.936	85.25
417.159	85.25
417.382	87.25
417.605	85.25
417.828	97.25
418.051	100.25
418.274	92.25
418.497	88.25
418.72	98.25
418.943	90.25
419.166	78.25
419.389	94.25
419.611	86.25
419.834	90.25
420.057	89.25
420.28	100.25
420.503	84.25
420.726	91.25
420.948	81.25
421.171	91.25
421.394	102.25
421.617	90.25
421.839	88.25
422.062	111.25
422.285	83.25
422.507	97.25
422.73	106.25
422.953	92.25
423.175	100.25
423.398	91.25
423.621	99.25
423.843	89.25
424.066	85.25
424.288	106.25
424.511	85.25
424.733	90.25
424.956	116.25
425.178	103.25
425.401	89.25
425.623	96.25
425.846	99.25
426.068	83.25
426.291	94.25
426.513	79.25
426.735	95.25
426.958	106.25
427.18	108.25
427.402	158.25
427.625	181.25
427.847	154.25
428.069	121.25
428.292	89.25
428.514	82.25
428.736	98.25
428.958	83.25
429.181	92.25
429.403	88.25
429.625	81.25
429.847	95.25
430.069	101.25
430.292	99.25
430.514	96.25
430.736	80.25
430.958	100.25
431.18	89.25
431.402	90.25
431.624	81.25
431.846	104.25
432.068	78.25
432.29	85.25
432.512	92.25
432.734	92.25
432.956	92.25
433.178	83.25
433.4	90.25
433.622	93.25
433.844	98.25
434.066	77.25
434.287	106.25
434.509	91.25
434.731	92.25
434.953	108.25
435.175	81.25
435.397	98.25
435.618	82.25
435.84	111.25
436.062	104.25
436.284	110.25
436.505	93.25
436.727	109.25
436.949	84.25
437.17	94.25
437.392	103.25
437.614	95.25
437.835	109.25
438.057	128.25
438.278	117.25
438.5	113.25
438.721	131.25
438.943	110.25
439.165	82.25
439.386	86.25
439.608	95.25
439.829	96.25
440.05	130.25
440.272	138.25
440.493	110.25
440.715	100.25
440.936	93.25
441.158	94.25
441.379	86.25
441.6	92.25
441.822	98.25
442.043	101.25
442.264	106.25
442.486	102.25
442.707	92.25
442.928	110.25
443.149	158.25
443.371	146.25
443.592	123.25
443.813	117.25
444.034	121.25
444.255	100.25
444.476	87.25
444.698	109.25
444.919	90.25
445.14	133.25
445.361	131.25
445.582	128.25
445.803	153.25
446.024	135.25
446.245	146.25
446.466	122.25
446.687	100.25
446.908	90.25
447.129	91.25
447.35	96.25
447.571	103.25
447.792	95.25
448.013	108.25
448.234	117.25
448.455	99.25
448.675	122.25
448.896	114.25
449.117	93.25
449.338	117.25
449.559	135.25
449.779	137.25
450	115.25
450.221	94.25
450.442	85.25
450.662	94.25
450.883	99.25
451.104	110.25
451.324	104.25
451.545	88.25
451.766	88.25
451.986	82.25
452.207	91.25
452.428	93.25
452.648	108.25
452.869	118.25
453.089	131.25
453.31	121.25
453.53	98.25
453.751	90.25
453.971	98.25
454.192	111.25
454.412	100.25
454.633	99.25
454.853	84.25
455.073	82.25
455.294	101.25
455.514	108.25
455.734	88.25
455.955	98.25
456.175	88.25
456.395	89.25
456.616	86.25
456.836	90.25
457.056	78.25
457.276	76.25
457.497	90.25
457.717	86.25
457.937	88.25
458.157	97.25
458.377	92.25
458.598	115.25
458.818	174.25
459.038	191.25
459.258	122.25
459.478	92.25
459.698	90.25
459.918	83.25
460.138	95.25
460.358	104.25
460.578	92.25
460.798	83.25
461.018	85.25
461.238	112.25
461.458	93.25
461.678	95.25
461.898	95.25
462.118	73.25
462.338	83.25
462.558	84.25
462.777	91.25
462.997	89.25
463.217	91.25
463.437	99.25
463.657	81.25
463.876	86.25
464.096	90.25
464.316	99.25
464.536	96.25
464.755	85.25
464.975	110.25
465.195	193.25
465.414	173.25
465.634	103.25
465.854	97.25
466.073	93.25
466.293	88.25
466.512	95.25
466.732	86.25
466.951	91.25
467.171	85.25
467.391	107.25
467.61	124.25
467.829	118.25
468.049	105.25
468.268	108.25
468.488	89.25
468.707	92.25
468.927	98.25
469.146	87.25
469.365	87.25
469.585	95.25
469.804	108.25
470.023	82.25
470.243	97.25
470.462	105.25
470.681	107.25
470.901	100.25
471.12	83.25
471.339	77.25
471.558	83.25
471.777	87.25
471.997	100.25
472.216	125.25
472.435	165.25
472.654	116.25
472.873	97.25
473.092	95.25
473.311	87.25
473.53	87.25
473.749	82.25
473.968	98.25
474.187	105.25
474.406	100.25
474.625	101.25
474.844	94.25
475.063	83.25
475.282	75.25
475.501	78.25
475.72	102.25
475.939	99.25
476.158	90.25
476.377	95.25
476.596	87.25
476.814	92.25
477.033	84.25
477.252	86.25
477.471	82.25
477.69	95.25
477.908	92.25
478.127	92.25
478.346	87.25
478.564	107.25
478.783	114.25
479.002	110.25
479.22	90.25
479.439	104.25
479.658	111.25
479.876	116.25
480.095	94.25
480.313	100.25
480.532	115.25
480.751	98.25
480.969	120.25
481.188	253.25
481.406	192.25
481.624	104.25
481.843	87.25
482.061	75.25
482.28	96.25
482.498	99.25
482.717	95.25
482.935	77.25
483.153	94.25
483.372	101.25
483.59	81.25
483.808	87.25
484.027	93.25
484.245	94.25
484.463	104.25
484.681	107.25
484.9	102.25
485.118	94.25
485.336	118.25
485.554	92.25
485.772	110.25
485.99	119.25
486.209	113.25
486.427	93.25
486.645	118.25
486.863	110.25
487.081	106.25
487.299	105.25
487.517	96.25
487.735	90.25
487.953	104.25
488.171	95.25
488.389	111.25
488.607	101.25
488.825	106.25
489.043	82.25
489.261	82.25
489.479	78.25
489.696	88.25
489.914	94.25
490.132	93.25
490.35	92.25
490.568	85.25
490.786	88.25
491.003	98.25
491.221	89.25
491.439	102.25
491.657	89.25
491.874	102.25
492.092	105.25
492.31	107.25
492.527	81.25
492.745	108.25
492.963	84.25
493.18	98.25
493.398	91.25
493.615	93.25
493.833	84.25
494.05	85.25
494.268	98.25
494.485	80.25
494.703	103.25
494.92	90.25
495.138	91.25
495.355	86.25
495.573	93.25
495.79	90.25
496.008	99.25
496.225	84.25
496.442	106.25
496.66	97.25
496.877	99.25
497.094	99.25
497.312	76.25
497.529	96.25
497.746	93.25
497.963	90.25
498.181	95.25
498.398	87.25
498.615	104.25
498.832	112.25
499.049	94.25
499.267	101.25
499.484	102.25
499.701	102.25
499.918	101.25
500.135	95.25
500.352	90.25
500.569	79.25
500.786	88.25
501.003	100.25
501.22	86.25
501.437	101.25
501.654	97.25
501.871	105.25
502.088	100.25
502.305	93.25
502.522	91.25
502.739	94.25
502.956	97.25
503.172	102.25
503.389	101.25
503.606	110.25
503.823	100.25
504.04	106.25
504.256	96.25
504.473	89.25
504.69	90.25
504.907	81.25
505.123	95.25
505.34	89.25
505.557	86.25
505.773	99.25
505.99	87.25
506.207	79.25
506.423	105.25
506.64	82.25
506.856	91.25
507.073	89.25
507.289	99.25
507.506	109.25
507.722	113.25
507.939	113.25
508.155	94.25
508.372	94.25
508.588	95.25
508.805	105.25
509.021	94.25
509.238	97.25
509.454	114.25
509.67	110.25
509.887	107.25
510.103	123.25
510.319	246.25
510.536	909.25
510.752	3114.25
510.968	873.25
511.184	180.25
511.401	137.25
511.617	107.25
511.833	97.25
512.049	103.25
512.265	102.25
512.481	98.25
512.698	92.25
512.914	97.25
513.13	95.25
513.346	103.25
513.562	109.25
513.778	100.25
