Data from Circ_2018_H10_HRD10591_00007.txt Node
Date: Wed Jan 03 09:56:03 EST 2024
User: Yrep
Spectrometer: HR+D1059
Trigger mode: 1
Integration Time (sec): 1.000000E-1
Scans to average: 1
Electric dark correction enabled: true
Nonlinearity correction enabled: false
Boxcar width: 0
XAxis mode: Wavelengths
Number of Pixels in Spectrum: 2048
>>>>>Begin Spectral Data<<<<<
223.165	-25.81
223.4	-25.81
223.635	-25.81
223.869	-13.81
224.104	-12.81
224.338	-17.81
224.573	-13.81
224.808	-19.81
225.042	-1.81
225.277	-10.81
225.511	5.19
225.746	12.19
225.98	5.19
226.215	3.19
226.449	22.19
226.683	30.19
226.918	7.19
227.152	31.19
227.387	22.19
227.621	32.19
227.856	47.19
228.09	30.19
228.324	34.19
228.559	53.19
228.793	157.19
229.027	444.19
229.262	517.19
229.496	583.19
229.73	808.19
229.964	788.19
230.199	559.19
230.433	476.19
230.667	468.19
230.901	460.19
231.136	429.19
231.37	429.19
231.604	436.19
231.838	456.19
232.072	457.19
232.306	467.19
232.541	474.19
232.775	458.19
233.009	445.19
233.243	460.19
233.477	453.19
233.711	477.19
233.945	500.19
234.179	505.19
234.413	495.19
234.647	501.19
234.881	510.19
235.115	521.19
235.349	536.19
235.583	542.19
235.817	579.19
236.051	632.19
236.285	612.19
236.519	621.19
236.753	719.19
236.987	900.19
237.221	1339.19
237.455	1454.19
237.689	873.19
237.922	723.19
238.156	728.19
238.39	684.19
238.624	659.19
238.858	638.19
239.091	636.19
239.325	655.19
239.559	685.19
239.793	683.19
240.027	741.19
240.26	874.19
240.494	942.19
240.728	910.19
240.961	881.19
241.195	824.19
241.429	763.19
241.662	772.19
241.896	760.19
242.13	761.19
242.363	769.19
242.597	788.19
242.83	806.19
243.064	823.19
243.298	802.19
243.531	822.19
243.765	833.19
243.998	837.19
244.232	860.19
244.465	882.19
244.699	908.19
244.932	894.19
245.166	884.19
245.399	918.19
245.633	877.19
245.866	859.19
246.099	924.19
246.333	938.19
246.566	917.19
246.8	964.19
247.033	996.19
247.266	1075.19
247.5	1115.19
247.733	1120.19
247.966	1153.19
248.2	1132.19
248.433	1150.19
248.666	1212.19
248.899	1327.19
249.133	1423.19
249.366	1427.19
249.599	1305.19
249.832	1204.19
250.066	1189.19
250.299	1241.19
250.532	1374.19
250.765	1539.19
250.998	1636.19
251.231	1603.19
251.465	1498.19
251.698	1398.19
251.931	1400.19
252.164	1400.19
252.397	1330.19
252.63	1444.19
252.863	1522.19
253.096	1654.19
253.329	1705.19
253.562	1612.19
253.795	1518.19
254.028	1549.19
254.261	1579.19
254.494	1797.19
254.727	2102.19
254.96	2139.19
255.193	1939.19
255.426	1761.19
255.659	1638.19
255.892	1683.19
256.124	1683.19
256.357	1626.19
256.59	1546.19
256.823	1553.19
257.056	1515.19
257.289	1498.19
257.521	1495.19
257.754	1513.19
257.987	1522.19
258.22	1502.19
258.452	1528.19
258.685	1536.19
258.918	1566.19
259.151	1614.19
259.383	1631.19
259.616	1731.19
259.849	1740.19
260.081	1902.19
260.314	2054.19
260.547	1998.19
260.779	1826.19
261.012	1779.19
261.244	1732.19
261.477	1684.19
261.71	1729.19
261.942	1772.19
262.175	1829.19
262.407	1727.19
262.64	1649.19
262.872	1645.19
263.105	1635.19
263.337	1670.19
263.57	1670.19
263.802	1674.19
264.035	1664.19
264.267	1697.19
264.499	1697.19
264.732	1696.19
264.964	1680.19
265.197	1657.19
265.429	1730.19
265.661	1696.19
265.894	1761.19
266.126	1742.19
266.358	1749.19
266.591	1765.19
266.823	1872.19
267.055	1885.19
267.287	1867.19
267.52	1842.19
267.752	1829.19
267.984	1822.19
268.216	1930.19
268.448	1920.19
268.681	2021.19
268.913	2122.19
269.145	2332.19
269.377	2348.19
269.609	2292.19
269.841	2282.19
270.073	2333.19
270.306	2585.19
270.538	2779.19
270.77	2609.19
271.002	2469.19
271.234	2441.19
271.466	2568.19
271.698	2734.19
271.93	2722.19
272.162	2707.19
272.394	2635.19
272.626	2496.19
272.858	2336.19
273.09	2308.19
273.322	2258.19
273.553	2252.19
273.785	2203.19
274.017	2208.19
274.249	2236.19
274.481	2273.19
274.713	2291.19
274.945	2302.19
275.176	2292.19
275.408	2261.19
275.64	2258.19
275.872	2285.19
276.104	2301.19
276.335	2318.19
276.567	2461.19
276.799	2625.19
277.031	2821.19
277.262	2869.19
277.494	2783.19
277.726	2615.19
277.957	2542.19
278.189	2464.19
278.421	2362.19
278.652	2355.19
278.884	2387.19
279.115	2327.19
279.347	2350.19
279.579	2376.19
279.81	2402.19
280.042	2341.19
280.273	2431.19
280.505	2432.19
280.736	2401.19
280.968	2428.19
281.199	2447.19
281.431	2480.19
281.662	2475.19
281.894	2474.19
282.125	2554.19
282.356	2770.19
282.588	2924.19
282.819	2760.19
283.051	2536.19
283.282	2542.19
283.513	2557.19
283.745	2626.19
283.976	2606.19
284.207	2624.19
284.439	2661.19
284.67	2658.19
284.901	2623.19
285.132	2676.19
285.364	2612.19
285.595	2644.19
285.826	2672.19
286.057	2671.19
286.288	2650.19
286.52	2668.19
286.751	2735.19
286.982	2676.19
287.213	2716.19
287.444	2799.19
287.675	2828.19
287.906	2920.19
288.138	2963.19
288.369	2883.19
288.6	2959.19
288.831	2840.19
289.062	2835.19
289.293	2893.19
289.524	2858.19
289.755	2849.19
289.986	2805.19
290.217	2821.19
290.448	2842.19
290.679	2854.19
290.91	2825.19
291.141	2814.19
291.371	2874.19
291.602	2842.19
291.833	2830.19
292.064	2862.19
292.295	2879.19
292.526	2874.19
292.757	2848.19
292.987	2860.19
293.218	2840.19
293.449	2893.19
293.68	2848.19
293.91	2841.19
294.141	2873.19
294.372	2861.19
294.603	2840.19
294.833	2908.19
295.064	2941.19
295.295	2881.19
295.525	2929.19
295.756	2982.19
295.987	3072.19
296.217	3329.19
296.448	3243.19
296.679	3011.19
296.909	2998.19
297.14	3035.19
297.37	3068.19
297.601	3082.19
297.831	3072.19
298.062	3085.19
298.292	3080.19
298.523	3139.19
298.753	3171.19
298.984	3056.19
299.214	3075.19
299.445	3130.19
299.675	3203.19
299.905	3228.19
300.136	3148.19
300.366	3214.19
300.597	3260.19
300.827	3306.19
301.057	3372.19
301.288	3491.19
301.518	3399.19
301.748	3374.19
301.979	3416.19
302.209	3381.19
302.439	3455.19
302.669	3365.19
302.9	3365.19
303.13	3293.19
303.36	3401.19
303.59	3408.19
303.82	3460.19
304.051	3358.19
304.281	3349.19
304.511	3310.19
304.741	3324.19
304.971	3283.19
305.201	3262.19
305.431	3299.19
305.661	3351.19
305.891	3300.19
306.121	3276.19
306.352	3377.19
306.582	3338.19
306.812	3270.19
307.042	3306.19
307.272	3344.19
307.502	3356.19
307.731	3390.19
307.961	3328.19
308.191	3290.19
308.421	3324.19
308.651	3276.19
308.881	3336.19
309.111	3406.19
309.341	3444.19
309.571	3536.19
309.8	3577.19
310.03	3653.19
310.26	3670.19
310.49	3673.19
310.72	3809.19
310.949	3888.19
311.179	3852.19
311.409	3647.19
311.639	3722.19
311.868	3678.19
312.098	3836.19
312.328	3843.19
312.557	4013.19
312.787	4057.19
313.017	3964.19
313.246	3901.19
313.476	3733.19
313.706	3796.19
313.935	3945.19
314.165	4036.19
314.394	4058.19
314.624	3995.19
314.853	3896.19
315.083	3803.19
315.312	3789.19
315.542	3784.19
315.771	3788.19
316.001	3675.19
316.23	3701.19
316.46	3756.19
316.689	3803.19
316.919	3814.19
317.148	3780.19
317.377	3829.19
317.607	3756.19
317.836	3719.19
318.065	3724.19
318.295	3760.19
318.524	3724.19
318.753	3726.19
318.983	3731.19
319.212	3722.19
319.441	3840.19
319.67	3834.19
319.9	3723.19
320.129	3743.19
320.358	3738.19
320.587	3816.19
320.816	3885.19
321.046	3888.19
321.275	3895.19
321.504	3885.19
321.733	4002.19
321.962	3953.19
322.191	4092.19
322.42	4159.19
322.649	4300.19
322.878	4371.19
323.108	4441.19
323.337	4691.19
323.566	4898.19
323.795	5259.19
324.024	5944.19
324.253	8078.19
324.482	12333.19
324.71	15590.19
324.939	15590.19
325.168	13875.19
325.397	7110.19
325.626	5508.19
325.855	5081.19
326.084	4885.19
326.313	4973.19
326.542	5109.19
326.77	6015.19
326.999	7826.19
327.228	11553.19
327.457	15249.19
327.686	14415.19
327.914	7872.19
328.143	6123.19
328.372	5804.19
328.6	5550.19
328.829	5396.19
329.058	5589.19
329.287	5488.19
329.515	5120.19
329.744	4897.19
329.972	5033.19
330.201	5187.19
330.43	5474.19
330.658	5752.19
330.887	6028.19
331.115	5533.19
331.344	5055.19
331.572	5028.19
331.801	5110.19
332.03	5113.19
332.258	5050.19
332.486	5006.19
332.715	5104.19
332.943	5302.19
333.172	5465.19
333.4	5632.19
333.629	5708.19
333.857	5861.19
334.085	5774.19
334.314	5802.19
334.542	5821.19
334.771	5705.19
334.999	5418.19
335.227	5298.19
335.455	5208.19
335.684	5169.19
335.912	5116.19
336.14	5079.19
336.369	5033.19
336.597	5099.19
336.825	5034.19
337.053	4966.19
337.281	4889.19
337.51	4825.19
337.738	4820.19
337.966	4845.19
338.194	4741.19
338.422	4705.19
338.65	4598.19
338.878	4605.19
339.106	4584.19
339.334	4613.19
339.562	4539.19
339.79	4402.19
340.018	4454.19
340.246	4463.19
340.474	4553.19
340.702	4419.19
340.93	4498.19
341.158	4433.19
341.386	4476.19
341.614	4569.19
341.842	4414.19
342.07	4353.19
342.298	4338.19
342.526	4390.19
342.754	4347.19
342.981	4360.19
343.209	4491.19
343.437	4755.19
343.665	4959.19
343.893	5221.19
344.12	5315.19
344.348	5074.19
344.576	4846.19
344.804	4768.19
345.031	4696.19
345.259	4627.19
345.487	4576.19
345.714	4388.19
345.942	4345.19
346.17	4270.19
346.397	4303.19
346.625	4306.19
346.853	4268.19
347.08	4244.19
347.308	4276.19
347.535	4389.19
347.763	4447.19
347.99	4323.19
348.218	4392.19
348.445	4483.19
348.673	4346.19
348.9	4224.19
349.128	4157.19
349.355	4136.19
349.583	4145.19
349.81	4164.19
350.037	4124.19
350.265	4156.19
350.492	4118.19
350.72	4131.19
350.947	4182.19
351.174	4265.19
351.402	4399.19
351.629	4203.19
351.856	4208.19
352.083	4320.19
352.311	4386.19
352.538	4312.19
352.765	4290.19
352.992	4221.19
353.22	4140.19
353.447	4167.19
353.674	4090.19
353.901	4065.19
354.128	3994.19
354.355	4032.19
354.583	3993.19
354.81	3966.19
355.037	3989.19
355.264	4045.19
355.491	4050.19
355.718	3980.19
355.945	3970.19
356.172	4033.19
356.399	3984.19
356.626	4002.19
356.853	4017.19
357.08	3946.19
357.307	3986.19
357.534	3956.19
357.761	4018.19
357.988	4021.19
358.215	4048.19
358.441	4059.19
358.668	4070.19
358.895	4070.19
359.122	4131.19
359.349	4212.19
359.576	4385.19
359.802	4660.19
360.029	4741.19
360.256	4684.19
360.483	4492.19
360.709	4298.19
360.936	4252.19
361.163	4310.19
361.39	4359.19
361.616	4282.19
361.843	4267.19
362.07	4329.19
362.296	4281.19
362.523	4232.19
362.749	4262.19
362.976	4184.19
363.203	4171.19
363.429	4122.19
363.656	4170.19
363.882	4111.19
364.109	4118.19
364.335	4116.19
364.562	4130.19
364.788	4092.19
365.015	4130.19
365.241	4092.19
365.468	4158.19
365.694	4239.19
365.92	4164.19
366.147	4088.19
366.373	4175.19
366.599	4064.19
366.826	4095.19
367.052	4054.19
367.278	4164.19
367.505	4110.19
367.731	4105.19
367.957	4145.19
368.184	4188.19
368.41	4255.19
368.636	4368.19
368.862	4410.19
369.089	4213.19
369.315	4200.19
369.541	4215.19
369.767	4190.19
369.993	4296.19
370.219	4221.19
370.445	4277.19
370.672	4300.19
370.898	4242.19
371.124	4295.19
371.35	4366.19
371.576	4296.19
371.802	4348.19
372.028	4313.19
372.254	4373.19
372.48	4433.19
372.706	4477.19
372.932	4534.19
373.158	4452.19
373.384	4433.19
373.61	4407.19
373.835	4438.19
374.061	4486.19
374.287	4446.19
374.513	4553.19
374.739	4699.19
374.965	4841.19
375.191	4804.19
375.416	4674.19
375.642	4533.19
375.868	4595.19
376.094	4429.19
376.319	4376.19
376.545	4415.19
376.771	4379.19
376.997	4394.19
377.222	4396.19
377.448	4308.19
377.674	4398.19
377.899	4350.19
378.125	4323.19
378.35	4329.19
378.576	4309.19
378.802	4290.19
379.027	4299.19
379.253	4370.19
379.478	4325.19
379.704	4342.19
379.929	4341.19
380.155	4430.19
380.38	4347.19
380.606	4366.19
380.831	4334.19
381.057	4332.19
381.282	4419.19
381.507	4397.19
381.733	4419.19
381.958	4448.19
382.184	4506.19
382.409	4575.19
382.634	4616.19
382.86	4599.19
383.085	4728.19
383.31	4716.19
383.535	4853.19
383.761	4820.19
383.986	4952.19
384.211	5015.19
384.436	5152.19
384.662	5142.19
384.887	5188.19
385.112	5185.19
385.337	5228.19
385.562	5318.19
385.787	5303.19
386.013	5381.19
386.238	5410.19
386.463	5393.19
386.688	5429.19
386.913	5180.19
387.138	5286.19
387.363	5267.19
387.588	5183.19
387.813	5162.19
388.038	5197.19
388.263	5273.19
388.488	5336.19
388.713	5226.19
388.938	5198.19
389.163	5125.19
389.387	5189.19
389.612	5135.19
389.837	5154.19
390.062	5110.19
390.287	5174.19
390.512	5169.19
390.736	5237.19
390.961	5293.19
391.186	5379.19
391.411	5544.19
391.636	5705.19
391.86	5804.19
392.085	5930.19
392.31	5758.19
392.534	5626.19
392.759	5583.19
392.984	5438.19
393.208	5465.19
393.433	5474.19
393.658	5381.19
393.882	5422.19
394.107	5427.19
394.331	5577.19
394.556	5504.19
394.78	5574.19
395.005	5606.19
395.229	5626.19
395.454	5860.19
395.678	5880.19
395.903	5914.19
396.127	5926.19
396.352	5783.19
396.576	5572.19
396.801	5488.19
397.025	5603.19
397.249	5731.19
397.474	5864.19
397.698	5884.19
397.922	6063.19
398.147	6084.19
398.371	6268.19
398.595	6413.19
398.82	6653.19
399.044	7272.19
399.268	7984.19
399.492	9165.19
399.717	9772.19
399.941	9598.19
400.165	8874.19
400.389	8161.19
400.613	7361.19
400.837	6861.19
401.062	6725.19
401.286	6700.19
401.51	6653.19
401.734	6602.19
401.958	6764.19
402.182	6888.19
402.406	7027.19
402.63	7091.19
402.854	7101.19
403.078	7210.19
403.302	7312.19
403.526	7412.19
403.75	7571.19
403.974	7645.19
404.198	7473.19
404.422	7651.19
404.645	7582.19
404.869	7494.19
405.093	7776.19
405.317	7939.19
405.541	7922.19
405.765	7528.19
405.988	7378.19
406.212	7711.19
406.436	7946.19
406.66	7906.19
406.883	7889.19
407.107	8483.19
407.331	9032.19
407.555	9540.19
407.778	9188.19
408.002	8358.19
408.226	8077.19
408.449	7883.19
408.673	7816.19
408.896	8048.19
409.12	8093.19
409.344	7613.19
409.567	7239.19
409.791	7346.19
410.014	7136.19
410.238	7113.19
410.461	7077.19
410.685	7154.19
410.908	7248.19
411.132	7459.19
411.355	7474.19
411.578	7149.19
411.802	6866.19
412.025	6895.19
412.249	7115.19
412.472	7184.19
412.695	7105.19
412.919	6824.19
413.142	6630.19
413.365	6613.19
413.589	6587.19
413.812	6423.19
414.035	6423.19
414.258	6505.19
414.482	6492.19
414.705	6645.19
414.928	6549.19
415.151	6483.19
415.374	6434.19
415.597	6398.19
415.821	6358.19
416.044	6339.19
416.267	6387.19
416.49	6311.19
416.713	6265.19
416.936	6422.19
417.159	6350.19
417.382	6440.19
417.605	6360.19
417.828	6593.19
418.051	6766.19
418.274	6716.19
418.497	6492.19
418.72	6655.19
418.943	6544.19
419.166	6970.19
419.389	7369.19
419.611	7233.19
419.834	7049.19
420.057	6784.19
420.28	6778.19
420.503	6563.19
420.726	6592.19
420.948	6752.19
421.171	7183.19
421.394	7219.19
421.617	6676.19
421.839	6584.19
422.062	6704.19
422.285	6902.19
422.507	7643.19
422.73	8018.19
422.953	7442.19
423.175	7077.19
423.398	7006.19
423.621	7106.19
423.843	7306.19
424.066	7290.19
424.288	7228.19
424.511	7456.19
424.733	7838.19
424.956	8417.19
425.178	7919.19
425.401	7976.19
425.623	7833.19
425.846	6959.19
426.068	6850.19
426.291	6726.19
426.513	6605.19
426.735	6803.19
426.958	7328.19
427.18	7986.19
427.402	9216.19
427.625	9338.19
427.847	7789.19
428.069	7056.19
428.292	6560.19
428.514	6278.19
428.736	6090.19
428.958	6075.19
429.181	5858.19
429.403	5894.19
429.625	6134.19
429.847	6331.19
430.069	6861.19
430.292	6534.19
430.514	5916.19
430.736	5956.19
430.958	5771.19
431.18	5787.19
431.402	5776.19
431.624	5745.19
431.846	5798.19
432.068	5867.19
432.29	5909.19
432.512	5826.19
432.734	5902.19
432.956	5821.19
433.178	5994.19
433.4	5960.19
433.622	5840.19
433.844	5904.19
434.066	5940.19
434.287	5998.19
434.509	6253.19
434.731	6391.19
434.953	6619.19
435.175	6767.19
435.397	6826.19
435.618	6761.19
435.84	7229.19
436.062	7924.19
436.284	7883.19
436.505	6645.19
436.727	6385.19
436.949	6063.19
437.17	5896.19
437.392	5912.19
437.614	6111.19
437.835	6564.19
438.057	7472.19
438.278	8146.19
438.5	8120.19
438.721	8784.19
438.943	7714.19
439.165	6459.19
439.386	6360.19
439.608	6345.19
439.829	6458.19
440.05	6870.19
440.272	7230.19
440.493	6577.19
440.715	6301.19
440.936	6247.19
441.158	6211.19
441.379	6409.19
441.6	6766.19
441.822	6985.19
442.043	7395.19
442.264	8157.19
442.486	7845.19
442.707	7055.19
442.928	6924.19
443.149	7141.19
443.371	7375.19
443.592	7809.19
443.813	8710.19
444.034	8738.19
444.255	7605.19
444.476	7530.19
444.698	7678.19
444.919	7694.19
445.14	7619.19
445.361	7466.19
445.582	7633.19
445.803	8220.19
446.024	8836.19
446.245	8332.19
446.466	7580.19
446.687	6572.19
446.908	6307.19
447.129	5967.19
447.35	5826.19
447.571	5704.19
447.792	5664.19
448.013	5763.19
448.234	5964.19
448.455	6650.19
448.675	7879.19
448.896	8339.19
449.117	6899.19
449.338	7058.19
449.559	8403.19
449.779	8546.19
450	6612.19
450.221	5808.19
450.442	5641.19
450.662	5614.19
450.883	5697.19
451.104	5896.19
451.324	5659.19
451.545	5425.19
451.766	5333.19
451.986	5186.19
452.207	5125.19
452.428	5194.19
452.648	5209.19
452.869	5298.19
453.089	5289.19
453.31	5388.19
453.53	5217.19
453.751	5093.19
453.971	5149.19
454.192	5369.19
454.412	5117.19
454.633	5012.19
454.853	4963.19
455.073	5081.19
455.294	5451.19
455.514	5935.19
455.734	5402.19
455.955	4911.19
456.175	4779.19
456.395	4713.19
456.616	4661.19
456.836	4748.19
457.056	4712.19
457.276	4690.19
457.497	4845.19
457.717	4774.19
457.937	4824.19
458.157	4991.19
458.377	5109.19
458.598	5405.19
458.818	6196.19
459.038	7039.19
459.258	6800.19
459.478	6146.19
459.698	5868.19
459.918	6011.19
460.138	6208.19
460.358	6425.19
460.578	6483.19
460.798	6552.19
461.018	6524.19
461.238	6387.19
461.458	6430.19
461.678	6362.19
461.898	6435.19
462.118	6572.19
462.338	6953.19
462.558	6996.19
462.777	7300.19
462.997	7909.19
463.217	8268.19
463.437	8141.19
463.657	7480.19
463.876	7332.19
464.096	7415.19
464.316	7410.19
464.536	7402.19
464.755	7228.19
464.975	7146.19
465.195	7407.19
465.414	7427.19
465.634	6424.19
465.854	6044.19
466.073	5786.19
466.293	5601.19
466.512	5460.19
466.732	5315.19
466.951	5340.19
467.171	5337.19
467.391	5421.19
467.61	5514.19
467.829	5487.19
468.049	5390.19
468.268	5194.19
468.488	5121.19
468.707	5046.19
468.927	5093.19
469.146	5022.19
469.365	5201.19
469.585	5229.19
469.804	5421.19
470.023	5565.19
470.243	5471.19
470.462	5644.19
470.681	5747.19
470.901	5697.19
471.12	5464.19
471.339	5391.19
471.558	5339.19
471.777	5321.19
471.997	5134.19
472.216	5281.19
472.435	5294.19
472.654	5153.19
472.873	4995.19
473.092	5034.19
473.311	5088.19
473.53	5118.19
473.749	5225.19
473.968	5759.19
474.187	6728.19
474.406	6314.19
474.625	5384.19
474.844	5123.19
475.063	5071.19
475.282	5092.19
475.501	5155.19
475.72	5191.19
475.939	5188.19
476.158	5245.19
476.377	5305.19
476.596	5311.19
476.814	5529.19
477.033	5510.19
477.252	5556.19
477.471	5660.19
477.69	5833.19
477.908	5893.19
478.127	6038.19
478.346	6098.19
478.564	6175.19
478.783	6309.19
479.002	6460.19
479.22	6457.19
479.439	6534.19
479.658	6731.19
479.876	6742.19
480.095	6944.19
480.313	7371.19
480.532	7186.19
480.751	6985.19
480.969	6903.19
481.188	7019.19
481.406	6956.19
481.624	6538.19
481.843	6255.19
482.061	6183.19
482.28	6016.19
482.498	5937.19
482.717	6020.19
482.935	5968.19
483.153	5912.19
483.372	5929.19
483.59	5948.19
483.808	5980.19
484.027	5918.19
484.245	6133.19
484.463	6085.19
484.681	6047.19
484.9	6168.19
485.118	6203.19
485.336	6116.19
485.554	6326.19
485.772	6402.19
485.99	6346.19
486.209	6387.19
486.427	6389.19
486.645	6506.19
486.863	6595.19
487.081	6514.19
487.299	6446.19
487.517	6436.19
487.735	6451.19
487.953	6325.19
