Data from Circ_2018_H10_HRD10591_00067.txt Node
Date: Wed Jan 03 09:56:15 EST 2024
User: Yrep
Spectrometer: HR+D1059
Trigger mode: 1
Integration Time (sec): 1.000000E-1
Scans to average: 1
Electric dark correction enabled: true
Nonlinearity correction enabled: false
Boxcar width: 0
XAxis mode: Wavelengths
Number of Pixels in Spectrum: 2048
>>>>>Begin Spectral Data<<<<<
223.165	-19.69
223.4	-19.69
223.635	-19.69
223.869	-21.69
224.104	-11.69
224.338	-17.69
224.573	-14.69
224.808	-3.69
225.042	-4.69
225.277	-4.69
225.511	-2.69
225.746	0.31
225.98	16.31
226.215	-4.69
226.449	7.31
226.683	13.31
226.918	33.31
227.152	35.31
227.387	34.31
227.621	48.31
227.856	52.31
228.09	51.31
228.324	56.31
228.559	58.31
228.793	53.31
229.027	59.31
229.262	64.31
229.496	76.31
229.73	94.31
229.964	91.31
230.199	77.31
230.433	89.31
230.667	71.31
230.901	82.31
231.136	73.31
231.37	68.31
231.604	87.31
231.838	70.31
232.072	68.31
232.306	87.31
232.541	67.31
232.775	92.31
233.009	87.31
233.243	73.31
233.477	90.31
233.711	85.31
233.945	98.31
234.179	72.31
234.413	81.31
234.647	84.31
234.881	90.31
235.115	79.31
235.349	69.31
235.583	68.31
235.817	89.31
236.051	73.31
236.285	67.31
236.519	83.31
236.753	85.31
236.987	83.31
237.221	105.31
237.455	98.31
237.689	82.31
237.922	83.31
238.156	79.31
238.39	64.31
238.624	75.31
238.858	70.31
239.091	86.31
239.325	79.31
239.559	81.31
239.793	83.31
240.027	75.31
240.26	75.31
240.494	87.31
240.728	73.31
240.961	79.31
241.195	89.31
241.429	71.31
241.662	81.31
241.896	84.31
242.13	70.31
242.363	74.31
242.597	73.31
242.83	55.31
243.064	71.31
243.298	65.31
243.531	76.31
243.765	85.31
243.998	73.31
244.232	90.31
244.465	86.31
244.699	87.31
244.932	75.31
245.166	73.31
245.399	86.31
245.633	83.31
245.866	81.31
246.099	87.31
246.333	75.31
246.566	73.31
246.8	80.31
247.033	65.31
247.266	90.31
247.5	86.31
247.733	74.31
247.966	83.31
248.2	88.31
248.433	68.31
248.666	72.31
248.899	89.31
249.133	91.31
249.366	123.31
249.599	107.31
249.832	81.31
250.066	63.31
250.299	80.31
250.532	79.31
250.765	77.31
250.998	71.31
251.231	79.31
251.465	75.31
251.698	74.31
251.931	73.31
252.164	74.31
252.397	80.31
252.63	87.31
252.863	82.31
253.096	72.31
253.329	71.31
253.562	84.31
253.795	81.31
254.028	76.31
254.261	74.31
254.494	72.31
254.727	96.31
254.96	68.31
255.193	85.31
255.426	76.31
255.659	89.31
255.892	84.31
256.124	89.31
256.357	76.31
256.59	90.31
256.823	78.31
257.056	76.31
257.289	87.31
257.521	78.31
257.754	85.31
257.987	74.31
258.22	78.31
258.452	79.31
258.685	90.31
258.918	78.31
259.151	87.31
259.383	90.31
259.616	91.31
259.849	89.31
260.081	98.31
260.314	78.31
260.547	87.31
260.779	82.31
261.012	78.31
261.244	74.31
261.477	90.31
261.71	101.31
261.942	131.31
262.175	155.31
262.407	101.31
262.64	92.31
262.872	83.31
263.105	84.31
263.337	78.31
263.57	81.31
263.802	87.31
264.035	89.31
264.267	87.31
264.499	75.31
264.732	84.31
264.964	77.31
265.197	81.31
265.429	91.31
265.661	89.31
265.894	77.31
266.126	76.31
266.358	98.31
266.591	87.31
266.823	78.31
267.055	81.31
267.287	72.31
267.52	70.31
267.752	75.31
267.984	72.31
268.216	80.31
268.448	72.31
268.681	81.31
268.913	82.31
269.145	107.31
269.377	86.31
269.609	64.31
269.841	96.31
270.073	70.31
270.306	74.31
270.538	86.31
270.77	91.31
271.002	81.31
271.234	79.31
271.466	88.31
271.698	87.31
271.93	96.31
272.162	90.31
272.394	99.31
272.626	85.31
272.858	96.31
273.09	103.31
273.322	82.31
273.553	89.31
273.785	82.31
274.017	81.31
274.249	83.31
274.481	81.31
274.713	76.31
274.945	87.31
275.176	81.31
275.408	102.31
275.64	89.31
275.872	92.31
276.104	88.31
276.335	91.31
276.567	108.31
276.799	153.31
277.031	110.31
277.262	97.31
277.494	113.31
277.726	98.31
277.957	91.31
278.189	75.31
278.421	90.31
278.652	90.31
278.884	91.31
279.115	85.31
279.347	83.31
279.579	90.31
279.81	80.31
280.042	97.31
280.273	113.31
280.505	92.31
280.736	84.31
280.968	99.31
281.199	72.31
281.431	82.31
281.662	92.31
281.894	85.31
282.125	116.31
282.356	134.31
282.588	176.31
282.819	145.31
283.051	89.31
283.282	78.31
283.513	84.31
283.745	90.31
283.976	76.31
284.207	77.31
284.439	79.31
284.67	87.31
284.901	90.31
285.132	84.31
285.364	93.31
285.595	88.31
285.826	88.31
286.057	97.31
286.288	82.31
286.52	84.31
286.751	73.31
286.982	94.31
287.213	81.31
287.444	83.31
287.675	86.31
287.906	91.31
288.138	99.31
288.369	92.31
288.6	93.31
288.831	80.31
289.062	91.31
289.293	94.31
289.524	86.31
289.755	91.31
289.986	90.31
290.217	98.31
290.448	95.31
290.679	94.31
290.91	87.31
291.141	73.31
291.371	94.31
291.602	77.31
291.833	83.31
292.064	74.31
292.295	98.31
292.526	85.31
292.757	107.31
292.987	93.31
293.218	86.31
293.449	90.31
293.68	80.31
293.91	91.31
294.141	88.31
294.372	89.31
294.603	88.31
294.833	94.31
295.064	101.31
295.295	96.31
295.525	94.31
295.756	116.31
295.987	157.31
296.217	198.31
296.448	166.31
296.679	108.31
296.909	92.31
297.14	96.31
297.37	88.31
297.601	77.31
297.831	101.31
298.062	113.31
298.292	91.31
298.523	92.31
298.753	75.31
298.984	75.31
299.214	91.31
299.445	101.31
299.675	98.31
299.905	98.31
300.136	101.31
300.366	87.31
300.597	92.31
300.827	104.31
301.057	121.31
301.288	129.31
301.518	99.31
301.748	93.31
301.979	102.31
302.209	84.31
302.439	96.31
302.669	92.31
302.9	94.31
303.13	87.31
303.36	95.31
303.59	118.31
303.82	122.31
304.051	101.31
304.281	95.31
304.511	98.31
304.741	71.31
304.971	90.31
305.201	82.31
305.431	84.31
305.661	97.31
305.891	96.31
306.121	102.31
306.352	100.31
306.582	123.31
306.812	97.31
307.042	90.31
307.272	104.31
307.502	99.31
307.731	87.31
307.961	88.31
308.191	83.31
308.421	81.31
308.651	88.31
308.881	103.31
309.111	103.31
309.341	110.31
309.571	112.31
309.8	106.31
310.03	104.31
310.26	123.31
310.49	95.31
310.72	99.31
310.949	127.31
311.179	121.31
311.409	97.31
311.639	106.31
311.868	96.31
312.098	102.31
312.328	101.31
312.557	112.31
312.787	122.31
313.017	133.31
313.246	81.31
313.476	87.31
313.706	98.31
313.935	108.31
314.165	111.31
314.394	124.31
314.624	101.31
314.853	95.31
315.083	103.31
315.312	88.31
315.542	99.31
315.771	98.31
316.001	86.31
316.23	95.31
316.46	100.31
316.689	101.31
316.919	92.31
317.148	99.31
317.377	107.31
317.607	92.31
317.836	92.31
318.065	89.31
318.295	104.31
318.524	84.31
318.753	88.31
318.983	111.31
319.212	116.31
319.441	116.31
319.67	116.31
319.9	94.31
320.129	98.31
320.358	87.31
320.587	107.31
320.816	100.31
321.046	99.31
321.275	104.31
321.504	100.31
321.733	101.31
321.962	117.31
322.191	105.31
322.42	98.31
322.649	121.31
322.878	138.31
323.108	127.31
323.337	153.31
323.566	154.31
323.795	200.31
324.024	261.31
324.253	551.31
324.482	1178.31
324.71	2382.31
324.939	3122.31
325.168	1165.31
325.397	324.31
325.626	174.31
325.855	166.31
326.084	152.31
326.313	159.31
326.542	160.31
326.77	260.31
326.999	595.31
327.228	1226.31
327.457	2223.31
327.686	1761.31
327.914	517.31
328.143	288.31
328.372	238.31
328.6	179.31
328.829	152.31
329.058	170.31
329.287	183.31
329.515	149.31
329.744	136.31
329.972	149.31
330.201	180.31
330.43	266.31
330.658	198.31
330.887	223.31
331.115	160.31
331.344	115.31
331.572	99.31
331.801	125.31
332.03	139.31
332.258	106.31
332.486	95.31
332.715	113.31
332.943	94.31
333.172	99.31
333.4	126.31
333.629	122.31
333.857	135.31
334.085	171.31
334.314	198.31
334.542	284.31
334.771	281.31
334.999	146.31
335.227	93.31
335.455	94.31
335.684	88.31
335.912	103.31
336.14	99.31
336.369	114.31
336.597	103.31
336.825	99.31
337.053	92.31
337.281	83.31
337.51	109.31
337.738	94.31
337.966	91.31
338.194	111.31
338.422	116.31
338.65	97.31
338.878	98.31
339.106	83.31
339.334	96.31
339.562	74.31
339.79	88.31
340.018	96.31
340.246	94.31
340.474	97.31
340.702	84.31
340.93	81.31
341.158	123.31
341.386	91.31
341.614	110.31
341.842	103.31
342.07	95.31
342.298	99.31
342.526	86.31
342.754	86.31
342.981	86.31
343.209	81.31
343.437	82.31
343.665	80.31
343.893	91.31
344.12	104.31
344.348	87.31
344.576	74.31
344.804	101.31
345.031	108.31
345.259	99.31
345.487	84.31
345.714	97.31
345.942	81.31
346.17	101.31
346.397	90.31
346.625	92.31
346.853	90.31
347.08	95.31
347.308	102.31
347.535	107.31
347.763	101.31
347.99	115.31
348.218	97.31
348.445	122.31
348.673	122.31
348.9	91.31
349.128	95.31
349.355	99.31
349.583	88.31
349.81	100.31
350.037	99.31
350.265	96.31
350.492	93.31
350.72	98.31
350.947	114.31
351.174	120.31
351.402	127.31
351.629	117.31
351.856	107.31
352.083	120.31
352.311	120.31
352.538	135.31
352.765	119.31
352.992	125.31
353.22	132.31
353.447	110.31
353.674	105.31
353.901	102.31
354.128	107.31
354.355	81.31
354.583	104.31
354.81	99.31
355.037	84.31
355.264	97.31
355.491	107.31
355.718	104.31
355.945	93.31
356.172	81.31
356.399	106.31
356.626	88.31
356.853	86.31
357.08	79.31
357.307	95.31
357.534	90.31
357.761	91.31
357.988	91.31
358.215	105.31
358.441	91.31
358.668	72.31
358.895	81.31
359.122	81.31
359.349	76.31
359.576	95.31
359.802	131.31
360.029	153.31
360.256	135.31
360.483	114.31
360.709	114.31
360.936	96.31
361.163	98.31
361.39	105.31
361.616	115.31
361.843	107.31
362.07	91.31
362.296	115.31
362.523	102.31
362.749	98.31
362.976	96.31
363.203	103.31
363.429	85.31
363.656	91.31
363.882	92.31
364.109	101.31
364.335	80.31
364.562	89.31
364.788	103.31
365.015	102.31
365.241	110.31
365.468	121.31
365.694	140.31
365.92	100.31
366.147	108.31
366.373	99.31
366.599	90.31
366.826	81.31
367.052	88.31
367.278	85.31
367.505	93.31
367.731	108.31
367.957	96.31
368.184	98.31
368.41	114.31
368.636	139.31
368.862	145.31
369.089	130.31
369.315	95.31
369.541	99.31
369.767	106.31
369.993	111.31
370.219	82.31
370.445	88.31
370.672	79.31
370.898	77.31
371.124	86.31
371.35	93.31
371.576	91.31
371.802	97.31
372.028	88.31
372.254	91.31
372.48	85.31
372.706	79.31
372.932	99.31
373.158	86.31
373.384	111.31
373.61	102.31
373.835	89.31
374.061	90.31
374.287	99.31
374.513	90.31
374.739	103.31
374.965	91.31
375.191	98.31
375.416	83.31
375.642	87.31
375.868	92.31
376.094	90.31
376.319	89.31
376.545	92.31
376.771	86.31
376.997	89.31
377.222	79.31
377.448	91.31
377.674	110.31
377.899	80.31
378.125	78.31
378.35	79.31
378.576	78.31
378.802	97.31
379.027	89.31
379.253	92.31
379.478	84.31
379.704	92.31
379.929	80.31
380.155	92.31
380.38	90.31
380.606	103.31
380.831	83.31
381.057	98.31
381.282	103.31
381.507	89.31
381.733	105.31
381.958	90.31
382.184	92.31
382.409	95.31
382.634	110.31
382.86	96.31
383.085	101.31
383.31	104.31
383.535	89.31
383.761	100.31
383.986	102.31
384.211	94.31
384.436	111.31
384.662	80.31
384.887	99.31
385.112	100.31
385.337	91.31
385.562	94.31
385.787	100.31
386.013	102.31
386.238	117.31
386.463	128.31
386.688	115.31
386.913	96.31
387.138	92.31
387.363	122.31
387.588	103.31
387.813	95.31
388.038	96.31
388.263	103.31
388.488	102.31
388.713	95.31
388.938	78.31
389.163	102.31
389.387	106.31
389.612	101.31
389.837	86.31
390.062	87.31
390.287	96.31
390.512	94.31
390.736	89.31
390.961	90.31
391.186	83.31
391.411	94.31
391.636	72.31
391.86	87.31
392.085	86.31
392.31	88.31
392.534	89.31
392.759	95.31
392.984	70.31
393.208	72.31
393.433	85.31
393.658	93.31
393.882	77.31
394.107	85.31
394.331	88.31
394.556	80.31
394.78	88.31
395.005	80.31
395.229	72.31
395.454	92.31
395.678	89.31
395.903	95.31
396.127	79.31
396.352	82.31
396.576	81.31
396.801	79.31
397.025	79.31
397.249	84.31
397.474	99.31
397.698	95.31
397.922	84.31
398.147	89.31
398.371	85.31
398.595	87.31
398.82	85.31
399.044	92.31
399.268	94.31
399.492	75.31
399.717	85.31
399.941	85.31
400.165	101.31
400.389	91.31
400.613	79.31
400.837	90.31
401.062	92.31
401.286	92.31
401.51	95.31
401.734	106.31
401.958	110.31
402.182	176.31
402.406	234.31
402.63	167.31
402.854	96.31
403.078	97.31
403.302	74.31
403.526	79.31
403.75	86.31
403.974	94.31
404.198	76.31
404.422	78.31
404.645	95.31
404.869	82.31
405.093	125.31
405.317	122.31
405.541	129.31
405.765	122.31
405.988	152.31
406.212	265.31
406.436	394.31
406.66	230.31
406.883	124.31
407.107	106.31
407.331	110.31
407.555	120.31
407.778	110.31
408.002	92.31
408.226	91.31
408.449	84.31
408.673	103.31
408.896	97.31
409.12	88.31
409.344	85.31
409.567	85.31
409.791	90.31
410.014	97.31
410.238	88.31
410.461	94.31
410.685	94.31
410.908	89.31
411.132	98.31
411.355	103.31
411.578	94.31
411.802	88.31
412.025	93.31
412.249	85.31
412.472	84.31
412.695	93.31
412.919	85.31
413.142	83.31
413.365	84.31
413.589	91.31
413.812	101.31
414.035	90.31
414.258	91.31
414.482	96.31
414.705	92.31
414.928	104.31
415.151	93.31
415.374	83.31
415.597	101.31
415.821	83.31
416.044	94.31
416.267	95.31
416.49	88.31
416.713	84.31
416.936	97.31
417.159	85.31
417.382	89.31
417.605	91.31
417.828	100.31
418.051	98.31
418.274	85.31
418.497	87.31
418.72	87.31
418.943	99.31
419.166	100.31
419.389	97.31
419.611	85.31
419.834	94.31
420.057	81.31
420.28	86.31
420.503	91.31
420.726	83.31
420.948	93.31
421.171	99.31
421.394	90.31
421.617	89.31
421.839	82.31
422.062	81.31
422.285	96.31
422.507	101.31
422.73	116.31
422.953	103.31
423.175	78.31
423.398	81.31
423.621	91.31
423.843	93.31
424.066	95.31
424.288	88.31
424.511	99.31
424.733	87.31
424.956	111.31
425.178	117.31
425.401	111.31
425.623	100.31
425.846	104.31
426.068	83.31
426.291	94.31
426.513	96.31
426.735	105.31
426.958	106.31
427.18	120.31
427.402	163.31
427.625	250.31
427.847	216.31
428.069	150.31
428.292	111.31
428.514	94.31
428.736	92.31
428.958	97.31
429.181	97.31
429.403	94.31
429.625	73.31
429.847	90.31
430.069	94.31
430.292	107.31
430.514	98.31
430.736	94.31
430.958	80.31
431.18	91.31
431.402	88.31
431.624	91.31
431.846	87.31
432.068	93.31
432.29	79.31
432.512	78.31
432.734	91.31
432.956	90.31
433.178	113.31
433.4	101.31
433.622	90.31
433.844	94.31
434.066	106.31
434.287	106.31
434.509	98.31
434.731	90.31
434.953	80.31
435.175	87.31
435.397	90.31
435.618	92.31
435.84	106.31
436.062	120.31
436.284	125.31
436.505	107.31
436.727	108.31
436.949	82.31
437.17	82.31
437.392	95.31
437.614	114.31
437.835	129.31
438.057	152.31
438.278	121.31
438.5	102.31
438.721	137.31
438.943	115.31
439.165	81.31
439.386	98.31
439.608	100.31
439.829	92.31
440.05	141.31
440.272	186.31
440.493	129.31
440.715	89.31
440.936	104.31
441.158	88.31
441.379	92.31
441.6	116.31
441.822	114.31
442.043	109.31
442.264	107.31
442.486	107.31
442.707	106.31
442.928	116.31
443.149	174.31
443.371	183.31
443.592	134.31
443.813	125.31
444.034	110.31
444.255	87.31
444.476	83.31
444.698	100.31
444.919	84.31
445.14	150.31
445.361	131.31
445.582	130.31
445.803	174.31
446.024	167.31
446.245	158.31
446.466	136.31
446.687	91.31
446.908	81.31
447.129	102.31
447.35	88.31
447.571	115.31
447.792	105.31
448.013	112.31
448.234	138.31
448.455	102.31
448.675	138.31
448.896	134.31
449.117	104.31
449.338	112.31
449.559	136.31
449.779	153.31
450	101.31
450.221	95.31
450.442	96.31
450.662	114.31
450.883	138.31
451.104	144.31
451.324	112.31
451.545	90.31
451.766	93.31
451.986	87.31
452.207	92.31
452.428	98.31
452.648	127.31
452.869	136.31
453.089	164.31
453.31	145.31
453.53	111.31
453.751	105.31
453.971	131.31
454.192	143.31
454.412	113.31
454.633	80.31
454.853	82.31
455.073	90.31
455.294	108.31
455.514	97.31
455.734	88.31
455.955	83.31
456.175	86.31
456.395	79.31
456.616	88.31
456.836	82.31
457.056	84.31
457.276	89.31
457.497	79.31
457.717	82.31
457.937	88.31
458.157	92.31
458.377	99.31
458.598	136.31
458.818	227.31
459.038	254.31
459.258	151.31
459.478	101.31
459.698	76.31
459.918	92.31
460.138	99.31
460.358	90.31
460.578	75.31
460.798	105.31
461.018	88.31
461.238	104.31
461.458	99.31
461.678	82.31
461.898	88.31
462.118	89.31
462.338	86.31
462.558	77.31
462.777	72.31
462.997	90.31
463.217	76.31
463.437	75.31
463.657	90.31
463.876	89.31
464.096	94.31
464.316	99.31
464.536	102.31
464.755	105.31
464.975	143.31
465.195	263.31
465.414	273.31
465.634	105.31
465.854	96.31
466.073	104.31
466.293	84.31
466.512	83.31
466.732	91.31
466.951	95.31
467.171	91.31
467.391	106.31
467.61	115.31
467.829	128.31
468.049	149.31
468.268	159.31
468.488	99.31
468.707	91.31
468.927	83.31
469.146	86.31
469.365	88.31
469.585	86.31
469.804	102.31
470.023	109.31
470.243	106.31
470.462	131.31
470.681	141.31
470.901	98.31
471.12	94.31
471.339	94.31
471.558	96.31
471.777	97.31
471.997	101.31
472.216	202.31
472.435	349.31
472.654	140.31
472.873	104.31
473.092	78.31
473.311	86.31
473.53	86.31
473.749	91.31
473.968	116.31
474.187	125.31
474.406	111.31
474.625	80.31
474.844	97.31
475.063	99.31
475.282	82.31
475.501	86.31
475.72	76.31
475.939	90.31
476.158	74.31
476.377	83.31
476.596	100.31
476.814	104.31
477.033	100.31
477.252	100.31
477.471	111.31
477.69	106.31
477.908	99.31
478.127	98.31
478.346	93.31
478.564	103.31
478.783	115.31
479.002	102.31
479.22	89.31
479.439	110.31
479.658	119.31
479.876	128.31
480.095	95.31
480.313	99.31
480.532	85.31
480.751	104.31
480.969	185.31
481.188	542.31
481.406	390.31
481.624	137.31
481.843	103.31
482.061	91.31
482.28	88.31
482.498	95.31
482.717	80.31
482.935	85.31
483.153	75.31
483.372	73.31
483.59	72.31
483.808	86.31
484.027	96.31
484.245	92.31
484.463	98.31
484.681	107.31
484.9	94.31
485.118	93.31
485.336	88.31
485.554	107.31
485.772	95.31
485.99	97.31
486.209	94.31
486.427	105.31
486.645	119.31
486.863	140.31
487.081	100.31
487.299	98.31
487.517	90.31
487.735	100.31
487.953	72.31
488.171	89.31
488.389	110.31
488.607	106.31
488.825	97.31
489.043	86.31
489.261	87.31
489.479	96.31
489.696	86.31
489.914	87.31
490.132	82.31
490.35	80.31
490.568	93.31
490.786	84.31
491.003	91.31
491.221	96.31
491.439	96.31
491.657	100.31
491.874	93.31
492.092	91.31
492.31	98.31
492.527	104.31
492.745	101.31
492.963	95.31
493.18	101.31
493.398	92.31
493.615	105.31
493.833	103.31
494.05	74.31
494.268	79.31
494.485	83.31
494.703	86.31
494.92	81.31
495.138	98.31
495.355	86.31
495.573	90.31
495.79	97.31
496.008	98.31
496.225	87.31
496.442	89.31
496.66	98.31
496.877	106.31
497.094	95.31
497.312	83.31
497.529	93.31
497.746	107.31
497.963	99.31
498.181	87.31
498.398	106.31
498.615	112.31
498.832	99.31
499.049	87.31
499.267	96.31
499.484	98.31
499.701	80.31
499.918	88.31
500.135	81.31
500.352	91.31
500.569	81.31
500.786	88.31
501.003	84.31
501.22	98.31
501.437	114.31
501.654	111.31
501.871	123.31
502.088	99.31
502.305	90.31
502.522	84.31
502.739	76.31
502.956	107.31
503.172	104.31
503.389	107.31
503.606	119.31
503.823	113.31
504.04	82.31
504.256	84.31
504.473	89.31
504.69	82.31
504.907	91.31
505.123	103.31
505.34	87.31
505.557	99.31
505.773	96.31
505.99	94.31
506.207	99.31
506.423	80.31
506.64	76.31
506.856	95.31
507.073	85.31
507.289	102.31
507.506	107.31
507.722	143.31
507.939	130.31
508.155	99.31
508.372	96.31
508.588	89.31
508.805	111.31
509.021	99.31
509.238	96.31
509.454	103.31
509.67	111.31
509.887	134.31
510.103	153.31
510.319	309.31
510.536	1228.31
510.752	4470.31
510.968	1210.31
511.184	226.31
511.401	137.31
511.617	105.31
511.833	104.31
512.049	94.31
512.265	91.31
512.481	110.31
512.698	99.31
512.914	91.31
513.13	96.31
513.346	94.31
513.562	102.31
513.778	132.31
