Data from Circ_2018_H10_HRD10591_00045.txt Node
Date: Wed Jan 03 09:56:11 EST 2024
User: Yrep
Spectrometer: HR+D1059
Trigger mode: 1
Integration Time (sec): 1.000000E-1
Scans to average: 1
Electric dark correction enabled: true
Nonlinearity correction enabled: false
Boxcar width: 0
XAxis mode: Wavelengths
Number of Pixels in Spectrum: 2048
>>>>>Begin Spectral Data<<<<<
223.165	-13.44
223.4	-13.44
223.635	-13.44
223.869	-19.44
224.104	-23.44
224.338	-8.44
224.573	-9.44
224.808	0.56
225.042	8.56
225.277	6.56
225.511	-11.44
225.746	-9.44
225.98	-1.44
226.215	2.56
226.449	17.56
226.683	16.56
226.918	22.56
227.152	21.56
227.387	31.56
227.621	35.56
227.856	44.56
228.09	38.56
228.324	55.56
228.559	60.56
228.793	56.56
229.027	65.56
229.262	62.56
229.496	88.56
229.73	85.56
229.964	84.56
230.199	66.56
230.433	75.56
230.667	71.56
230.901	74.56
231.136	70.56
231.37	86.56
231.604	64.56
231.838	78.56
232.072	69.56
232.306	88.56
232.541	79.56
232.775	78.56
233.009	81.56
233.243	78.56
233.477	84.56
233.711	77.56
233.945	85.56
234.179	77.56
234.413	85.56
234.647	75.56
234.881	75.56
235.115	75.56
235.349	86.56
235.583	82.56
235.817	65.56
236.051	77.56
236.285	87.56
236.519	84.56
236.753	82.56
236.987	88.56
237.221	92.56
237.455	84.56
237.689	73.56
237.922	76.56
238.156	83.56
238.39	57.56
238.624	75.56
238.858	72.56
239.091	78.56
239.325	71.56
239.559	83.56
239.793	84.56
240.027	86.56
240.26	75.56
240.494	68.56
240.728	76.56
240.961	78.56
241.195	56.56
241.429	59.56
241.662	88.56
241.896	83.56
242.13	73.56
242.363	77.56
242.597	67.56
242.83	82.56
243.064	74.56
243.298	58.56
243.531	70.56
243.765	88.56
243.998	68.56
244.232	81.56
244.465	78.56
244.699	65.56
244.932	66.56
245.166	81.56
245.399	90.56
245.633	76.56
245.866	78.56
246.099	83.56
246.333	90.56
246.566	82.56
246.8	74.56
247.033	68.56
247.266	91.56
247.5	67.56
247.733	90.56
247.966	77.56
248.2	66.56
248.433	80.56
248.666	76.56
248.899	86.56
249.133	88.56
249.366	99.56
249.599	86.56
249.832	97.56
250.066	80.56
250.299	87.56
250.532	69.56
250.765	79.56
250.998	69.56
251.231	66.56
251.465	70.56
251.698	76.56
251.931	90.56
252.164	95.56
252.397	74.56
252.63	85.56
252.863	84.56
253.096	81.56
253.329	86.56
253.562	81.56
253.795	78.56
254.028	82.56
254.261	93.56
254.494	76.56
254.727	84.56
254.96	73.56
255.193	83.56
255.426	86.56
255.659	84.56
255.892	86.56
256.124	75.56
256.357	89.56
256.59	81.56
256.823	84.56
257.056	78.56
257.289	77.56
257.521	91.56
257.754	72.56
257.987	86.56
258.22	79.56
258.452	71.56
258.685	85.56
258.918	90.56
259.151	73.56
259.383	78.56
259.616	92.56
259.849	92.56
260.081	72.56
260.314	85.56
260.547	76.56
260.779	73.56
261.012	86.56
261.244	96.56
261.477	104.56
261.71	104.56
261.942	115.56
262.175	126.56
262.407	100.56
262.64	76.56
262.872	78.56
263.105	82.56
263.337	77.56
263.57	84.56
263.802	80.56
264.035	88.56
264.267	78.56
264.499	86.56
264.732	77.56
264.964	81.56
265.197	90.56
265.429	90.56
265.661	85.56
265.894	69.56
266.126	100.56
266.358	71.56
266.591	87.56
266.823	78.56
267.055	79.56
267.287	82.56
267.52	77.56
267.752	90.56
267.984	83.56
268.216	80.56
268.448	83.56
268.681	90.56
268.913	97.56
269.145	90.56
269.377	84.56
269.609	95.56
269.841	87.56
270.073	82.56
270.306	75.56
270.538	76.56
270.77	81.56
271.002	74.56
271.234	101.56
271.466	88.56
271.698	92.56
271.93	88.56
272.162	82.56
272.394	87.56
272.626	77.56
272.858	77.56
273.09	81.56
273.322	84.56
273.553	95.56
273.785	92.56
274.017	93.56
274.249	76.56
274.481	85.56
274.713	83.56
274.945	76.56
275.176	84.56
275.408	81.56
275.64	85.56
275.872	79.56
276.104	90.56
276.335	103.56
276.567	99.56
276.799	120.56
277.031	88.56
277.262	93.56
277.494	80.56
277.726	97.56
277.957	87.56
278.189	92.56
278.421	76.56
278.652	98.56
278.884	87.56
279.115	90.56
279.347	85.56
279.579	95.56
279.81	82.56
280.042	78.56
280.273	89.56
280.505	71.56
280.736	92.56
280.968	92.56
281.199	91.56
281.431	90.56
281.662	83.56
281.894	75.56
282.125	120.56
282.356	135.56
282.588	154.56
282.819	132.56
283.051	99.56
283.282	91.56
283.513	76.56
283.745	85.56
283.976	93.56
284.207	88.56
284.439	90.56
284.67	82.56
284.901	85.56
285.132	87.56
285.364	89.56
285.595	82.56
285.826	93.56
286.057	89.56
286.288	83.56
286.52	89.56
286.751	91.56
286.982	90.56
287.213	95.56
287.444	91.56
287.675	88.56
287.906	116.56
288.138	103.56
288.369	98.56
288.6	78.56
288.831	96.56
289.062	91.56
289.293	86.56
289.524	86.56
289.755	75.56
289.986	82.56
290.217	80.56
290.448	86.56
290.679	82.56
290.91	92.56
291.141	72.56
291.371	75.56
291.602	103.56
291.833	78.56
292.064	87.56
292.295	101.56
292.526	89.56
292.757	99.56
292.987	90.56
293.218	92.56
293.449	88.56
293.68	102.56
293.91	104.56
294.141	77.56
294.372	92.56
294.603	85.56
294.833	74.56
295.064	85.56
295.295	83.56
295.525	101.56
295.756	99.56
295.987	110.56
296.217	141.56
296.448	130.56
296.679	104.56
296.909	96.56
297.14	86.56
297.37	88.56
297.601	88.56
297.831	88.56
298.062	99.56
298.292	74.56
298.523	97.56
298.753	83.56
298.984	85.56
299.214	97.56
299.445	89.56
299.675	81.56
299.905	91.56
300.136	91.56
300.366	97.56
300.597	89.56
300.827	99.56
301.057	108.56
301.288	105.56
301.518	98.56
301.748	91.56
301.979	103.56
302.209	78.56
302.439	80.56
302.669	98.56
302.9	91.56
303.13	79.56
303.36	109.56
303.59	114.56
303.82	123.56
304.051	79.56
304.281	76.56
304.511	90.56
304.741	94.56
304.971	86.56
305.201	88.56
305.431	89.56
305.661	94.56
305.891	112.56
306.121	90.56
306.352	101.56
306.582	120.56
306.812	90.56
307.042	92.56
307.272	115.56
307.502	97.56
307.731	100.56
307.961	90.56
308.191	93.56
308.421	77.56
308.651	78.56
308.881	89.56
309.111	81.56
309.341	99.56
309.571	113.56
309.8	107.56
310.03	99.56
310.26	93.56
310.49	92.56
310.72	98.56
310.949	111.56
311.179	108.56
311.409	98.56
311.639	88.56
311.868	92.56
312.098	108.56
312.328	101.56
312.557	85.56
312.787	101.56
313.017	103.56
313.246	92.56
313.476	93.56
313.706	104.56
313.935	93.56
314.165	90.56
314.394	96.56
314.624	86.56
314.853	93.56
315.083	95.56
315.312	86.56
315.542	88.56
315.771	101.56
316.001	97.56
316.23	83.56
316.46	89.56
316.689	87.56
316.919	98.56
317.148	101.56
317.377	83.56
317.607	86.56
317.836	100.56
318.065	77.56
318.295	83.56
318.524	101.56
318.753	102.56
318.983	91.56
319.212	97.56
319.441	112.56
319.67	104.56
319.9	100.56
320.129	90.56
320.358	85.56
320.587	91.56
320.816	101.56
321.046	107.56
321.275	101.56
321.504	120.56
321.733	94.56
321.962	100.56
322.191	113.56
322.42	92.56
322.649	103.56
322.878	101.56
323.108	119.56
323.337	122.56
323.566	125.56
323.795	157.56
324.024	209.56
324.253	420.56
324.482	858.56
324.71	1728.56
324.939	2212.56
325.168	813.56
325.397	245.56
325.626	149.56
325.855	131.56
326.084	127.56
326.313	128.56
326.542	155.56
326.77	241.56
326.999	462.56
327.228	924.56
327.457	1644.56
327.686	1305.56
327.914	376.56
328.143	205.56
328.372	155.56
328.6	143.56
328.829	132.56
329.058	132.56
329.287	137.56
329.515	113.56
329.744	110.56
329.972	115.56
330.201	124.56
330.43	137.56
330.658	149.56
330.887	160.56
331.115	132.56
331.344	100.56
331.572	96.56
331.801	117.56
332.03	106.56
332.258	103.56
332.486	102.56
332.715	92.56
332.943	89.56
333.172	78.56
333.4	102.56
333.629	105.56
333.857	108.56
334.085	112.56
334.314	107.56
334.542	138.56
334.771	130.56
334.999	117.56
335.227	96.56
335.455	96.56
335.684	90.56
335.912	85.56
336.14	90.56
336.369	89.56
336.597	100.56
336.825	105.56
337.053	99.56
337.281	90.56
337.51	92.56
337.738	100.56
337.966	83.56
338.194	90.56
338.422	103.56
338.65	99.56
338.878	87.56
339.106	98.56
339.334	91.56
339.562	93.56
339.79	86.56
340.018	91.56
340.246	96.56
340.474	92.56
340.702	85.56
340.93	90.56
341.158	102.56
341.386	92.56
341.614	98.56
341.842	86.56
342.07	84.56
342.298	99.56
342.526	105.56
342.754	91.56
342.981	84.56
343.209	90.56
343.437	93.56
343.665	92.56
343.893	98.56
344.12	88.56
344.348	92.56
344.576	86.56
344.804	92.56
345.031	98.56
345.259	108.56
345.487	99.56
345.714	89.56
345.942	105.56
346.17	105.56
346.397	106.56
346.625	103.56
346.853	100.56
347.08	95.56
347.308	98.56
347.535	99.56
347.763	89.56
347.99	86.56
348.218	95.56
348.445	103.56
348.673	100.56
348.9	107.56
349.128	100.56
349.355	87.56
349.583	96.56
349.81	88.56
350.037	85.56
350.265	96.56
350.492	88.56
350.72	82.56
350.947	115.56
351.174	103.56
351.402	116.56
351.629	113.56
351.856	91.56
352.083	104.56
352.311	91.56
352.538	118.56
352.765	105.56
352.992	130.56
353.22	113.56
353.447	115.56
353.674	112.56
353.901	91.56
354.128	81.56
354.355	100.56
354.583	99.56
354.81	104.56
355.037	104.56
355.264	108.56
355.491	89.56
355.718	95.56
355.945	89.56
356.172	86.56
356.399	89.56
356.626	105.56
356.853	88.56
357.08	94.56
357.307	83.56
357.534	72.56
357.761	92.56
357.988	89.56
358.215	104.56
358.441	90.56
358.668	96.56
358.895	100.56
359.122	96.56
359.349	82.56
359.576	103.56
359.802	112.56
360.029	137.56
360.256	119.56
360.483	107.56
360.709	77.56
360.936	98.56
361.163	100.56
361.39	92.56
361.616	92.56
361.843	97.56
362.07	85.56
362.296	96.56
362.523	82.56
362.749	85.56
362.976	94.56
363.203	90.56
363.429	85.56
363.656	85.56
363.882	89.56
364.109	93.56
364.335	101.56
364.562	89.56
364.788	98.56
365.015	91.56
365.241	111.56
365.468	118.56
365.694	125.56
365.92	99.56
366.147	113.56
366.373	90.56
366.599	92.56
366.826	86.56
367.052	91.56
367.278	78.56
367.505	90.56
367.731	89.56
367.957	88.56
368.184	92.56
368.41	111.56
368.636	114.56
368.862	126.56
369.089	115.56
369.315	87.56
369.541	94.56
369.767	78.56
369.993	93.56
370.219	94.56
370.445	91.56
370.672	85.56
370.898	89.56
371.124	81.56
371.35	86.56
371.576	86.56
371.802	88.56
372.028	107.56
372.254	94.56
372.48	94.56
372.706	85.56
372.932	74.56
373.158	87.56
373.384	93.56
373.61	95.56
373.835	96.56
374.061	104.56
374.287	78.56
374.513	101.56
374.739	87.56
374.965	94.56
375.191	86.56
375.416	93.56
375.642	95.56
375.868	93.56
376.094	85.56
376.319	92.56
376.545	100.56
376.771	95.56
376.997	99.56
377.222	100.56
377.448	84.56
377.674	100.56
377.899	92.56
378.125	99.56
378.35	90.56
378.576	95.56
378.802	78.56
379.027	93.56
379.253	101.56
379.478	85.56
379.704	105.56
379.929	89.56
380.155	90.56
380.38	90.56
380.606	91.56
380.831	86.56
381.057	104.56
381.282	103.56
381.507	89.56
381.733	101.56
381.958	102.56
382.184	104.56
382.409	101.56
382.634	108.56
382.86	101.56
383.085	99.56
383.31	97.56
383.535	99.56
383.761	95.56
383.986	101.56
384.211	89.56
384.436	112.56
384.662	93.56
384.887	90.56
385.112	115.56
385.337	114.56
385.562	92.56
385.787	110.56
386.013	97.56
386.238	109.56
386.463	117.56
386.688	102.56
386.913	110.56
387.138	92.56
387.363	120.56
387.588	105.56
387.813	107.56
388.038	105.56
388.263	115.56
388.488	100.56
388.713	101.56
388.938	82.56
389.163	91.56
389.387	102.56
389.612	110.56
389.837	82.56
390.062	86.56
390.287	78.56
390.512	100.56
390.736	100.56
390.961	94.56
391.186	96.56
391.411	99.56
391.636	97.56
391.86	86.56
392.085	77.56
392.31	77.56
392.534	92.56
392.759	84.56
392.984	93.56
393.208	97.56
393.433	104.56
393.658	86.56
393.882	83.56
394.107	89.56
394.331	74.56
394.556	88.56
394.78	94.56
395.005	89.56
395.229	91.56
395.454	94.56
395.678	96.56
395.903	88.56
396.127	86.56
396.352	90.56
396.576	77.56
396.801	69.56
397.025	93.56
397.249	84.56
397.474	84.56
397.698	77.56
397.922	95.56
398.147	87.56
398.371	83.56
398.595	84.56
398.82	83.56
399.044	89.56
399.268	86.56
399.492	67.56
399.717	83.56
399.941	90.56
400.165	96.56
400.389	92.56
400.613	91.56
400.837	87.56
401.062	70.56
401.286	84.56
401.51	85.56
401.734	99.56
401.958	92.56
402.182	138.56
402.406	160.56
402.63	132.56
402.854	88.56
403.078	87.56
403.302	91.56
403.526	88.56
403.75	92.56
403.974	81.56
404.198	87.56
404.422	80.56
404.645	83.56
404.869	95.56
405.093	98.56
405.317	104.56
405.541	100.56
405.765	97.56
405.988	127.56
406.212	198.56
406.436	265.56
406.66	164.56
406.883	107.56
407.107	101.56
407.331	93.56
407.555	106.56
407.778	93.56
408.002	91.56
408.226	100.56
408.449	90.56
408.673	91.56
408.896	89.56
409.12	97.56
409.344	94.56
409.567	82.56
409.791	89.56
410.014	86.56
410.238	95.56
410.461	100.56
410.685	84.56
410.908	104.56
411.132	109.56
411.355	96.56
411.578	114.56
411.802	93.56
412.025	89.56
412.249	92.56
412.472	94.56
412.695	99.56
412.919	90.56
413.142	79.56
413.365	97.56
413.589	80.56
413.812	76.56
414.035	87.56
414.258	89.56
414.482	87.56
414.705	98.56
414.928	99.56
415.151	91.56
415.374	101.56
415.597	96.56
415.821	91.56
416.044	90.56
416.267	89.56
416.49	75.56
416.713	95.56
416.936	90.56
417.159	102.56
417.382	105.56
417.605	87.56
417.828	97.56
418.051	79.56
418.274	98.56
418.497	82.56
418.72	92.56
418.943	105.56
419.166	83.56
419.389	99.56
419.611	97.56
419.834	96.56
420.057	91.56
420.28	87.56
420.503	84.56
420.726	83.56
420.948	97.56
421.171	101.56
421.394	78.56
421.617	73.56
421.839	93.56
422.062	93.56
422.285	94.56
422.507	107.56
422.73	110.56
422.953	93.56
423.175	101.56
423.398	78.56
423.621	91.56
423.843	96.56
424.066	75.56
424.288	86.56
424.511	94.56
424.733	103.56
424.956	103.56
425.178	83.56
425.401	106.56
425.623	114.56
425.846	87.56
426.068	97.56
426.291	93.56
426.513	87.56
426.735	84.56
426.958	99.56
427.18	120.56
427.402	127.56
427.625	198.56
427.847	136.56
428.069	114.56
428.292	85.56
428.514	88.56
428.736	83.56
428.958	81.56
429.181	87.56
429.403	78.56
429.625	86.56
429.847	100.56
430.069	91.56
430.292	104.56
430.514	85.56
430.736	79.56
430.958	80.56
431.18	76.56
431.402	76.56
431.624	85.56
431.846	76.56
432.068	93.56
432.29	90.56
432.512	88.56
432.734	82.56
432.956	90.56
433.178	108.56
433.4	92.56
433.622	82.56
433.844	84.56
434.066	85.56
434.287	98.56
434.509	88.56
434.731	88.56
434.953	88.56
435.175	100.56
435.397	89.56
435.618	94.56
435.84	101.56
436.062	116.56
436.284	107.56
436.505	91.56
436.727	104.56
436.949	97.56
437.17	81.56
437.392	89.56
437.614	90.56
437.835	126.56
438.057	128.56
438.278	115.56
438.5	109.56
438.721	131.56
438.943	98.56
439.165	91.56
439.386	100.56
439.608	90.56
439.829	89.56
440.05	104.56
440.272	149.56
440.493	109.56
440.715	94.56
440.936	86.56
441.158	93.56
441.379	84.56
441.6	91.56
441.822	92.56
442.043	99.56
442.264	102.56
442.486	105.56
442.707	91.56
442.928	110.56
443.149	139.56
443.371	131.56
443.592	118.56
443.813	106.56
444.034	115.56
444.255	92.56
444.476	74.56
444.698	92.56
444.919	93.56
445.14	137.56
445.361	123.56
445.582	127.56
445.803	136.56
446.024	147.56
446.245	162.56
446.466	119.56
446.687	116.56
446.908	103.56
447.129	80.56
447.35	83.56
447.571	103.56
447.792	88.56
448.013	87.56
448.234	103.56
448.455	93.56
448.675	113.56
448.896	116.56
449.117	97.56
449.338	100.56
449.559	114.56
449.779	152.56
450	97.56
450.221	100.56
450.442	85.56
450.662	109.56
450.883	99.56
451.104	107.56
451.324	89.56
451.545	90.56
451.766	94.56
451.986	82.56
452.207	100.56
452.428	85.56
452.648	105.56
452.869	98.56
453.089	108.56
453.31	115.56
453.53	91.56
453.751	101.56
453.971	104.56
454.192	109.56
454.412	102.56
454.633	88.56
454.853	82.56
455.073	72.56
455.294	83.56
455.514	116.56
455.734	103.56
455.955	91.56
456.175	89.56
456.395	88.56
456.616	74.56
456.836	86.56
457.056	83.56
457.276	90.56
457.497	88.56
457.717	88.56
457.937	94.56
458.157	89.56
458.377	86.56
458.598	107.56
458.818	148.56
459.038	164.56
459.258	132.56
459.478	92.56
459.698	80.56
459.918	87.56
460.138	104.56
460.358	87.56
460.578	97.56
460.798	76.56
461.018	87.56
461.238	87.56
461.458	88.56
461.678	91.56
461.898	91.56
462.118	91.56
462.338	81.56
462.558	78.56
462.777	92.56
462.997	91.56
463.217	101.56
463.437	84.56
463.657	85.56
463.876	83.56
464.096	90.56
464.316	90.56
464.536	92.56
464.755	101.56
464.975	120.56
465.195	191.56
465.414	180.56
465.634	102.56
465.854	97.56
466.073	77.56
466.293	82.56
466.512	94.56
466.732	85.56
466.951	89.56
467.171	98.56
467.391	106.56
467.61	114.56
467.829	107.56
468.049	101.56
468.268	105.56
468.488	82.56
468.707	82.56
468.927	86.56
469.146	89.56
469.365	86.56
469.585	91.56
469.804	104.56
470.023	104.56
470.243	89.56
470.462	101.56
470.681	121.56
470.901	88.56
471.12	78.56
471.339	89.56
471.558	99.56
471.777	79.56
471.997	68.56
472.216	107.56
472.435	154.56
472.654	88.56
472.873	82.56
473.092	98.56
473.311	104.56
473.53	97.56
473.749	87.56
473.968	90.56
474.187	105.56
474.406	105.56
474.625	97.56
474.844	91.56
475.063	89.56
475.282	97.56
475.501	95.56
475.72	107.56
475.939	89.56
476.158	95.56
476.377	78.56
476.596	99.56
476.814	90.56
477.033	100.56
477.252	87.56
477.471	96.56
477.69	90.56
477.908	81.56
478.127	87.56
478.346	93.56
478.564	80.56
478.783	99.56
479.002	95.56
479.22	97.56
479.439	104.56
479.658	101.56
479.876	103.56
480.095	91.56
480.313	93.56
480.532	102.56
480.751	91.56
480.969	124.56
481.188	204.56
481.406	161.56
481.624	97.56
481.843	98.56
482.061	105.56
482.28	84.56
482.498	93.56
482.717	83.56
482.935	101.56
483.153	98.56
483.372	87.56
483.59	85.56
483.808	82.56
484.027	88.56
484.245	93.56
484.463	82.56
484.681	100.56
484.9	103.56
485.118	94.56
485.336	92.56
485.554	112.56
485.772	85.56
485.99	110.56
486.209	87.56
486.427	103.56
486.645	104.56
486.863	124.56
487.081	109.56
487.299	100.56
487.517	96.56
487.735	83.56
487.953	88.56
488.171	94.56
488.389	107.56
488.607	73.56
488.825	94.56
489.043	94.56
489.261	74.56
489.479	91.56
489.696	99.56
489.914	93.56
490.132	92.56
490.35	84.56
490.568	82.56
490.786	85.56
491.003	105.56
491.221	98.56
491.439	76.56
491.657	100.56
491.874	95.56
492.092	94.56
492.31	89.56
492.527	80.56
492.745	89.56
492.963	82.56
493.18	70.56
493.398	78.56
493.615	99.56
493.833	82.56
494.05	102.56
494.268	84.56
494.485	89.56
494.703	95.56
494.92	92.56
495.138	100.56
495.355	85.56
495.573	85.56
495.79	95.56
496.008	97.56
496.225	89.56
496.442	90.56
496.66	93.56
496.877	77.56
497.094	85.56
497.312	79.56
497.529	93.56
497.746	97.56
497.963	93.56
498.181	102.56
498.398	93.56
498.615	118.56
498.832	105.56
499.049	84.56
499.267	86.56
499.484	97.56
499.701	86.56
499.918	98.56
500.135	90.56
500.352	75.56
500.569	93.56
500.786	87.56
501.003	93.56
501.22	96.56
501.437	93.56
501.654	83.56
501.871	98.56
502.088	101.56
502.305	100.56
502.522	93.56
502.739	99.56
502.956	96.56
503.172	105.56
503.389	104.56
503.606	115.56
503.823	92.56
504.04	90.56
504.256	81.56
504.473	93.56
504.69	95.56
504.907	96.56
505.123	94.56
505.34	88.56
505.557	94.56
505.773	68.56
505.99	82.56
506.207	84.56
506.423	96.56
506.64	94.56
506.856	94.56
507.073	79.56
507.289	96.56
507.506	101.56
507.722	113.56
507.939	121.56
508.155	96.56
508.372	93.56
508.588	80.56
508.805	96.56
509.021	108.56
509.238	94.56
509.454	95.56
509.67	101.56
509.887	103.56
510.103	143.56
510.319	238.56
510.536	889.56
510.752	2948.56
510.968	837.56
511.184	171.56
511.401	119.56
511.617	116.56
511.833	106.56
512.049	102.56
512.265	109.56
512.481	84.56
512.698	99.56
512.914	104.56
513.13	74.56
513.346	100.56
513.562	95.56
513.778	96.56
513.994	74.56
514.21	98.56
514.426	119.56
514.642	146.56
514.858	138.56
