Data from Circ_2018_H10_HRD10591_00018.txt Node
Date: Wed Jan 03 09:56:05 EST 2024
User: Yrep
Spectrometer: HR+D1059
Trigger mode: 1
Integration Time (sec): 1.000000E-1
Scans to average: 1
Electric dark correction enabled: true
Nonlinearity correction enabled: false
Boxcar width: 0
XAxis mode: Wavelengths
Number of Pixels in Spectrum: 2048
>>>>>Begin Spectral Data<<<<<
223.165	-21.5
223.4	-21.5
223.635	-21.5
223.869	-20.5
224.104	-22.5
224.338	-19.5
224.573	-24.5
224.808	-14.5
225.042	4.5
225.277	-6.5
225.511	-0.5
225.746	11.5
225.98	7.5
226.215	2.5
226.449	14.5
226.683	20.5
226.918	29.5
227.152	39.5
227.387	30.5
227.621	28.5
227.856	29.5
228.09	39.5
228.324	55.5
228.559	58.5
228.793	50.5
229.027	62.5
229.262	70.5
229.496	72.5
229.73	80.5
229.964	83.5
230.199	75.5
230.433	64.5
230.667	74.5
230.901	75.5
231.136	84.5
231.37	85.5
231.604	69.5
231.838	66.5
232.072	74.5
232.306	72.5
232.541	86.5
232.775	82.5
233.009	77.5
233.243	86.5
233.477	76.5
233.711	81.5
233.945	82.5
234.179	64.5
234.413	94.5
234.647	70.5
234.881	63.5
235.115	81.5
235.349	68.5
235.583	82.5
235.817	74.5
236.051	89.5
236.285	70.5
236.519	71.5
236.753	70.5
236.987	78.5
237.221	82.5
237.455	90.5
237.689	72.5
237.922	63.5
238.156	68.5
238.39	64.5
238.624	66.5
238.858	74.5
239.091	65.5
239.325	73.5
239.559	75.5
239.793	76.5
240.027	56.5
240.26	67.5
240.494	80.5
240.728	69.5
240.961	85.5
241.195	79.5
241.429	70.5
241.662	81.5
241.896	60.5
242.13	63.5
242.363	86.5
242.597	74.5
242.83	82.5
243.064	72.5
243.298	64.5
243.531	66.5
243.765	67.5
243.998	56.5
244.232	71.5
244.465	90.5
244.699	80.5
244.932	76.5
245.166	75.5
245.399	90.5
245.633	71.5
245.866	76.5
246.099	68.5
246.333	74.5
246.566	73.5
246.8	79.5
247.033	96.5
247.266	70.5
247.5	71.5
247.733	71.5
247.966	81.5
248.2	77.5
248.433	72.5
248.666	73.5
248.899	76.5
249.133	70.5
249.366	78.5
249.599	91.5
249.832	76.5
250.066	71.5
250.299	77.5
250.532	73.5
250.765	85.5
250.998	72.5
251.231	56.5
251.465	70.5
251.698	65.5
251.931	65.5
252.164	70.5
252.397	75.5
252.63	71.5
252.863	82.5
253.096	82.5
253.329	78.5
253.562	72.5
253.795	74.5
254.028	85.5
254.261	66.5
254.494	77.5
254.727	83.5
254.96	75.5
255.193	87.5
255.426	72.5
255.659	72.5
255.892	64.5
256.124	73.5
256.357	77.5
256.59	71.5
256.823	83.5
257.056	79.5
257.289	90.5
257.521	83.5
257.754	68.5
257.987	89.5
258.22	74.5
258.452	79.5
258.685	72.5
258.918	89.5
259.151	74.5
259.383	71.5
259.616	75.5
259.849	76.5
260.081	82.5
260.314	78.5
260.547	75.5
260.779	65.5
261.012	82.5
261.244	78.5
261.477	87.5
261.71	88.5
261.942	121.5
262.175	116.5
262.407	91.5
262.64	88.5
262.872	71.5
263.105	87.5
263.337	75.5
263.57	67.5
263.802	83.5
264.035	74.5
264.267	73.5
264.499	93.5
264.732	96.5
264.964	79.5
265.197	90.5
265.429	85.5
265.661	84.5
265.894	76.5
266.126	89.5
266.358	78.5
266.591	78.5
266.823	78.5
267.055	77.5
267.287	88.5
267.52	76.5
267.752	87.5
267.984	83.5
268.216	82.5
268.448	86.5
268.681	77.5
268.913	94.5
269.145	86.5
269.377	70.5
269.609	78.5
269.841	81.5
270.073	79.5
270.306	95.5
270.538	81.5
270.77	72.5
271.002	75.5
271.234	84.5
271.466	70.5
271.698	72.5
271.93	75.5
272.162	72.5
272.394	94.5
272.626	76.5
272.858	75.5
273.09	80.5
273.322	85.5
273.553	72.5
273.785	81.5
274.017	70.5
274.249	74.5
274.481	75.5
274.713	86.5
274.945	96.5
275.176	67.5
275.408	64.5
275.64	84.5
275.872	88.5
276.104	87.5
276.335	68.5
276.567	94.5
276.799	112.5
277.031	91.5
277.262	74.5
277.494	99.5
277.726	60.5
277.957	75.5
278.189	71.5
278.421	80.5
278.652	81.5
278.884	75.5
279.115	84.5
279.347	73.5
279.579	70.5
279.81	72.5
280.042	88.5
280.273	84.5
280.505	79.5
280.736	84.5
280.968	95.5
281.199	87.5
281.431	82.5
281.662	87.5
281.894	82.5
282.125	83.5
282.356	123.5
282.588	145.5
282.819	112.5
283.051	82.5
283.282	82.5
283.513	78.5
283.745	75.5
283.976	73.5
284.207	86.5
284.439	85.5
284.67	86.5
284.901	78.5
285.132	78.5
285.364	94.5
285.595	79.5
285.826	79.5
286.057	88.5
286.288	81.5
286.52	91.5
286.751	86.5
286.982	88.5
287.213	73.5
287.444	89.5
287.675	82.5
287.906	102.5
288.138	85.5
288.369	105.5
288.6	87.5
288.831	83.5
289.062	83.5
289.293	74.5
289.524	85.5
289.755	72.5
289.986	81.5
290.217	66.5
290.448	98.5
290.679	94.5
290.91	84.5
291.141	81.5
291.371	83.5
291.602	98.5
291.833	93.5
292.064	85.5
292.295	84.5
292.526	86.5
292.757	82.5
292.987	73.5
293.218	84.5
293.449	79.5
293.68	78.5
293.91	76.5
294.141	81.5
294.372	86.5
294.603	101.5
294.833	94.5
295.064	83.5
295.295	83.5
295.525	92.5
295.756	106.5
295.987	127.5
296.217	140.5
296.448	122.5
296.679	89.5
296.909	83.5
297.14	93.5
297.37	103.5
297.601	91.5
297.831	80.5
298.062	85.5
298.292	82.5
298.523	89.5
298.753	82.5
298.984	91.5
299.214	83.5
299.445	98.5
299.675	63.5
299.905	74.5
300.136	92.5
300.366	77.5
300.597	86.5
300.827	77.5
301.057	82.5
301.288	94.5
301.518	94.5
301.748	106.5
301.979	93.5
302.209	85.5
302.439	83.5
302.669	79.5
302.9	78.5
303.13	83.5
303.36	76.5
303.59	75.5
303.82	102.5
304.051	84.5
304.281	102.5
304.511	91.5
304.741	82.5
304.971	88.5
305.201	85.5
305.431	96.5
305.661	79.5
305.891	77.5
306.121	87.5
306.352	97.5
306.582	114.5
306.812	95.5
307.042	90.5
307.272	78.5
307.502	92.5
307.731	83.5
307.961	92.5
308.191	92.5
308.421	86.5
308.651	76.5
308.881	84.5
309.111	87.5
309.341	86.5
309.571	94.5
309.8	98.5
310.03	102.5
310.26	85.5
310.49	93.5
310.72	96.5
310.949	106.5
311.179	99.5
311.409	95.5
311.639	87.5
311.868	79.5
312.098	86.5
312.328	91.5
312.557	118.5
312.787	92.5
313.017	96.5
313.246	95.5
313.476	78.5
313.706	102.5
313.935	95.5
314.165	93.5
314.394	98.5
314.624	95.5
314.853	73.5
315.083	88.5
315.312	91.5
315.542	94.5
315.771	87.5
316.001	95.5
316.23	75.5
316.46	75.5
316.689	79.5
316.919	73.5
317.148	101.5
317.377	87.5
317.607	90.5
317.836	78.5
318.065	87.5
318.295	93.5
318.524	85.5
318.753	91.5
318.983	86.5
319.212	103.5
319.441	103.5
319.67	110.5
319.9	84.5
320.129	78.5
320.358	76.5
320.587	91.5
320.816	108.5
321.046	101.5
321.275	95.5
321.504	88.5
321.733	94.5
321.962	99.5
322.191	99.5
322.42	91.5
322.649	102.5
322.878	98.5
323.108	122.5
323.337	127.5
323.566	140.5
323.795	154.5
324.024	228.5
324.253	423.5
324.482	886.5
324.71	1782.5
324.939	2308.5
325.168	876.5
325.397	255.5
325.626	163.5
325.855	127.5
326.084	121.5
326.313	116.5
326.542	153.5
326.77	235.5
326.999	474.5
327.228	972.5
327.457	1771.5
327.686	1378.5
327.914	373.5
328.143	199.5
328.372	138.5
328.6	128.5
328.829	119.5
329.058	144.5
329.287	128.5
329.515	113.5
329.744	89.5
329.972	99.5
330.201	107.5
330.43	109.5
330.658	126.5
330.887	151.5
331.115	128.5
331.344	101.5
331.572	102.5
331.801	102.5
332.03	80.5
332.258	95.5
332.486	91.5
332.715	93.5
332.943	79.5
333.172	96.5
333.4	107.5
333.629	114.5
333.857	117.5
334.085	107.5
334.314	96.5
334.542	107.5
334.771	122.5
334.999	102.5
335.227	87.5
335.455	112.5
335.684	76.5
335.912	89.5
336.14	101.5
336.369	93.5
336.597	81.5
336.825	100.5
337.053	88.5
337.281	110.5
337.51	87.5
337.738	93.5
337.966	84.5
338.194	109.5
338.422	94.5
338.65	94.5
338.878	98.5
339.106	105.5
339.334	89.5
339.562	80.5
339.79	94.5
340.018	86.5
340.246	76.5
340.474	89.5
340.702	88.5
340.93	73.5
341.158	102.5
341.386	93.5
341.614	95.5
341.842	104.5
342.07	87.5
342.298	87.5
342.526	91.5
342.754	86.5
342.981	103.5
343.209	78.5
343.437	103.5
343.665	87.5
343.893	93.5
344.12	96.5
344.348	67.5
344.576	89.5
344.804	84.5
345.031	95.5
345.259	79.5
345.487	103.5
345.714	92.5
345.942	85.5
346.17	86.5
346.397	87.5
346.625	89.5
346.853	90.5
347.08	81.5
347.308	92.5
347.535	95.5
347.763	92.5
347.99	85.5
348.218	93.5
348.445	104.5
348.673	106.5
348.9	100.5
349.128	91.5
349.355	104.5
349.583	79.5
349.81	87.5
350.037	90.5
350.265	87.5
350.492	83.5
350.72	92.5
350.947	102.5
351.174	102.5
351.402	105.5
351.629	94.5
351.856	109.5
352.083	93.5
352.311	99.5
352.538	108.5
352.765	101.5
352.992	109.5
353.22	101.5
353.447	108.5
353.674	98.5
353.901	103.5
354.128	99.5
354.355	98.5
354.583	101.5
354.81	102.5
355.037	84.5
355.264	78.5
355.491	90.5
355.718	94.5
355.945	88.5
356.172	99.5
356.399	79.5
356.626	95.5
356.853	97.5
357.08	100.5
357.307	102.5
357.534	94.5
357.761	102.5
357.988	90.5
358.215	90.5
358.441	82.5
358.668	87.5
358.895	94.5
359.122	100.5
359.349	78.5
359.576	92.5
359.802	103.5
360.029	121.5
360.256	111.5
360.483	93.5
360.709	87.5
360.936	83.5
361.163	85.5
361.39	81.5
361.616	93.5
361.843	88.5
362.07	96.5
362.296	102.5
362.523	95.5
362.749	94.5
362.976	92.5
363.203	95.5
363.429	83.5
363.656	86.5
363.882	93.5
364.109	85.5
364.335	80.5
364.562	103.5
364.788	88.5
365.015	70.5
365.241	93.5
365.468	106.5
365.694	99.5
365.92	98.5
366.147	82.5
366.373	82.5
366.599	75.5
366.826	75.5
367.052	76.5
367.278	88.5
367.505	106.5
367.731	84.5
367.957	99.5
368.184	97.5
368.41	100.5
368.636	111.5
368.862	122.5
369.089	97.5
369.315	80.5
369.541	102.5
369.767	92.5
369.993	78.5
370.219	90.5
370.445	83.5
370.672	90.5
370.898	84.5
371.124	81.5
371.35	71.5
371.576	92.5
371.802	66.5
372.028	81.5
372.254	91.5
372.48	85.5
372.706	87.5
372.932	88.5
373.158	82.5
373.384	79.5
373.61	89.5
373.835	83.5
374.061	83.5
374.287	87.5
374.513	94.5
374.739	85.5
374.965	95.5
375.191	85.5
375.416	76.5
375.642	82.5
375.868	85.5
376.094	89.5
376.319	92.5
376.545	89.5
376.771	84.5
376.997	87.5
377.222	88.5
377.448	97.5
377.674	81.5
377.899	78.5
378.125	96.5
378.35	87.5
378.576	84.5
378.802	81.5
379.027	79.5
379.253	84.5
379.478	86.5
379.704	95.5
379.929	93.5
380.155	78.5
380.38	106.5
380.606	85.5
380.831	83.5
381.057	99.5
381.282	83.5
381.507	80.5
381.733	84.5
381.958	98.5
382.184	98.5
382.409	95.5
382.634	93.5
382.86	93.5
383.085	95.5
383.31	95.5
383.535	100.5
383.761	117.5
383.986	93.5
384.211	97.5
384.436	98.5
384.662	86.5
384.887	87.5
385.112	104.5
385.337	112.5
385.562	101.5
385.787	105.5
386.013	106.5
386.238	98.5
386.463	95.5
386.688	104.5
386.913	94.5
387.138	114.5
387.363	101.5
387.588	103.5
387.813	98.5
388.038	85.5
388.263	115.5
388.488	99.5
388.713	89.5
388.938	86.5
389.163	95.5
389.387	92.5
389.612	93.5
389.837	101.5
390.062	90.5
390.287	85.5
390.512	86.5
390.736	94.5
390.961	89.5
391.186	92.5
391.411	88.5
391.636	71.5
391.86	83.5
392.085	87.5
392.31	85.5
392.534	85.5
392.759	99.5
392.984	86.5
393.208	80.5
393.433	86.5
393.658	84.5
393.882	86.5
394.107	76.5
394.331	76.5
394.556	74.5
394.78	79.5
395.005	78.5
395.229	82.5
395.454	78.5
395.678	92.5
395.903	90.5
396.127	93.5
396.352	87.5
396.576	79.5
396.801	80.5
397.025	91.5
397.249	96.5
397.474	85.5
397.698	82.5
397.922	87.5
398.147	83.5
398.371	82.5
398.595	80.5
398.82	68.5
399.044	65.5
399.268	97.5
399.492	91.5
399.717	85.5
399.941	88.5
400.165	77.5
400.389	94.5
400.613	95.5
400.837	81.5
401.062	88.5
401.286	82.5
401.51	91.5
401.734	87.5
401.958	86.5
402.182	147.5
402.406	170.5
402.63	106.5
402.854	95.5
403.078	89.5
403.302	94.5
403.526	79.5
403.75	85.5
403.974	92.5
404.198	83.5
404.422	77.5
404.645	89.5
404.869	87.5
405.093	86.5
405.317	94.5
405.541	83.5
405.765	83.5
405.988	119.5
406.212	182.5
406.436	255.5
406.66	169.5
406.883	118.5
407.107	88.5
407.331	85.5
407.555	80.5
407.778	88.5
408.002	82.5
408.226	84.5
408.449	92.5
408.673	70.5
408.896	88.5
409.12	98.5
409.344	84.5
409.567	88.5
409.791	87.5
410.014	89.5
410.238	87.5
410.461	89.5
410.685	77.5
410.908	92.5
411.132	98.5
411.355	103.5
411.578	97.5
411.802	72.5
412.025	86.5
412.249	79.5
412.472	73.5
412.695	98.5
412.919	85.5
413.142	101.5
413.365	87.5
413.589	86.5
413.812	83.5
414.035	92.5
414.258	95.5
414.482	95.5
414.705	88.5
414.928	85.5
415.151	94.5
415.374	89.5
415.597	88.5
415.821	86.5
416.044	81.5
416.267	78.5
416.49	84.5
416.713	86.5
416.936	90.5
417.159	82.5
417.382	88.5
417.605	76.5
417.828	100.5
418.051	95.5
418.274	78.5
418.497	74.5
418.72	84.5
418.943	95.5
419.166	80.5
419.389	92.5
419.611	73.5
419.834	95.5
420.057	72.5
420.28	79.5
420.503	87.5
420.726	86.5
420.948	83.5
421.171	91.5
421.394	91.5
421.617	72.5
421.839	80.5
422.062	78.5
422.285	86.5
422.507	96.5
422.73	95.5
422.953	101.5
423.175	73.5
423.398	73.5
423.621	84.5
423.843	77.5
424.066	82.5
424.288	90.5
424.511	100.5
424.733	98.5
424.956	110.5
425.178	82.5
425.401	89.5
425.623	87.5
425.846	93.5
426.068	107.5
426.291	84.5
426.513	85.5
426.735	80.5
426.958	82.5
427.18	97.5
427.402	132.5
427.625	172.5
427.847	132.5
428.069	98.5
428.292	82.5
428.514	88.5
428.736	94.5
428.958	59.5
429.181	97.5
429.403	74.5
429.625	86.5
429.847	83.5
430.069	96.5
430.292	94.5
430.514	83.5
430.736	84.5
430.958	87.5
431.18	83.5
431.402	98.5
431.624	75.5
431.846	81.5
432.068	67.5
432.29	82.5
432.512	89.5
432.734	75.5
432.956	76.5
433.178	94.5
433.4	98.5
433.622	87.5
433.844	84.5
434.066	77.5
434.287	81.5
434.509	87.5
434.731	84.5
434.953	93.5
435.175	78.5
435.397	83.5
435.618	93.5
435.84	98.5
436.062	112.5
436.284	93.5
436.505	96.5
436.727	99.5
436.949	74.5
437.17	80.5
437.392	81.5
437.614	83.5
437.835	101.5
438.057	129.5
438.278	99.5
438.5	98.5
438.721	108.5
438.943	89.5
439.165	95.5
439.386	91.5
439.608	104.5
439.829	81.5
440.05	116.5
440.272	132.5
440.493	114.5
440.715	88.5
440.936	78.5
441.158	94.5
441.379	79.5
441.6	103.5
441.822	97.5
442.043	89.5
442.264	108.5
442.486	102.5
442.707	84.5
442.928	94.5
443.149	128.5
443.371	126.5
443.592	105.5
443.813	100.5
444.034	95.5
444.255	95.5
444.476	75.5
444.698	99.5
444.919	94.5
445.14	122.5
445.361	125.5
445.582	98.5
445.803	134.5
446.024	150.5
446.245	122.5
446.466	108.5
446.687	97.5
446.908	99.5
447.129	97.5
447.35	83.5
447.571	96.5
447.792	91.5
448.013	90.5
448.234	99.5
448.455	106.5
448.675	118.5
448.896	119.5
449.117	92.5
449.338	95.5
449.559	123.5
449.779	120.5
450	98.5
450.221	86.5
450.442	93.5
450.662	98.5
450.883	101.5
451.104	103.5
451.324	93.5
451.545	78.5
451.766	86.5
451.986	82.5
452.207	96.5
452.428	102.5
452.648	95.5
452.869	111.5
453.089	102.5
453.31	128.5
453.53	80.5
453.751	82.5
453.971	107.5
454.192	100.5
454.412	95.5
454.633	80.5
454.853	77.5
455.073	70.5
455.294	70.5
455.514	103.5
455.734	83.5
455.955	77.5
456.175	73.5
456.395	80.5
456.616	72.5
456.836	78.5
457.056	84.5
457.276	83.5
457.497	71.5
457.717	70.5
457.937	78.5
458.157	87.5
458.377	77.5
458.598	106.5
458.818	158.5
459.038	183.5
459.258	102.5
459.478	79.5
459.698	95.5
459.918	89.5
460.138	82.5
460.358	65.5
460.578	86.5
460.798	96.5
461.018	93.5
461.238	82.5
461.458	83.5
461.678	81.5
461.898	91.5
462.118	100.5
462.338	80.5
462.558	90.5
462.777	66.5
462.997	78.5
463.217	77.5
463.437	85.5
463.657	83.5
463.876	93.5
464.096	80.5
464.316	87.5
464.536	84.5
464.755	91.5
464.975	114.5
465.195	188.5
465.414	167.5
465.634	92.5
465.854	85.5
466.073	93.5
466.293	92.5
466.512	84.5
466.732	75.5
466.951	69.5
467.171	80.5
467.391	93.5
467.61	102.5
467.829	109.5
468.049	92.5
468.268	93.5
468.488	90.5
468.707	78.5
468.927	76.5
469.146	82.5
469.365	93.5
469.585	72.5
469.804	92.5
470.023	103.5
470.243	94.5
470.462	100.5
470.681	106.5
470.901	94.5
471.12	76.5
471.339	88.5
471.558	83.5
471.777	74.5
471.997	76.5
472.216	88.5
472.435	98.5
472.654	90.5
472.873	86.5
473.092	81.5
473.311	97.5
473.53	88.5
473.749	79.5
473.968	76.5
474.187	95.5
474.406	90.5
474.625	79.5
474.844	87.5
475.063	84.5
475.282	74.5
475.501	75.5
475.72	81.5
475.939	98.5
476.158	80.5
476.377	71.5
476.596	94.5
476.814	86.5
477.033	99.5
477.252	86.5
477.471	98.5
477.69	83.5
477.908	76.5
478.127	83.5
478.346	78.5
478.564	86.5
478.783	94.5
479.002	100.5
479.22	96.5
479.439	117.5
479.658	110.5
479.876	87.5
480.095	89.5
480.313	97.5
480.532	80.5
480.751	89.5
480.969	110.5
481.188	144.5
481.406	126.5
481.624	101.5
481.843	78.5
482.061	81.5
482.28	71.5
482.498	82.5
482.717	92.5
482.935	72.5
483.153	96.5
483.372	90.5
483.59	80.5
483.808	82.5
484.027	82.5
484.245	86.5
484.463	90.5
484.681	93.5
484.9	78.5
485.118	96.5
485.336	96.5
485.554	83.5
485.772	91.5
485.99	104.5
486.209	100.5
486.427	113.5
486.645	111.5
486.863	111.5
487.081	99.5
487.299	86.5
487.517	90.5
487.735	99.5
487.953	87.5
488.171	100.5
488.389	101.5
488.607	88.5
488.825	95.5
489.043	81.5
489.261	81.5
489.479	86.5
489.696	73.5
489.914	76.5
490.132	92.5
490.35	85.5
490.568	87.5
490.786	96.5
491.003	96.5
491.221	86.5
491.439	98.5
491.657	81.5
491.874	104.5
492.092	88.5
492.31	78.5
492.527	75.5
492.745	93.5
492.963	92.5
493.18	90.5
493.398	109.5
493.615	76.5
493.833	96.5
494.05	92.5
494.268	100.5
494.485	96.5
494.703	90.5
494.92	89.5
495.138	91.5
495.355	73.5
495.573	88.5
495.79	80.5
496.008	72.5
496.225	90.5
496.442	86.5
496.66	99.5
496.877	82.5
497.094	85.5
497.312	96.5
497.529	98.5
497.746	90.5
497.963	98.5
498.181	94.5
498.398	91.5
498.615	98.5
498.832	92.5
499.049	97.5
499.267	99.5
499.484	78.5
499.701	87.5
499.918	88.5
500.135	92.5
500.352	99.5
500.569	79.5
500.786	100.5
501.003	72.5
501.22	86.5
501.437	99.5
501.654	95.5
501.871	90.5
502.088	108.5
502.305	92.5
502.522	82.5
502.739	75.5
502.956	92.5
503.172	87.5
503.389	80.5
503.606	113.5
503.823	99.5
504.04	85.5
504.256	92.5
504.473	89.5
504.69	86.5
504.907	102.5
505.123	90.5
505.34	81.5
505.557	68.5
505.773	79.5
505.99	72.5
506.207	78.5
506.423	84.5
506.64	80.5
506.856	86.5
507.073	91.5
507.289	86.5
507.506	96.5
507.722	123.5
507.939	114.5
508.155	103.5
508.372	96.5
508.588	96.5
508.805	100.5
509.021	91.5
509.238	109.5
509.454	92.5
509.67	94.5
509.887	96.5
510.103	111.5
510.319	237.5
510.536	878.5
510.752	2966.5
510.968	805.5
511.184	170.5
511.401	106.5
511.617	92.5
511.833	99.5
512.049	89.5
512.265	85.5
512.481	72.5
512.698	97.5
512.914	99.5
513.13	81.5
513.346	96.5
513.562	90.5
513.778	86.5
513.994	95.5
514.21	98.5
514.426	102.5
514.642	155.5
514.858	125.5
515.074	199.5
515.29	538.5
515.506	1852.5
515.721	706.5
515.937	167.5
516.153	116.5
516.369	101.5
516.585	95.5
516.801	86.5
517.016	91.5
517.232	92.5
517.448	94.5
517.664	101.5
517.879	90.5
518.095	99.5
518.311	86.5
518.527	74.5
518.742	82.5
518.958	80.5
519.173	92.5
519.389	100.5
519.605	87.5
519.82	89.5
520.036	111.5
520.251	139.5
520.467	111.5
520.682	113.5
520.898	113.5
521.113	112.5
521.329	144.5
521.544	223.5
521.76	677.5
521.975	2996.5
522.19	1865.5
522.406	378.5
522.621	122.5
522.836	108.5
523.052	96.5
523.267	99.5
523.482	101.5
523.698	94.5
523.913	132.5
524.128	110.5
524.343	100.5
524.559	77.5
524.774	87.5
524.989	99.5
525.204	102.5
525.419	99.5
525.634	79.5
525.849	75.5
526.064	83.5
526.28	102.5
526.495	91.5
526.71	88.5
526.925	83.5
527.14	75.5
527.355	87.5
527.57	81.5
527.785	82.5
527.999	76.5
528.214	98.5
528.429	103.5
528.644	87.5
528.859	67.5
529.074	99.5
529.289	128.5
529.503	193.5
529.718	113.5
529.933	83.5
530.148	80.5
530.363	82.5
530.577	77.5
530.792	77.5
531.007	96.5
531.221	77.5
531.436	84.5
531.651	106.5
531.865	84.5
532.08	92.5
532.295	92.5
532.509	99.5
532.724	90.5
532.938	93.5
533.153	90.5
533.367	77.5
533.582	80.5
533.796	77.5
534.011	90.5
534.225	95.5
534.44	77.5
534.654	99.5
534.868	102.5
535.083	99.5
535.297	94.5
535.511	85.5
535.726	84.5
535.94	88.5
536.154	89.5
536.369	85.5
