Data from Circ_2018_H10_HRD10591_00095.txt Node
Date: Wed Jan 03 09:56:21 EST 2024
User: Yrep
Spectrometer: HR+D1059
Trigger mode: 1
Integration Time (sec): 1.000000E-1
Scans to average: 1
Electric dark correction enabled: true
Nonlinearity correction enabled: false
Boxcar width: 0
XAxis mode: Wavelengths
Number of Pixels in Spectrum: 2048
>>>>>Begin Spectral Data<<<<<
223.165	-15.12
223.4	-15.12
223.635	-15.12
223.869	-20.12
224.104	-16.12
224.338	-20.12
224.573	-7.12
224.808	-5.12
225.042	-17.12
225.277	-11.12
225.511	-9.12
225.746	11.88
225.98	6.88
226.215	0.88
226.449	20.88
226.683	32.88
226.918	18.88
227.152	28.88
227.387	30.88
227.621	36.88
227.856	44.88
228.09	33.88
228.324	35.88
228.559	55.88
228.793	50.88
229.027	59.88
229.262	54.88
229.496	85.88
229.73	88.88
229.964	74.88
230.199	67.88
230.433	71.88
230.667	75.88
230.901	78.88
231.136	84.88
231.37	81.88
231.604	95.88
231.838	83.88
232.072	71.88
232.306	77.88
232.541	85.88
232.775	58.88
233.009	83.88
233.243	70.88
233.477	88.88
233.711	71.88
233.945	73.88
234.179	84.88
234.413	72.88
234.647	89.88
234.881	72.88
235.115	82.88
235.349	83.88
235.583	75.88
235.817	88.88
236.051	87.88
236.285	75.88
236.519	89.88
236.753	67.88
236.987	75.88
237.221	89.88
237.455	86.88
237.689	87.88
237.922	73.88
238.156	80.88
238.39	70.88
238.624	84.88
238.858	74.88
239.091	64.88
239.325	72.88
239.559	81.88
239.793	71.88
240.027	84.88
240.26	83.88
240.494	94.88
240.728	68.88
240.961	83.88
241.195	76.88
241.429	88.88
241.662	78.88
241.896	68.88
242.13	80.88
242.363	73.88
242.597	60.88
242.83	69.88
243.064	78.88
243.298	75.88
243.531	75.88
243.765	75.88
243.998	72.88
244.232	85.88
244.465	82.88
244.699	87.88
244.932	72.88
245.166	79.88
245.399	78.88
245.633	77.88
245.866	74.88
246.099	95.88
246.333	85.88
246.566	78.88
246.8	72.88
247.033	74.88
247.266	80.88
247.5	89.88
247.733	91.88
247.966	79.88
248.2	89.88
248.433	83.88
248.666	58.88
248.899	78.88
249.133	96.88
249.366	90.88
249.599	92.88
249.832	96.88
250.066	96.88
250.299	92.88
250.532	99.88
250.765	64.88
250.998	63.88
251.231	88.88
251.465	75.88
251.698	74.88
251.931	73.88
252.164	64.88
252.397	72.88
252.63	79.88
252.863	84.88
253.096	67.88
253.329	79.88
253.562	72.88
253.795	71.88
254.028	84.88
254.261	87.88
254.494	71.88
254.727	79.88
254.96	83.88
255.193	86.88
255.426	78.88
255.659	81.88
255.892	76.88
256.124	85.88
256.357	77.88
256.59	84.88
256.823	88.88
257.056	84.88
257.289	69.88
257.521	83.88
257.754	73.88
257.987	82.88
258.22	75.88
258.452	95.88
258.685	73.88
258.918	81.88
259.151	72.88
259.383	70.88
259.616	83.88
259.849	83.88
260.081	72.88
260.314	89.88
260.547	80.88
260.779	90.88
261.012	94.88
261.244	86.88
261.477	88.88
261.71	83.88
261.942	112.88
262.175	114.88
262.407	83.88
262.64	84.88
262.872	83.88
263.105	92.88
263.337	90.88
263.57	94.88
263.802	75.88
264.035	78.88
264.267	75.88
264.499	90.88
264.732	89.88
264.964	80.88
265.197	81.88
265.429	96.88
265.661	85.88
265.894	74.88
266.126	78.88
266.358	84.88
266.591	86.88
266.823	81.88
267.055	84.88
267.287	72.88
267.52	75.88
267.752	84.88
267.984	95.88
268.216	91.88
268.448	83.88
268.681	94.88
268.913	76.88
269.145	77.88
269.377	75.88
269.609	90.88
269.841	81.88
270.073	88.88
270.306	80.88
270.538	88.88
270.77	81.88
271.002	87.88
271.234	74.88
271.466	75.88
271.698	84.88
271.93	73.88
272.162	77.88
272.394	81.88
272.626	90.88
272.858	88.88
273.09	88.88
273.322	82.88
273.553	75.88
273.785	82.88
274.017	88.88
274.249	98.88
274.481	90.88
274.713	84.88
274.945	74.88
275.176	84.88
275.408	91.88
275.64	84.88
275.872	88.88
276.104	83.88
276.335	90.88
276.567	97.88
276.799	93.88
277.031	104.88
277.262	102.88
277.494	88.88
277.726	87.88
277.957	82.88
278.189	74.88
278.421	75.88
278.652	89.88
278.884	87.88
279.115	103.88
279.347	78.88
279.579	92.88
279.81	98.88
280.042	88.88
280.273	87.88
280.505	78.88
280.736	90.88
280.968	95.88
281.199	89.88
281.431	81.88
281.662	107.88
281.894	102.88
282.125	95.88
282.356	119.88
282.588	137.88
282.819	106.88
283.051	88.88
283.282	90.88
283.513	94.88
283.745	71.88
283.976	85.88
284.207	78.88
284.439	83.88
284.67	89.88
284.901	74.88
285.132	82.88
285.364	105.88
285.595	90.88
285.826	83.88
286.057	79.88
286.288	80.88
286.52	84.88
286.751	74.88
286.982	87.88
287.213	97.88
287.444	86.88
287.675	97.88
287.906	90.88
288.138	77.88
288.369	88.88
288.6	92.88
288.831	76.88
289.062	93.88
289.293	91.88
289.524	78.88
289.755	89.88
289.986	85.88
290.217	101.88
290.448	82.88
290.679	86.88
290.91	94.88
291.141	98.88
291.371	83.88
291.602	91.88
291.833	104.88
292.064	96.88
292.295	88.88
292.526	77.88
292.757	87.88
292.987	82.88
293.218	87.88
293.449	79.88
293.68	64.88
293.91	87.88
294.141	96.88
294.372	82.88
294.603	82.88
294.833	82.88
295.064	73.88
295.295	99.88
295.525	87.88
295.756	99.88
295.987	109.88
296.217	144.88
296.448	144.88
296.679	80.88
296.909	74.88
297.14	73.88
297.37	90.88
297.601	83.88
297.831	83.88
298.062	80.88
298.292	104.88
298.523	87.88
298.753	88.88
298.984	91.88
299.214	88.88
299.445	98.88
299.675	107.88
299.905	103.88
300.136	98.88
300.366	83.88
300.597	82.88
300.827	89.88
301.057	106.88
301.288	108.88
301.518	86.88
301.748	89.88
301.979	114.88
302.209	83.88
302.439	82.88
302.669	73.88
302.9	85.88
303.13	93.88
303.36	114.88
303.59	100.88
303.82	115.88
304.051	91.88
304.281	102.88
304.511	87.88
304.741	80.88
304.971	76.88
305.201	88.88
305.431	83.88
305.661	89.88
305.891	82.88
306.121	90.88
306.352	98.88
306.582	104.88
306.812	102.88
307.042	89.88
307.272	101.88
307.502	104.88
307.731	98.88
307.961	98.88
308.191	95.88
308.421	85.88
308.651	85.88
308.881	94.88
309.111	95.88
309.341	81.88
309.571	105.88
309.8	98.88
310.03	90.88
310.26	102.88
310.49	97.88
310.72	103.88
310.949	115.88
311.179	102.88
311.409	99.88
311.639	95.88
311.868	99.88
312.098	88.88
312.328	88.88
312.557	110.88
312.787	119.88
313.017	89.88
313.246	97.88
313.476	82.88
313.706	97.88
313.935	93.88
314.165	92.88
314.394	104.88
314.624	107.88
314.853	103.88
315.083	91.88
315.312	104.88
315.542	109.88
315.771	102.88
316.001	101.88
316.23	85.88
316.46	78.88
316.689	94.88
316.919	94.88
317.148	91.88
317.377	92.88
317.607	89.88
317.836	91.88
318.065	86.88
318.295	83.88
318.524	92.88
318.753	95.88
318.983	87.88
319.212	105.88
319.441	108.88
319.67	113.88
319.9	94.88
320.129	89.88
320.358	88.88
320.587	92.88
320.816	122.88
321.046	106.88
321.275	95.88
321.504	101.88
321.733	96.88
321.962	84.88
322.191	104.88
322.42	103.88
322.649	128.88
322.878	96.88
323.108	131.88
323.337	150.88
323.566	147.88
323.795	164.88
324.024	217.88
324.253	443.88
324.482	919.88
324.71	1858.88
324.939	2478.88
325.168	917.88
325.397	256.88
325.626	146.88
325.855	140.88
326.084	148.88
326.313	137.88
326.542	150.88
326.77	235.88
326.999	491.88
327.228	1039.88
327.457	1835.88
327.686	1482.88
327.914	388.88
328.143	216.88
328.372	187.88
328.6	144.88
328.829	131.88
329.058	139.88
329.287	141.88
329.515	126.88
329.744	111.88
329.972	108.88
330.201	148.88
330.43	188.88
330.658	154.88
330.887	157.88
331.115	135.88
331.344	114.88
331.572	106.88
331.801	83.88
332.03	112.88
332.258	99.88
332.486	88.88
332.715	102.88
332.943	91.88
333.172	119.88
333.4	100.88
333.629	117.88
333.857	106.88
334.085	119.88
334.314	150.88
334.542	185.88
334.771	190.88
334.999	111.88
335.227	112.88
335.455	96.88
335.684	106.88
335.912	88.88
336.14	85.88
336.369	95.88
336.597	110.88
336.825	99.88
337.053	89.88
337.281	84.88
337.51	90.88
337.738	79.88
337.966	93.88
338.194	106.88
338.422	96.88
338.65	86.88
338.878	88.88
339.106	90.88
339.334	91.88
339.562	88.88
339.79	96.88
340.018	86.88
340.246	86.88
340.474	87.88
340.702	95.88
340.93	94.88
341.158	92.88
341.386	102.88
341.614	83.88
341.842	98.88
342.07	98.88
342.298	78.88
342.526	95.88
342.754	83.88
342.981	82.88
343.209	90.88
343.437	96.88
343.665	84.88
343.893	87.88
344.12	84.88
344.348	82.88
344.576	89.88
344.804	100.88
345.031	94.88
345.259	107.88
345.487	110.88
345.714	95.88
345.942	87.88
346.17	93.88
346.397	105.88
346.625	106.88
346.853	101.88
347.08	83.88
347.308	89.88
347.535	88.88
347.763	98.88
347.99	95.88
348.218	102.88
348.445	108.88
348.673	95.88
348.9	112.88
349.128	103.88
349.355	90.88
349.583	95.88
349.81	97.88
350.037	99.88
350.265	108.88
350.492	93.88
350.72	81.88
350.947	112.88
351.174	100.88
351.402	115.88
351.629	97.88
351.856	88.88
352.083	93.88
352.311	101.88
352.538	102.88
352.765	105.88
352.992	113.88
353.22	114.88
353.447	117.88
353.674	112.88
353.901	96.88
354.128	92.88
354.355	86.88
354.583	98.88
354.81	102.88
355.037	96.88
355.264	91.88
355.491	83.88
355.718	92.88
355.945	108.88
356.172	95.88
356.399	94.88
356.626	87.88
356.853	81.88
357.08	83.88
357.307	90.88
357.534	98.88
357.761	110.88
357.988	81.88
358.215	95.88
358.441	94.88
358.668	95.88
358.895	86.88
359.122	86.88
359.349	96.88
359.576	85.88
359.802	90.88
360.029	119.88
360.256	114.88
360.483	108.88
360.709	84.88
360.936	89.88
361.163	91.88
361.39	86.88
361.616	91.88
361.843	77.88
362.07	106.88
362.296	96.88
362.523	88.88
362.749	92.88
362.976	87.88
363.203	88.88
363.429	94.88
363.656	87.88
363.882	81.88
364.109	85.88
364.335	91.88
364.562	74.88
364.788	83.88
365.015	97.88
365.241	115.88
365.468	122.88
365.694	116.88
365.92	87.88
366.147	89.88
366.373	101.88
366.599	94.88
366.826	82.88
367.052	86.88
367.278	94.88
367.505	89.88
367.731	95.88
367.957	100.88
368.184	86.88
368.41	103.88
368.636	98.88
368.862	134.88
369.089	104.88
369.315	99.88
369.541	94.88
369.767	80.88
369.993	90.88
370.219	97.88
370.445	96.88
370.672	99.88
370.898	100.88
371.124	87.88
371.35	68.88
371.576	83.88
371.802	81.88
372.028	96.88
372.254	89.88
372.48	86.88
372.706	90.88
372.932	95.88
373.158	87.88
373.384	89.88
373.61	96.88
373.835	81.88
374.061	91.88
374.287	88.88
374.513	81.88
374.739	87.88
374.965	90.88
375.191	101.88
375.416	83.88
375.642	81.88
375.868	75.88
376.094	82.88
376.319	89.88
376.545	79.88
376.771	76.88
376.997	91.88
377.222	83.88
377.448	87.88
377.674	82.88
377.899	81.88
378.125	98.88
378.35	86.88
378.576	85.88
378.802	93.88
379.027	90.88
379.253	84.88
379.478	90.88
379.704	84.88
379.929	87.88
380.155	93.88
380.38	88.88
380.606	97.88
380.831	93.88
381.057	97.88
381.282	90.88
381.507	105.88
381.733	99.88
381.958	92.88
382.184	103.88
382.409	98.88
382.634	93.88
382.86	105.88
383.085	114.88
383.31	97.88
383.535	97.88
383.761	92.88
383.986	92.88
384.211	100.88
384.436	96.88
384.662	95.88
384.887	83.88
385.112	109.88
385.337	112.88
385.562	95.88
385.787	95.88
386.013	121.88
386.238	109.88
386.463	100.88
386.688	106.88
386.913	107.88
387.138	100.88
387.363	105.88
387.588	96.88
387.813	90.88
388.038	103.88
388.263	96.88
388.488	95.88
388.713	91.88
388.938	103.88
389.163	87.88
389.387	93.88
389.612	90.88
389.837	81.88
390.062	107.88
390.287	89.88
390.512	88.88
390.736	82.88
390.961	98.88
391.186	102.88
391.411	89.88
391.636	92.88
391.86	83.88
392.085	88.88
392.31	74.88
392.534	88.88
392.759	97.88
392.984	94.88
393.208	90.88
393.433	80.88
393.658	83.88
393.882	74.88
394.107	87.88
394.331	100.88
394.556	82.88
394.78	97.88
395.005	82.88
395.229	88.88
395.454	100.88
395.678	90.88
395.903	86.88
396.127	102.88
396.352	85.88
396.576	92.88
396.801	87.88
397.025	88.88
397.249	86.88
397.474	83.88
397.698	96.88
397.922	86.88
398.147	84.88
398.371	89.88
398.595	87.88
398.82	89.88
399.044	76.88
399.268	81.88
399.492	94.88
399.717	91.88
399.941	88.88
400.165	97.88
400.389	82.88
400.613	84.88
400.837	92.88
401.062	83.88
401.286	82.88
401.51	78.88
401.734	79.88
401.958	91.88
402.182	144.88
402.406	168.88
402.63	144.88
402.854	90.88
403.078	86.88
403.302	88.88
403.526	76.88
403.75	86.88
403.974	81.88
404.198	76.88
404.422	87.88
404.645	82.88
404.869	92.88
405.093	91.88
405.317	112.88
405.541	109.88
405.765	111.88
405.988	111.88
406.212	196.88
406.436	264.88
406.66	164.88
406.883	99.88
407.107	95.88
407.331	91.88
407.555	94.88
407.778	82.88
408.002	91.88
408.226	87.88
408.449	90.88
408.673	88.88
408.896	90.88
409.12	97.88
409.344	81.88
409.567	86.88
409.791	73.88
410.014	94.88
410.238	100.88
410.461	75.88
410.685	100.88
410.908	91.88
411.132	108.88
411.355	103.88
411.578	83.88
411.802	83.88
412.025	79.88
412.249	90.88
412.472	94.88
412.695	101.88
412.919	94.88
413.142	80.88
413.365	80.88
413.589	100.88
413.812	76.88
414.035	84.88
414.258	94.88
414.482	82.88
414.705	87.88
414.928	90.88
415.151	87.88
415.374	88.88
415.597	87.88
415.821	72.88
416.044	98.88
416.267	73.88
416.49	78.88
416.713	83.88
416.936	75.88
417.159	97.88
417.382	85.88
417.605	97.88
417.828	98.88
418.051	69.88
418.274	84.88
418.497	84.88
418.72	87.88
418.943	83.88
419.166	90.88
419.389	91.88
419.611	99.88
419.834	96.88
420.057	106.88
420.28	83.88
420.503	85.88
420.726	93.88
420.948	77.88
421.171	92.88
421.394	91.88
421.617	95.88
421.839	86.88
422.062	79.88
422.285	86.88
422.507	101.88
422.73	84.88
422.953	81.88
423.175	80.88
423.398	102.88
423.621	89.88
423.843	79.88
424.066	85.88
424.288	88.88
424.511	93.88
424.733	88.88
424.956	106.88
425.178	100.88
425.401	97.88
425.623	102.88
425.846	92.88
426.068	92.88
426.291	87.88
426.513	90.88
426.735	107.88
426.958	99.88
427.18	95.88
427.402	147.88
427.625	191.88
427.847	153.88
428.069	119.88
428.292	87.88
428.514	80.88
428.736	82.88
428.958	75.88
429.181	63.88
429.403	99.88
429.625	87.88
429.847	87.88
430.069	94.88
430.292	88.88
430.514	88.88
430.736	85.88
430.958	89.88
431.18	84.88
431.402	82.88
431.624	83.88
431.846	72.88
432.068	87.88
432.29	81.88
432.512	96.88
432.734	94.88
432.956	82.88
433.178	91.88
433.4	112.88
433.622	96.88
433.844	84.88
434.066	89.88
434.287	84.88
434.509	96.88
434.731	99.88
434.953	94.88
435.175	86.88
435.397	94.88
435.618	93.88
435.84	97.88
436.062	109.88
436.284	115.88
436.505	99.88
436.727	106.88
436.949	97.88
437.17	79.88
437.392	84.88
437.614	106.88
437.835	105.88
438.057	124.88
438.278	124.88
438.5	122.88
438.721	123.88
438.943	105.88
439.165	104.88
439.386	86.88
439.608	77.88
439.829	96.88
440.05	120.88
440.272	137.88
440.493	96.88
440.715	90.88
440.936	80.88
441.158	78.88
441.379	88.88
441.6	97.88
441.822	96.88
442.043	93.88
442.264	111.88
442.486	106.88
442.707	83.88
442.928	101.88
443.149	128.88
443.371	132.88
443.592	119.88
443.813	117.88
444.034	113.88
444.255	78.88
444.476	89.88
444.698	83.88
444.919	110.88
445.14	122.88
445.361	99.88
445.582	109.88
445.803	159.88
446.024	159.88
446.245	146.88
446.466	109.88
446.687	78.88
446.908	84.88
447.129	89.88
447.35	78.88
447.571	91.88
447.792	107.88
448.013	95.88
448.234	108.88
448.455	117.88
448.675	119.88
448.896	118.88
449.117	111.88
449.338	86.88
449.559	130.88
449.779	129.88
450	102.88
450.221	92.88
450.442	96.88
450.662	104.88
450.883	110.88
451.104	116.88
451.324	85.88
451.545	94.88
451.766	92.88
451.986	80.88
452.207	92.88
452.428	86.88
452.648	106.88
452.869	113.88
453.089	127.88
453.31	138.88
453.53	98.88
453.751	94.88
453.971	114.88
454.192	114.88
454.412	114.88
454.633	85.88
454.853	86.88
455.073	84.88
455.294	92.88
455.514	107.88
455.734	80.88
455.955	91.88
456.175	84.88
456.395	87.88
456.616	72.88
456.836	77.88
457.056	81.88
457.276	74.88
457.497	81.88
457.717	83.88
457.937	100.88
458.157	87.88
458.377	94.88
458.598	102.88
458.818	162.88
459.038	178.88
459.258	128.88
459.478	95.88
459.698	84.88
459.918	86.88
460.138	98.88
460.358	74.88
460.578	86.88
460.798	102.88
461.018	81.88
461.238	80.88
461.458	87.88
461.678	67.88
461.898	67.88
462.118	87.88
462.338	83.88
462.558	95.88
462.777	94.88
462.997	84.88
463.217	86.88
463.437	91.88
463.657	92.88
463.876	95.88
464.096	84.88
464.316	73.88
464.536	87.88
464.755	88.88
464.975	113.88
465.195	166.88
465.414	162.88
465.634	99.88
465.854	73.88
466.073	83.88
466.293	94.88
466.512	91.88
466.732	85.88
466.951	77.88
467.171	83.88
467.391	93.88
467.61	111.88
467.829	98.88
468.049	112.88
468.268	111.88
468.488	84.88
468.707	89.88
468.927	94.88
469.146	87.88
469.365	91.88
469.585	78.88
469.804	83.88
470.023	85.88
470.243	80.88
470.462	92.88
470.681	113.88
470.901	85.88
471.12	79.88
471.339	70.88
471.558	80.88
471.777	83.88
471.997	89.88
472.216	154.88
472.435	215.88
472.654	118.88
472.873	100.88
473.092	83.88
473.311	86.88
473.53	85.88
473.749	72.88
473.968	100.88
474.187	105.88
474.406	89.88
474.625	82.88
474.844	100.88
475.063	86.88
475.282	79.88
475.501	88.88
475.72	97.88
475.939	103.88
476.158	75.88
476.377	83.88
476.596	78.88
476.814	89.88
477.033	105.88
477.252	87.88
477.471	87.88
477.69	77.88
477.908	89.88
478.127	98.88
478.346	72.88
478.564	94.88
478.783	95.88
479.002	82.88
479.22	78.88
479.439	99.88
479.658	91.88
479.876	106.88
480.095	90.88
480.313	87.88
480.532	104.88
480.751	106.88
480.969	155.88
481.188	344.88
481.406	244.88
481.624	108.88
481.843	97.88
482.061	88.88
482.28	85.88
482.498	84.88
482.717	82.88
482.935	95.88
483.153	80.88
483.372	88.88
483.59	92.88
483.808	75.88
484.027	84.88
484.245	83.88
484.463	83.88
484.681	73.88
484.9	95.88
485.118	101.88
485.336	100.88
485.554	94.88
485.772	86.88
485.99	86.88
486.209	101.88
486.427	82.88
486.645	102.88
486.863	105.88
487.081	110.88
487.299	88.88
487.517	89.88
487.735	99.88
487.953	75.88
488.171	92.88
488.389	91.88
488.607	89.88
488.825	91.88
489.043	85.88
489.261	79.88
489.479	76.88
489.696	76.88
489.914	76.88
490.132	90.88
490.35	90.88
490.568	83.88
490.786	92.88
491.003	105.88
491.221	79.88
491.439	84.88
491.657	96.88
491.874	84.88
492.092	87.88
492.31	96.88
492.527	91.88
492.745	84.88
492.963	94.88
493.18	94.88
493.398	89.88
493.615	99.88
493.833	107.88
494.05	89.88
494.268	74.88
494.485	91.88
494.703	87.88
494.92	77.88
495.138	91.88
495.355	96.88
495.573	103.88
495.79	87.88
496.008	99.88
496.225	91.88
496.442	88.88
496.66	87.88
496.877	83.88
497.094	89.88
497.312	95.88
497.529	88.88
497.746	88.88
497.963	81.88
498.181	99.88
498.398	97.88
498.615	99.88
498.832	99.88
499.049	97.88
499.267	103.88
499.484	79.88
499.701	87.88
499.918	92.88
500.135	90.88
500.352	82.88
500.569	73.88
500.786	83.88
501.003	82.88
501.22	70.88
501.437	84.88
501.654	74.88
501.871	106.88
502.088	94.88
502.305	99.88
502.522	84.88
502.739	95.88
502.956	86.88
503.172	83.88
503.389	89.88
503.606	107.88
503.823	88.88
504.04	81.88
504.256	78.88
504.473	96.88
504.69	80.88
504.907	87.88
505.123	94.88
505.34	74.88
505.557	87.88
505.773	86.88
505.99	101.88
506.207	84.88
506.423	87.88
506.64	76.88
506.856	73.88
507.073	92.88
507.289	90.88
507.506	83.88
507.722	101.88
507.939	124.88
508.155	100.88
508.372	95.88
508.588	97.88
508.805	90.88
509.021	104.88
509.238	92.88
509.454	102.88
509.67	110.88
509.887	134.88
510.103	143.88
510.319	210.88
510.536	859.88
510.752	2955.88
510.968	824.88
511.184	190.88
511.401	110.88
511.617	111.88
511.833	91.88
512.049	82.88
512.265	89.88
512.481	104.88
512.698	89.88
512.914	115.88
513.13	92.88
513.346	89.88
513.562	100.88
513.778	97.88
513.994	85.88
514.21	102.88
514.426	118.88
514.642	159.88
514.858	123.88
515.074	174.88
515.29	547.88
515.506	1893.88
515.721	705.88
