Data from Circ_2018_H10_HRD10591_00019.txt Node
Date: Wed Jan 03 09:56:05 EST 2024
User: Yrep
Spectrometer: HR+D1059
Trigger mode: 1
Integration Time (sec): 1.000000E-1
Scans to average: 1
Electric dark correction enabled: true
Nonlinearity correction enabled: false
Boxcar width: 0
XAxis mode: Wavelengths
Number of Pixels in Spectrum: 2048
>>>>>Begin Spectral Data<<<<<
223.165	-22.38
223.4	-22.38
223.635	-22.38
223.869	-10.38
224.104	-14.38
224.338	-15.38
224.573	-23.38
224.808	-6.38
225.042	-20.38
225.277	-11.38
225.511	3.62
225.746	-1.38
225.98	2.62
226.215	18.62
226.449	33.62
226.683	16.62
226.918	29.62
227.152	20.62
227.387	33.62
227.621	50.62
227.856	53.62
228.09	60.62
228.324	43.62
228.559	42.62
228.793	155.62
229.027	475.62
229.262	521.62
229.496	619.62
229.73	810.62
229.964	851.62
230.199	570.62
230.433	473.62
230.667	466.62
230.901	471.62
231.136	460.62
231.37	426.62
231.604	459.62
231.838	451.62
232.072	457.62
232.306	474.62
232.541	480.62
232.775	461.62
233.009	483.62
233.243	480.62
233.477	493.62
233.711	503.62
233.945	504.62
234.179	504.62
234.413	525.62
234.647	508.62
234.881	526.62
235.115	541.62
235.349	548.62
235.583	569.62
235.817	594.62
236.051	629.62
236.285	616.62
236.519	618.62
236.753	729.62
236.987	909.62
237.221	1371.62
237.455	1520.62
237.689	926.62
237.922	760.62
238.156	717.62
238.39	680.62
238.624	666.62
238.858	655.62
239.091	666.62
239.325	688.62
239.559	675.62
239.793	727.62
240.027	741.62
240.26	907.62
240.494	973.62
240.728	969.62
240.961	919.62
241.195	812.62
241.429	769.62
241.662	789.62
241.896	786.62
242.13	757.62
242.363	779.62
242.597	800.62
242.83	830.62
243.064	837.62
243.298	823.62
243.531	864.62
243.765	849.62
243.998	867.62
244.232	881.62
244.465	891.62
244.699	907.62
244.932	913.62
245.166	916.62
245.399	900.62
245.633	900.62
245.866	917.62
246.099	899.62
246.333	953.62
246.566	978.62
246.8	968.62
247.033	1028.62
247.266	1094.62
247.5	1128.62
247.733	1179.62
247.966	1136.62
248.2	1165.62
248.433	1141.62
248.666	1227.62
248.899	1369.62
249.133	1448.62
249.366	1476.62
249.599	1305.62
249.832	1232.62
250.066	1250.62
250.299	1357.62
250.532	1502.62
250.765	1662.62
250.998	1777.62
251.231	1666.62
251.465	1487.62
251.698	1426.62
251.931	1414.62
252.164	1409.62
252.397	1438.62
252.63	1457.62
252.863	1554.62
253.096	1696.62
253.329	1731.62
253.562	1636.62
253.795	1575.62
254.028	1562.62
254.261	1639.62
254.494	1842.62
254.727	2191.62
254.96	2255.62
255.193	1972.62
255.426	1766.62
255.659	1736.62
255.892	1816.62
256.124	1931.62
256.357	1796.62
256.59	1652.62
256.823	1538.62
257.056	1572.62
257.289	1586.62
257.521	1553.62
257.754	1566.62
257.987	1546.62
258.22	1551.62
258.452	1579.62
258.685	1582.62
258.918	1576.62
259.151	1632.62
259.383	1674.62
259.616	1734.62
259.849	1767.62
260.081	1940.62
260.314	2070.62
260.547	2027.62
260.779	1879.62
261.012	1753.62
261.244	1731.62
261.477	1688.62
261.71	1741.62
261.942	1779.62
262.175	1800.62
262.407	1729.62
262.64	1656.62
262.872	1656.62
263.105	1655.62
263.337	1666.62
263.57	1670.62
263.802	1668.62
264.035	1701.62
264.267	1685.62
264.499	1701.62
264.732	1731.62
264.964	1706.62
265.197	1718.62
265.429	1722.62
265.661	1730.62
265.894	1758.62
266.126	1787.62
266.358	1776.62
266.591	1809.62
266.823	1890.62
267.055	1916.62
267.287	1873.62
267.52	1912.62
267.752	1886.62
267.984	1933.62
268.216	1924.62
268.448	1936.62
268.681	2008.62
268.913	2116.62
269.145	2370.62
269.377	2398.62
269.609	2350.62
269.841	2265.62
270.073	2407.62
270.306	2720.62
270.538	2845.62
270.77	2705.62
271.002	2536.62
271.234	2493.62
271.466	2631.62
271.698	2779.62
271.93	2772.62
272.162	2768.62
272.394	2730.62
272.626	2516.62
272.858	2364.62
273.09	2339.62
273.322	2239.62
273.553	2259.62
273.785	2240.62
274.017	2294.62
274.249	2294.62
274.481	2282.62
274.713	2315.62
274.945	2364.62
275.176	2308.62
275.408	2297.62
275.64	2292.62
275.872	2292.62
276.104	2361.62
276.335	2352.62
276.567	2476.62
276.799	2630.62
277.031	2874.62
277.262	3039.62
277.494	2853.62
277.726	2639.62
277.957	2504.62
278.189	2447.62
278.421	2397.62
278.652	2428.62
278.884	2439.62
279.115	2418.62
279.347	2426.62
279.579	2384.62
279.81	2420.62
280.042	2416.62
280.273	2460.62
280.505	2462.62
280.736	2465.62
280.968	2480.62
281.199	2446.62
281.431	2486.62
281.662	2514.62
281.894	2532.62
282.125	2540.62
282.356	2753.62
282.588	2936.62
282.819	2732.62
283.051	2599.62
283.282	2558.62
283.513	2618.62
283.745	2652.62
283.976	2711.62
284.207	2701.62
284.439	2706.62
284.67	2647.62
284.901	2692.62
285.132	2636.62
285.364	2632.62
285.595	2699.62
285.826	2716.62
286.057	2733.62
286.288	2685.62
286.52	2745.62
286.751	2736.62
286.982	2783.62
287.213	2755.62
287.444	2799.62
287.675	2826.62
287.906	2930.62
288.138	2947.62
288.369	2987.62
288.6	2972.62
288.831	2938.62
289.062	2875.62
289.293	2817.62
289.524	2801.62
289.755	2864.62
289.986	2830.62
290.217	2823.62
290.448	2838.62
290.679	2849.62
290.91	2829.62
291.141	2899.62
291.371	2849.62
291.602	2814.62
291.833	2885.62
292.064	2904.62
292.295	2850.62
292.526	2940.62
292.757	2932.62
292.987	2874.62
293.218	2853.62
293.449	2924.62
293.68	2882.62
293.91	2955.62
294.141	2892.62
294.372	2862.62
294.603	2919.62
294.833	2906.62
295.064	2921.62
295.295	2984.62
295.525	2887.62
295.756	3050.62
295.987	3114.62
296.217	3232.62
296.448	3219.62
296.679	3008.62
296.909	3009.62
297.14	3033.62
297.37	3071.62
297.601	3133.62
297.831	3091.62
298.062	3129.62
298.292	3130.62
298.523	3149.62
298.753	3246.62
298.984	3138.62
299.214	3109.62
299.445	3147.62
299.675	3204.62
299.905	3248.62
300.136	3190.62
300.366	3232.62
300.597	3292.62
300.827	3316.62
301.057	3449.62
301.288	3474.62
301.518	3380.62
301.748	3411.62
301.979	3506.62
302.209	3399.62
302.439	3459.62
302.669	3418.62
302.9	3372.62
303.13	3374.62
303.36	3459.62
303.59	3438.62
303.82	3495.62
304.051	3437.62
304.281	3443.62
304.511	3309.62
304.741	3306.62
304.971	3312.62
305.201	3316.62
305.431	3314.62
305.661	3322.62
305.891	3325.62
306.121	3292.62
306.352	3428.62
306.582	3329.62
306.812	3344.62
307.042	3348.62
307.272	3392.62
307.502	3376.62
307.731	3327.62
307.961	3358.62
308.191	3403.62
308.421	3337.62
308.651	3389.62
308.881	3389.62
309.111	3395.62
309.341	3390.62
309.571	3535.62
309.8	3579.62
310.03	3666.62
310.26	3704.62
310.49	3743.62
310.72	3814.62
310.949	3888.62
311.179	3832.62
311.409	3748.62
311.639	3712.62
311.868	3690.62
312.098	3811.62
312.328	3820.62
312.557	4043.62
312.787	4072.62
313.017	3942.62
313.246	3859.62
313.476	3820.62
313.706	3822.62
313.935	3965.62
314.165	4094.62
314.394	4046.62
314.624	4076.62
314.853	3852.62
315.083	3880.62
315.312	3854.62
315.542	3801.62
315.771	3734.62
316.001	3777.62
316.23	3778.62
316.46	3762.62
316.689	3835.62
316.919	3806.62
317.148	3892.62
317.377	3818.62
317.607	3846.62
317.836	3782.62
318.065	3758.62
318.295	3678.62
318.524	3766.62
318.753	3756.62
318.983	3752.62
319.212	3781.62
319.441	3814.62
319.67	3818.62
319.9	3774.62
320.129	3753.62
320.358	3781.62
320.587	3820.62
320.816	3901.62
321.046	3930.62
321.275	3896.62
321.504	3888.62
321.733	3970.62
321.962	4019.62
322.191	4101.62
322.42	4274.62
322.649	4329.62
322.878	4403.62
323.108	4476.62
323.337	4708.62
323.566	4878.62
323.795	5288.62
324.024	5920.62
324.253	8011.62
324.482	11991.62
324.71	15598.62
324.939	15598.62
325.168	13837.62
325.397	6985.62
325.626	5514.62
325.855	5043.62
326.084	4975.62
326.313	4974.62
326.542	5124.62
326.77	5909.62
326.999	7676.62
327.228	11154.62
327.457	15031.62
327.686	14283.62
327.914	7921.62
328.143	6307.62
328.372	5933.62
328.6	5524.62
328.829	5459.62
329.058	5682.62
329.287	5607.62
329.515	5257.62
329.744	5015.62
329.972	5197.62
330.201	5538.62
330.43	5877.62
330.658	5953.62
330.887	6081.62
331.115	5673.62
331.344	5155.62
331.572	5031.62
331.801	5130.62
332.03	5186.62
332.258	5066.62
332.486	5096.62
332.715	5193.62
332.943	5334.62
333.172	5460.62
333.4	5665.62
333.629	5820.62
333.857	5994.62
334.085	6052.62
334.314	6197.62
334.542	6386.62
334.771	6255.62
334.999	5570.62
335.227	5378.62
335.455	5287.62
335.684	5210.62
335.912	5131.62
336.14	5117.62
336.369	5089.62
336.597	5161.62
336.825	5067.62
337.053	5002.62
337.281	4916.62
337.51	4837.62
337.738	4805.62
337.966	4819.62
338.194	4792.62
338.422	4808.62
338.65	4686.62
338.878	4666.62
339.106	4611.62
339.334	4644.62
339.562	4529.62
339.79	4461.62
340.018	4447.62
340.246	4532.62
340.474	4524.62
340.702	4479.62
340.93	4505.62
341.158	4464.62
341.386	4510.62
341.614	4553.62
341.842	4487.62
342.07	4467.62
342.298	4413.62
342.526	4349.62
342.754	4389.62
342.981	4416.62
343.209	4521.62
343.437	4739.62
343.665	4998.62
343.893	5202.62
344.12	5299.62
344.348	5050.62
344.576	4857.62
344.804	4832.62
345.031	4689.62
345.259	4685.62
345.487	4563.62
345.714	4498.62
345.942	4379.62
346.17	4346.62
346.397	4339.62
346.625	4283.62
346.853	4292.62
347.08	4310.62
347.308	4339.62
347.535	4484.62
347.763	4503.62
347.99	4412.62
348.218	4409.62
348.445	4485.62
348.673	4387.62
348.9	4246.62
349.128	4222.62
349.355	4137.62
349.583	4153.62
349.81	4189.62
350.037	4193.62
350.265	4136.62
350.492	4147.62
350.72	4157.62
350.947	4203.62
351.174	4288.62
351.402	4352.62
351.629	4306.62
351.856	4286.62
352.083	4290.62
352.311	4374.62
352.538	4390.62
352.765	4277.62
352.992	4249.62
353.22	4236.62
353.447	4172.62
353.674	4104.62
353.901	4051.62
354.128	4035.62
354.355	4083.62
354.583	4089.62
354.81	4075.62
355.037	4050.62
355.264	4049.62
355.491	4056.62
355.718	3973.62
355.945	3967.62
356.172	4037.62
356.399	4054.62
356.626	4049.62
356.853	4054.62
357.08	4048.62
357.307	4077.62
357.534	4068.62
357.761	4028.62
357.988	4076.62
358.215	4052.62
358.441	4054.62
358.668	4083.62
358.895	4145.62
359.122	4168.62
359.349	4234.62
359.576	4439.62
359.802	4636.62
360.029	4793.62
360.256	4727.62
360.483	4506.62
360.709	4350.62
360.936	4264.62
361.163	4335.62
361.39	4376.62
361.616	4343.62
361.843	4265.62
362.07	4352.62
362.296	4373.62
362.523	4288.62
362.749	4340.62
362.976	4256.62
363.203	4174.62
363.429	4144.62
363.656	4211.62
363.882	4166.62
364.109	4132.62
364.335	4105.62
364.562	4125.62
364.788	4217.62
365.015	4150.62
365.241	4205.62
365.468	4226.62
365.694	4177.62
365.92	4192.62
366.147	4086.62
366.373	4130.62
366.599	4101.62
366.826	4080.62
367.052	4082.62
367.278	4169.62
367.505	4159.62
367.731	4192.62
367.957	4177.62
368.184	4218.62
368.41	4285.62
368.636	4364.62
368.862	4387.62
369.089	4316.62
369.315	4214.62
369.541	4263.62
369.767	4293.62
369.993	4262.62
370.219	4222.62
370.445	4231.62
370.672	4253.62
370.898	4277.62
371.124	4349.62
371.35	4336.62
371.576	4400.62
371.802	4375.62
372.028	4349.62
372.254	4431.62
372.48	4484.62
372.706	4554.62
372.932	4562.62
373.158	4515.62
373.384	4447.62
373.61	4434.62
373.835	4448.62
374.061	4451.62
374.287	4505.62
374.513	4582.62
374.739	4707.62
374.965	4902.62
375.191	4851.62
375.416	4652.62
375.642	4611.62
375.868	4629.62
376.094	4550.62
376.319	4435.62
376.545	4398.62
376.771	4488.62
376.997	4441.62
377.222	4379.62
377.448	4361.62
377.674	4333.62
377.899	4309.62
378.125	4386.62
378.35	4349.62
378.576	4334.62
378.802	4284.62
379.027	4342.62
379.253	4365.62
379.478	4304.62
379.704	4370.62
379.929	4395.62
380.155	4397.62
380.38	4349.62
380.606	4413.62
380.831	4370.62
381.057	4491.62
381.282	4465.62
381.507	4378.62
381.733	4465.62
381.958	4582.62
382.184	4597.62
382.409	4632.62
382.634	4634.62
382.86	4635.62
383.085	4673.62
383.31	4745.62
383.535	4801.62
383.761	4876.62
383.986	4948.62
384.211	5012.62
384.436	5138.62
384.662	5142.62
384.887	5275.62
385.112	5277.62
385.337	5326.62
385.562	5301.62
385.787	5329.62
386.013	5451.62
386.238	5424.62
386.463	5443.62
386.688	5398.62
386.913	5241.62
387.138	5234.62
387.363	5233.62
387.588	5161.62
387.813	5280.62
388.038	5252.62
388.263	5291.62
388.488	5314.62
388.713	5262.62
388.938	5252.62
389.163	5168.62
389.387	5214.62
389.612	5112.62
389.837	5147.62
390.062	5117.62
390.287	5146.62
390.512	5146.62
390.736	5245.62
390.961	5387.62
391.186	5424.62
391.411	5617.62
391.636	5778.62
391.86	5915.62
392.085	5970.62
392.31	5810.62
392.534	5738.62
392.759	5649.62
392.984	5489.62
393.208	5480.62
393.433	5477.62
393.658	5488.62
393.882	5549.62
394.107	5467.62
394.331	5513.62
394.556	5565.62
394.78	5552.62
395.005	5588.62
395.229	5615.62
395.454	5812.62
395.678	5961.62
395.903	5937.62
396.127	6086.62
396.352	5830.62
396.576	5585.62
396.801	5596.62
397.025	5669.62
397.249	5771.62
397.474	5892.62
397.698	5927.62
397.922	6056.62
398.147	6225.62
398.371	6216.62
398.595	6370.62
398.82	6801.62
399.044	7328.62
399.268	8157.62
399.492	9142.62
399.717	9887.62
399.941	9672.62
400.165	8850.62
400.389	8207.62
400.613	7426.62
400.837	7017.62
401.062	6806.62
401.286	6698.62
401.51	6584.62
401.734	6627.62
401.958	6851.62
402.182	6867.62
402.406	7039.62
402.63	7103.62
402.854	7246.62
403.078	7251.62
403.302	7370.62
403.526	7512.62
403.75	7628.62
403.974	7654.62
404.198	7626.62
404.422	7625.62
404.645	7667.62
404.869	7676.62
405.093	7925.62
405.317	8033.62
405.541	8036.62
405.765	7622.62
405.988	7475.62
406.212	7672.62
406.436	7850.62
406.66	7940.62
406.883	7994.62
407.107	8575.62
407.331	8970.62
407.555	9586.62
407.778	9318.62
408.002	8453.62
408.226	8056.62
408.449	7984.62
408.673	7826.62
408.896	7928.62
409.12	8068.62
409.344	7694.62
409.567	7390.62
409.791	7277.62
410.014	7193.62
410.238	7115.62
410.461	7132.62
410.685	7233.62
410.908	7311.62
411.132	7568.62
411.355	7595.62
411.578	7178.62
411.802	6985.62
412.025	6983.62
412.249	7078.62
412.472	7259.62
412.695	7378.62
412.919	7018.62
413.142	6800.62
413.365	6691.62
413.589	6695.62
413.812	6513.62
414.035	6518.62
414.258	6538.62
414.482	6554.62
414.705	6579.62
414.928	6564.62
415.151	6634.62
415.374	6585.62
415.597	6476.62
415.821	6451.62
416.044	6426.62
416.267	6454.62
416.49	6412.62
416.713	6387.62
416.936	6474.62
417.159	6393.62
417.382	6522.62
417.605	6468.62
417.828	6679.62
418.051	6773.62
418.274	6663.62
418.497	6535.62
418.72	6709.62
418.943	6620.62
419.166	7089.62
419.389	7435.62
419.611	7265.62
419.834	7122.62
420.057	7056.62
420.28	6907.62
420.503	6706.62
420.726	6781.62
420.948	6806.62
421.171	7156.62
421.394	7217.62
421.617	6750.62
421.839	6759.62
422.062	6790.62
422.285	7025.62
422.507	7577.62
422.73	8192.62
422.953	7578.62
423.175	7214.62
423.398	7156.62
423.621	7206.62
423.843	7457.62
424.066	7373.62
424.288	7232.62
424.511	7496.62
424.733	7901.62
424.956	8402.62
425.178	7972.62
425.401	8000.62
425.623	7909.62
425.846	6960.62
426.068	6848.62
426.291	6734.62
426.513	6698.62
426.735	6837.62
426.958	7303.62
427.18	8091.62
427.402	9293.62
427.625	9420.62
427.847	8115.62
428.069	7243.62
428.292	6693.62
428.514	6258.62
428.736	6123.62
428.958	6072.62
429.181	5924.62
429.403	6022.62
429.625	6102.62
429.847	6549.62
430.069	6908.62
430.292	6585.62
430.514	5980.62
430.736	5925.62
430.958	5893.62
431.18	5748.62
431.402	5750.62
431.624	5726.62
431.846	5852.62
432.068	5831.62
432.29	5971.62
432.512	5835.62
432.734	6041.62
432.956	5848.62
433.178	5953.62
433.4	5873.62
433.622	5900.62
433.844	5906.62
434.066	5951.62
434.287	5999.62
434.509	6299.62
434.731	6520.62
434.953	6648.62
435.175	6754.62
435.397	6836.62
435.618	6795.62
435.84	7228.62
436.062	8019.62
436.284	8040.62
436.505	6752.62
436.727	6390.62
436.949	6134.62
437.17	6030.62
437.392	5980.62
437.614	6129.62
437.835	6545.62
438.057	7577.62
438.278	8220.62
438.5	8112.62
438.721	8890.62
438.943	7695.62
439.165	6573.62
439.386	6388.62
439.608	6433.62
439.829	6533.62
440.05	6894.62
440.272	7299.62
440.493	6677.62
440.715	6352.62
440.936	6280.62
441.158	6371.62
441.379	6445.62
441.6	6731.62
441.822	7110.62
442.043	7555.62
442.264	8254.62
442.486	7947.62
442.707	7164.62
442.928	6940.62
443.149	7187.62
443.371	7423.62
443.592	7914.62
443.813	8838.62
444.034	8880.62
444.255	7712.62
444.476	7536.62
444.698	7737.62
444.919	7837.62
445.14	7591.62
445.361	7587.62
445.582	7682.62
445.803	8308.62
446.024	8946.62
446.245	8551.62
446.466	7612.62
446.687	6614.62
446.908	6316.62
447.129	5936.62
447.35	5772.62
447.571	5820.62
447.792	5632.62
448.013	5849.62
448.234	6096.62
448.455	6784.62
448.675	7937.62
448.896	8412.62
449.117	6904.62
449.338	7180.62
449.559	8329.62
449.779	8676.62
450	6591.62
450.221	5924.62
450.442	5674.62
450.662	5630.62
450.883	5724.62
451.104	5828.62
451.324	5625.62
451.545	5381.62
451.766	5387.62
451.986	5280.62
452.207	5156.62
452.428	5164.62
452.648	5267.62
452.869	5258.62
453.089	5288.62
453.31	5382.62
453.53	5214.62
453.751	5213.62
453.971	5171.62
454.192	5435.62
454.412	5137.62
454.633	5063.62
454.853	5010.62
455.073	5084.62
455.294	5448.62
455.514	5930.62
455.734	5528.62
455.955	4888.62
456.175	4812.62
456.395	4772.62
456.616	4787.62
456.836	4726.62
457.056	4704.62
457.276	4626.62
457.497	4860.62
457.717	4822.62
457.937	4899.62
458.157	5020.62
458.377	5134.62
458.598	5518.62
458.818	6305.62
459.038	7043.62
459.258	6968.62
459.478	6105.62
459.698	6078.62
459.918	6008.62
460.138	6175.62
460.358	6488.62
460.578	6457.62
460.798	6558.62
461.018	6625.62
461.238	6432.62
461.458	6427.62
461.678	6437.62
461.898	6450.62
462.118	6508.62
462.338	6884.62
462.558	7005.62
462.777	7396.62
462.997	8002.62
463.217	8299.62
463.437	8186.62
463.657	7628.62
463.876	7389.62
464.096	7355.62
464.316	7360.62
464.536	7463.62
464.755	7222.62
464.975	7118.62
465.195	7369.62
465.414	7441.62
465.634	6509.62
465.854	6026.62
466.073	5869.62
466.293	5592.62
466.512	5447.62
466.732	5360.62
466.951	5338.62
467.171	5378.62
467.391	5518.62
467.61	5517.62
467.829	5475.62
468.049	5424.62
468.268	5277.62
468.488	5204.62
468.707	5120.62
468.927	5176.62
469.146	5101.62
469.365	5197.62
469.585	5267.62
469.804	5408.62
470.023	5627.62
470.243	5574.62
470.462	5629.62
470.681	5813.62
470.901	5718.62
471.12	5547.62
471.339	5441.62
471.558	5356.62
471.777	5424.62
471.997	5200.62
472.216	5314.62
472.435	5632.62
472.654	5413.62
472.873	5170.62
473.092	5170.62
473.311	5063.62
473.53	5131.62
473.749	5360.62
473.968	5833.62
474.187	6837.62
474.406	6403.62
474.625	5465.62
474.844	5217.62
475.063	5180.62
475.282	5104.62
475.501	5237.62
475.72	5212.62
475.939	5285.62
476.158	5216.62
476.377	5353.62
476.596	5361.62
476.814	5473.62
477.033	5572.62
477.252	5540.62
477.471	5686.62
477.69	5825.62
477.908	5940.62
478.127	6072.62
478.346	6146.62
478.564	6299.62
478.783	6361.62
479.002	6519.62
479.22	6493.62
479.439	6575.62
479.658	6719.62
479.876	6868.62
480.095	6981.62
480.313	7466.62
480.532	7301.62
480.751	7139.62
480.969	7218.62
481.188	7644.62
481.406	7415.62
481.624	6763.62
481.843	6401.62
482.061	6337.62
482.28	6173.62
482.498	6012.62
482.717	6028.62
482.935	6011.62
483.153	6069.62
483.372	6045.62
483.59	6105.62
483.808	5995.62
484.027	5985.62
484.245	6094.62
484.463	6140.62
484.681	6225.62
484.9	6259.62
485.118	6291.62
485.336	6291.62
485.554	6370.62
485.772	6414.62
485.99	6426.62
486.209	6421.62
486.427	6456.62
486.645	6520.62
486.863	6681.62
487.081	6598.62
487.299	6464.62
487.517	6445.62
487.735	6396.62
487.953	6551.62
