Data from Circ_2018_H10_HRD10591_00089.txt Node
Date: Wed Jan 03 09:56:19 EST 2024
User: Yrep
Spectrometer: HR+D1059
Trigger mode: 1
Integration Time (sec): 1.000000E-1
Scans to average: 1
Electric dark correction enabled: true
Nonlinearity correction enabled: false
Boxcar width: 0
XAxis mode: Wavelengths
Number of Pixels in Spectrum: 2048
>>>>>Begin Spectral Data<<<<<
223.165	-27.31
223.4	-27.31
223.635	-27.31
223.869	-15.31
224.104	-20.31
224.338	-15.31
224.573	-17.31
224.808	-14.31
225.042	-3.31
225.277	4.69
225.511	2.69
225.746	17.69
225.98	-1.31
226.215	14.69
226.449	13.69
226.683	12.69
226.918	15.69
227.152	32.69
227.387	34.69
227.621	39.69
227.856	50.69
228.09	34.69
228.324	54.69
228.559	43.69
228.793	48.69
229.027	50.69
229.262	56.69
229.496	83.69
229.73	74.69
229.964	80.69
230.199	65.69
230.433	67.69
230.667	81.69
230.901	83.69
231.136	77.69
231.37	62.69
231.604	69.69
231.838	82.69
232.072	86.69
232.306	77.69
232.541	83.69
232.775	87.69
233.009	74.69
233.243	77.69
233.477	72.69
233.711	78.69
233.945	93.69
234.179	85.69
234.413	79.69
234.647	82.69
234.881	84.69
235.115	72.69
235.349	65.69
235.583	76.69
235.817	74.69
236.051	69.69
236.285	74.69
236.519	71.69
236.753	80.69
236.987	81.69
237.221	79.69
237.455	89.69
237.689	74.69
237.922	81.69
238.156	86.69
238.39	74.69
238.624	81.69
238.858	67.69
239.091	74.69
239.325	68.69
239.559	83.69
239.793	73.69
240.027	64.69
240.26	76.69
240.494	72.69
240.728	88.69
240.961	67.69
241.195	74.69
241.429	74.69
241.662	67.69
241.896	63.69
242.13	73.69
242.363	82.69
242.597	70.69
242.83	71.69
243.064	55.69
243.298	82.69
243.531	74.69
243.765	74.69
243.998	81.69
244.232	81.69
244.465	73.69
244.699	70.69
244.932	81.69
245.166	73.69
245.399	84.69
245.633	78.69
245.866	74.69
246.099	83.69
246.333	72.69
246.566	63.69
246.8	80.69
247.033	78.69
247.266	74.69
247.5	72.69
247.733	79.69
247.966	83.69
248.2	81.69
248.433	85.69
248.666	76.69
248.899	92.69
249.133	82.69
249.366	96.69
249.599	105.69
249.832	78.69
250.066	85.69
250.299	74.69
250.532	66.69
250.765	88.69
250.998	99.69
251.231	76.69
251.465	78.69
251.698	76.69
251.931	60.69
252.164	82.69
252.397	94.69
252.63	78.69
252.863	63.69
253.096	91.69
253.329	67.69
253.562	73.69
253.795	81.69
254.028	78.69
254.261	85.69
254.494	86.69
254.727	65.69
254.96	79.69
255.193	70.69
255.426	77.69
255.659	81.69
255.892	65.69
256.124	73.69
256.357	83.69
256.59	74.69
256.823	82.69
257.056	84.69
257.289	73.69
257.521	66.69
257.754	67.69
257.987	84.69
258.22	82.69
258.452	88.69
258.685	80.69
258.918	65.69
259.151	79.69
259.383	76.69
259.616	80.69
259.849	73.69
260.081	79.69
260.314	84.69
260.547	65.69
260.779	82.69
261.012	74.69
261.244	101.69
261.477	84.69
261.71	95.69
261.942	107.69
262.175	130.69
262.407	87.69
262.64	81.69
262.872	74.69
263.105	84.69
263.337	86.69
263.57	80.69
263.802	86.69
264.035	81.69
264.267	73.69
264.499	82.69
264.732	93.69
264.964	78.69
265.197	74.69
265.429	81.69
265.661	79.69
265.894	96.69
266.126	83.69
266.358	99.69
266.591	91.69
266.823	91.69
267.055	95.69
267.287	83.69
267.52	74.69
267.752	81.69
267.984	82.69
268.216	95.69
268.448	75.69
268.681	90.69
268.913	75.69
269.145	60.69
269.377	66.69
269.609	74.69
269.841	76.69
270.073	92.69
270.306	85.69
270.538	92.69
270.77	83.69
271.002	85.69
271.234	82.69
271.466	93.69
271.698	88.69
271.93	89.69
272.162	83.69
272.394	76.69
272.626	76.69
272.858	91.69
273.09	80.69
273.322	76.69
273.553	72.69
273.785	72.69
274.017	86.69
274.249	80.69
274.481	98.69
274.713	80.69
274.945	86.69
275.176	86.69
275.408	75.69
275.64	74.69
275.872	89.69
276.104	82.69
276.335	73.69
276.567	112.69
276.799	117.69
277.031	104.69
277.262	108.69
277.494	93.69
277.726	87.69
277.957	96.69
278.189	88.69
278.421	84.69
278.652	86.69
278.884	78.69
279.115	81.69
279.347	79.69
279.579	84.69
279.81	75.69
280.042	80.69
280.273	94.69
280.505	89.69
280.736	83.69
280.968	76.69
281.199	91.69
281.431	79.69
281.662	80.69
281.894	94.69
282.125	101.69
282.356	129.69
282.588	158.69
282.819	130.69
283.051	97.69
283.282	79.69
283.513	81.69
283.745	78.69
283.976	74.69
284.207	86.69
284.439	88.69
284.67	91.69
284.901	90.69
285.132	91.69
285.364	80.69
285.595	75.69
285.826	98.69
286.057	96.69
286.288	86.69
286.52	86.69
286.751	86.69
286.982	83.69
287.213	83.69
287.444	81.69
287.675	79.69
287.906	82.69
288.138	96.69
288.369	98.69
288.6	94.69
288.831	88.69
289.062	80.69
289.293	88.69
289.524	83.69
289.755	86.69
289.986	81.69
290.217	80.69
290.448	90.69
290.679	80.69
290.91	91.69
291.141	82.69
291.371	85.69
291.602	83.69
291.833	87.69
292.064	73.69
292.295	96.69
292.526	90.69
292.757	75.69
292.987	88.69
293.218	86.69
293.449	82.69
293.68	80.69
293.91	93.69
294.141	98.69
294.372	92.69
294.603	95.69
294.833	86.69
295.064	89.69
295.295	88.69
295.525	95.69
295.756	105.69
295.987	129.69
296.217	154.69
296.448	130.69
296.679	94.69
296.909	79.69
297.14	76.69
297.37	79.69
297.601	89.69
297.831	79.69
298.062	90.69
298.292	99.69
298.523	99.69
298.753	81.69
298.984	83.69
299.214	85.69
299.445	92.69
299.675	75.69
299.905	97.69
300.136	92.69
300.366	98.69
300.597	91.69
300.827	104.69
301.057	98.69
301.288	102.69
301.518	87.69
301.748	89.69
301.979	103.69
302.209	98.69
302.439	99.69
302.669	83.69
302.9	86.69
303.13	103.69
303.36	91.69
303.59	111.69
303.82	101.69
304.051	91.69
304.281	100.69
304.511	90.69
304.741	88.69
304.971	94.69
305.201	82.69
305.431	87.69
305.661	95.69
305.891	87.69
306.121	87.69
306.352	96.69
306.582	99.69
306.812	67.69
307.042	79.69
307.272	96.69
307.502	96.69
307.731	95.69
307.961	86.69
308.191	93.69
308.421	85.69
308.651	86.69
308.881	90.69
309.111	96.69
309.341	90.69
309.571	88.69
309.8	98.69
310.03	101.69
310.26	85.69
310.49	80.69
310.72	88.69
310.949	96.69
311.179	94.69
311.409	110.69
311.639	95.69
311.868	104.69
312.098	86.69
312.328	97.69
312.557	95.69
312.787	105.69
313.017	103.69
313.246	85.69
313.476	98.69
313.706	85.69
313.935	81.69
314.165	103.69
314.394	95.69
314.624	81.69
314.853	95.69
315.083	94.69
315.312	85.69
315.542	96.69
315.771	98.69
316.001	87.69
316.23	91.69
316.46	81.69
316.689	81.69
316.919	92.69
317.148	98.69
317.377	92.69
317.607	95.69
317.836	88.69
318.065	88.69
318.295	92.69
318.524	77.69
318.753	89.69
318.983	99.69
319.212	112.69
319.441	95.69
319.67	106.69
319.9	96.69
320.129	81.69
320.358	91.69
320.587	90.69
320.816	116.69
321.046	111.69
321.275	99.69
321.504	108.69
321.733	91.69
321.962	91.69
322.191	104.69
322.42	103.69
322.649	121.69
322.878	115.69
323.108	122.69
323.337	140.69
323.566	140.69
323.795	162.69
324.024	225.69
324.253	428.69
324.482	922.69
324.71	1866.69
324.939	2461.69
325.168	904.69
325.397	281.69
325.626	168.69
325.855	136.69
326.084	115.69
326.313	146.69
326.542	165.69
326.77	274.69
326.999	472.69
327.228	989.69
327.457	1856.69
327.686	1478.69
327.914	402.69
328.143	232.69
328.372	192.69
328.6	147.69
328.829	113.69
329.058	144.69
329.287	136.69
329.515	118.69
329.744	130.69
329.972	127.69
330.201	150.69
330.43	184.69
330.658	146.69
330.887	155.69
331.115	135.69
331.344	96.69
331.572	90.69
331.801	112.69
332.03	95.69
332.258	106.69
332.486	101.69
332.715	91.69
332.943	87.69
333.172	89.69
333.4	98.69
333.629	124.69
333.857	112.69
334.085	128.69
334.314	142.69
334.542	189.69
334.771	180.69
334.999	100.69
335.227	105.69
335.455	98.69
335.684	91.69
335.912	89.69
336.14	94.69
336.369	97.69
336.597	96.69
336.825	97.69
337.053	84.69
337.281	93.69
337.51	94.69
337.738	97.69
337.966	86.69
338.194	96.69
338.422	103.69
338.65	99.69
338.878	98.69
339.106	98.69
339.334	96.69
339.562	88.69
339.79	105.69
340.018	79.69
340.246	90.69
340.474	89.69
340.702	101.69
340.93	105.69
341.158	97.69
341.386	80.69
341.614	95.69
341.842	95.69
342.07	78.69
342.298	83.69
342.526	84.69
342.754	85.69
342.981	82.69
343.209	90.69
343.437	88.69
343.665	92.69
343.893	94.69
344.12	91.69
344.348	78.69
344.576	84.69
344.804	89.69
345.031	95.69
345.259	101.69
345.487	110.69
345.714	92.69
345.942	91.69
346.17	79.69
346.397	96.69
346.625	91.69
346.853	85.69
347.08	97.69
347.308	82.69
347.535	86.69
347.763	82.69
347.99	96.69
348.218	108.69
348.445	96.69
348.673	95.69
348.9	100.69
349.128	89.69
349.355	93.69
349.583	100.69
349.81	86.69
350.037	84.69
350.265	89.69
350.492	90.69
350.72	96.69
350.947	105.69
351.174	106.69
351.402	98.69
351.629	98.69
351.856	106.69
352.083	100.69
352.311	113.69
352.538	128.69
352.765	103.69
352.992	131.69
353.22	114.69
353.447	99.69
353.674	92.69
353.901	92.69
354.128	104.69
354.355	90.69
354.583	82.69
354.81	111.69
355.037	102.69
355.264	103.69
355.491	102.69
355.718	82.69
355.945	84.69
356.172	99.69
356.399	86.69
356.626	80.69
356.853	88.69
357.08	95.69
357.307	87.69
357.534	90.69
357.761	94.69
357.988	85.69
358.215	81.69
358.441	83.69
358.668	91.69
358.895	81.69
359.122	85.69
359.349	94.69
359.576	77.69
359.802	113.69
360.029	128.69
360.256	136.69
360.483	106.69
360.709	90.69
360.936	99.69
361.163	89.69
361.39	99.69
361.616	104.69
361.843	76.69
362.07	87.69
362.296	96.69
362.523	95.69
362.749	106.69
362.976	91.69
363.203	99.69
363.429	92.69
363.656	83.69
363.882	84.69
364.109	72.69
364.335	97.69
364.562	101.69
364.788	80.69
365.015	98.69
365.241	102.69
365.468	103.69
365.694	92.69
365.92	95.69
366.147	98.69
366.373	83.69
366.599	86.69
366.826	86.69
367.052	95.69
367.278	96.69
367.505	84.69
367.731	95.69
367.957	87.69
368.184	94.69
368.41	104.69
368.636	126.69
368.862	117.69
369.089	128.69
369.315	90.69
369.541	91.69
369.767	94.69
369.993	100.69
370.219	89.69
370.445	86.69
370.672	97.69
370.898	72.69
371.124	87.69
371.35	74.69
371.576	74.69
371.802	85.69
372.028	100.69
372.254	96.69
372.48	87.69
372.706	79.69
372.932	67.69
373.158	86.69
373.384	82.69
373.61	88.69
373.835	103.69
374.061	95.69
374.287	87.69
374.513	91.69
374.739	84.69
374.965	69.69
375.191	59.69
375.416	83.69
375.642	91.69
375.868	98.69
376.094	82.69
376.319	85.69
376.545	92.69
376.771	89.69
376.997	85.69
377.222	87.69
377.448	96.69
377.674	73.69
377.899	94.69
378.125	79.69
378.35	85.69
378.576	86.69
378.802	84.69
379.027	89.69
379.253	96.69
379.478	84.69
379.704	90.69
379.929	83.69
380.155	98.69
380.38	100.69
380.606	104.69
380.831	88.69
381.057	94.69
381.282	89.69
381.507	101.69
381.733	109.69
381.958	105.69
382.184	94.69
382.409	88.69
382.634	81.69
382.86	103.69
383.085	106.69
383.31	85.69
383.535	103.69
383.761	99.69
383.986	88.69
384.211	107.69
384.436	107.69
384.662	96.69
384.887	100.69
385.112	91.69
385.337	93.69
385.562	99.69
385.787	110.69
386.013	112.69
386.238	119.69
386.463	91.69
386.688	99.69
386.913	99.69
387.138	106.69
387.363	98.69
387.588	100.69
387.813	96.69
388.038	99.69
388.263	99.69
388.488	100.69
388.713	91.69
388.938	87.69
389.163	90.69
389.387	108.69
389.612	100.69
389.837	92.69
390.062	79.69
390.287	83.69
390.512	75.69
390.736	82.69
390.961	73.69
391.186	89.69
391.411	99.69
391.636	90.69
391.86	83.69
392.085	103.69
392.31	83.69
392.534	77.69
392.759	87.69
392.984	83.69
393.208	80.69
393.433	93.69
393.658	94.69
393.882	84.69
394.107	76.69
394.331	59.69
394.556	90.69
394.78	75.69
395.005	89.69
395.229	73.69
395.454	74.69
395.678	82.69
395.903	75.69
396.127	91.69
396.352	82.69
396.576	76.69
396.801	78.69
397.025	84.69
397.249	75.69
397.474	72.69
397.698	87.69
397.922	79.69
398.147	78.69
398.371	81.69
398.595	76.69
398.82	89.69
399.044	94.69
399.268	87.69
399.492	94.69
399.717	87.69
399.941	101.69
400.165	97.69
400.389	105.69
400.613	85.69
400.837	100.69
401.062	80.69
401.286	76.69
401.51	100.69
401.734	95.69
401.958	105.69
402.182	137.69
402.406	186.69
402.63	126.69
402.854	108.69
403.078	94.69
403.302	85.69
403.526	83.69
403.75	87.69
403.974	83.69
404.198	78.69
404.422	92.69
404.645	81.69
404.869	95.69
405.093	95.69
405.317	95.69
405.541	96.69
405.765	105.69
405.988	120.69
406.212	200.69
406.436	274.69
406.66	154.69
406.883	106.69
407.107	101.69
407.331	85.69
407.555	83.69
407.778	107.69
408.002	84.69
408.226	82.69
408.449	81.69
408.673	102.69
408.896	94.69
409.12	101.69
409.344	94.69
409.567	87.69
409.791	88.69
410.014	94.69
410.238	97.69
410.461	89.69
410.685	97.69
410.908	102.69
411.132	113.69
411.355	95.69
411.578	85.69
411.802	86.69
412.025	75.69
412.249	96.69
412.472	88.69
412.695	102.69
412.919	83.69
413.142	77.69
413.365	95.69
413.589	66.69
413.812	80.69
414.035	89.69
414.258	87.69
414.482	72.69
414.705	84.69
414.928	91.69
415.151	79.69
415.374	80.69
415.597	96.69
415.821	85.69
416.044	94.69
416.267	74.69
416.49	74.69
416.713	87.69
416.936	92.69
417.159	90.69
417.382	91.69
417.605	96.69
417.828	90.69
418.051	99.69
418.274	97.69
418.497	87.69
418.72	94.69
418.943	87.69
419.166	83.69
419.389	86.69
419.611	74.69
419.834	101.69
420.057	87.69
420.28	79.69
420.503	69.69
420.726	74.69
420.948	76.69
421.171	77.69
421.394	80.69
421.617	98.69
421.839	83.69
422.062	96.69
422.285	94.69
422.507	90.69
422.73	75.69
422.953	96.69
423.175	81.69
423.398	91.69
423.621	77.69
423.843	95.69
424.066	81.69
424.288	82.69
424.511	95.69
424.733	73.69
424.956	98.69
425.178	108.69
425.401	96.69
425.623	97.69
425.846	72.69
426.068	109.69
426.291	83.69
426.513	99.69
426.735	98.69
426.958	87.69
427.18	117.69
427.402	129.69
427.625	185.69
427.847	150.69
428.069	129.69
428.292	111.69
428.514	82.69
428.736	65.69
428.958	76.69
429.181	82.69
429.403	85.69
429.625	96.69
429.847	94.69
430.069	93.69
430.292	100.69
430.514	89.69
430.736	82.69
430.958	100.69
431.18	83.69
431.402	93.69
431.624	81.69
431.846	87.69
432.068	85.69
432.29	79.69
432.512	76.69
432.734	81.69
432.956	79.69
433.178	93.69
433.4	99.69
433.622	83.69
433.844	78.69
434.066	92.69
434.287	87.69
434.509	71.69
434.731	89.69
434.953	92.69
435.175	96.69
435.397	97.69
435.618	89.69
435.84	99.69
436.062	126.69
436.284	103.69
436.505	107.69
436.727	114.69
436.949	101.69
437.17	75.69
437.392	88.69
437.614	88.69
437.835	102.69
438.057	114.69
438.278	102.69
438.5	97.69
438.721	111.69
438.943	83.69
439.165	98.69
439.386	96.69
439.608	100.69
439.829	99.69
440.05	129.69
440.272	144.69
440.493	89.69
440.715	88.69
440.936	101.69
441.158	97.69
441.379	86.69
441.6	99.69
441.822	97.69
442.043	99.69
442.264	111.69
442.486	91.69
442.707	90.69
442.928	108.69
443.149	135.69
443.371	142.69
443.592	124.69
443.813	117.69
444.034	108.69
444.255	110.69
444.476	85.69
444.698	79.69
444.919	93.69
445.14	139.69
445.361	123.69
445.582	108.69
445.803	134.69
446.024	139.69
446.245	151.69
446.466	116.69
446.687	94.69
446.908	98.69
447.129	86.69
447.35	90.69
447.571	105.69
447.792	82.69
448.013	99.69
448.234	112.69
448.455	115.69
448.675	127.69
448.896	131.69
449.117	103.69
449.338	93.69
449.559	119.69
449.779	127.69
450	101.69
450.221	88.69
450.442	84.69
450.662	88.69
450.883	119.69
451.104	106.69
451.324	96.69
451.545	103.69
451.766	82.69
451.986	80.69
452.207	97.69
452.428	91.69
452.648	82.69
452.869	132.69
453.089	120.69
453.31	138.69
453.53	104.69
453.751	98.69
453.971	98.69
454.192	112.69
454.412	95.69
454.633	88.69
454.853	94.69
455.073	86.69
455.294	76.69
455.514	89.69
455.734	102.69
455.955	84.69
456.175	83.69
456.395	90.69
456.616	75.69
456.836	77.69
457.056	84.69
457.276	79.69
457.497	86.69
457.717	86.69
457.937	95.69
458.157	99.69
458.377	104.69
458.598	105.69
458.818	151.69
459.038	176.69
459.258	124.69
459.478	96.69
459.698	84.69
459.918	93.69
460.138	82.69
460.358	83.69
460.578	92.69
460.798	85.69
461.018	90.69
461.238	84.69
461.458	73.69
461.678	88.69
461.898	78.69
462.118	98.69
462.338	77.69
462.558	80.69
462.777	78.69
462.997	76.69
463.217	97.69
463.437	77.69
463.657	83.69
463.876	80.69
464.096	90.69
464.316	86.69
464.536	97.69
464.755	97.69
464.975	112.69
465.195	182.69
465.414	197.69
465.634	99.69
465.854	94.69
466.073	87.69
466.293	82.69
466.512	84.69
466.732	111.69
466.951	90.69
467.171	93.69
467.391	101.69
467.61	96.69
467.829	89.69
468.049	121.69
468.268	134.69
468.488	89.69
468.707	77.69
468.927	77.69
469.146	83.69
469.365	74.69
469.585	97.69
469.804	98.69
470.023	102.69
470.243	77.69
470.462	102.69
470.681	126.69
470.901	92.69
471.12	76.69
471.339	95.69
471.558	70.69
471.777	97.69
471.997	106.69
472.216	143.69
472.435	223.69
472.654	113.69
472.873	98.69
473.092	92.69
473.311	88.69
473.53	80.69
473.749	94.69
473.968	104.69
474.187	102.69
474.406	87.69
474.625	82.69
474.844	87.69
475.063	82.69
475.282	90.69
475.501	82.69
475.72	86.69
475.939	73.69
476.158	79.69
476.377	78.69
476.596	87.69
476.814	95.69
477.033	104.69
477.252	91.69
477.471	90.69
477.69	97.69
477.908	93.69
478.127	76.69
478.346	89.69
478.564	81.69
478.783	102.69
479.002	82.69
479.22	95.69
479.439	91.69
479.658	115.69
479.876	104.69
480.095	85.69
480.313	91.69
480.532	92.69
480.751	111.69
480.969	150.69
481.188	353.69
481.406	262.69
481.624	105.69
481.843	92.69
482.061	95.69
482.28	87.69
482.498	86.69
482.717	87.69
482.935	86.69
483.153	75.69
483.372	99.69
483.59	91.69
483.808	84.69
484.027	91.69
484.245	95.69
484.463	96.69
484.681	105.69
484.9	78.69
485.118	95.69
485.336	96.69
485.554	93.69
485.772	98.69
485.99	97.69
486.209	102.69
486.427	108.69
486.645	108.69
486.863	123.69
487.081	90.69
487.299	95.69
487.517	75.69
487.735	103.69
487.953	80.69
488.171	94.69
488.389	89.69
488.607	91.69
488.825	90.69
489.043	88.69
489.261	105.69
489.479	79.69
489.696	91.69
489.914	79.69
490.132	95.69
490.35	86.69
490.568	74.69
490.786	106.69
491.003	87.69
491.221	94.69
491.439	76.69
491.657	90.69
491.874	104.69
492.092	99.69
492.31	96.69
492.527	87.69
492.745	83.69
492.963	89.69
493.18	97.69
493.398	91.69
493.615	96.69
493.833	102.69
494.05	92.69
494.268	94.69
494.485	94.69
494.703	74.69
494.92	81.69
495.138	82.69
495.355	102.69
495.573	89.69
495.79	106.69
496.008	97.69
496.225	89.69
496.442	81.69
496.66	95.69
496.877	87.69
497.094	89.69
497.312	82.69
497.529	103.69
497.746	97.69
497.963	87.69
498.181	85.69
498.398	103.69
498.615	119.69
498.832	118.69
499.049	88.69
499.267	101.69
499.484	88.69
499.701	98.69
499.918	78.69
500.135	91.69
500.352	91.69
500.569	80.69
500.786	103.69
501.003	85.69
501.22	73.69
501.437	79.69
501.654	99.69
501.871	104.69
502.088	95.69
502.305	89.69
502.522	88.69
502.739	83.69
502.956	86.69
503.172	91.69
503.389	96.69
503.606	104.69
503.823	92.69
504.04	76.69
504.256	88.69
504.473	90.69
504.69	87.69
504.907	91.69
505.123	100.69
505.34	92.69
505.557	100.69
505.773	98.69
505.99	85.69
506.207	72.69
506.423	92.69
506.64	87.69
506.856	86.69
507.073	87.69
507.289	95.69
507.506	105.69
507.722	104.69
507.939	122.69
508.155	92.69
508.372	95.69
508.588	99.69
508.805	106.69
509.021	89.69
509.238	92.69
509.454	110.69
509.67	100.69
509.887	117.69
510.103	154.69
510.319	239.69
510.536	940.69
510.752	3174.69
510.968	881.69
511.184	168.69
511.401	119.69
511.617	75.69
511.833	88.69
512.049	93.69
512.265	98.69
512.481	86.69
512.698	94.69
512.914	109.69
513.13	110.69
513.346	90.69
513.562	88.69
513.778	111.69
513.994	100.69
514.21	114.69
514.426	119.69
514.642	153.69
514.858	136.69
515.074	195.69
515.29	587.69
515.506	2089.69
515.721	770.69
