Data from Circ_2018_H10_HRD10591_00066.txt Node
Date: Wed Jan 03 09:56:15 EST 2024
User: Yrep
Spectrometer: HR+D1059
Trigger mode: 1
Integration Time (sec): 1.000000E-1
Scans to average: 1
Electric dark correction enabled: true
Nonlinearity correction enabled: false
Boxcar width: 0
XAxis mode: Wavelengths
Number of Pixels in Spectrum: 2048
>>>>>Begin Spectral Data<<<<<
223.165	-30.56
223.4	-30.56
223.635	-30.56
223.869	-9.56
224.104	-8.56
224.338	-1.56
224.573	-17.56
224.808	-3.56
225.042	6.44
225.277	0.44
225.511	-7.56
225.746	0.44
225.98	-1.56
226.215	6.44
226.449	4.44
226.683	15.44
226.918	16.44
227.152	30.44
227.387	22.44
227.621	45.44
227.856	34.44
228.09	47.44
228.324	47.44
228.559	59.44
228.793	47.44
229.027	71.44
229.262	65.44
229.496	57.44
229.73	87.44
229.964	92.44
230.199	68.44
230.433	69.44
230.667	81.44
230.901	73.44
231.136	70.44
231.37	77.44
231.604	71.44
231.838	81.44
232.072	73.44
232.306	78.44
232.541	79.44
232.775	74.44
233.009	76.44
233.243	74.44
233.477	77.44
233.711	86.44
233.945	82.44
234.179	73.44
234.413	77.44
234.647	85.44
234.881	73.44
235.115	78.44
235.349	74.44
235.583	82.44
235.817	81.44
236.051	74.44
236.285	72.44
236.519	85.44
236.753	68.44
236.987	80.44
237.221	63.44
237.455	77.44
237.689	85.44
237.922	81.44
238.156	57.44
238.39	73.44
238.624	58.44
238.858	68.44
239.091	76.44
239.325	79.44
239.559	83.44
239.793	84.44
240.027	83.44
240.26	66.44
240.494	87.44
240.728	66.44
240.961	94.44
241.195	75.44
241.429	78.44
241.662	64.44
241.896	75.44
242.13	82.44
242.363	85.44
242.597	85.44
242.83	80.44
243.064	63.44
243.298	70.44
243.531	83.44
243.765	79.44
243.998	73.44
244.232	74.44
244.465	77.44
244.699	77.44
244.932	82.44
245.166	85.44
245.399	84.44
245.633	75.44
245.866	67.44
246.099	65.44
246.333	76.44
246.566	80.44
246.8	78.44
247.033	73.44
247.266	87.44
247.5	67.44
247.733	63.44
247.966	86.44
248.2	76.44
248.433	75.44
248.666	78.44
248.899	65.44
249.133	83.44
249.366	100.44
249.599	98.44
249.832	72.44
250.066	84.44
250.299	83.44
250.532	70.44
250.765	75.44
250.998	88.44
251.231	82.44
251.465	84.44
251.698	76.44
251.931	71.44
252.164	78.44
252.397	82.44
252.63	82.44
252.863	81.44
253.096	74.44
253.329	53.44
253.562	66.44
253.795	72.44
254.028	88.44
254.261	91.44
254.494	87.44
254.727	94.44
254.96	77.44
255.193	76.44
255.426	67.44
255.659	72.44
255.892	74.44
256.124	84.44
256.357	80.44
256.59	82.44
256.823	86.44
257.056	83.44
257.289	88.44
257.521	73.44
257.754	85.44
257.987	66.44
258.22	70.44
258.452	79.44
258.685	84.44
258.918	71.44
259.151	78.44
259.383	82.44
259.616	77.44
259.849	97.44
260.081	86.44
260.314	87.44
260.547	73.44
260.779	97.44
261.012	87.44
261.244	81.44
261.477	76.44
261.71	96.44
261.942	104.44
262.175	137.44
262.407	73.44
262.64	82.44
262.872	73.44
263.105	71.44
263.337	78.44
263.57	82.44
263.802	83.44
264.035	78.44
264.267	78.44
264.499	97.44
264.732	88.44
264.964	84.44
265.197	73.44
265.429	86.44
265.661	86.44
265.894	97.44
266.126	80.44
266.358	92.44
266.591	73.44
266.823	92.44
267.055	78.44
267.287	70.44
267.52	88.44
267.752	67.44
267.984	83.44
268.216	86.44
268.448	80.44
268.681	91.44
268.913	87.44
269.145	87.44
269.377	80.44
269.609	66.44
269.841	73.44
270.073	78.44
270.306	85.44
270.538	80.44
270.77	78.44
271.002	95.44
271.234	85.44
271.466	82.44
271.698	87.44
271.93	89.44
272.162	73.44
272.394	85.44
272.626	82.44
272.858	76.44
273.09	88.44
273.322	90.44
273.553	86.44
273.785	88.44
274.017	80.44
274.249	77.44
274.481	72.44
274.713	70.44
274.945	75.44
275.176	81.44
275.408	80.44
275.64	77.44
275.872	94.44
276.104	97.44
276.335	74.44
276.567	99.44
276.799	124.44
277.031	112.44
277.262	99.44
277.494	86.44
277.726	84.44
277.957	97.44
278.189	86.44
278.421	81.44
278.652	72.44
278.884	83.44
279.115	81.44
279.347	71.44
279.579	76.44
279.81	94.44
280.042	94.44
280.273	85.44
280.505	98.44
280.736	87.44
280.968	86.44
281.199	85.44
281.431	84.44
281.662	95.44
281.894	107.44
282.125	102.44
282.356	127.44
282.588	167.44
282.819	134.44
283.051	80.44
283.282	77.44
283.513	71.44
283.745	87.44
283.976	82.44
284.207	87.44
284.439	92.44
284.67	90.44
284.901	94.44
285.132	68.44
285.364	65.44
285.595	69.44
285.826	87.44
286.057	88.44
286.288	82.44
286.52	87.44
286.751	91.44
286.982	77.44
287.213	86.44
287.444	76.44
287.675	84.44
287.906	67.44
288.138	103.44
288.369	94.44
288.6	99.44
288.831	101.44
289.062	68.44
289.293	86.44
289.524	80.44
289.755	83.44
289.986	78.44
290.217	80.44
290.448	76.44
290.679	87.44
290.91	74.44
291.141	89.44
291.371	87.44
291.602	92.44
291.833	84.44
292.064	76.44
292.295	92.44
292.526	83.44
292.757	80.44
292.987	90.44
293.218	88.44
293.449	97.44
293.68	100.44
293.91	92.44
294.141	81.44
294.372	77.44
294.603	71.44
294.833	90.44
295.064	88.44
295.295	86.44
295.525	83.44
295.756	105.44
295.987	113.44
296.217	165.44
296.448	148.44
296.679	88.44
296.909	96.44
297.14	88.44
297.37	100.44
297.601	98.44
297.831	89.44
298.062	81.44
298.292	79.44
298.523	88.44
298.753	95.44
298.984	73.44
299.214	92.44
299.445	80.44
299.675	79.44
299.905	92.44
300.136	80.44
300.366	89.44
300.597	92.44
300.827	82.44
301.057	91.44
301.288	101.44
301.518	94.44
301.748	92.44
301.979	99.44
302.209	93.44
302.439	76.44
302.669	90.44
302.9	90.44
303.13	84.44
303.36	93.44
303.59	103.44
303.82	100.44
304.051	94.44
304.281	98.44
304.511	93.44
304.741	75.44
304.971	82.44
305.201	101.44
305.431	89.44
305.661	84.44
305.891	104.44
306.121	98.44
306.352	99.44
306.582	106.44
306.812	77.44
307.042	99.44
307.272	92.44
307.502	92.44
307.731	95.44
307.961	83.44
308.191	100.44
308.421	86.44
308.651	95.44
308.881	85.44
309.111	89.44
309.341	86.44
309.571	97.44
309.8	94.44
310.03	93.44
310.26	113.44
310.49	103.44
310.72	95.44
310.949	103.44
311.179	93.44
311.409	83.44
311.639	92.44
311.868	87.44
312.098	98.44
312.328	83.44
312.557	105.44
312.787	99.44
313.017	89.44
313.246	92.44
313.476	109.44
313.706	90.44
313.935	106.44
314.165	96.44
314.394	109.44
314.624	92.44
314.853	98.44
315.083	93.44
315.312	87.44
315.542	92.44
315.771	103.44
316.001	74.44
316.23	107.44
316.46	92.44
316.689	78.44
316.919	89.44
317.148	97.44
317.377	86.44
317.607	93.44
317.836	92.44
318.065	95.44
318.295	96.44
318.524	97.44
318.753	103.44
318.983	88.44
319.212	105.44
319.441	125.44
319.67	109.44
319.9	92.44
320.129	96.44
320.358	92.44
320.587	85.44
320.816	97.44
321.046	109.44
321.275	100.44
321.504	85.44
321.733	84.44
321.962	90.44
322.191	90.44
322.42	112.44
322.649	121.44
322.878	112.44
323.108	126.44
323.337	126.44
323.566	138.44
323.795	145.44
324.024	225.44
324.253	439.44
324.482	920.44
324.71	1908.44
324.939	2558.44
325.168	954.44
325.397	275.44
325.626	162.44
325.855	142.44
326.084	127.44
326.313	135.44
326.542	157.44
326.77	246.44
326.999	490.44
327.228	1026.44
327.457	1817.44
327.686	1489.44
327.914	409.44
328.143	223.44
328.372	188.44
328.6	163.44
328.829	131.44
329.058	139.44
329.287	165.44
329.515	115.44
329.744	108.44
329.972	105.44
330.201	156.44
330.43	183.44
330.658	160.44
330.887	163.44
331.115	131.44
331.344	91.44
331.572	106.44
331.801	118.44
332.03	112.44
332.258	104.44
332.486	97.44
332.715	104.44
332.943	90.44
333.172	88.44
333.4	100.44
333.629	119.44
333.857	131.44
334.085	125.44
334.314	151.44
334.542	184.44
334.771	196.44
334.999	116.44
335.227	100.44
335.455	103.44
335.684	108.44
335.912	89.44
336.14	100.44
336.369	100.44
336.597	109.44
336.825	101.44
337.053	96.44
337.281	89.44
337.51	92.44
337.738	102.44
337.966	92.44
338.194	108.44
338.422	104.44
338.65	99.44
338.878	93.44
339.106	92.44
339.334	104.44
339.562	85.44
339.79	79.44
340.018	87.44
340.246	104.44
340.474	89.44
340.702	93.44
340.93	99.44
341.158	86.44
341.386	90.44
341.614	94.44
341.842	106.44
342.07	97.44
342.298	91.44
342.526	98.44
342.754	80.44
342.981	80.44
343.209	96.44
343.437	95.44
343.665	84.44
343.893	89.44
344.12	81.44
344.348	75.44
344.576	100.44
344.804	88.44
345.031	95.44
345.259	99.44
345.487	100.44
345.714	83.44
345.942	106.44
346.17	90.44
346.397	81.44
346.625	89.44
346.853	88.44
347.08	83.44
347.308	97.44
347.535	89.44
347.763	94.44
347.99	103.44
348.218	102.44
348.445	112.44
348.673	118.44
348.9	99.44
349.128	102.44
349.355	100.44
349.583	92.44
349.81	85.44
350.037	98.44
350.265	93.44
350.492	104.44
350.72	95.44
350.947	98.44
351.174	126.44
351.402	126.44
351.629	104.44
351.856	108.44
352.083	96.44
352.311	109.44
352.538	103.44
352.765	104.44
352.992	136.44
353.22	112.44
353.447	84.44
353.674	103.44
353.901	93.44
354.128	80.44
354.355	101.44
354.583	97.44
354.81	101.44
355.037	84.44
355.264	84.44
355.491	98.44
355.718	77.44
355.945	87.44
356.172	106.44
356.399	93.44
356.626	80.44
356.853	91.44
357.08	88.44
357.307	87.44
357.534	84.44
357.761	82.44
357.988	95.44
358.215	90.44
358.441	95.44
358.668	94.44
358.895	104.44
359.122	95.44
359.349	88.44
359.576	93.44
359.802	97.44
360.029	136.44
360.256	126.44
360.483	95.44
360.709	94.44
360.936	94.44
361.163	91.44
361.39	105.44
361.616	94.44
361.843	87.44
362.07	99.44
362.296	100.44
362.523	97.44
362.749	81.44
362.976	86.44
363.203	87.44
363.429	80.44
363.656	84.44
363.882	90.44
364.109	89.44
364.335	94.44
364.562	87.44
364.788	94.44
365.015	97.44
365.241	95.44
365.468	111.44
365.694	108.44
365.92	87.44
366.147	86.44
366.373	84.44
366.599	74.44
366.826	94.44
367.052	86.44
367.278	97.44
367.505	92.44
367.731	97.44
367.957	84.44
368.184	102.44
368.41	99.44
368.636	134.44
368.862	123.44
369.089	106.44
369.315	71.44
369.541	81.44
369.767	95.44
369.993	97.44
370.219	77.44
370.445	99.44
370.672	75.44
370.898	94.44
371.124	81.44
371.35	96.44
371.576	85.44
371.802	86.44
372.028	71.44
372.254	80.44
372.48	90.44
372.706	91.44
372.932	89.44
373.158	77.44
373.384	90.44
373.61	101.44
373.835	95.44
374.061	92.44
374.287	93.44
374.513	93.44
374.739	87.44
374.965	84.44
375.191	82.44
375.416	86.44
375.642	72.44
375.868	94.44
376.094	90.44
376.319	101.44
376.545	98.44
376.771	104.44
376.997	98.44
377.222	87.44
377.448	84.44
377.674	82.44
377.899	83.44
378.125	82.44
378.35	97.44
378.576	100.44
378.802	80.44
379.027	80.44
379.253	89.44
379.478	85.44
379.704	78.44
379.929	108.44
380.155	93.44
380.38	87.44
380.606	80.44
380.831	88.44
381.057	95.44
381.282	74.44
381.507	89.44
381.733	84.44
381.958	91.44
382.184	105.44
382.409	89.44
382.634	105.44
382.86	101.44
383.085	89.44
383.31	97.44
383.535	109.44
383.761	101.44
383.986	104.44
384.211	93.44
384.436	97.44
384.662	96.44
384.887	102.44
385.112	106.44
385.337	99.44
385.562	84.44
385.787	108.44
386.013	126.44
386.238	122.44
386.463	104.44
386.688	101.44
386.913	95.44
387.138	96.44
387.363	101.44
387.588	86.44
387.813	87.44
388.038	116.44
388.263	114.44
388.488	102.44
388.713	87.44
388.938	100.44
389.163	96.44
389.387	82.44
389.612	81.44
389.837	106.44
390.062	90.44
390.287	93.44
390.512	81.44
390.736	84.44
390.961	76.44
391.186	93.44
391.411	90.44
391.636	87.44
391.86	92.44
392.085	89.44
392.31	88.44
392.534	103.44
392.759	77.44
392.984	82.44
393.208	83.44
393.433	96.44
393.658	78.44
393.882	90.44
394.107	76.44
394.331	76.44
394.556	86.44
394.78	80.44
395.005	79.44
395.229	86.44
395.454	89.44
395.678	82.44
395.903	80.44
396.127	86.44
396.352	76.44
396.576	78.44
396.801	85.44
397.025	87.44
397.249	81.44
397.474	87.44
397.698	82.44
397.922	81.44
398.147	96.44
398.371	82.44
398.595	98.44
398.82	89.44
399.044	89.44
399.268	88.44
399.492	84.44
399.717	83.44
399.941	81.44
400.165	87.44
400.389	79.44
400.613	80.44
400.837	81.44
401.062	96.44
401.286	82.44
401.51	78.44
401.734	95.44
401.958	107.44
402.182	138.44
402.406	177.44
402.63	136.44
402.854	116.44
403.078	100.44
403.302	78.44
403.526	91.44
403.75	81.44
403.974	84.44
404.198	79.44
404.422	72.44
404.645	80.44
404.869	97.44
405.093	90.44
405.317	95.44
405.541	92.44
405.765	98.44
405.988	141.44
406.212	219.44
406.436	291.44
406.66	193.44
406.883	114.44
407.107	95.44
407.331	97.44
407.555	100.44
407.778	111.44
408.002	97.44
408.226	80.44
408.449	81.44
408.673	101.44
408.896	87.44
409.12	109.44
409.344	97.44
409.567	100.44
409.791	86.44
410.014	101.44
410.238	86.44
410.461	104.44
410.685	84.44
410.908	97.44
411.132	105.44
411.355	93.44
411.578	97.44
411.802	93.44
412.025	79.44
412.249	88.44
412.472	87.44
412.695	95.44
412.919	95.44
413.142	90.44
413.365	92.44
413.589	73.44
413.812	101.44
414.035	86.44
414.258	86.44
414.482	89.44
414.705	82.44
414.928	90.44
415.151	89.44
415.374	93.44
415.597	87.44
415.821	83.44
416.044	86.44
416.267	94.44
416.49	77.44
416.713	89.44
416.936	97.44
417.159	87.44
417.382	80.44
417.605	80.44
417.828	99.44
418.051	84.44
418.274	90.44
418.497	92.44
418.72	98.44
418.943	99.44
419.166	75.44
419.389	81.44
419.611	98.44
419.834	108.44
420.057	85.44
420.28	89.44
420.503	80.44
420.726	84.44
420.948	97.44
421.171	101.44
421.394	87.44
421.617	95.44
421.839	74.44
422.062	74.44
422.285	91.44
422.507	113.44
422.73	104.44
422.953	84.44
423.175	80.44
423.398	78.44
423.621	88.44
423.843	83.44
424.066	74.44
424.288	92.44
424.511	104.44
424.733	97.44
424.956	100.44
425.178	107.44
425.401	108.44
425.623	117.44
425.846	84.44
426.068	102.44
426.291	98.44
426.513	83.44
426.735	94.44
426.958	108.44
427.18	108.44
427.402	148.44
427.625	187.44
427.847	156.44
428.069	126.44
428.292	90.44
428.514	79.44
428.736	72.44
428.958	95.44
429.181	78.44
429.403	67.44
429.625	86.44
429.847	96.44
430.069	103.44
430.292	79.44
430.514	101.44
430.736	79.44
430.958	85.44
431.18	93.44
431.402	92.44
431.624	80.44
431.846	87.44
432.068	96.44
432.29	87.44
432.512	84.44
432.734	78.44
432.956	95.44
433.178	99.44
433.4	93.44
433.622	102.44
433.844	99.44
434.066	99.44
434.287	93.44
434.509	97.44
434.731	75.44
434.953	85.44
435.175	74.44
435.397	86.44
435.618	93.44
435.84	103.44
436.062	128.44
436.284	107.44
436.505	106.44
436.727	105.44
436.949	88.44
437.17	88.44
437.392	96.44
437.614	111.44
437.835	117.44
438.057	117.44
438.278	105.44
438.5	113.44
438.721	112.44
438.943	96.44
439.165	94.44
439.386	85.44
439.608	87.44
439.829	105.44
440.05	116.44
440.272	157.44
440.493	101.44
440.715	81.44
440.936	87.44
441.158	81.44
441.379	98.44
441.6	108.44
441.822	100.44
442.043	83.44
442.264	100.44
442.486	98.44
442.707	106.44
442.928	109.44
443.149	140.44
443.371	156.44
443.592	125.44
443.813	115.44
444.034	105.44
444.255	85.44
444.476	68.44
444.698	71.44
444.919	94.44
445.14	141.44
445.361	121.44
445.582	112.44
445.803	145.44
446.024	161.44
446.245	135.44
446.466	126.44
446.687	96.44
446.908	88.44
447.129	93.44
447.35	84.44
447.571	89.44
447.792	77.44
448.013	108.44
448.234	112.44
448.455	113.44
448.675	111.44
448.896	116.44
449.117	93.44
449.338	95.44
449.559	132.44
449.779	124.44
450	96.44
450.221	90.44
450.442	96.44
450.662	95.44
450.883	116.44
451.104	141.44
451.324	99.44
451.545	87.44
451.766	82.44
451.986	81.44
452.207	79.44
452.428	91.44
452.648	98.44
452.869	123.44
453.089	120.44
453.31	131.44
453.53	82.44
453.751	87.44
453.971	105.44
454.192	135.44
454.412	101.44
454.633	90.44
454.853	92.44
455.073	102.44
455.294	83.44
455.514	99.44
455.734	91.44
455.955	76.44
456.175	92.44
456.395	82.44
456.616	87.44
456.836	82.44
457.056	89.44
457.276	74.44
457.497	81.44
457.717	76.44
457.937	82.44
458.157	88.44
458.377	100.44
458.598	124.44
458.818	164.44
459.038	189.44
459.258	123.44
459.478	80.44
459.698	100.44
459.918	82.44
460.138	82.44
460.358	85.44
460.578	71.44
460.798	97.44
461.018	85.44
461.238	95.44
461.458	71.44
461.678	88.44
461.898	84.44
462.118	81.44
462.338	78.44
462.558	77.44
462.777	85.44
462.997	84.44
463.217	82.44
463.437	93.44
463.657	86.44
463.876	110.44
464.096	90.44
464.316	96.44
464.536	98.44
464.755	89.44
464.975	98.44
465.195	199.44
465.414	188.44
465.634	102.44
465.854	80.44
466.073	80.44
466.293	69.44
466.512	89.44
466.732	85.44
466.951	101.44
467.171	109.44
467.391	100.44
467.61	106.44
467.829	96.44
468.049	122.44
468.268	120.44
468.488	92.44
468.707	80.44
468.927	74.44
469.146	84.44
469.365	94.44
469.585	104.44
469.804	88.44
470.023	97.44
470.243	103.44
470.462	114.44
470.681	119.44
470.901	88.44
471.12	86.44
471.339	92.44
471.558	92.44
471.777	95.44
471.997	85.44
472.216	156.44
472.435	214.44
472.654	100.44
472.873	78.44
473.092	80.44
473.311	84.44
473.53	67.44
473.749	79.44
473.968	89.44
474.187	116.44
474.406	87.44
474.625	88.44
474.844	81.44
475.063	89.44
475.282	81.44
475.501	74.44
475.72	86.44
475.939	81.44
476.158	91.44
476.377	95.44
476.596	89.44
476.814	92.44
477.033	100.44
477.252	94.44
477.471	82.44
477.69	82.44
477.908	103.44
478.127	89.44
478.346	76.44
478.564	99.44
478.783	110.44
479.002	99.44
479.22	85.44
479.439	117.44
479.658	93.44
479.876	95.44
480.095	83.44
480.313	85.44
480.532	94.44
480.751	97.44
480.969	150.44
481.188	355.44
481.406	249.44
481.624	100.44
481.843	108.44
482.061	87.44
482.28	79.44
482.498	74.44
482.717	86.44
482.935	82.44
483.153	93.44
483.372	78.44
483.59	81.44
483.808	79.44
484.027	85.44
484.245	89.44
484.463	113.44
484.681	94.44
484.9	85.44
485.118	89.44
485.336	92.44
485.554	85.44
485.772	97.44
485.99	104.44
486.209	104.44
486.427	96.44
486.645	92.44
486.863	112.44
487.081	87.44
487.299	90.44
487.517	83.44
487.735	86.44
487.953	109.44
488.171	83.44
488.389	95.44
488.607	108.44
488.825	90.44
489.043	67.44
489.261	84.44
489.479	88.44
489.696	86.44
489.914	78.44
490.132	80.44
490.35	74.44
490.568	93.44
490.786	97.44
491.003	86.44
491.221	96.44
491.439	86.44
491.657	88.44
491.874	100.44
492.092	89.44
492.31	84.44
492.527	83.44
492.745	97.44
492.963	85.44
493.18	98.44
493.398	95.44
493.615	92.44
493.833	88.44
494.05	95.44
494.268	93.44
494.485	88.44
494.703	90.44
494.92	77.44
495.138	80.44
495.355	96.44
495.573	91.44
495.79	94.44
496.008	99.44
496.225	92.44
496.442	79.44
496.66	81.44
496.877	88.44
497.094	98.44
497.312	101.44
497.529	111.44
497.746	74.44
497.963	97.44
498.181	88.44
498.398	100.44
498.615	114.44
498.832	100.44
499.049	89.44
499.267	103.44
499.484	97.44
499.701	89.44
499.918	78.44
500.135	94.44
500.352	70.44
500.569	96.44
500.786	95.44
501.003	72.44
501.22	97.44
501.437	89.44
501.654	100.44
501.871	110.44
502.088	87.44
502.305	64.44
502.522	99.44
502.739	95.44
502.956	84.44
503.172	99.44
503.389	114.44
503.606	109.44
503.823	114.44
504.04	93.44
504.256	76.44
504.473	90.44
504.69	92.44
504.907	89.44
505.123	78.44
505.34	83.44
505.557	79.44
505.773	94.44
505.99	96.44
506.207	93.44
506.423	82.44
506.64	93.44
506.856	88.44
507.073	84.44
507.289	87.44
507.506	96.44
507.722	112.44
507.939	128.44
508.155	96.44
508.372	104.44
508.588	96.44
508.805	99.44
509.021	108.44
509.238	101.44
509.454	106.44
509.67	92.44
509.887	123.44
510.103	142.44
510.319	260.44
510.536	1014.44
510.752	3387.44
510.968	952.44
511.184	182.44
511.401	109.44
511.617	91.44
511.833	92.44
512.049	95.44
512.265	72.44
512.481	82.44
512.698	92.44
512.914	97.44
513.13	108.44
513.346	96.44
513.562	99.44
513.778	92.44
513.994	94.44
514.21	117.44
514.426	129.44
514.642	161.44
514.858	145.44
515.074	200.44
515.29	645.44
515.506	2326.44
