Data from Circ_2018_H10_HRD10591_00068.txt Node
Date: Wed Jan 03 09:56:15 EST 2024
User: Yrep
Spectrometer: HR+D1059
Trigger mode: 1
Integration Time (sec): 1.000000E-1
Scans to average: 1
Electric dark correction enabled: true
Nonlinearity correction enabled: false
Boxcar width: 0
XAxis mode: Wavelengths
Number of Pixels in Spectrum: 2048
>>>>>Begin Spectral Data<<<<<
223.165	-7.06
223.4	-7.06
223.635	-7.06
223.869	-16.06
224.104	-19.06
224.338	-5.06
224.573	-16.06
224.808	-8.06
225.042	-17.06
225.277	-15.06
225.511	-5.06
225.746	0.94
225.98	11.94
226.215	10.94
226.449	30.94
226.683	14.94
226.918	19.94
227.152	18.94
227.387	34.94
227.621	38.94
227.856	51.94
228.09	40.94
228.324	59.94
228.559	53.94
228.793	58.94
229.027	63.94
229.262	61.94
229.496	70.94
229.73	76.94
229.964	98.94
230.199	81.94
230.433	76.94
230.667	79.94
230.901	74.94
231.136	88.94
231.37	78.94
231.604	69.94
231.838	79.94
232.072	67.94
232.306	84.94
232.541	86.94
232.775	63.94
233.009	90.94
233.243	91.94
233.477	93.94
233.711	79.94
233.945	61.94
234.179	71.94
234.413	87.94
234.647	78.94
234.881	75.94
235.115	70.94
235.349	69.94
235.583	66.94
235.817	75.94
236.051	84.94
236.285	78.94
236.519	69.94
236.753	96.94
236.987	77.94
237.221	85.94
237.455	90.94
237.689	76.94
237.922	78.94
238.156	86.94
238.39	83.94
238.624	77.94
238.858	70.94
239.091	88.94
239.325	85.94
239.559	94.94
239.793	73.94
240.027	71.94
240.26	71.94
240.494	74.94
240.728	67.94
240.961	75.94
241.195	73.94
241.429	78.94
241.662	80.94
241.896	70.94
242.13	75.94
242.363	75.94
242.597	84.94
242.83	83.94
243.064	82.94
243.298	74.94
243.531	91.94
243.765	72.94
243.998	65.94
244.232	100.94
244.465	75.94
244.699	89.94
244.932	85.94
245.166	78.94
245.399	83.94
245.633	71.94
245.866	75.94
246.099	65.94
246.333	77.94
246.566	78.94
246.8	69.94
247.033	81.94
247.266	80.94
247.5	70.94
247.733	80.94
247.966	70.94
248.2	72.94
248.433	82.94
248.666	70.94
248.899	79.94
249.133	95.94
249.366	100.94
249.599	82.94
249.832	91.94
250.066	76.94
250.299	79.94
250.532	74.94
250.765	97.94
250.998	89.94
251.231	79.94
251.465	81.94
251.698	70.94
251.931	64.94
252.164	69.94
252.397	91.94
252.63	90.94
252.863	83.94
253.096	79.94
253.329	73.94
253.562	94.94
253.795	85.94
254.028	75.94
254.261	67.94
254.494	82.94
254.727	99.94
254.96	79.94
255.193	80.94
255.426	74.94
255.659	71.94
255.892	73.94
256.124	77.94
256.357	77.94
256.59	99.94
256.823	74.94
257.056	88.94
257.289	92.94
257.521	71.94
257.754	76.94
257.987	89.94
258.22	89.94
258.452	81.94
258.685	78.94
258.918	88.94
259.151	77.94
259.383	86.94
259.616	76.94
259.849	75.94
260.081	91.94
260.314	85.94
260.547	77.94
260.779	80.94
261.012	78.94
261.244	93.94
261.477	89.94
261.71	82.94
261.942	131.94
262.175	127.94
262.407	95.94
262.64	97.94
262.872	82.94
263.105	74.94
263.337	91.94
263.57	95.94
263.802	88.94
264.035	86.94
264.267	71.94
264.499	80.94
264.732	90.94
264.964	75.94
265.197	77.94
265.429	74.94
265.661	78.94
265.894	85.94
266.126	73.94
266.358	79.94
266.591	73.94
266.823	88.94
267.055	76.94
267.287	76.94
267.52	81.94
267.752	84.94
267.984	75.94
268.216	61.94
268.448	71.94
268.681	83.94
268.913	87.94
269.145	101.94
269.377	86.94
269.609	93.94
269.841	84.94
270.073	75.94
270.306	73.94
270.538	75.94
270.77	75.94
271.002	81.94
271.234	86.94
271.466	86.94
271.698	80.94
271.93	82.94
272.162	76.94
272.394	77.94
272.626	88.94
272.858	99.94
273.09	82.94
273.322	82.94
273.553	83.94
273.785	96.94
274.017	102.94
274.249	86.94
274.481	82.94
274.713	80.94
274.945	75.94
275.176	96.94
275.408	89.94
275.64	72.94
275.872	83.94
276.104	74.94
276.335	96.94
276.567	102.94
276.799	113.94
277.031	107.94
277.262	80.94
277.494	91.94
277.726	95.94
277.957	86.94
278.189	80.94
278.421	86.94
278.652	86.94
278.884	101.94
279.115	94.94
279.347	96.94
279.579	74.94
279.81	83.94
280.042	78.94
280.273	87.94
280.505	94.94
280.736	81.94
280.968	92.94
281.199	88.94
281.431	69.94
281.662	68.94
281.894	85.94
282.125	91.94
282.356	116.94
282.588	158.94
282.819	119.94
283.051	104.94
283.282	91.94
283.513	81.94
283.745	78.94
283.976	84.94
284.207	89.94
284.439	99.94
284.67	87.94
284.901	84.94
285.132	85.94
285.364	73.94
285.595	88.94
285.826	74.94
286.057	87.94
286.288	86.94
286.52	89.94
286.751	95.94
286.982	79.94
287.213	79.94
287.444	81.94
287.675	79.94
287.906	78.94
288.138	82.94
288.369	98.94
288.6	85.94
288.831	81.94
289.062	79.94
289.293	78.94
289.524	86.94
289.755	85.94
289.986	82.94
290.217	90.94
290.448	89.94
290.679	94.94
290.91	86.94
291.141	83.94
291.371	86.94
291.602	87.94
291.833	88.94
292.064	94.94
292.295	82.94
292.526	92.94
292.757	76.94
292.987	88.94
293.218	86.94
293.449	90.94
293.68	96.94
293.91	105.94
294.141	80.94
294.372	83.94
294.603	90.94
294.833	98.94
295.064	103.94
295.295	90.94
295.525	98.94
295.756	99.94
295.987	132.94
296.217	161.94
296.448	125.94
296.679	102.94
296.909	111.94
297.14	74.94
297.37	87.94
297.601	89.94
297.831	85.94
298.062	85.94
298.292	92.94
298.523	86.94
298.753	85.94
298.984	83.94
299.214	91.94
299.445	90.94
299.675	102.94
299.905	95.94
300.136	98.94
300.366	92.94
300.597	73.94
300.827	92.94
301.057	99.94
301.288	92.94
301.518	81.94
301.748	91.94
301.979	89.94
302.209	80.94
302.439	90.94
302.669	83.94
302.9	86.94
303.13	86.94
303.36	101.94
303.59	111.94
303.82	113.94
304.051	83.94
304.281	98.94
304.511	98.94
304.741	92.94
304.971	84.94
305.201	103.94
305.431	92.94
305.661	96.94
305.891	106.94
306.121	91.94
306.352	105.94
306.582	107.94
306.812	90.94
307.042	92.94
307.272	89.94
307.502	95.94
307.731	95.94
307.961	98.94
308.191	78.94
308.421	81.94
308.651	95.94
308.881	109.94
309.111	85.94
309.341	106.94
309.571	103.94
309.8	83.94
310.03	95.94
310.26	101.94
310.49	95.94
310.72	93.94
310.949	114.94
311.179	93.94
311.409	99.94
311.639	100.94
311.868	97.94
312.098	99.94
312.328	102.94
312.557	116.94
312.787	97.94
313.017	103.94
313.246	91.94
313.476	90.94
313.706	84.94
313.935	101.94
314.165	107.94
314.394	95.94
314.624	88.94
314.853	92.94
315.083	87.94
315.312	92.94
315.542	87.94
315.771	98.94
316.001	103.94
316.23	98.94
316.46	84.94
316.689	89.94
316.919	82.94
317.148	83.94
317.377	109.94
317.607	111.94
317.836	95.94
318.065	83.94
318.295	93.94
318.524	92.94
318.753	114.94
318.983	106.94
319.212	91.94
319.441	102.94
319.67	103.94
319.9	95.94
320.129	93.94
320.358	94.94
320.587	79.94
320.816	98.94
321.046	96.94
321.275	92.94
321.504	95.94
321.733	94.94
321.962	113.94
322.191	110.94
322.42	102.94
322.649	123.94
322.878	105.94
323.108	126.94
323.337	134.94
323.566	145.94
323.795	159.94
324.024	224.94
324.253	423.94
324.482	915.94
324.71	1857.94
324.939	2346.94
325.168	858.94
325.397	255.94
325.626	160.94
325.855	145.94
326.084	128.94
326.313	118.94
326.542	157.94
326.77	229.94
326.999	466.94
327.228	941.94
327.457	1738.94
327.686	1403.94
327.914	384.94
328.143	224.94
328.372	163.94
328.6	149.94
328.829	119.94
329.058	151.94
329.287	147.94
329.515	111.94
329.744	105.94
329.972	110.94
330.201	138.94
330.43	134.94
330.658	146.94
330.887	158.94
331.115	138.94
331.344	103.94
331.572	102.94
331.801	111.94
332.03	113.94
332.258	93.94
332.486	90.94
332.715	73.94
332.943	88.94
333.172	82.94
333.4	100.94
333.629	112.94
333.857	111.94
334.085	122.94
334.314	129.94
334.542	151.94
334.771	157.94
334.999	106.94
335.227	94.94
335.455	87.94
335.684	98.94
335.912	97.94
336.14	96.94
336.369	107.94
336.597	97.94
336.825	91.94
337.053	100.94
337.281	81.94
337.51	93.94
337.738	82.94
337.966	88.94
338.194	102.94
338.422	89.94
338.65	92.94
338.878	91.94
339.106	78.94
339.334	87.94
339.562	89.94
339.79	100.94
340.018	98.94
340.246	92.94
340.474	85.94
340.702	102.94
340.93	81.94
341.158	98.94
341.386	107.94
341.614	104.94
341.842	102.94
342.07	94.94
342.298	72.94
342.526	65.94
342.754	85.94
342.981	97.94
343.209	86.94
343.437	97.94
343.665	74.94
343.893	86.94
344.12	97.94
344.348	80.94
344.576	86.94
344.804	91.94
345.031	99.94
345.259	91.94
345.487	90.94
345.714	95.94
345.942	93.94
346.17	85.94
346.397	92.94
346.625	82.94
346.853	90.94
347.08	100.94
347.308	110.94
347.535	113.94
347.763	103.94
347.99	108.94
348.218	97.94
348.445	112.94
348.673	115.94
348.9	103.94
349.128	104.94
349.355	91.94
349.583	81.94
349.81	98.94
350.037	93.94
350.265	96.94
350.492	89.94
350.72	95.94
350.947	95.94
351.174	112.94
351.402	121.94
351.629	96.94
351.856	105.94
352.083	100.94
352.311	95.94
352.538	121.94
352.765	121.94
352.992	106.94
353.22	109.94
353.447	96.94
353.674	100.94
353.901	100.94
354.128	86.94
354.355	86.94
354.583	99.94
354.81	92.94
355.037	103.94
355.264	93.94
355.491	96.94
355.718	86.94
355.945	95.94
356.172	92.94
356.399	90.94
356.626	116.94
356.853	91.94
357.08	87.94
357.307	93.94
357.534	87.94
357.761	87.94
357.988	93.94
358.215	86.94
358.441	99.94
358.668	95.94
358.895	93.94
359.122	96.94
359.349	78.94
359.576	94.94
359.802	104.94
360.029	121.94
360.256	106.94
360.483	103.94
360.709	91.94
360.936	86.94
361.163	92.94
361.39	83.94
361.616	83.94
361.843	89.94
362.07	88.94
362.296	87.94
362.523	85.94
362.749	103.94
362.976	97.94
363.203	83.94
363.429	94.94
363.656	76.94
363.882	87.94
364.109	97.94
364.335	82.94
364.562	86.94
364.788	83.94
365.015	89.94
365.241	97.94
365.468	99.94
365.694	98.94
365.92	86.94
366.147	96.94
366.373	113.94
366.599	87.94
366.826	86.94
367.052	100.94
367.278	80.94
367.505	102.94
367.731	89.94
367.957	89.94
368.184	98.94
368.41	94.94
368.636	115.94
368.862	133.94
369.089	120.94
369.315	102.94
369.541	89.94
369.767	85.94
369.993	90.94
370.219	86.94
370.445	94.94
370.672	90.94
370.898	85.94
371.124	94.94
371.35	85.94
371.576	95.94
371.802	100.94
372.028	88.94
372.254	77.94
372.48	94.94
372.706	96.94
372.932	97.94
373.158	98.94
373.384	83.94
373.61	94.94
373.835	87.94
374.061	85.94
374.287	88.94
374.513	89.94
374.739	96.94
374.965	83.94
375.191	86.94
375.416	94.94
375.642	94.94
375.868	82.94
376.094	90.94
376.319	89.94
376.545	89.94
376.771	83.94
376.997	83.94
377.222	110.94
377.448	96.94
377.674	76.94
377.899	91.94
378.125	101.94
378.35	98.94
378.576	90.94
378.802	90.94
379.027	90.94
379.253	103.94
379.478	85.94
379.704	92.94
379.929	90.94
380.155	83.94
380.38	103.94
380.606	90.94
380.831	81.94
381.057	94.94
381.282	93.94
381.507	95.94
381.733	100.94
381.958	85.94
382.184	98.94
382.409	94.94
382.634	90.94
382.86	94.94
383.085	109.94
383.31	95.94
383.535	97.94
383.761	97.94
383.986	116.94
384.211	94.94
384.436	91.94
384.662	102.94
384.887	88.94
385.112	100.94
385.337	100.94
385.562	104.94
385.787	106.94
386.013	118.94
386.238	112.94
386.463	98.94
386.688	117.94
386.913	85.94
387.138	98.94
387.363	91.94
387.588	86.94
387.813	99.94
388.038	105.94
388.263	103.94
388.488	101.94
388.713	90.94
388.938	88.94
389.163	83.94
389.387	96.94
389.612	96.94
389.837	92.94
390.062	89.94
390.287	95.94
390.512	94.94
390.736	85.94
390.961	96.94
391.186	81.94
391.411	88.94
391.636	88.94
391.86	102.94
392.085	78.94
392.31	81.94
392.534	88.94
392.759	90.94
392.984	76.94
393.208	86.94
393.433	86.94
393.658	79.94
393.882	87.94
394.107	78.94
394.331	86.94
394.556	87.94
394.78	89.94
395.005	88.94
395.229	75.94
395.454	70.94
395.678	81.94
395.903	77.94
396.127	88.94
396.352	90.94
396.576	93.94
396.801	81.94
397.025	90.94
397.249	81.94
397.474	83.94
397.698	80.94
397.922	90.94
398.147	86.94
398.371	79.94
398.595	70.94
398.82	83.94
399.044	73.94
399.268	82.94
399.492	85.94
399.717	90.94
399.941	85.94
400.165	100.94
400.389	86.94
400.613	105.94
400.837	97.94
401.062	80.94
401.286	104.94
401.51	100.94
401.734	80.94
401.958	105.94
402.182	120.94
402.406	177.94
402.63	119.94
402.854	103.94
403.078	97.94
403.302	80.94
403.526	90.94
403.75	86.94
403.974	90.94
404.198	98.94
404.422	93.94
404.645	83.94
404.869	86.94
405.093	93.94
405.317	106.94
405.541	105.94
405.765	85.94
405.988	127.94
406.212	192.94
406.436	263.94
406.66	151.94
406.883	114.94
407.107	86.94
407.331	112.94
407.555	115.94
407.778	105.94
408.002	99.94
408.226	84.94
408.449	91.94
408.673	91.94
408.896	92.94
409.12	92.94
409.344	100.94
409.567	79.94
409.791	97.94
410.014	99.94
410.238	92.94
410.461	93.94
410.685	105.94
410.908	109.94
411.132	110.94
411.355	98.94
411.578	96.94
411.802	89.94
412.025	84.94
412.249	90.94
412.472	98.94
412.695	98.94
412.919	95.94
413.142	96.94
413.365	91.94
413.589	87.94
413.812	91.94
414.035	98.94
414.258	90.94
414.482	101.94
414.705	87.94
414.928	79.94
415.151	97.94
415.374	91.94
415.597	89.94
415.821	87.94
416.044	89.94
416.267	93.94
416.49	74.94
416.713	96.94
416.936	93.94
417.159	89.94
417.382	80.94
417.605	87.94
417.828	89.94
418.051	94.94
418.274	93.94
418.497	95.94
418.72	86.94
418.943	86.94
419.166	90.94
419.389	91.94
419.611	85.94
419.834	90.94
420.057	97.94
420.28	87.94
420.503	100.94
420.726	85.94
420.948	94.94
421.171	87.94
421.394	79.94
421.617	79.94
421.839	81.94
422.062	78.94
422.285	95.94
422.507	106.94
422.73	84.94
422.953	86.94
423.175	84.94
423.398	66.94
423.621	72.94
423.843	88.94
424.066	88.94
424.288	90.94
424.511	94.94
424.733	95.94
424.956	106.94
425.178	93.94
425.401	97.94
425.623	108.94
425.846	90.94
426.068	103.94
426.291	106.94
426.513	93.94
426.735	100.94
426.958	90.94
427.18	105.94
427.402	137.94
427.625	175.94
427.847	149.94
428.069	103.94
428.292	85.94
428.514	90.94
428.736	88.94
428.958	93.94
429.181	77.94
429.403	74.94
429.625	88.94
429.847	88.94
430.069	101.94
430.292	92.94
430.514	97.94
430.736	83.94
430.958	80.94
431.18	77.94
431.402	81.94
431.624	90.94
431.846	89.94
432.068	83.94
432.29	81.94
432.512	82.94
432.734	79.94
432.956	91.94
433.178	91.94
433.4	100.94
433.622	101.94
433.844	89.94
434.066	98.94
434.287	93.94
434.509	81.94
434.731	87.94
434.953	81.94
435.175	86.94
435.397	92.94
435.618	100.94
435.84	99.94
436.062	125.94
436.284	120.94
436.505	99.94
436.727	107.94
436.949	93.94
437.17	72.94
437.392	97.94
437.614	87.94
437.835	114.94
438.057	129.94
438.278	118.94
438.5	99.94
438.721	125.94
438.943	102.94
439.165	101.94
439.386	97.94
439.608	94.94
439.829	102.94
440.05	124.94
440.272	149.94
440.493	93.94
440.715	88.94
440.936	83.94
441.158	76.94
441.379	82.94
441.6	106.94
441.822	90.94
442.043	94.94
442.264	101.94
442.486	93.94
442.707	97.94
442.928	113.94
443.149	134.94
443.371	124.94
443.592	122.94
443.813	114.94
444.034	112.94
444.255	104.94
444.476	84.94
444.698	99.94
444.919	111.94
445.14	132.94
445.361	135.94
445.582	129.94
445.803	137.94
446.024	126.94
446.245	145.94
446.466	107.94
446.687	91.94
446.908	77.94
447.129	84.94
447.35	84.94
447.571	84.94
447.792	89.94
448.013	94.94
448.234	114.94
448.455	103.94
448.675	107.94
448.896	128.94
449.117	105.94
449.338	92.94
449.559	127.94
449.779	139.94
450	103.94
450.221	94.94
450.442	84.94
450.662	96.94
450.883	116.94
451.104	113.94
451.324	104.94
451.545	83.94
451.766	97.94
451.986	87.94
452.207	85.94
452.428	94.94
452.648	97.94
452.869	104.94
453.089	122.94
453.31	125.94
453.53	93.94
453.751	91.94
453.971	98.94
454.192	110.94
454.412	90.94
454.633	79.94
454.853	74.94
455.073	89.94
455.294	98.94
455.514	84.94
455.734	98.94
455.955	90.94
456.175	100.94
456.395	95.94
456.616	91.94
456.836	75.94
457.056	80.94
457.276	96.94
457.497	89.94
457.717	81.94
457.937	92.94
458.157	102.94
458.377	87.94
458.598	105.94
458.818	164.94
459.038	178.94
459.258	127.94
459.478	89.94
459.698	84.94
459.918	84.94
460.138	79.94
460.358	85.94
460.578	95.94
460.798	95.94
461.018	82.94
461.238	81.94
461.458	66.94
461.678	82.94
461.898	90.94
462.118	96.94
462.338	83.94
462.558	89.94
462.777	91.94
462.997	90.94
463.217	94.94
463.437	90.94
463.657	83.94
463.876	81.94
464.096	96.94
464.316	94.94
464.536	79.94
464.755	98.94
464.975	91.94
465.195	203.94
465.414	179.94
465.634	97.94
465.854	94.94
466.073	104.94
466.293	99.94
466.512	84.94
466.732	86.94
466.951	89.94
467.171	79.94
467.391	94.94
467.61	116.94
467.829	93.94
468.049	112.94
468.268	115.94
468.488	83.94
468.707	87.94
468.927	63.94
469.146	71.94
469.365	95.94
469.585	83.94
469.804	92.94
470.023	95.94
470.243	109.94
470.462	103.94
470.681	103.94
470.901	82.94
471.12	86.94
471.339	77.94
471.558	97.94
471.777	97.94
471.997	81.94
472.216	123.94
472.435	153.94
472.654	95.94
472.873	80.94
473.092	94.94
473.311	83.94
473.53	84.94
473.749	93.94
473.968	92.94
474.187	106.94
474.406	97.94
474.625	80.94
474.844	78.94
475.063	96.94
475.282	85.94
475.501	91.94
475.72	95.94
475.939	93.94
476.158	96.94
476.377	103.94
476.596	93.94
476.814	93.94
477.033	89.94
477.252	88.94
477.471	83.94
477.69	83.94
477.908	85.94
478.127	87.94
478.346	86.94
478.564	93.94
478.783	97.94
479.002	105.94
479.22	95.94
479.439	104.94
479.658	109.94
479.876	110.94
480.095	97.94
480.313	95.94
480.532	93.94
480.751	96.94
480.969	124.94
481.188	258.94
481.406	186.94
481.624	97.94
481.843	73.94
482.061	86.94
482.28	95.94
482.498	87.94
482.717	96.94
482.935	92.94
483.153	90.94
483.372	93.94
483.59	99.94
483.808	97.94
484.027	94.94
484.245	87.94
484.463	90.94
484.681	86.94
484.9	89.94
485.118	94.94
485.336	83.94
485.554	90.94
485.772	87.94
485.99	90.94
486.209	100.94
486.427	92.94
486.645	109.94
486.863	133.94
487.081	121.94
487.299	100.94
487.517	97.94
487.735	100.94
487.953	96.94
488.171	95.94
488.389	97.94
488.607	105.94
488.825	102.94
489.043	89.94
489.261	94.94
489.479	94.94
489.696	85.94
489.914	95.94
490.132	90.94
490.35	88.94
490.568	83.94
490.786	84.94
491.003	84.94
491.221	79.94
491.439	87.94
491.657	95.94
491.874	88.94
492.092	90.94
492.31	99.94
492.527	86.94
492.745	81.94
492.963	82.94
493.18	85.94
493.398	90.94
493.615	98.94
493.833	87.94
494.05	100.94
494.268	90.94
494.485	96.94
494.703	97.94
494.92	104.94
495.138	101.94
495.355	102.94
495.573	94.94
495.79	85.94
496.008	74.94
496.225	88.94
496.442	97.94
496.66	93.94
496.877	100.94
497.094	84.94
497.312	91.94
497.529	88.94
497.746	103.94
497.963	86.94
498.181	90.94
498.398	98.94
498.615	104.94
498.832	106.94
499.049	80.94
499.267	103.94
499.484	83.94
499.701	87.94
499.918	89.94
500.135	91.94
500.352	88.94
500.569	81.94
500.786	94.94
501.003	100.94
501.22	100.94
501.437	88.94
501.654	105.94
501.871	121.94
502.088	104.94
502.305	93.94
502.522	107.94
502.739	106.94
502.956	89.94
503.172	96.94
503.389	113.94
503.606	124.94
503.823	91.94
504.04	74.94
504.256	90.94
504.473	73.94
504.69	92.94
504.907	89.94
505.123	95.94
505.34	91.94
505.557	91.94
505.773	87.94
505.99	102.94
506.207	98.94
506.423	77.94
506.64	90.94
506.856	87.94
507.073	101.94
507.289	101.94
507.506	90.94
507.722	125.94
507.939	106.94
508.155	94.94
508.372	99.94
508.588	82.94
508.805	94.94
509.021	96.94
509.238	91.94
509.454	84.94
509.67	103.94
509.887	123.94
510.103	150.94
510.319	226.94
510.536	907.94
510.752	3025.94
510.968	819.94
511.184	176.94
511.401	118.94
511.617	94.94
511.833	96.94
512.049	104.94
512.265	90.94
512.481	88.94
512.698	91.94
512.914	79.94
513.13	104.94
513.346	91.94
513.562	92.94
513.778	87.94
513.994	97.94
514.21	116.94
514.426	123.94
514.642	146.94
514.858	145.94
515.074	192.94
515.29	548.94
515.506	1950.94
