Data from Circ_2018_H10_HRD10591_00043.txt Node
Date: Wed Jan 03 09:56:10 EST 2024
User: Yrep
Spectrometer: HR+D1059
Trigger mode: 1
Integration Time (sec): 1.000000E-1
Scans to average: 1
Electric dark correction enabled: true
Nonlinearity correction enabled: false
Boxcar width: 0
XAxis mode: Wavelengths
Number of Pixels in Spectrum: 2048
>>>>>Begin Spectral Data<<<<<
223.165	-22.62
223.4	-22.62
223.635	-22.62
223.869	-14.62
224.104	-5.62
224.338	-21.62
224.573	-7.62
224.808	-18.62
225.042	-7.62
225.277	-2.62
225.511	-1.62
225.746	5.38
225.98	-0.62
226.215	24.38
226.449	11.38
226.683	19.38
226.918	15.38
227.152	27.38
227.387	26.38
227.621	43.38
227.856	52.38
228.09	47.38
228.324	40.38
228.559	65.38
228.793	54.38
229.027	65.38
229.262	69.38
229.496	65.38
229.73	89.38
229.964	91.38
230.199	68.38
230.433	75.38
230.667	70.38
230.901	77.38
231.136	70.38
231.37	73.38
231.604	79.38
231.838	79.38
232.072	75.38
232.306	76.38
232.541	83.38
232.775	76.38
233.009	91.38
233.243	72.38
233.477	84.38
233.711	88.38
233.945	86.38
234.179	68.38
234.413	68.38
234.647	75.38
234.881	79.38
235.115	74.38
235.349	74.38
235.583	77.38
235.817	65.38
236.051	83.38
236.285	76.38
236.519	90.38
236.753	73.38
236.987	70.38
237.221	95.38
237.455	91.38
237.689	89.38
237.922	76.38
238.156	80.38
238.39	85.38
238.624	84.38
238.858	80.38
239.091	63.38
239.325	89.38
239.559	83.38
239.793	86.38
240.027	97.38
240.26	85.38
240.494	81.38
240.728	74.38
240.961	70.38
241.195	82.38
241.429	88.38
241.662	85.38
241.896	75.38
242.13	76.38
242.363	62.38
242.597	88.38
242.83	73.38
243.064	73.38
243.298	58.38
243.531	76.38
243.765	92.38
243.998	83.38
244.232	81.38
244.465	81.38
244.699	80.38
244.932	82.38
245.166	80.38
245.399	84.38
245.633	88.38
245.866	94.38
246.099	81.38
246.333	85.38
246.566	79.38
246.8	87.38
247.033	74.38
247.266	88.38
247.5	81.38
247.733	82.38
247.966	77.38
248.2	87.38
248.433	86.38
248.666	76.38
248.899	67.38
249.133	89.38
249.366	101.38
249.599	93.38
249.832	83.38
250.066	89.38
250.299	86.38
250.532	71.38
250.765	80.38
250.998	87.38
251.231	77.38
251.465	86.38
251.698	81.38
251.931	69.38
252.164	83.38
252.397	84.38
252.63	81.38
252.863	89.38
253.096	70.38
253.329	65.38
253.562	74.38
253.795	80.38
254.028	98.38
254.261	85.38
254.494	89.38
254.727	81.38
254.96	97.38
255.193	86.38
255.426	90.38
255.659	87.38
255.892	81.38
256.124	73.38
256.357	74.38
256.59	78.38
256.823	83.38
257.056	88.38
257.289	89.38
257.521	76.38
257.754	84.38
257.987	80.38
258.22	88.38
258.452	92.38
258.685	78.38
258.918	77.38
259.151	82.38
259.383	85.38
259.616	92.38
259.849	99.38
260.081	88.38
260.314	84.38
260.547	82.38
260.779	85.38
261.012	85.38
261.244	92.38
261.477	91.38
261.71	106.38
261.942	130.38
262.175	137.38
262.407	107.38
262.64	89.38
262.872	88.38
263.105	81.38
263.337	95.38
263.57	80.38
263.802	82.38
264.035	89.38
264.267	87.38
264.499	94.38
264.732	82.38
264.964	81.38
265.197	85.38
265.429	82.38
265.661	71.38
265.894	83.38
266.126	91.38
266.358	92.38
266.591	94.38
266.823	74.38
267.055	94.38
267.287	86.38
267.52	88.38
267.752	90.38
267.984	84.38
268.216	83.38
268.448	83.38
268.681	70.38
268.913	86.38
269.145	77.38
269.377	86.38
269.609	86.38
269.841	88.38
270.073	80.38
270.306	78.38
270.538	83.38
270.77	90.38
271.002	67.38
271.234	94.38
271.466	79.38
271.698	82.38
271.93	87.38
272.162	89.38
272.394	85.38
272.626	96.38
272.858	82.38
273.09	77.38
273.322	89.38
273.553	84.38
273.785	78.38
274.017	77.38
274.249	81.38
274.481	87.38
274.713	99.38
274.945	87.38
275.176	76.38
275.408	96.38
275.64	94.38
275.872	93.38
276.104	78.38
276.335	105.38
276.567	96.38
276.799	127.38
277.031	104.38
277.262	96.38
277.494	90.38
277.726	96.38
277.957	98.38
278.189	81.38
278.421	83.38
278.652	90.38
278.884	79.38
279.115	79.38
279.347	95.38
279.579	81.38
279.81	90.38
280.042	88.38
280.273	99.38
280.505	82.38
280.736	90.38
280.968	82.38
281.199	93.38
281.431	101.38
281.662	103.38
281.894	96.38
282.125	116.38
282.356	167.38
282.588	163.38
282.819	132.38
283.051	97.38
283.282	91.38
283.513	81.38
283.745	95.38
283.976	82.38
284.207	88.38
284.439	92.38
284.67	75.38
284.901	83.38
285.132	88.38
285.364	75.38
285.595	87.38
285.826	97.38
286.057	90.38
286.288	75.38
286.52	86.38
286.751	85.38
286.982	85.38
287.213	89.38
287.444	92.38
287.675	91.38
287.906	99.38
288.138	105.38
288.369	103.38
288.6	96.38
288.831	90.38
289.062	75.38
289.293	92.38
289.524	84.38
289.755	96.38
289.986	94.38
290.217	95.38
290.448	92.38
290.679	94.38
290.91	101.38
291.141	90.38
291.371	76.38
291.602	85.38
291.833	83.38
292.064	102.38
292.295	87.38
292.526	94.38
292.757	89.38
292.987	90.38
293.218	97.38
293.449	91.38
293.68	91.38
293.91	81.38
294.141	90.38
294.372	91.38
294.603	84.38
294.833	79.38
295.064	94.38
295.295	83.38
295.525	83.38
295.756	99.38
295.987	123.38
296.217	184.38
296.448	141.38
296.679	104.38
296.909	83.38
297.14	105.38
297.37	94.38
297.601	84.38
297.831	84.38
298.062	99.38
298.292	104.38
298.523	92.38
298.753	80.38
298.984	78.38
299.214	84.38
299.445	100.38
299.675	98.38
299.905	91.38
300.136	91.38
300.366	93.38
300.597	74.38
300.827	92.38
301.057	107.38
301.288	97.38
301.518	115.38
301.748	87.38
301.979	92.38
302.209	106.38
302.439	94.38
302.669	90.38
302.9	98.38
303.13	93.38
303.36	89.38
303.59	108.38
303.82	131.38
304.051	111.38
304.281	103.38
304.511	104.38
304.741	81.38
304.971	91.38
305.201	79.38
305.431	95.38
305.661	86.38
305.891	104.38
306.121	105.38
306.352	101.38
306.582	125.38
306.812	102.38
307.042	75.38
307.272	111.38
307.502	100.38
307.731	99.38
307.961	99.38
308.191	110.38
308.421	111.38
308.651	98.38
308.881	102.38
309.111	106.38
309.341	103.38
309.571	98.38
309.8	100.38
310.03	98.38
310.26	101.38
310.49	97.38
310.72	97.38
310.949	123.38
311.179	83.38
311.409	86.38
311.639	107.38
311.868	117.38
312.098	99.38
312.328	104.38
312.557	108.38
312.787	123.38
313.017	109.38
313.246	108.38
313.476	97.38
313.706	99.38
313.935	107.38
314.165	106.38
314.394	120.38
314.624	92.38
314.853	96.38
315.083	97.38
315.312	89.38
315.542	100.38
315.771	96.38
316.001	100.38
316.23	94.38
316.46	89.38
316.689	92.38
316.919	89.38
317.148	97.38
317.377	90.38
317.607	110.38
317.836	112.38
318.065	92.38
318.295	96.38
318.524	97.38
318.753	87.38
318.983	93.38
319.212	109.38
319.441	124.38
319.67	124.38
319.9	104.38
320.129	98.38
320.358	75.38
320.587	97.38
320.816	113.38
321.046	101.38
321.275	107.38
321.504	106.38
321.733	100.38
321.962	103.38
322.191	113.38
322.42	118.38
322.649	119.38
322.878	131.38
323.108	128.38
323.337	165.38
323.566	144.38
323.795	159.38
324.024	249.38
324.253	518.38
324.482	1105.38
324.71	2262.38
324.939	2970.38
325.168	1101.38
325.397	302.38
325.626	171.38
325.855	153.38
326.084	154.38
326.313	132.38
326.542	180.38
326.77	273.38
326.999	554.38
327.228	1175.38
327.457	2165.38
327.686	1750.38
327.914	471.38
328.143	247.38
328.372	210.38
328.6	177.38
328.829	146.38
329.058	164.38
329.287	178.38
329.515	124.38
329.744	121.38
329.972	140.38
330.201	172.38
330.43	216.38
330.658	190.38
330.887	199.38
331.115	157.38
331.344	111.38
331.572	108.38
331.801	112.38
332.03	119.38
332.258	104.38
332.486	93.38
332.715	113.38
332.943	110.38
333.172	101.38
333.4	109.38
333.629	119.38
333.857	139.38
334.085	133.38
334.314	161.38
334.542	236.38
334.771	219.38
334.999	127.38
335.227	112.38
335.455	82.38
335.684	99.38
335.912	92.38
336.14	105.38
336.369	106.38
336.597	107.38
336.825	109.38
337.053	108.38
337.281	101.38
337.51	93.38
337.738	99.38
337.966	101.38
338.194	97.38
338.422	104.38
338.65	100.38
338.878	99.38
339.106	84.38
339.334	96.38
339.562	86.38
339.79	86.38
340.018	91.38
340.246	89.38
340.474	112.38
340.702	104.38
340.93	104.38
341.158	94.38
341.386	79.38
341.614	93.38
341.842	104.38
342.07	99.38
342.298	89.38
342.526	96.38
342.754	100.38
342.981	91.38
343.209	93.38
343.437	111.38
343.665	102.38
343.893	101.38
344.12	90.38
344.348	100.38
344.576	100.38
344.804	99.38
345.031	102.38
345.259	117.38
345.487	110.38
345.714	92.38
345.942	100.38
346.17	94.38
346.397	102.38
346.625	108.38
346.853	101.38
347.08	87.38
347.308	100.38
347.535	113.38
347.763	107.38
347.99	107.38
348.218	117.38
348.445	114.38
348.673	103.38
348.9	99.38
349.128	86.38
349.355	92.38
349.583	83.38
349.81	81.38
350.037	98.38
350.265	102.38
350.492	107.38
350.72	103.38
350.947	106.38
351.174	122.38
351.402	115.38
351.629	114.38
351.856	104.38
352.083	104.38
352.311	119.38
352.538	117.38
352.765	112.38
352.992	129.38
353.22	124.38
353.447	123.38
353.674	114.38
353.901	94.38
354.128	101.38
354.355	115.38
354.583	98.38
354.81	97.38
355.037	98.38
355.264	92.38
355.491	113.38
355.718	91.38
355.945	83.38
356.172	92.38
356.399	105.38
356.626	86.38
356.853	119.38
357.08	91.38
357.307	92.38
357.534	88.38
357.761	91.38
357.988	75.38
358.215	101.38
358.441	100.38
358.668	99.38
358.895	85.38
359.122	96.38
359.349	90.38
359.576	102.38
359.802	117.38
360.029	135.38
360.256	145.38
360.483	133.38
360.709	98.38
360.936	94.38
361.163	100.38
361.39	103.38
361.616	98.38
361.843	113.38
362.07	103.38
362.296	88.38
362.523	86.38
362.749	96.38
362.976	97.38
363.203	97.38
363.429	97.38
363.656	88.38
363.882	76.38
364.109	91.38
364.335	75.38
364.562	91.38
364.788	84.38
365.015	98.38
365.241	117.38
365.468	115.38
365.694	115.38
365.92	133.38
366.147	99.38
366.373	95.38
366.599	85.38
366.826	91.38
367.052	83.38
367.278	107.38
367.505	95.38
367.731	110.38
367.957	89.38
368.184	97.38
368.41	117.38
368.636	127.38
368.862	146.38
369.089	122.38
369.315	102.38
369.541	100.38
369.767	84.38
369.993	96.38
370.219	88.38
370.445	93.38
370.672	82.38
370.898	88.38
371.124	107.38
371.35	103.38
371.576	100.38
371.802	81.38
372.028	100.38
372.254	92.38
372.48	90.38
372.706	91.38
372.932	90.38
373.158	79.38
373.384	71.38
373.61	91.38
373.835	98.38
374.061	111.38
374.287	103.38
374.513	96.38
374.739	91.38
374.965	80.38
375.191	84.38
375.416	82.38
375.642	82.38
375.868	93.38
376.094	96.38
376.319	84.38
376.545	84.38
376.771	94.38
376.997	96.38
377.222	105.38
377.448	89.38
377.674	89.38
377.899	98.38
378.125	99.38
378.35	104.38
378.576	101.38
378.802	106.38
379.027	73.38
379.253	84.38
379.478	91.38
379.704	100.38
379.929	92.38
380.155	91.38
380.38	88.38
380.606	90.38
380.831	104.38
381.057	101.38
381.282	102.38
381.507	103.38
381.733	99.38
381.958	102.38
382.184	111.38
382.409	106.38
382.634	95.38
382.86	90.38
383.085	112.38
383.31	98.38
383.535	115.38
383.761	98.38
383.986	103.38
384.211	107.38
384.436	100.38
384.662	100.38
384.887	122.38
385.112	106.38
385.337	112.38
385.562	101.38
385.787	110.38
386.013	101.38
386.238	136.38
386.463	106.38
386.688	104.38
386.913	103.38
387.138	97.38
387.363	105.38
387.588	112.38
387.813	100.38
388.038	102.38
388.263	105.38
388.488	105.38
388.713	103.38
388.938	95.38
389.163	86.38
389.387	94.38
389.612	106.38
389.837	96.38
390.062	91.38
390.287	77.38
390.512	86.38
390.736	86.38
390.961	100.38
391.186	99.38
391.411	93.38
391.636	92.38
391.86	73.38
392.085	88.38
392.31	81.38
392.534	94.38
392.759	84.38
392.984	86.38
393.208	104.38
393.433	91.38
393.658	101.38
393.882	92.38
394.107	91.38
394.331	80.38
394.556	90.38
394.78	106.38
395.005	99.38
395.229	74.38
395.454	88.38
395.678	84.38
395.903	93.38
396.127	91.38
396.352	78.38
396.576	88.38
396.801	98.38
397.025	93.38
397.249	76.38
397.474	88.38
397.698	104.38
397.922	87.38
398.147	91.38
398.371	89.38
398.595	86.38
398.82	90.38
399.044	86.38
399.268	98.38
399.492	99.38
399.717	79.38
399.941	88.38
400.165	112.38
400.389	105.38
400.613	93.38
400.837	94.38
401.062	84.38
401.286	92.38
401.51	85.38
401.734	102.38
401.958	99.38
402.182	167.38
402.406	212.38
402.63	140.38
402.854	117.38
403.078	103.38
403.302	100.38
403.526	92.38
403.75	81.38
403.974	83.38
404.198	99.38
404.422	100.38
404.645	95.38
404.869	105.38
405.093	109.38
405.317	130.38
405.541	111.38
405.765	107.38
405.988	131.38
406.212	217.38
406.436	308.38
406.66	194.38
406.883	120.38
407.107	108.38
407.331	113.38
407.555	117.38
407.778	107.38
408.002	113.38
408.226	96.38
408.449	80.38
408.673	98.38
408.896	104.38
409.12	98.38
409.344	84.38
409.567	94.38
409.791	93.38
410.014	84.38
410.238	100.38
410.461	92.38
410.685	107.38
410.908	106.38
411.132	102.38
411.355	113.38
411.578	100.38
411.802	93.38
412.025	88.38
412.249	100.38
412.472	98.38
412.695	112.38
412.919	92.38
413.142	94.38
413.365	98.38
413.589	81.38
413.812	88.38
414.035	96.38
414.258	87.38
414.482	87.38
414.705	94.38
414.928	92.38
415.151	102.38
415.374	99.38
415.597	87.38
415.821	91.38
416.044	100.38
416.267	95.38
416.49	83.38
416.713	86.38
416.936	78.38
417.159	110.38
417.382	96.38
417.605	89.38
417.828	112.38
418.051	88.38
418.274	93.38
418.497	92.38
418.72	86.38
418.943	89.38
419.166	91.38
419.389	97.38
419.611	96.38
419.834	92.38
420.057	81.38
420.28	91.38
420.503	80.38
420.726	90.38
420.948	92.38
421.171	93.38
421.394	108.38
421.617	98.38
421.839	92.38
422.062	86.38
422.285	86.38
422.507	100.38
422.73	125.38
422.953	99.38
423.175	80.38
423.398	84.38
423.621	78.38
423.843	95.38
424.066	90.38
424.288	91.38
424.511	72.38
424.733	106.38
424.956	113.38
425.178	102.38
425.401	114.38
425.623	104.38
425.846	102.38
426.068	112.38
426.291	95.38
426.513	95.38
426.735	95.38
426.958	107.38
427.18	107.38
427.402	162.38
427.625	243.38
427.847	185.38
428.069	141.38
428.292	94.38
428.514	97.38
428.736	90.38
428.958	88.38
429.181	78.38
429.403	93.38
429.625	100.38
429.847	87.38
430.069	103.38
430.292	99.38
430.514	82.38
430.736	80.38
430.958	84.38
431.18	78.38
431.402	80.38
431.624	70.38
431.846	87.38
432.068	82.38
432.29	84.38
432.512	99.38
432.734	89.38
432.956	87.38
433.178	105.38
433.4	107.38
433.622	82.38
433.844	98.38
434.066	90.38
434.287	85.38
434.509	101.38
434.731	92.38
434.953	85.38
435.175	85.38
435.397	88.38
435.618	98.38
435.84	100.38
436.062	137.38
436.284	122.38
436.505	119.38
436.727	93.38
436.949	89.38
437.17	100.38
437.392	72.38
437.614	96.38
437.835	123.38
438.057	149.38
438.278	108.38
438.5	105.38
438.721	138.38
438.943	115.38
439.165	86.38
439.386	76.38
439.608	97.38
439.829	104.38
440.05	159.38
440.272	183.38
440.493	100.38
440.715	91.38
440.936	82.38
441.158	96.38
441.379	91.38
441.6	81.38
441.822	98.38
442.043	82.38
442.264	108.38
442.486	110.38
442.707	117.38
442.928	135.38
443.149	163.38
443.371	149.38
443.592	136.38
443.813	102.38
444.034	120.38
444.255	88.38
444.476	81.38
444.698	87.38
444.919	81.38
445.14	125.38
445.361	131.38
445.582	132.38
445.803	165.38
446.024	177.38
446.245	171.38
446.466	147.38
446.687	106.38
446.908	95.38
447.129	91.38
447.35	99.38
447.571	96.38
447.792	90.38
448.013	101.38
448.234	130.38
448.455	120.38
448.675	129.38
448.896	136.38
449.117	104.38
449.338	119.38
449.559	146.38
449.779	151.38
450	96.38
450.221	103.38
450.442	102.38
450.662	95.38
450.883	130.38
451.104	130.38
451.324	106.38
451.545	98.38
451.766	79.38
451.986	82.38
452.207	94.38
452.428	104.38
452.648	107.38
452.869	135.38
453.089	141.38
453.31	136.38
453.53	102.38
453.751	106.38
453.971	110.38
454.192	121.38
454.412	101.38
454.633	83.38
454.853	92.38
455.073	93.38
455.294	89.38
455.514	98.38
455.734	90.38
455.955	79.38
456.175	75.38
456.395	83.38
456.616	90.38
456.836	103.38
457.056	79.38
457.276	72.38
457.497	83.38
457.717	89.38
457.937	98.38
458.157	102.38
458.377	96.38
458.598	113.38
458.818	210.38
459.038	216.38
459.258	143.38
459.478	86.38
459.698	83.38
459.918	75.38
460.138	88.38
460.358	87.38
460.578	71.38
460.798	77.38
461.018	81.38
461.238	85.38
461.458	81.38
461.678	95.38
461.898	86.38
462.118	101.38
462.338	79.38
462.558	85.38
462.777	75.38
462.997	88.38
463.217	89.38
463.437	94.38
463.657	76.38
463.876	88.38
464.096	101.38
464.316	99.38
464.536	120.38
464.755	85.38
464.975	125.38
465.195	243.38
465.414	226.38
465.634	96.38
465.854	101.38
466.073	88.38
466.293	99.38
466.512	99.38
466.732	75.38
466.951	90.38
467.171	92.38
467.391	111.38
467.61	104.38
467.829	113.38
468.049	116.38
468.268	130.38
468.488	85.38
468.707	77.38
468.927	75.38
469.146	76.38
469.365	95.38
469.585	82.38
469.804	96.38
470.023	101.38
470.243	93.38
470.462	110.38
470.681	111.38
470.901	84.38
471.12	93.38
471.339	88.38
471.558	90.38
471.777	89.38
471.997	105.38
472.216	162.38
472.435	229.38
472.654	126.38
472.873	88.38
473.092	99.38
473.311	78.38
473.53	92.38
473.749	98.38
473.968	96.38
474.187	103.38
474.406	106.38
474.625	99.38
474.844	89.38
475.063	72.38
475.282	80.38
475.501	84.38
475.72	80.38
475.939	82.38
476.158	72.38
476.377	91.38
476.596	92.38
476.814	94.38
477.033	84.38
477.252	103.38
477.471	89.38
477.69	94.38
477.908	92.38
478.127	100.38
478.346	84.38
478.564	94.38
478.783	100.38
479.002	106.38
479.22	107.38
479.439	112.38
479.658	111.38
479.876	100.38
480.095	115.38
480.313	95.38
480.532	106.38
480.751	109.38
480.969	170.38
481.188	391.38
481.406	278.38
481.624	104.38
481.843	77.38
482.061	72.38
482.28	95.38
482.498	87.38
482.717	86.38
482.935	88.38
483.153	94.38
483.372	79.38
483.59	69.38
483.808	84.38
484.027	99.38
484.245	86.38
484.463	108.38
484.681	93.38
484.9	81.38
485.118	94.38
485.336	96.38
485.554	88.38
485.772	100.38
485.99	112.38
486.209	108.38
486.427	99.38
486.645	111.38
486.863	112.38
487.081	93.38
487.299	93.38
487.517	85.38
487.735	101.38
487.953	93.38
488.171	97.38
488.389	108.38
488.607	105.38
488.825	84.38
489.043	94.38
489.261	95.38
489.479	99.38
489.696	86.38
489.914	90.38
490.132	89.38
490.35	85.38
490.568	96.38
490.786	95.38
491.003	89.38
491.221	94.38
491.439	95.38
491.657	91.38
491.874	97.38
492.092	89.38
492.31	83.38
492.527	86.38
492.745	99.38
492.963	84.38
493.18	89.38
493.398	94.38
493.615	106.38
493.833	99.38
494.05	91.38
494.268	95.38
494.485	89.38
494.703	75.38
494.92	87.38
495.138	86.38
495.355	83.38
495.573	97.38
495.79	102.38
496.008	100.38
496.225	87.38
496.442	69.38
496.66	89.38
496.877	90.38
497.094	102.38
497.312	77.38
497.529	92.38
497.746	80.38
497.963	96.38
498.181	85.38
498.398	92.38
498.615	119.38
498.832	107.38
499.049	96.38
499.267	89.38
499.484	82.38
499.701	85.38
499.918	88.38
500.135	83.38
500.352	82.38
500.569	85.38
500.786	96.38
501.003	80.38
501.22	83.38
501.437	82.38
501.654	96.38
501.871	119.38
502.088	98.38
502.305	94.38
502.522	96.38
502.739	99.38
502.956	91.38
503.172	96.38
503.389	100.38
503.606	130.38
503.823	89.38
504.04	109.38
504.256	96.38
504.473	105.38
504.69	89.38
504.907	90.38
505.123	74.38
505.34	101.38
505.557	93.38
505.773	89.38
505.99	83.38
506.207	85.38
506.423	79.38
506.64	88.38
506.856	93.38
507.073	86.38
507.289	86.38
507.506	95.38
507.722	129.38
507.939	122.38
508.155	102.38
508.372	109.38
508.588	84.38
508.805	97.38
509.021	107.38
509.238	104.38
509.454	109.38
509.67	93.38
509.887	105.38
510.103	134.38
510.319	244.38
510.536	1044.38
510.752	3541.38
510.968	974.38
511.184	186.38
511.401	127.38
511.617	106.38
511.833	96.38
512.049	106.38
512.265	103.38
512.481	99.38
512.698	100.38
512.914	110.38
513.13	106.38
513.346	98.38
513.562	86.38
