Data from Circ_2018_H10_HRD10591_00051.txt Node
Date: Wed Jan 03 09:56:12 EST 2024
User: Yrep
Spectrometer: HR+D1059
Trigger mode: 1
Integration Time (sec): 1.000000E-1
Scans to average: 1
Electric dark correction enabled: true
Nonlinearity correction enabled: false
Boxcar width: 0
XAxis mode: Wavelengths
Number of Pixels in Spectrum: 2048
>>>>>Begin Spectral Data<<<<<
223.165	-13.75
223.4	-13.75
223.635	-13.75
223.869	-6.75
224.104	-25.75
224.338	-19.75
224.573	-26.75
224.808	-24.75
225.042	-8.75
225.277	-7.75
225.511	1.25
225.746	5.25
225.98	9.25
226.215	16.25
226.449	16.25
226.683	26.25
226.918	22.25
227.152	37.25
227.387	35.25
227.621	38.25
227.856	43.25
228.09	46.25
228.324	30.25
228.559	42.25
228.793	170.25
229.027	483.25
229.262	540.25
229.496	644.25
229.73	818.25
229.964	836.25
230.199	566.25
230.433	485.25
230.667	491.25
230.901	466.25
231.136	449.25
231.37	443.25
231.604	454.25
231.838	473.25
232.072	466.25
232.306	475.25
232.541	455.25
232.775	457.25
233.009	483.25
233.243	476.25
233.477	490.25
233.711	499.25
233.945	522.25
234.179	514.25
234.413	494.25
234.647	534.25
234.881	523.25
235.115	538.25
235.349	564.25
235.583	570.25
235.817	585.25
236.051	645.25
236.285	630.25
236.519	650.25
236.753	723.25
236.987	910.25
237.221	1408.25
237.455	1515.25
237.689	890.25
237.922	768.25
238.156	723.25
238.39	712.25
238.624	648.25
238.858	664.25
239.091	663.25
239.325	682.25
239.559	703.25
239.793	710.25
240.027	763.25
240.26	930.25
240.494	988.25
240.728	957.25
240.961	925.25
241.195	818.25
241.429	775.25
241.662	775.25
241.896	779.25
242.13	782.25
242.363	794.25
242.597	787.25
242.83	843.25
243.064	824.25
243.298	848.25
243.531	836.25
243.765	854.25
243.998	845.25
244.232	886.25
244.465	894.25
244.699	908.25
244.932	926.25
245.166	896.25
245.399	911.25
245.633	928.25
245.866	914.25
246.099	939.25
246.333	939.25
246.566	977.25
246.8	980.25
247.033	1017.25
247.266	1064.25
247.5	1119.25
247.733	1168.25
247.966	1163.25
248.2	1172.25
248.433	1179.25
248.666	1218.25
248.899	1379.25
249.133	1467.25
249.366	1488.25
249.599	1392.25
249.832	1260.25
250.066	1276.25
250.299	1378.25
250.532	1564.25
250.765	1672.25
250.998	1793.25
251.231	1674.25
251.465	1504.25
251.698	1466.25
251.931	1419.25
252.164	1418.25
252.397	1459.25
252.63	1535.25
252.863	1576.25
253.096	1674.25
253.329	1797.25
253.562	1688.25
253.795	1584.25
254.028	1589.25
254.261	1634.25
254.494	1829.25
254.727	2188.25
254.96	2244.25
255.193	1985.25
255.426	1804.25
255.659	1832.25
255.892	1909.25
256.124	2102.25
256.357	1945.25
256.59	1734.25
256.823	1618.25
257.056	1584.25
257.289	1553.25
257.521	1638.25
257.754	1613.25
257.987	1566.25
258.22	1553.25
258.452	1582.25
258.685	1586.25
258.918	1619.25
259.151	1647.25
259.383	1711.25
259.616	1777.25
259.849	1815.25
260.081	1975.25
260.314	2096.25
260.547	2065.25
260.779	1909.25
261.012	1842.25
261.244	1764.25
261.477	1722.25
261.71	1731.25
261.942	1820.25
262.175	1870.25
262.407	1787.25
262.64	1714.25
262.872	1699.25
263.105	1673.25
263.337	1707.25
263.57	1687.25
263.802	1727.25
264.035	1666.25
264.267	1739.25
264.499	1675.25
264.732	1708.25
264.964	1721.25
265.197	1792.25
265.429	1756.25
265.661	1761.25
265.894	1746.25
266.126	1774.25
266.358	1832.25
266.591	1854.25
266.823	1873.25
267.055	1889.25
267.287	1905.25
267.52	1874.25
267.752	1912.25
267.984	1910.25
268.216	1966.25
268.448	1980.25
268.681	2075.25
268.913	2192.25
269.145	2401.25
269.377	2444.25
269.609	2314.25
269.841	2348.25
270.073	2410.25
270.306	2699.25
270.538	2865.25
270.77	2664.25
271.002	2488.25
271.234	2499.25
271.466	2651.25
271.698	2824.25
271.93	2779.25
272.162	2778.25
272.394	2696.25
272.626	2561.25
272.858	2392.25
273.09	2350.25
273.322	2315.25
273.553	2271.25
273.785	2295.25
274.017	2264.25
274.249	2314.25
274.481	2374.25
274.713	2316.25
274.945	2366.25
275.176	2367.25
275.408	2313.25
275.64	2367.25
275.872	2366.25
276.104	2381.25
276.335	2378.25
276.567	2445.25
276.799	2675.25
277.031	2933.25
277.262	3014.25
277.494	2866.25
277.726	2705.25
277.957	2610.25
278.189	2519.25
278.421	2452.25
278.652	2483.25
278.884	2443.25
279.115	2400.25
279.347	2480.25
279.579	2442.25
279.81	2463.25
280.042	2463.25
280.273	2497.25
280.505	2506.25
280.736	2508.25
280.968	2500.25
281.199	2483.25
281.431	2511.25
281.662	2520.25
281.894	2536.25
282.125	2578.25
282.356	2820.25
282.588	2945.25
282.819	2731.25
283.051	2643.25
283.282	2599.25
283.513	2631.25
283.745	2670.25
283.976	2687.25
284.207	2714.25
284.439	2694.25
284.67	2633.25
284.901	2729.25
285.132	2706.25
285.364	2706.25
285.595	2678.25
285.826	2738.25
286.057	2748.25
286.288	2785.25
286.52	2750.25
286.751	2791.25
286.982	2808.25
287.213	2752.25
287.444	2776.25
287.675	2899.25
287.906	2916.25
288.138	3059.25
288.369	3013.25
288.6	2986.25
288.831	2950.25
289.062	2889.25
289.293	2906.25
289.524	2878.25
289.755	2905.25
289.986	2884.25
290.217	2864.25
290.448	2881.25
290.679	2887.25
290.91	2843.25
291.141	2885.25
291.371	2829.25
291.602	2912.25
291.833	2840.25
292.064	2887.25
292.295	2833.25
292.526	2881.25
292.757	2890.25
292.987	2876.25
293.218	2837.25
293.449	2935.25
293.68	2944.25
293.91	2983.25
294.141	2945.25
294.372	2875.25
294.603	2928.25
294.833	2970.25
295.064	2940.25
295.295	3000.25
295.525	2967.25
295.756	3012.25
295.987	3124.25
296.217	3376.25
296.448	3264.25
296.679	3039.25
296.909	2992.25
297.14	3041.25
297.37	3145.25
297.601	3130.25
297.831	3088.25
298.062	3144.25
298.292	3128.25
298.523	3184.25
298.753	3219.25
298.984	3200.25
299.214	3218.25
299.445	3188.25
299.675	3270.25
299.905	3278.25
300.136	3208.25
300.366	3198.25
300.597	3258.25
300.827	3372.25
301.057	3488.25
301.288	3459.25
301.518	3390.25
301.748	3439.25
301.979	3473.25
302.209	3579.25
302.439	3538.25
302.669	3413.25
302.9	3422.25
303.13	3388.25
303.36	3438.25
303.59	3482.25
303.82	3536.25
304.051	3458.25
304.281	3470.25
304.511	3349.25
304.741	3377.25
304.971	3356.25
305.201	3385.25
305.431	3364.25
305.661	3404.25
305.891	3414.25
306.121	3353.25
306.352	3479.25
306.582	3423.25
306.812	3350.25
307.042	3426.25
307.272	3365.25
307.502	3460.25
307.731	3371.25
307.961	3313.25
308.191	3386.25
308.421	3375.25
308.651	3442.25
308.881	3481.25
309.111	3466.25
309.341	3440.25
309.571	3558.25
309.8	3659.25
310.03	3721.25
310.26	3758.25
310.49	3716.25
310.72	3879.25
310.949	3988.25
311.179	3942.25
311.409	3814.25
311.639	3867.25
311.868	3820.25
312.098	3853.25
312.328	3974.25
312.557	4083.25
312.787	4191.25
313.017	4107.25
313.246	3946.25
313.476	3812.25
313.706	3874.25
313.935	4054.25
314.165	4128.25
314.394	4163.25
314.624	4066.25
314.853	3975.25
315.083	3939.25
315.312	3874.25
315.542	3845.25
315.771	3802.25
316.001	3824.25
316.23	3784.25
316.46	3814.25
316.689	3904.25
316.919	3897.25
317.148	3940.25
317.377	3894.25
317.607	3876.25
317.836	3836.25
318.065	3808.25
318.295	3765.25
318.524	3752.25
318.753	3785.25
318.983	3776.25
319.212	3834.25
319.441	3886.25
319.67	3919.25
319.9	3807.25
320.129	3800.25
320.358	3858.25
320.587	3918.25
320.816	3947.25
321.046	3954.25
321.275	4019.25
321.504	3999.25
321.733	4018.25
321.962	4165.25
322.191	4193.25
322.42	4305.25
322.649	4463.25
322.878	4434.25
323.108	4641.25
323.337	4858.25
323.566	5091.25
323.795	5422.25
324.024	6181.25
324.253	8176.25
324.482	12507.25
324.71	15596.25
324.939	15596.25
325.168	14096.25
325.397	7214.25
325.626	5584.25
325.855	5111.25
326.084	5022.25
326.313	5108.25
326.542	5230.25
326.77	6046.25
326.999	7887.25
327.228	11657.25
327.457	15357.25
327.686	14705.25
327.914	8268.25
328.143	6585.25
328.372	6239.25
328.6	5849.25
328.829	5729.25
329.058	5994.25
329.287	5897.25
329.515	5458.25
329.744	5319.25
329.972	5602.25
330.201	6057.25
330.43	6580.25
330.658	6443.25
330.887	6564.25
331.115	5874.25
331.344	5360.25
331.572	5205.25
331.801	5358.25
332.03	5315.25
332.258	5203.25
332.486	5178.25
332.715	5283.25
332.943	5472.25
333.172	5708.25
333.4	5887.25
333.629	5988.25
333.857	6215.25
334.085	6461.25
334.314	6786.25
334.542	7226.25
334.771	7003.25
334.999	6026.25
335.227	5762.25
335.455	5499.25
335.684	5372.25
335.912	5248.25
336.14	5142.25
336.369	5129.25
336.597	5238.25
336.825	5106.25
337.053	4970.25
337.281	4987.25
337.51	4953.25
337.738	4922.25
337.966	4866.25
338.194	4951.25
338.422	4814.25
338.65	4742.25
338.878	4695.25
339.106	4697.25
339.334	4664.25
339.562	4607.25
339.79	4564.25
340.018	4571.25
340.246	4602.25
340.474	4683.25
340.702	4554.25
340.93	4530.25
341.158	4552.25
341.386	4581.25
341.614	4527.25
341.842	4466.25
342.07	4412.25
342.298	4449.25
342.526	4493.25
342.754	4381.25
342.981	4403.25
343.209	4563.25
343.437	4766.25
343.665	5081.25
343.893	5288.25
344.12	5333.25
344.348	5093.25
344.576	4985.25
344.804	4885.25
345.031	4858.25
345.259	4804.25
345.487	4653.25
345.714	4548.25
345.942	4406.25
346.17	4319.25
346.397	4378.25
346.625	4402.25
346.853	4387.25
347.08	4351.25
347.308	4367.25
347.535	4524.25
347.763	4530.25
347.99	4455.25
348.218	4440.25
348.445	4531.25
348.673	4451.25
348.9	4359.25
349.128	4276.25
349.355	4215.25
349.583	4193.25
349.81	4253.25
350.037	4195.25
350.265	4177.25
350.492	4259.25
350.72	4236.25
350.947	4290.25
351.174	4350.25
351.402	4416.25
351.629	4338.25
351.856	4408.25
352.083	4509.25
352.311	4430.25
352.538	4433.25
352.765	4443.25
352.992	4368.25
353.22	4324.25
353.447	4309.25
353.674	4178.25
353.901	4124.25
354.128	4065.25
354.355	4086.25
354.583	4126.25
354.81	4104.25
355.037	4069.25
355.264	4011.25
355.491	4004.25
355.718	4026.25
355.945	4009.25
356.172	4057.25
356.399	4059.25
356.626	4091.25
356.853	4081.25
357.08	4029.25
357.307	4066.25
357.534	4035.25
357.761	4043.25
357.988	4111.25
358.215	4091.25
358.441	4163.25
358.668	4115.25
358.895	4250.25
359.122	4218.25
359.349	4343.25
359.576	4484.25
359.802	4680.25
360.029	4876.25
360.256	4802.25
360.483	4649.25
360.709	4374.25
360.936	4401.25
361.163	4424.25
361.39	4456.25
361.616	4409.25
361.843	4342.25
362.07	4339.25
362.296	4425.25
362.523	4363.25
362.749	4327.25
362.976	4300.25
363.203	4274.25
363.429	4156.25
363.656	4235.25
363.882	4126.25
364.109	4137.25
364.335	4135.25
364.562	4203.25
364.788	4117.25
365.015	4170.25
365.241	4225.25
365.468	4265.25
365.694	4249.25
365.92	4290.25
366.147	4173.25
366.373	4216.25
366.599	4206.25
366.826	4114.25
367.052	4150.25
367.278	4203.25
367.505	4224.25
367.731	4182.25
367.957	4228.25
368.184	4247.25
368.41	4356.25
368.636	4394.25
368.862	4409.25
369.089	4328.25
369.315	4246.25
369.541	4266.25
369.767	4307.25
369.993	4296.25
370.219	4315.25
370.445	4312.25
370.672	4357.25
370.898	4361.25
371.124	4372.25
371.35	4452.25
371.576	4408.25
371.802	4387.25
372.028	4446.25
372.254	4352.25
372.48	4446.25
372.706	4514.25
372.932	4594.25
373.158	4581.25
373.384	4511.25
373.61	4452.25
373.835	4499.25
374.061	4457.25
374.287	4610.25
374.513	4647.25
374.739	4823.25
374.965	4831.25
375.191	4820.25
375.416	4760.25
375.642	4688.25
375.868	4685.25
376.094	4563.25
376.319	4513.25
376.545	4521.25
376.771	4421.25
376.997	4417.25
377.222	4445.25
377.448	4359.25
377.674	4406.25
377.899	4336.25
378.125	4414.25
378.35	4372.25
378.576	4394.25
378.802	4368.25
379.027	4388.25
379.253	4379.25
379.478	4354.25
379.704	4377.25
379.929	4509.25
380.155	4443.25
380.38	4473.25
380.606	4454.25
380.831	4422.25
381.057	4448.25
381.282	4515.25
381.507	4454.25
381.733	4515.25
381.958	4505.25
382.184	4614.25
382.409	4633.25
382.634	4692.25
382.86	4681.25
383.085	4719.25
383.31	4808.25
383.535	4835.25
383.761	4893.25
383.986	4989.25
384.211	5052.25
384.436	5108.25
384.662	5210.25
384.887	5262.25
385.112	5279.25
385.337	5375.25
385.562	5400.25
385.787	5394.25
386.013	5457.25
386.238	5491.25
386.463	5465.25
386.688	5503.25
386.913	5288.25
387.138	5325.25
387.363	5273.25
387.588	5211.25
387.813	5311.25
388.038	5269.25
388.263	5338.25
388.488	5347.25
388.713	5321.25
388.938	5324.25
389.163	5262.25
389.387	5262.25
389.612	5139.25
389.837	5245.25
390.062	5157.25
390.287	5203.25
390.512	5166.25
390.736	5294.25
390.961	5420.25
391.186	5482.25
391.411	5628.25
391.636	5764.25
391.86	5899.25
392.085	5984.25
392.31	5837.25
392.534	5745.25
392.759	5647.25
392.984	5504.25
393.208	5510.25
393.433	5485.25
393.658	5503.25
393.882	5473.25
394.107	5481.25
394.331	5511.25
394.556	5615.25
394.78	5608.25
395.005	5679.25
395.229	5686.25
395.454	5871.25
395.678	5998.25
395.903	5962.25
396.127	5998.25
396.352	5814.25
396.576	5613.25
396.801	5657.25
397.025	5647.25
397.249	5798.25
397.474	5919.25
397.698	5950.25
397.922	6207.25
398.147	6193.25
398.371	6409.25
398.595	6532.25
398.82	6712.25
399.044	7355.25
399.268	8158.25
399.492	9332.25
399.717	9856.25
399.941	9634.25
400.165	8899.25
400.389	8264.25
400.613	7523.25
400.837	6998.25
401.062	6835.25
401.286	6789.25
401.51	6772.25
401.734	6705.25
401.958	6827.25
402.182	6946.25
402.406	7130.25
402.63	7104.25
402.854	7238.25
403.078	7309.25
403.302	7497.25
403.526	7526.25
403.75	7564.25
403.974	7624.25
404.198	7636.25
404.422	7787.25
404.645	7727.25
404.869	7717.25
405.093	7942.25
405.317	8278.25
405.541	8235.25
405.765	7696.25
405.988	7613.25
406.212	7825.25
406.436	7963.25
406.66	7960.25
406.883	8017.25
407.107	8591.25
407.331	9129.25
407.555	9695.25
407.778	9260.25
408.002	8606.25
408.226	8200.25
408.449	8037.25
408.673	7906.25
408.896	8099.25
409.12	8192.25
409.344	7707.25
409.567	7444.25
409.791	7327.25
410.014	7289.25
410.238	7215.25
410.461	7191.25
410.685	7268.25
410.908	7415.25
411.132	7574.25
411.355	7594.25
411.578	7183.25
411.802	6958.25
412.025	7037.25
412.249	7307.25
412.472	7519.25
412.695	7718.25
412.919	7212.25
413.142	6911.25
413.365	6817.25
413.589	6806.25
413.812	6612.25
414.035	6537.25
414.258	6578.25
414.482	6612.25
414.705	6714.25
414.928	6603.25
415.151	6573.25
415.374	6540.25
415.597	6571.25
415.821	6478.25
416.044	6435.25
416.267	6512.25
416.49	6391.25
416.713	6352.25
416.936	6511.25
417.159	6493.25
417.382	6565.25
417.605	6612.25
417.828	6763.25
418.051	6877.25
418.274	6702.25
418.497	6627.25
418.72	6756.25
418.943	6738.25
419.166	7107.25
419.389	7504.25
419.611	7472.25
419.834	7166.25
420.057	7182.25
420.28	7034.25
420.503	6976.25
420.726	6846.25
420.948	6963.25
421.171	7267.25
421.394	7307.25
421.617	6741.25
421.839	6687.25
422.062	6836.25
422.285	6986.25
422.507	7694.25
422.73	8158.25
422.953	7668.25
423.175	7245.25
423.398	7261.25
423.621	7172.25
423.843	7487.25
424.066	7413.25
424.288	7361.25
424.511	7521.25
424.733	8035.25
424.956	8447.25
425.178	8026.25
425.401	8191.25
425.623	7987.25
425.846	7087.25
426.068	6882.25
426.291	6796.25
426.513	6758.25
426.735	6846.25
426.958	7331.25
427.18	8065.25
427.402	9390.25
427.625	9673.25
427.847	8280.25
428.069	7537.25
428.292	6786.25
428.514	6295.25
428.736	6213.25
428.958	6173.25
429.181	6049.25
429.403	5963.25
429.625	6182.25
429.847	6509.25
430.069	7120.25
430.292	6568.25
430.514	6007.25
430.736	6044.25
430.958	5850.25
431.18	5830.25
431.402	5818.25
431.624	5921.25
431.846	5890.25
432.068	5879.25
432.29	6003.25
432.512	5886.25
432.734	6065.25
432.956	5911.25
433.178	5983.25
433.4	5974.25
433.622	5882.25
433.844	5907.25
434.066	5950.25
434.287	6035.25
434.509	6338.25
434.731	6463.25
434.953	6667.25
435.175	6814.25
435.397	6810.25
435.618	6804.25
435.84	7204.25
436.062	8162.25
436.284	8064.25
436.505	6798.25
436.727	6453.25
436.949	6113.25
437.17	6039.25
437.392	6035.25
437.614	6207.25
437.835	6670.25
438.057	7656.25
438.278	8353.25
438.5	8178.25
438.721	8882.25
438.943	7879.25
439.165	6628.25
439.386	6441.25
439.608	6535.25
439.829	6681.25
440.05	6978.25
440.272	7467.25
440.493	6761.25
440.715	6390.25
440.936	6269.25
441.158	6263.25
441.379	6475.25
441.6	6834.25
441.822	7111.25
442.043	7582.25
442.264	8286.25
442.486	7932.25
442.707	7244.25
442.928	6962.25
443.149	7181.25
443.371	7460.25
443.592	7920.25
443.813	8907.25
444.034	8970.25
444.255	7752.25
444.476	7641.25
444.698	7750.25
444.919	7883.25
445.14	7655.25
445.361	7521.25
445.582	7738.25
445.803	8380.25
446.024	9057.25
446.245	8670.25
446.466	7753.25
446.687	6646.25
446.908	6325.25
447.129	6035.25
447.35	6015.25
447.571	5835.25
447.792	5698.25
448.013	5871.25
448.234	6181.25
448.455	6870.25
448.675	7914.25
448.896	8419.25
449.117	6931.25
449.338	7196.25
449.559	8550.25
449.779	8732.25
450	6664.25
450.221	5977.25
450.442	5688.25
450.662	5688.25
450.883	5851.25
451.104	5956.25
451.324	5708.25
451.545	5505.25
451.766	5399.25
451.986	5279.25
452.207	5202.25
452.428	5231.25
452.648	5318.25
452.869	5317.25
453.089	5393.25
453.31	5494.25
453.53	5294.25
453.751	5241.25
453.971	5264.25
454.192	5510.25
454.412	5210.25
454.633	5091.25
454.853	5044.25
455.073	5125.25
455.294	5575.25
455.514	6089.25
455.734	5577.25
455.955	5020.25
456.175	4854.25
456.395	4826.25
456.616	4820.25
456.836	4809.25
457.056	4742.25
457.276	4761.25
457.497	4870.25
457.717	4932.25
457.937	4957.25
458.157	5092.25
458.377	5189.25
458.598	5501.25
458.818	6353.25
459.038	7220.25
459.258	6987.25
459.478	6219.25
459.698	6059.25
459.918	6107.25
460.138	6259.25
460.358	6483.25
460.578	6554.25
460.798	6646.25
461.018	6639.25
461.238	6464.25
461.458	6483.25
461.678	6478.25
461.898	6536.25
462.118	6589.25
462.338	6949.25
462.558	7063.25
462.777	7281.25
462.997	7980.25
463.217	8340.25
463.437	8256.25
463.657	7591.25
463.876	7398.25
464.096	7392.25
464.316	7393.25
464.536	7471.25
464.755	7324.25
464.975	7212.25
465.195	7534.25
465.414	7667.25
465.634	6574.25
465.854	6150.25
466.073	5890.25
466.293	5671.25
466.512	5478.25
466.732	5404.25
466.951	5424.25
467.171	5413.25
467.391	5584.25
467.61	5630.25
467.829	5591.25
468.049	5598.25
468.268	5490.25
468.488	5271.25
468.707	5161.25
468.927	5182.25
469.146	5123.25
469.365	5261.25
469.585	5270.25
469.804	5458.25
470.023	5712.25
470.243	5649.25
470.462	5739.25
470.681	5800.25
470.901	5654.25
471.12	5574.25
471.339	5478.25
471.558	5517.25
471.777	5464.25
471.997	5430.25
472.216	5582.25
472.435	6148.25
472.654	5669.25
472.873	5367.25
473.092	5196.25
473.311	5138.25
473.53	5209.25
473.749	5347.25
473.968	5898.25
474.187	6974.25
474.406	6576.25
474.625	5482.25
474.844	5155.25
475.063	5174.25
475.282	5206.25
475.501	5256.25
475.72	5354.25
475.939	5281.25
476.158	5388.25
476.377	5363.25
476.596	5347.25
476.814	5564.25
477.033	5622.25
477.252	5699.25
477.471	5760.25
477.69	5864.25
477.908	6004.25
478.127	6208.25
478.346	6159.25
478.564	6324.25
478.783	6385.25
479.002	6535.25
479.22	6558.25
479.439	6665.25
479.658	6791.25
479.876	6898.25
480.095	7107.25
480.313	7501.25
480.532	7399.25
480.751	7251.25
480.969	7419.25
481.188	8296.25
481.406	8270.25
481.624	7188.25
481.843	6722.25
482.061	6491.25
482.28	6310.25
482.498	6222.25
482.717	6128.25
482.935	6179.25
483.153	6060.25
483.372	6134.25
483.59	6115.25
483.808	6110.25
484.027	6105.25
484.245	6130.25
484.463	6192.25
484.681	6229.25
484.9	6316.25
485.118	6342.25
485.336	6304.25
485.554	6434.25
485.772	6431.25
485.99	6519.25
486.209	6570.25
486.427	6608.25
486.645	6651.25
486.863	6755.25
487.081	6651.25
487.299	6582.25
487.517	6560.25
487.735	6452.25
487.953	6458.25
