Data from Circ_2018_H10_HRD10591_00083.txt Node
Date: Wed Jan 03 09:56:18 EST 2024
User: Yrep
Spectrometer: HR+D1059
Trigger mode: 1
Integration Time (sec): 1.000000E-1
Scans to average: 1
Electric dark correction enabled: true
Nonlinearity correction enabled: false
Boxcar width: 0
XAxis mode: Wavelengths
Number of Pixels in Spectrum: 2048
>>>>>Begin Spectral Data<<<<<
223.165	-16.12
223.4	-16.12
223.635	-16.12
223.869	-13.12
224.104	-15.12
224.338	-23.12
224.573	-14.12
224.808	-19.12
225.042	-12.12
225.277	-8.12
225.511	7.88
225.746	-2.12
225.98	10.88
226.215	5.88
226.449	12.88
226.683	18.88
226.918	27.88
227.152	38.88
227.387	35.88
227.621	3.88
227.856	57.88
228.09	54.88
228.324	45.88
228.559	45.88
228.793	58.88
229.027	68.88
229.262	69.88
229.496	74.88
229.73	84.88
229.964	79.88
230.199	73.88
230.433	66.88
230.667	72.88
230.901	81.88
231.136	74.88
231.37	69.88
231.604	100.88
231.838	83.88
232.072	80.88
232.306	72.88
232.541	70.88
232.775	85.88
233.009	82.88
233.243	58.88
233.477	83.88
233.711	65.88
233.945	76.88
234.179	77.88
234.413	73.88
234.647	70.88
234.881	73.88
235.115	73.88
235.349	75.88
235.583	81.88
235.817	67.88
236.051	69.88
236.285	80.88
236.519	82.88
236.753	74.88
236.987	75.88
237.221	79.88
237.455	66.88
237.689	67.88
237.922	86.88
238.156	77.88
238.39	80.88
238.624	65.88
238.858	75.88
239.091	81.88
239.325	75.88
239.559	79.88
239.793	75.88
240.027	82.88
240.26	71.88
240.494	81.88
240.728	78.88
240.961	76.88
241.195	81.88
241.429	69.88
241.662	75.88
241.896	69.88
242.13	85.88
242.363	74.88
242.597	72.88
242.83	86.88
243.064	78.88
243.298	89.88
243.531	57.88
243.765	78.88
243.998	77.88
244.232	74.88
244.465	82.88
244.699	89.88
244.932	63.88
245.166	73.88
245.399	77.88
245.633	78.88
245.866	78.88
246.099	78.88
246.333	76.88
246.566	88.88
246.8	80.88
247.033	74.88
247.266	58.88
247.5	80.88
247.733	78.88
247.966	86.88
248.2	82.88
248.433	60.88
248.666	68.88
248.899	79.88
249.133	84.88
249.366	85.88
249.599	89.88
249.832	76.88
250.066	84.88
250.299	89.88
250.532	77.88
250.765	74.88
250.998	77.88
251.231	70.88
251.465	73.88
251.698	77.88
251.931	72.88
252.164	81.88
252.397	80.88
252.63	85.88
252.863	84.88
253.096	82.88
253.329	93.88
253.562	80.88
253.795	84.88
254.028	76.88
254.261	73.88
254.494	98.88
254.727	81.88
254.96	71.88
255.193	73.88
255.426	71.88
255.659	79.88
255.892	86.88
256.124	67.88
256.357	77.88
256.59	72.88
256.823	75.88
257.056	89.88
257.289	77.88
257.521	70.88
257.754	82.88
257.987	77.88
258.22	75.88
258.452	90.88
258.685	71.88
258.918	79.88
259.151	78.88
259.383	75.88
259.616	73.88
259.849	71.88
260.081	75.88
260.314	78.88
260.547	79.88
260.779	94.88
261.012	83.88
261.244	82.88
261.477	77.88
261.71	86.88
261.942	106.88
262.175	124.88
262.407	91.88
262.64	85.88
262.872	85.88
263.105	90.88
263.337	71.88
263.57	70.88
263.802	76.88
264.035	89.88
264.267	81.88
264.499	71.88
264.732	93.88
264.964	73.88
265.197	83.88
265.429	88.88
265.661	87.88
265.894	91.88
266.126	89.88
266.358	86.88
266.591	85.88
266.823	96.88
267.055	80.88
267.287	64.88
267.52	89.88
267.752	90.88
267.984	74.88
268.216	77.88
268.448	78.88
268.681	75.88
268.913	79.88
269.145	56.88
269.377	78.88
269.609	89.88
269.841	79.88
270.073	73.88
270.306	72.88
270.538	91.88
270.77	77.88
271.002	79.88
271.234	75.88
271.466	92.88
271.698	77.88
271.93	81.88
272.162	95.88
272.394	81.88
272.626	96.88
272.858	93.88
273.09	82.88
273.322	83.88
273.553	78.88
273.785	84.88
274.017	94.88
274.249	80.88
274.481	88.88
274.713	79.88
274.945	84.88
275.176	82.88
275.408	81.88
275.64	81.88
275.872	90.88
276.104	79.88
276.335	86.88
276.567	94.88
276.799	104.88
277.031	94.88
277.262	87.88
277.494	79.88
277.726	92.88
277.957	90.88
278.189	76.88
278.421	96.88
278.652	74.88
278.884	77.88
279.115	75.88
279.347	76.88
279.579	87.88
279.81	71.88
280.042	96.88
280.273	85.88
280.505	89.88
280.736	85.88
280.968	80.88
281.199	84.88
281.431	75.88
281.662	74.88
281.894	84.88
282.125	95.88
282.356	106.88
282.588	134.88
282.819	127.88
283.051	86.88
283.282	76.88
283.513	91.88
283.745	97.88
283.976	81.88
284.207	75.88
284.439	82.88
284.67	97.88
284.901	84.88
285.132	80.88
285.364	78.88
285.595	65.88
285.826	81.88
286.057	83.88
286.288	86.88
286.52	90.88
286.751	84.88
286.982	84.88
287.213	81.88
287.444	83.88
287.675	82.88
287.906	81.88
288.138	98.88
288.369	89.88
288.6	95.88
288.831	89.88
289.062	79.88
289.293	88.88
289.524	76.88
289.755	80.88
289.986	89.88
290.217	90.88
290.448	77.88
290.679	81.88
290.91	69.88
291.141	84.88
291.371	79.88
291.602	65.88
291.833	91.88
292.064	84.88
292.295	88.88
292.526	85.88
292.757	92.88
292.987	69.88
293.218	86.88
293.449	87.88
293.68	79.88
293.91	85.88
294.141	103.88
294.372	99.88
294.603	88.88
294.833	81.88
295.064	91.88
295.295	95.88
295.525	99.88
295.756	89.88
295.987	123.88
296.217	143.88
296.448	137.88
296.679	85.88
296.909	87.88
297.14	87.88
297.37	86.88
297.601	92.88
297.831	85.88
298.062	78.88
298.292	109.88
298.523	99.88
298.753	90.88
298.984	83.88
299.214	89.88
299.445	82.88
299.675	81.88
299.905	100.88
300.136	96.88
300.366	81.88
300.597	94.88
300.827	88.88
301.057	109.88
301.288	86.88
301.518	85.88
301.748	84.88
301.979	86.88
302.209	86.88
302.439	90.88
302.669	82.88
302.9	72.88
303.13	90.88
303.36	89.88
303.59	103.88
303.82	106.88
304.051	89.88
304.281	83.88
304.511	98.88
304.741	86.88
304.971	87.88
305.201	81.88
305.431	97.88
305.661	110.88
305.891	88.88
306.121	77.88
306.352	88.88
306.582	110.88
306.812	81.88
307.042	82.88
307.272	89.88
307.502	99.88
307.731	103.88
307.961	98.88
308.191	90.88
308.421	99.88
308.651	95.88
308.881	89.88
309.111	84.88
309.341	94.88
309.571	88.88
309.8	86.88
310.03	99.88
310.26	101.88
310.49	84.88
310.72	89.88
310.949	87.88
311.179	93.88
311.409	104.88
311.639	96.88
311.868	95.88
312.098	93.88
312.328	93.88
312.557	106.88
312.787	104.88
313.017	105.88
313.246	90.88
313.476	85.88
313.706	92.88
313.935	93.88
314.165	99.88
314.394	95.88
314.624	100.88
314.853	84.88
315.083	94.88
315.312	88.88
315.542	85.88
315.771	93.88
316.001	83.88
316.23	92.88
316.46	98.88
316.689	86.88
316.919	91.88
317.148	111.88
317.377	90.88
317.607	87.88
317.836	96.88
318.065	86.88
318.295	99.88
318.524	90.88
318.753	94.88
318.983	86.88
319.212	95.88
319.441	88.88
319.67	99.88
319.9	96.88
320.129	96.88
320.358	75.88
320.587	88.88
320.816	96.88
321.046	97.88
321.275	92.88
321.504	82.88
321.733	93.88
321.962	97.88
322.191	101.88
322.42	90.88
322.649	99.88
322.878	114.88
323.108	109.88
323.337	125.88
323.566	127.88
323.795	149.88
324.024	193.88
324.253	405.88
324.482	805.88
324.71	1642.88
324.939	2136.88
325.168	826.88
325.397	242.88
325.626	146.88
325.855	121.88
326.084	118.88
326.313	131.88
326.542	144.88
326.77	212.88
326.999	424.88
327.228	893.88
327.457	1610.88
327.686	1283.88
327.914	360.88
328.143	187.88
328.372	171.88
328.6	136.88
328.829	107.88
329.058	116.88
329.287	136.88
329.515	127.88
329.744	97.88
329.972	127.88
330.201	131.88
330.43	179.88
330.658	137.88
330.887	160.88
331.115	127.88
331.344	96.88
331.572	93.88
331.801	111.88
332.03	116.88
332.258	90.88
332.486	91.88
332.715	93.88
332.943	89.88
333.172	93.88
333.4	104.88
333.629	111.88
333.857	128.88
334.085	125.88
334.314	149.88
334.542	172.88
334.771	162.88
334.999	117.88
335.227	102.88
335.455	112.88
335.684	102.88
335.912	96.88
336.14	103.88
336.369	110.88
336.597	98.88
336.825	96.88
337.053	93.88
337.281	92.88
337.51	92.88
337.738	84.88
337.966	93.88
338.194	93.88
338.422	103.88
338.65	91.88
338.878	79.88
339.106	91.88
339.334	85.88
339.562	86.88
339.79	88.88
340.018	97.88
340.246	102.88
340.474	106.88
340.702	97.88
340.93	91.88
341.158	121.88
341.386	93.88
341.614	81.88
341.842	95.88
342.07	91.88
342.298	69.88
342.526	87.88
342.754	89.88
342.981	81.88
343.209	95.88
343.437	94.88
343.665	82.88
343.893	99.88
344.12	109.88
344.348	96.88
344.576	103.88
344.804	89.88
345.031	106.88
345.259	93.88
345.487	98.88
345.714	97.88
345.942	94.88
346.17	107.88
346.397	80.88
346.625	94.88
346.853	89.88
347.08	80.88
347.308	80.88
347.535	103.88
347.763	94.88
347.99	97.88
348.218	102.88
348.445	97.88
348.673	101.88
348.9	102.88
349.128	100.88
349.355	84.88
349.583	92.88
349.81	95.88
350.037	98.88
350.265	102.88
350.492	96.88
350.72	94.88
350.947	101.88
351.174	103.88
351.402	95.88
351.629	105.88
351.856	99.88
352.083	106.88
352.311	97.88
352.538	116.88
352.765	111.88
352.992	109.88
353.22	114.88
353.447	105.88
353.674	119.88
353.901	113.88
354.128	98.88
354.355	91.88
354.583	92.88
354.81	87.88
355.037	88.88
355.264	95.88
355.491	94.88
355.718	94.88
355.945	96.88
356.172	87.88
356.399	86.88
356.626	91.88
356.853	105.88
357.08	105.88
357.307	86.88
357.534	75.88
357.761	92.88
357.988	93.88
358.215	84.88
358.441	96.88
358.668	103.88
358.895	81.88
359.122	95.88
359.349	98.88
359.576	90.88
359.802	86.88
360.029	125.88
360.256	104.88
360.483	102.88
360.709	93.88
360.936	82.88
361.163	91.88
361.39	105.88
361.616	104.88
361.843	83.88
362.07	91.88
362.296	113.88
362.523	95.88
362.749	89.88
362.976	87.88
363.203	93.88
363.429	80.88
363.656	87.88
363.882	93.88
364.109	82.88
364.335	88.88
364.562	92.88
364.788	98.88
365.015	89.88
365.241	107.88
365.468	104.88
365.694	97.88
365.92	109.88
366.147	87.88
366.373	91.88
366.599	92.88
366.826	88.88
367.052	97.88
367.278	86.88
367.505	81.88
367.731	89.88
367.957	87.88
368.184	92.88
368.41	123.88
368.636	95.88
368.862	126.88
369.089	107.88
369.315	95.88
369.541	93.88
369.767	74.88
369.993	78.88
370.219	95.88
370.445	88.88
370.672	93.88
370.898	82.88
371.124	93.88
371.35	80.88
371.576	97.88
371.802	72.88
372.028	87.88
372.254	84.88
372.48	95.88
372.706	85.88
372.932	88.88
373.158	80.88
373.384	95.88
373.61	77.88
373.835	87.88
374.061	93.88
374.287	98.88
374.513	88.88
374.739	94.88
374.965	89.88
375.191	80.88
375.416	79.88
375.642	87.88
375.868	84.88
376.094	83.88
376.319	88.88
376.545	101.88
376.771	90.88
376.997	99.88
377.222	95.88
377.448	89.88
377.674	75.88
377.899	85.88
378.125	96.88
378.35	98.88
378.576	98.88
378.802	82.88
379.027	97.88
379.253	87.88
379.478	89.88
379.704	72.88
379.929	85.88
380.155	103.88
380.38	102.88
380.606	92.88
380.831	106.88
381.057	91.88
381.282	89.88
381.507	88.88
381.733	99.88
381.958	91.88
382.184	100.88
382.409	82.88
382.634	115.88
382.86	102.88
383.085	102.88
383.31	102.88
383.535	100.88
383.761	89.88
383.986	90.88
384.211	86.88
384.436	98.88
384.662	102.88
384.887	101.88
385.112	98.88
385.337	101.88
385.562	85.88
385.787	87.88
386.013	94.88
386.238	111.88
386.463	98.88
386.688	106.88
386.913	100.88
387.138	88.88
387.363	73.88
387.588	101.88
387.813	100.88
388.038	96.88
388.263	109.88
388.488	114.88
388.713	92.88
388.938	89.88
389.163	105.88
389.387	99.88
389.612	101.88
389.837	81.88
390.062	89.88
390.287	87.88
390.512	95.88
390.736	84.88
390.961	81.88
391.186	94.88
391.411	94.88
391.636	91.88
391.86	95.88
392.085	87.88
392.31	76.88
392.534	80.88
392.759	83.88
392.984	87.88
393.208	87.88
393.433	89.88
393.658	91.88
393.882	75.88
394.107	82.88
394.331	89.88
394.556	80.88
394.78	92.88
395.005	87.88
395.229	85.88
395.454	92.88
395.678	63.88
395.903	80.88
396.127	96.88
396.352	97.88
396.576	86.88
396.801	74.88
397.025	96.88
397.249	81.88
397.474	101.88
397.698	93.88
397.922	99.88
398.147	87.88
398.371	94.88
398.595	98.88
398.82	86.88
399.044	83.88
399.268	95.88
399.492	87.88
399.717	90.88
399.941	100.88
400.165	91.88
400.389	100.88
400.613	85.88
400.837	79.88
401.062	85.88
401.286	78.88
401.51	88.88
401.734	93.88
401.958	107.88
402.182	129.88
402.406	175.88
402.63	109.88
402.854	86.88
403.078	81.88
403.302	85.88
403.526	87.88
403.75	78.88
403.974	75.88
404.198	95.88
404.422	82.88
404.645	96.88
404.869	79.88
405.093	94.88
405.317	117.88
405.541	97.88
405.765	102.88
405.988	118.88
406.212	182.88
406.436	234.88
406.66	154.88
406.883	95.88
407.107	74.88
407.331	97.88
407.555	109.88
407.778	84.88
408.002	93.88
408.226	90.88
408.449	75.88
408.673	84.88
408.896	86.88
409.12	95.88
409.344	94.88
409.567	90.88
409.791	88.88
410.014	100.88
410.238	88.88
410.461	95.88
410.685	96.88
410.908	102.88
411.132	96.88
411.355	105.88
411.578	93.88
411.802	80.88
412.025	92.88
412.249	84.88
412.472	93.88
412.695	86.88
412.919	96.88
413.142	73.88
413.365	85.88
413.589	87.88
413.812	79.88
414.035	96.88
414.258	81.88
414.482	88.88
414.705	86.88
414.928	103.88
415.151	79.88
415.374	103.88
415.597	66.88
415.821	78.88
416.044	82.88
416.267	78.88
416.49	82.88
416.713	81.88
416.936	88.88
417.159	84.88
417.382	94.88
417.605	80.88
417.828	95.88
418.051	94.88
418.274	95.88
418.497	77.88
418.72	87.88
418.943	75.88
419.166	78.88
419.389	78.88
419.611	87.88
419.834	90.88
420.057	90.88
420.28	85.88
420.503	89.88
420.726	81.88
420.948	82.88
421.171	92.88
421.394	80.88
421.617	77.88
421.839	89.88
422.062	67.88
422.285	94.88
422.507	103.88
422.73	88.88
422.953	91.88
423.175	64.88
423.398	96.88
423.621	94.88
423.843	76.88
424.066	91.88
424.288	75.88
424.511	87.88
424.733	98.88
424.956	104.88
425.178	89.88
425.401	97.88
425.623	105.88
425.846	94.88
426.068	104.88
426.291	102.88
426.513	91.88
426.735	85.88
426.958	89.88
427.18	100.88
427.402	153.88
427.625	179.88
427.847	130.88
428.069	105.88
428.292	99.88
428.514	89.88
428.736	93.88
428.958	70.88
429.181	78.88
429.403	89.88
429.625	77.88
429.847	84.88
430.069	95.88
430.292	90.88
430.514	80.88
430.736	86.88
430.958	83.88
431.18	79.88
431.402	92.88
431.624	93.88
431.846	78.88
432.068	87.88
432.29	81.88
432.512	86.88
432.734	72.88
432.956	81.88
433.178	91.88
433.4	88.88
433.622	94.88
433.844	101.88
434.066	82.88
434.287	99.88
434.509	90.88
434.731	87.88
434.953	73.88
435.175	64.88
435.397	99.88
435.618	89.88
435.84	84.88
436.062	113.88
436.284	101.88
436.505	84.88
436.727	93.88
436.949	87.88
437.17	92.88
437.392	74.88
437.614	90.88
437.835	108.88
438.057	126.88
438.278	100.88
438.5	88.88
438.721	113.88
438.943	94.88
439.165	80.88
439.386	74.88
439.608	85.88
439.829	95.88
440.05	112.88
440.272	140.88
440.493	89.88
440.715	93.88
440.936	89.88
441.158	81.88
441.379	88.88
441.6	99.88
441.822	84.88
442.043	86.88
442.264	80.88
442.486	94.88
442.707	95.88
442.928	107.88
443.149	132.88
443.371	136.88
443.592	102.88
443.813	113.88
444.034	90.88
444.255	88.88
444.476	74.88
444.698	78.88
444.919	73.88
445.14	111.88
445.361	127.88
445.582	126.88
445.803	138.88
446.024	134.88
446.245	136.88
446.466	107.88
446.687	85.88
446.908	82.88
447.129	88.88
447.35	86.88
447.571	91.88
447.792	74.88
448.013	88.88
448.234	123.88
448.455	102.88
448.675	94.88
448.896	109.88
449.117	97.88
449.338	81.88
449.559	103.88
449.779	119.88
450	81.88
450.221	94.88
450.442	75.88
450.662	87.88
450.883	103.88
451.104	104.88
451.324	95.88
451.545	83.88
451.766	81.88
451.986	93.88
452.207	99.88
452.428	93.88
452.648	94.88
452.869	125.88
453.089	129.88
453.31	118.88
453.53	87.88
453.751	82.88
453.971	100.88
454.192	89.88
454.412	98.88
454.633	71.88
454.853	82.88
455.073	75.88
455.294	74.88
455.514	114.88
455.734	97.88
455.955	66.88
456.175	72.88
456.395	91.88
456.616	77.88
456.836	79.88
457.056	73.88
457.276	87.88
457.497	90.88
457.717	90.88
457.937	83.88
458.157	75.88
458.377	99.88
458.598	95.88
458.818	147.88
459.038	145.88
459.258	114.88
459.478	112.88
459.698	72.88
459.918	71.88
460.138	80.88
460.358	83.88
460.578	101.88
460.798	90.88
461.018	87.88
461.238	89.88
461.458	82.88
461.678	77.88
461.898	75.88
462.118	83.88
462.338	79.88
462.558	89.88
462.777	79.88
462.997	104.88
463.217	91.88
463.437	94.88
463.657	90.88
463.876	78.88
464.096	82.88
464.316	92.88
464.536	96.88
464.755	93.88
464.975	111.88
465.195	166.88
465.414	177.88
465.634	88.88
465.854	99.88
466.073	82.88
466.293	94.88
466.512	89.88
466.732	70.88
466.951	80.88
467.171	89.88
467.391	86.88
467.61	100.88
467.829	108.88
468.049	119.88
468.268	97.88
468.488	101.88
468.707	86.88
468.927	86.88
469.146	77.88
469.365	94.88
469.585	85.88
469.804	98.88
470.023	98.88
470.243	99.88
470.462	101.88
470.681	98.88
470.901	86.88
471.12	82.88
471.339	84.88
471.558	89.88
471.777	84.88
471.997	99.88
472.216	138.88
472.435	207.88
472.654	129.88
472.873	93.88
473.092	89.88
473.311	78.88
473.53	77.88
473.749	81.88
473.968	97.88
474.187	92.88
474.406	102.88
474.625	95.88
474.844	98.88
475.063	89.88
475.282	87.88
475.501	83.88
475.72	95.88
475.939	89.88
476.158	74.88
476.377	76.88
476.596	93.88
476.814	100.88
477.033	94.88
477.252	87.88
477.471	85.88
477.69	76.88
477.908	81.88
478.127	94.88
478.346	99.88
478.564	79.88
478.783	95.88
479.002	102.88
479.22	91.88
479.439	107.88
479.658	105.88
479.876	96.88
480.095	85.88
480.313	91.88
480.532	82.88
480.751	95.88
480.969	147.88
481.188	310.88
481.406	223.88
481.624	106.88
481.843	90.88
482.061	88.88
482.28	73.88
482.498	91.88
482.717	91.88
482.935	89.88
483.153	80.88
483.372	87.88
483.59	99.88
483.808	94.88
484.027	92.88
484.245	88.88
484.463	94.88
484.681	102.88
484.9	97.88
485.118	102.88
485.336	88.88
485.554	88.88
485.772	90.88
485.99	104.88
486.209	99.88
486.427	108.88
486.645	106.88
486.863	117.88
487.081	94.88
487.299	83.88
487.517	86.88
487.735	88.88
487.953	90.88
488.171	80.88
488.389	97.88
488.607	81.88
488.825	87.88
489.043	98.88
489.261	94.88
489.479	80.88
489.696	92.88
489.914	79.88
490.132	96.88
490.35	92.88
490.568	87.88
490.786	76.88
491.003	94.88
491.221	81.88
491.439	82.88
491.657	77.88
491.874	86.88
492.092	81.88
492.31	88.88
492.527	80.88
492.745	98.88
492.963	82.88
493.18	78.88
493.398	99.88
493.615	89.88
493.833	86.88
494.05	98.88
494.268	86.88
494.485	102.88
494.703	96.88
494.92	79.88
495.138	92.88
495.355	85.88
495.573	83.88
495.79	86.88
496.008	87.88
496.225	84.88
496.442	82.88
496.66	87.88
496.877	79.88
497.094	86.88
497.312	91.88
497.529	85.88
497.746	96.88
497.963	78.88
498.181	99.88
498.398	95.88
498.615	104.88
498.832	91.88
499.049	78.88
499.267	82.88
499.484	84.88
499.701	91.88
499.918	78.88
500.135	104.88
500.352	93.88
500.569	88.88
500.786	88.88
501.003	82.88
501.22	83.88
501.437	84.88
501.654	91.88
501.871	101.88
502.088	95.88
502.305	86.88
502.522	77.88
502.739	97.88
502.956	103.88
503.172	86.88
503.389	105.88
503.606	110.88
503.823	95.88
504.04	92.88
504.256	89.88
504.473	85.88
504.69	89.88
504.907	85.88
505.123	87.88
505.34	101.88
505.557	84.88
505.773	83.88
505.99	93.88
506.207	81.88
506.423	93.88
506.64	81.88
506.856	82.88
507.073	87.88
507.289	95.88
507.506	93.88
507.722	122.88
507.939	110.88
508.155	104.88
508.372	77.88
508.588	85.88
508.805	95.88
509.021	90.88
509.238	97.88
509.454	90.88
509.67	103.88
509.887	104.88
510.103	127.88
510.319	228.88
510.536	804.88
510.752	2759.88
510.968	790.88
511.184	151.88
511.401	96.88
511.617	84.88
511.833	84.88
512.049	96.88
512.265	82.88
512.481	86.88
512.698	79.88
512.914	97.88
513.13	81.88
513.346	82.88
513.562	100.88
513.778	100.88
513.994	97.88
514.21	117.88
514.426	114.88
514.642	127.88
514.858	146.88
515.074	160.88
515.29	481.88
515.506	1737.88
515.721	645.88
515.937	168.88
516.153	111.88
516.369	101.88
