Data from Circ_2018_H10_HRD10591_00099.txt Node
Date: Wed Jan 03 09:56:21 EST 2024
User: Yrep
Spectrometer: HR+D1059
Trigger mode: 1
Integration Time (sec): 1.000000E-1
Scans to average: 1
Electric dark correction enabled: true
Nonlinearity correction enabled: false
Boxcar width: 0
XAxis mode: Wavelengths
Number of Pixels in Spectrum: 2048
>>>>>Begin Spectral Data<<<<<
223.165	-15.31
223.4	-15.31
223.635	-15.31
223.869	-23.31
224.104	-8.31
224.338	-27.31
224.573	-20.31
224.808	-16.31
225.042	-19.31
225.277	-2.31
225.511	-9.31
225.746	23.69
225.98	12.69
226.215	15.69
226.449	8.69
226.683	26.69
226.918	18.69
227.152	35.69
227.387	24.69
227.621	36.69
227.856	33.69
228.09	40.69
228.324	65.69
228.559	39.69
228.793	58.69
229.027	63.69
229.262	72.69
229.496	88.69
229.73	104.69
229.964	93.69
230.199	74.69
230.433	74.69
230.667	80.69
230.901	80.69
231.136	81.69
231.37	69.69
231.604	73.69
231.838	90.69
232.072	79.69
232.306	80.69
232.541	84.69
232.775	75.69
233.009	72.69
233.243	91.69
233.477	88.69
233.711	76.69
233.945	83.69
234.179	88.69
234.413	76.69
234.647	71.69
234.881	86.69
235.115	100.69
235.349	65.69
235.583	73.69
235.817	82.69
236.051	65.69
236.285	70.69
236.519	81.69
236.753	81.69
236.987	82.69
237.221	91.69
237.455	82.69
237.689	78.69
237.922	79.69
238.156	74.69
238.39	72.69
238.624	66.69
238.858	76.69
239.091	79.69
239.325	79.69
239.559	82.69
239.793	84.69
240.027	83.69
240.26	86.69
240.494	77.69
240.728	70.69
240.961	86.69
241.195	77.69
241.429	75.69
241.662	91.69
241.896	83.69
242.13	80.69
242.363	80.69
242.597	64.69
242.83	80.69
243.064	85.69
243.298	77.69
243.531	77.69
243.765	84.69
243.998	74.69
244.232	67.69
244.465	107.69
244.699	84.69
244.932	79.69
245.166	84.69
245.399	82.69
245.633	76.69
245.866	74.69
246.099	69.69
246.333	74.69
246.566	97.69
246.8	88.69
247.033	77.69
247.266	79.69
247.5	73.69
247.733	83.69
247.966	79.69
248.2	77.69
248.433	76.69
248.666	75.69
248.899	80.69
249.133	88.69
249.366	119.69
249.599	113.69
249.832	82.69
250.066	79.69
250.299	75.69
250.532	68.69
250.765	82.69
250.998	77.69
251.231	80.69
251.465	93.69
251.698	64.69
251.931	74.69
252.164	85.69
252.397	92.69
252.63	92.69
252.863	73.69
253.096	82.69
253.329	79.69
253.562	86.69
253.795	73.69
254.028	83.69
254.261	73.69
254.494	95.69
254.727	84.69
254.96	75.69
255.193	77.69
255.426	81.69
255.659	69.69
255.892	82.69
256.124	76.69
256.357	87.69
256.59	86.69
256.823	95.69
257.056	78.69
257.289	85.69
257.521	76.69
257.754	79.69
257.987	91.69
258.22	84.69
258.452	90.69
258.685	80.69
258.918	87.69
259.151	75.69
259.383	76.69
259.616	76.69
259.849	70.69
260.081	71.69
260.314	85.69
260.547	70.69
260.779	95.69
261.012	85.69
261.244	81.69
261.477	77.69
261.71	106.69
261.942	108.69
262.175	131.69
262.407	92.69
262.64	87.69
262.872	93.69
263.105	85.69
263.337	88.69
263.57	88.69
263.802	93.69
264.035	81.69
264.267	82.69
264.499	82.69
264.732	88.69
264.964	89.69
265.197	93.69
265.429	79.69
265.661	95.69
265.894	80.69
266.126	87.69
266.358	74.69
266.591	77.69
266.823	88.69
267.055	81.69
267.287	81.69
267.52	88.69
267.752	83.69
267.984	81.69
268.216	101.69
268.448	95.69
268.681	86.69
268.913	80.69
269.145	64.69
269.377	85.69
269.609	72.69
269.841	88.69
270.073	91.69
270.306	82.69
270.538	93.69
270.77	82.69
271.002	89.69
271.234	99.69
271.466	87.69
271.698	92.69
271.93	77.69
272.162	90.69
272.394	96.69
272.626	70.69
272.858	81.69
273.09	94.69
273.322	85.69
273.553	95.69
273.785	81.69
274.017	81.69
274.249	80.69
274.481	80.69
274.713	86.69
274.945	95.69
275.176	83.69
275.408	73.69
275.64	103.69
275.872	76.69
276.104	94.69
276.335	93.69
276.567	108.69
276.799	131.69
277.031	106.69
277.262	96.69
277.494	83.69
277.726	81.69
277.957	71.69
278.189	80.69
278.421	77.69
278.652	86.69
278.884	82.69
279.115	71.69
279.347	83.69
279.579	83.69
279.81	93.69
280.042	97.69
280.273	88.69
280.505	100.69
280.736	89.69
280.968	106.69
281.199	85.69
281.431	93.69
281.662	87.69
281.894	86.69
282.125	104.69
282.356	115.69
282.588	165.69
282.819	128.69
283.051	84.69
283.282	79.69
283.513	90.69
283.745	86.69
283.976	93.69
284.207	83.69
284.439	93.69
284.67	99.69
284.901	94.69
285.132	79.69
285.364	88.69
285.595	87.69
285.826	83.69
286.057	86.69
286.288	85.69
286.52	95.69
286.751	87.69
286.982	76.69
287.213	95.69
287.444	73.69
287.675	90.69
287.906	93.69
288.138	88.69
288.369	88.69
288.6	91.69
288.831	95.69
289.062	73.69
289.293	73.69
289.524	72.69
289.755	81.69
289.986	84.69
290.217	79.69
290.448	94.69
290.679	88.69
290.91	93.69
291.141	84.69
291.371	87.69
291.602	83.69
291.833	82.69
292.064	84.69
292.295	91.69
292.526	79.69
292.757	95.69
292.987	84.69
293.218	81.69
293.449	75.69
293.68	77.69
293.91	89.69
294.141	90.69
294.372	74.69
294.603	83.69
294.833	78.69
295.064	84.69
295.295	82.69
295.525	100.69
295.756	107.69
295.987	112.69
296.217	162.69
296.448	129.69
296.679	103.69
296.909	85.69
297.14	96.69
297.37	99.69
297.601	81.69
297.831	98.69
298.062	87.69
298.292	86.69
298.523	99.69
298.753	80.69
298.984	82.69
299.214	94.69
299.445	91.69
299.675	93.69
299.905	102.69
300.136	91.69
300.366	82.69
300.597	99.69
300.827	92.69
301.057	96.69
301.288	116.69
301.518	103.69
301.748	81.69
301.979	83.69
302.209	101.69
302.439	89.69
302.669	84.69
302.9	90.69
303.13	83.69
303.36	75.69
303.59	103.69
303.82	116.69
304.051	95.69
304.281	89.69
304.511	87.69
304.741	83.69
304.971	77.69
305.201	84.69
305.431	82.69
305.661	85.69
305.891	89.69
306.121	92.69
306.352	103.69
306.582	108.69
306.812	97.69
307.042	84.69
307.272	82.69
307.502	98.69
307.731	112.69
307.961	83.69
308.191	101.69
308.421	98.69
308.651	90.69
308.881	84.69
309.111	77.69
309.341	98.69
309.571	101.69
309.8	111.69
310.03	115.69
310.26	109.69
310.49	109.69
310.72	112.69
310.949	121.69
311.179	112.69
311.409	96.69
311.639	90.69
311.868	77.69
312.098	97.69
312.328	98.69
312.557	98.69
312.787	108.69
313.017	100.69
313.246	103.69
313.476	93.69
313.706	95.69
313.935	98.69
314.165	98.69
314.394	103.69
314.624	101.69
314.853	113.69
315.083	82.69
315.312	80.69
315.542	93.69
315.771	96.69
316.001	88.69
316.23	80.69
316.46	88.69
316.689	90.69
316.919	93.69
317.148	90.69
317.377	85.69
317.607	92.69
317.836	98.69
318.065	85.69
318.295	100.69
318.524	92.69
318.753	93.69
318.983	88.69
319.212	108.69
319.441	100.69
319.67	114.69
319.9	91.69
320.129	91.69
320.358	96.69
320.587	98.69
320.816	84.69
321.046	100.69
321.275	115.69
321.504	85.69
321.733	107.69
321.962	104.69
322.191	111.69
322.42	113.69
322.649	106.69
322.878	111.69
323.108	118.69
323.337	137.69
323.566	131.69
323.795	153.69
324.024	225.69
324.253	465.69
324.482	963.69
324.71	1904.69
324.939	2550.69
325.168	921.69
325.397	290.69
325.626	163.69
325.855	147.69
326.084	137.69
326.313	133.69
326.542	165.69
326.77	243.69
326.999	506.69
327.228	1052.69
327.457	1837.69
327.686	1494.69
327.914	388.69
328.143	229.69
328.372	171.69
328.6	121.69
328.829	125.69
329.058	138.69
329.287	142.69
329.515	123.69
329.744	119.69
329.972	120.69
330.201	155.69
330.43	187.69
330.658	140.69
330.887	174.69
331.115	147.69
331.344	106.69
331.572	97.69
331.801	100.69
332.03	104.69
332.258	119.69
332.486	100.69
332.715	90.69
332.943	97.69
333.172	95.69
333.4	99.69
333.629	123.69
333.857	133.69
334.085	131.69
334.314	149.69
334.542	184.69
334.771	192.69
334.999	116.69
335.227	99.69
335.455	102.69
335.684	114.69
335.912	105.69
336.14	97.69
336.369	91.69
336.597	107.69
336.825	89.69
337.053	99.69
337.281	83.69
337.51	85.69
337.738	92.69
337.966	106.69
338.194	98.69
338.422	86.69
338.65	90.69
338.878	96.69
339.106	84.69
339.334	89.69
339.562	97.69
339.79	83.69
340.018	84.69
340.246	97.69
340.474	86.69
340.702	104.69
340.93	96.69
341.158	87.69
341.386	94.69
341.614	106.69
341.842	104.69
342.07	102.69
342.298	102.69
342.526	117.69
342.754	89.69
342.981	91.69
343.209	83.69
343.437	114.69
343.665	90.69
343.893	89.69
344.12	98.69
344.348	92.69
344.576	98.69
344.804	92.69
345.031	105.69
345.259	103.69
345.487	100.69
345.714	113.69
345.942	103.69
346.17	96.69
346.397	80.69
346.625	93.69
346.853	96.69
347.08	87.69
347.308	82.69
347.535	109.69
347.763	105.69
347.99	114.69
348.218	102.69
348.445	115.69
348.673	112.69
348.9	97.69
349.128	91.69
349.355	85.69
349.583	96.69
349.81	95.69
350.037	117.69
350.265	89.69
350.492	106.69
350.72	90.69
350.947	106.69
351.174	104.69
351.402	109.69
351.629	103.69
351.856	101.69
352.083	106.69
352.311	104.69
352.538	116.69
352.765	103.69
352.992	113.69
353.22	121.69
353.447	115.69
353.674	124.69
353.901	87.69
354.128	97.69
354.355	95.69
354.583	113.69
354.81	104.69
355.037	102.69
355.264	103.69
355.491	94.69
355.718	101.69
355.945	96.69
356.172	91.69
356.399	87.69
356.626	104.69
356.853	101.69
357.08	86.69
357.307	106.69
357.534	80.69
357.761	86.69
357.988	123.69
358.215	95.69
358.441	87.69
358.668	101.69
358.895	96.69
359.122	107.69
359.349	103.69
359.576	86.69
359.802	93.69
360.029	127.69
360.256	117.69
360.483	87.69
360.709	81.69
360.936	91.69
361.163	92.69
361.39	107.69
361.616	98.69
361.843	88.69
362.07	102.69
362.296	100.69
362.523	87.69
362.749	91.69
362.976	98.69
363.203	86.69
363.429	76.69
363.656	77.69
363.882	89.69
364.109	91.69
364.335	82.69
364.562	90.69
364.788	83.69
365.015	88.69
365.241	105.69
365.468	125.69
365.694	107.69
365.92	92.69
366.147	95.69
366.373	99.69
366.599	96.69
366.826	95.69
367.052	98.69
367.278	93.69
367.505	99.69
367.731	87.69
367.957	88.69
368.184	98.69
368.41	102.69
368.636	114.69
368.862	123.69
369.089	121.69
369.315	89.69
369.541	89.69
369.767	89.69
369.993	95.69
370.219	94.69
370.445	85.69
370.672	95.69
370.898	86.69
371.124	83.69
371.35	83.69
371.576	88.69
371.802	83.69
372.028	92.69
372.254	81.69
372.48	77.69
372.706	97.69
372.932	69.69
373.158	96.69
373.384	81.69
373.61	88.69
373.835	105.69
374.061	82.69
374.287	96.69
374.513	86.69
374.739	92.69
374.965	95.69
375.191	84.69
375.416	88.69
375.642	89.69
375.868	80.69
376.094	98.69
376.319	93.69
376.545	83.69
376.771	86.69
376.997	80.69
377.222	96.69
377.448	87.69
377.674	85.69
377.899	92.69
378.125	91.69
378.35	81.69
378.576	99.69
378.802	96.69
379.027	97.69
379.253	100.69
379.478	93.69
379.704	81.69
379.929	98.69
380.155	96.69
380.38	95.69
380.606	93.69
380.831	95.69
381.057	92.69
381.282	89.69
381.507	112.69
381.733	112.69
381.958	96.69
382.184	81.69
382.409	92.69
382.634	103.69
382.86	105.69
383.085	103.69
383.31	94.69
383.535	97.69
383.761	103.69
383.986	93.69
384.211	102.69
384.436	96.69
384.662	89.69
384.887	101.69
385.112	107.69
385.337	106.69
385.562	97.69
385.787	113.69
386.013	104.69
386.238	106.69
386.463	101.69
386.688	101.69
386.913	101.69
387.138	97.69
387.363	99.69
387.588	111.69
387.813	102.69
388.038	101.69
388.263	108.69
388.488	98.69
388.713	83.69
388.938	93.69
389.163	89.69
389.387	108.69
389.612	110.69
389.837	103.69
390.062	93.69
390.287	82.69
390.512	85.69
390.736	76.69
390.961	92.69
391.186	95.69
391.411	93.69
391.636	87.69
391.86	85.69
392.085	81.69
392.31	79.69
392.534	96.69
392.759	85.69
392.984	73.69
393.208	92.69
393.433	83.69
393.658	83.69
393.882	85.69
394.107	91.69
394.331	92.69
394.556	81.69
394.78	84.69
395.005	90.69
395.229	92.69
395.454	92.69
395.678	85.69
395.903	82.69
396.127	89.69
396.352	93.69
396.576	81.69
396.801	83.69
397.025	85.69
397.249	95.69
397.474	82.69
397.698	79.69
397.922	78.69
398.147	83.69
398.371	67.69
398.595	100.69
398.82	89.69
399.044	66.69
399.268	83.69
399.492	67.69
399.717	90.69
399.941	89.69
400.165	88.69
400.389	92.69
400.613	82.69
400.837	97.69
401.062	97.69
401.286	81.69
401.51	105.69
401.734	97.69
401.958	101.69
402.182	142.69
402.406	176.69
402.63	138.69
402.854	100.69
403.078	83.69
403.302	80.69
403.526	92.69
403.75	91.69
403.974	87.69
404.198	89.69
404.422	92.69
404.645	94.69
404.869	95.69
405.093	86.69
405.317	101.69
405.541	104.69
405.765	106.69
405.988	131.69
406.212	191.69
406.436	297.69
406.66	181.69
406.883	103.69
407.107	93.69
407.331	103.69
407.555	103.69
407.778	92.69
408.002	95.69
408.226	97.69
408.449	89.69
408.673	81.69
408.896	88.69
409.12	86.69
409.344	81.69
409.567	87.69
409.791	95.69
410.014	91.69
410.238	96.69
410.461	86.69
410.685	111.69
410.908	83.69
411.132	99.69
411.355	115.69
411.578	85.69
411.802	86.69
412.025	84.69
412.249	95.69
412.472	102.69
412.695	102.69
412.919	94.69
413.142	86.69
413.365	100.69
413.589	75.69
413.812	93.69
414.035	88.69
414.258	86.69
414.482	84.69
414.705	89.69
414.928	84.69
415.151	89.69
415.374	93.69
415.597	95.69
415.821	98.69
416.044	92.69
416.267	89.69
416.49	85.69
416.713	87.69
416.936	91.69
417.159	99.69
417.382	94.69
417.605	92.69
417.828	101.69
418.051	82.69
418.274	83.69
418.497	92.69
418.72	95.69
418.943	80.69
419.166	73.69
419.389	92.69
419.611	78.69
419.834	91.69
420.057	80.69
420.28	76.69
420.503	88.69
420.726	97.69
420.948	91.69
421.171	90.69
421.394	100.69
421.617	83.69
421.839	97.69
422.062	101.69
422.285	85.69
422.507	103.69
422.73	105.69
422.953	95.69
423.175	99.69
423.398	84.69
423.621	79.69
423.843	80.69
424.066	91.69
424.288	91.69
424.511	89.69
424.733	105.69
424.956	123.69
425.178	105.69
425.401	99.69
425.623	101.69
425.846	91.69
426.068	103.69
426.291	98.69
426.513	96.69
426.735	82.69
426.958	115.69
427.18	105.69
427.402	154.69
427.625	183.69
427.847	155.69
428.069	120.69
428.292	96.69
428.514	93.69
428.736	99.69
428.958	67.69
429.181	82.69
429.403	93.69
429.625	88.69
429.847	100.69
430.069	88.69
430.292	108.69
430.514	97.69
430.736	86.69
430.958	86.69
431.18	69.69
431.402	93.69
431.624	99.69
431.846	77.69
432.068	98.69
432.29	100.69
432.512	81.69
432.734	73.69
432.956	89.69
433.178	96.69
433.4	99.69
433.622	91.69
433.844	87.69
434.066	95.69
434.287	91.69
434.509	91.69
434.731	98.69
434.953	80.69
435.175	90.69
435.397	89.69
435.618	90.69
435.84	106.69
436.062	132.69
436.284	122.69
436.505	106.69
436.727	81.69
436.949	83.69
437.17	75.69
437.392	96.69
437.614	83.69
437.835	113.69
438.057	121.69
438.278	112.69
438.5	132.69
438.721	128.69
438.943	97.69
439.165	106.69
439.386	97.69
439.608	90.69
439.829	97.69
440.05	139.69
440.272	150.69
440.493	99.69
440.715	82.69
440.936	87.69
441.158	95.69
441.379	86.69
441.6	82.69
441.822	100.69
442.043	113.69
442.264	97.69
442.486	95.69
442.707	96.69
442.928	121.69
443.149	155.69
443.371	128.69
443.592	115.69
443.813	128.69
444.034	117.69
444.255	95.69
444.476	92.69
444.698	97.69
444.919	94.69
445.14	128.69
445.361	130.69
445.582	133.69
445.803	149.69
446.024	151.69
446.245	135.69
446.466	122.69
446.687	91.69
446.908	83.69
447.129	89.69
447.35	95.69
447.571	90.69
447.792	102.69
448.013	111.69
448.234	112.69
448.455	107.69
448.675	110.69
448.896	138.69
449.117	91.69
449.338	95.69
449.559	134.69
449.779	117.69
450	106.69
450.221	82.69
450.442	75.69
450.662	75.69
450.883	127.69
451.104	127.69
451.324	99.69
451.545	97.69
451.766	77.69
451.986	86.69
452.207	101.69
452.428	101.69
452.648	107.69
452.869	126.69
453.089	122.69
453.31	129.69
453.53	90.69
453.751	89.69
453.971	101.69
454.192	112.69
454.412	96.69
454.633	87.69
454.853	92.69
455.073	89.69
455.294	98.69
455.514	107.69
455.734	74.69
455.955	89.69
456.175	85.69
456.395	91.69
456.616	98.69
456.836	79.69
457.056	96.69
457.276	92.69
457.497	81.69
457.717	87.69
457.937	86.69
458.157	83.69
458.377	91.69
458.598	105.69
458.818	169.69
459.038	191.69
459.258	133.69
459.478	92.69
459.698	76.69
459.918	73.69
460.138	82.69
460.358	79.69
460.578	84.69
460.798	86.69
461.018	94.69
461.238	81.69
461.458	90.69
461.678	83.69
461.898	93.69
462.118	88.69
462.338	86.69
462.558	75.69
462.777	83.69
462.997	87.69
463.217	96.69
463.437	87.69
463.657	89.69
463.876	87.69
464.096	80.69
464.316	87.69
464.536	103.69
464.755	99.69
464.975	137.69
465.195	213.69
465.414	193.69
465.634	97.69
465.854	96.69
466.073	83.69
466.293	91.69
466.512	79.69
466.732	75.69
466.951	87.69
467.171	84.69
467.391	99.69
467.61	115.69
467.829	127.69
468.049	106.69
468.268	134.69
468.488	89.69
468.707	99.69
468.927	81.69
469.146	91.69
469.365	91.69
469.585	88.69
469.804	102.69
470.023	100.69
470.243	100.69
470.462	92.69
470.681	113.69
470.901	105.69
471.12	97.69
471.339	93.69
471.558	79.69
471.777	84.69
471.997	101.69
472.216	149.69
472.435	236.69
472.654	126.69
472.873	93.69
473.092	96.69
473.311	88.69
473.53	80.69
473.749	106.69
473.968	117.69
474.187	120.69
474.406	100.69
474.625	95.69
474.844	92.69
475.063	76.69
475.282	97.69
475.501	89.69
475.72	98.69
475.939	84.69
476.158	74.69
476.377	87.69
476.596	76.69
476.814	90.69
477.033	97.69
477.252	105.69
477.471	103.69
477.69	96.69
477.908	93.69
478.127	88.69
478.346	99.69
478.564	101.69
478.783	108.69
479.002	93.69
479.22	86.69
479.439	111.69
479.658	118.69
479.876	97.69
480.095	90.69
480.313	84.69
480.532	96.69
480.751	102.69
480.969	160.69
481.188	334.69
481.406	248.69
481.624	92.69
481.843	82.69
482.061	95.69
482.28	118.69
482.498	106.69
482.717	92.69
482.935	89.69
483.153	95.69
483.372	92.69
483.59	91.69
483.808	97.69
484.027	92.69
484.245	90.69
484.463	99.69
484.681	84.69
484.9	104.69
485.118	92.69
485.336	96.69
485.554	83.69
485.772	92.69
485.99	107.69
486.209	91.69
486.427	109.69
486.645	115.69
486.863	117.69
487.081	97.69
487.299	100.69
487.517	88.69
487.735	94.69
487.953	97.69
488.171	80.69
488.389	101.69
488.607	112.69
488.825	105.69
489.043	91.69
489.261	97.69
489.479	92.69
489.696	88.69
489.914	91.69
490.132	92.69
490.35	73.69
490.568	91.69
490.786	84.69
491.003	88.69
491.221	75.69
491.439	90.69
491.657	90.69
491.874	77.69
492.092	94.69
492.31	83.69
492.527	91.69
492.745	83.69
492.963	87.69
493.18	85.69
493.398	109.69
493.615	99.69
493.833	97.69
494.05	103.69
494.268	103.69
494.485	83.69
494.703	76.69
494.92	79.69
495.138	89.69
495.355	96.69
495.573	72.69
495.79	91.69
496.008	98.69
496.225	85.69
496.442	94.69
496.66	83.69
496.877	81.69
497.094	92.69
497.312	82.69
497.529	108.69
497.746	87.69
497.963	93.69
498.181	88.69
498.398	101.69
498.615	99.69
498.832	113.69
499.049	85.69
499.267	92.69
499.484	90.69
499.701	93.69
499.918	88.69
500.135	90.69
500.352	95.69
500.569	88.69
500.786	87.69
501.003	80.69
501.22	99.69
501.437	101.69
501.654	84.69
501.871	111.69
502.088	88.69
502.305	86.69
502.522	104.69
502.739	82.69
502.956	93.69
503.172	89.69
503.389	92.69
503.606	108.69
503.823	113.69
504.04	90.69
504.256	87.69
504.473	77.69
504.69	95.69
504.907	93.69
505.123	79.69
505.34	82.69
505.557	75.69
505.773	98.69
505.99	82.69
506.207	86.69
506.423	95.69
506.64	79.69
506.856	99.69
507.073	81.69
507.289	102.69
507.506	101.69
507.722	135.69
507.939	114.69
508.155	103.69
508.372	97.69
508.588	110.69
508.805	105.69
509.021	115.69
509.238	98.69
509.454	104.69
509.67	73.69
509.887	109.69
510.103	155.69
510.319	247.69
510.536	970.69
510.752	3285.69
510.968	916.69
511.184	192.69
511.401	121.69
511.617	102.69
511.833	80.69
512.049	77.69
512.265	94.69
512.481	92.69
512.698	101.69
512.914	94.69
513.13	78.69
513.346	100.69
513.562	95.69
513.778	99.69
513.994	89.69
514.21	112.69
514.426	125.69
514.642	157.69
514.858	128.69
