Data from Circ_2018_H10_HRD10591_00079.txt Node
Date: Wed Jan 03 09:56:17 EST 2024
User: Yrep
Spectrometer: HR+D1059
Trigger mode: 1
Integration Time (sec): 1.000000E-1
Scans to average: 1
Electric dark correction enabled: true
Nonlinearity correction enabled: false
Boxcar width: 0
XAxis mode: Wavelengths
Number of Pixels in Spectrum: 2048
>>>>>Begin Spectral Data<<<<<
223.165	-24.25
223.4	-24.25
223.635	-24.25
223.869	-20.25
224.104	-15.25
224.338	-9.25
224.573	-6.25
224.808	-17.25
225.042	-2.25
225.277	5.75
225.511	-7.25
225.746	-2.25
225.98	20.75
226.215	14.75
226.449	-3.25
226.683	25.75
226.918	19.75
227.152	20.75
227.387	36.75
227.621	32.75
227.856	41.75
228.09	59.75
228.324	53.75
228.559	65.75
228.793	53.75
229.027	52.75
229.262	65.75
229.496	77.75
229.73	80.75
229.964	73.75
230.199	75.75
230.433	73.75
230.667	83.75
230.901	85.75
231.136	80.75
231.37	77.75
231.604	86.75
231.838	88.75
232.072	84.75
232.306	84.75
232.541	85.75
232.775	81.75
233.009	85.75
233.243	80.75
233.477	93.75
233.711	81.75
233.945	89.75
234.179	82.75
234.413	82.75
234.647	83.75
234.881	69.75
235.115	73.75
235.349	90.75
235.583	89.75
235.817	84.75
236.051	69.75
236.285	86.75
236.519	71.75
236.753	74.75
236.987	70.75
237.221	70.75
237.455	89.75
237.689	81.75
237.922	73.75
238.156	82.75
238.39	83.75
238.624	81.75
238.858	86.75
239.091	72.75
239.325	65.75
239.559	75.75
239.793	85.75
240.027	88.75
240.26	83.75
240.494	69.75
240.728	79.75
240.961	88.75
241.195	88.75
241.429	88.75
241.662	83.75
241.896	69.75
242.13	74.75
242.363	73.75
242.597	91.75
242.83	75.75
243.064	79.75
243.298	84.75
243.531	74.75
243.765	75.75
243.998	83.75
244.232	76.75
244.465	103.75
244.699	85.75
244.932	91.75
245.166	80.75
245.399	71.75
245.633	79.75
245.866	76.75
246.099	79.75
246.333	97.75
246.566	76.75
246.8	72.75
247.033	83.75
247.266	68.75
247.5	75.75
247.733	74.75
247.966	81.75
248.2	75.75
248.433	83.75
248.666	85.75
248.899	83.75
249.133	97.75
249.366	95.75
249.599	95.75
249.832	90.75
250.066	82.75
250.299	91.75
250.532	85.75
250.765	75.75
250.998	72.75
251.231	78.75
251.465	98.75
251.698	76.75
251.931	81.75
252.164	83.75
252.397	86.75
252.63	76.75
252.863	77.75
253.096	72.75
253.329	70.75
253.562	76.75
253.795	80.75
254.028	89.75
254.261	84.75
254.494	80.75
254.727	76.75
254.96	91.75
255.193	93.75
255.426	95.75
255.659	82.75
255.892	86.75
256.124	87.75
256.357	86.75
256.59	89.75
256.823	97.75
257.056	88.75
257.289	68.75
257.521	79.75
257.754	77.75
257.987	78.75
258.22	87.75
258.452	75.75
258.685	68.75
258.918	89.75
259.151	72.75
259.383	77.75
259.616	80.75
259.849	74.75
260.081	90.75
260.314	83.75
260.547	88.75
260.779	82.75
261.012	90.75
261.244	92.75
261.477	81.75
261.71	89.75
261.942	142.75
262.175	117.75
262.407	98.75
262.64	75.75
262.872	88.75
263.105	74.75
263.337	76.75
263.57	85.75
263.802	89.75
264.035	83.75
264.267	82.75
264.499	84.75
264.732	89.75
264.964	85.75
265.197	79.75
265.429	73.75
265.661	84.75
265.894	95.75
266.126	75.75
266.358	84.75
266.591	79.75
266.823	77.75
267.055	80.75
267.287	78.75
267.52	84.75
267.752	77.75
267.984	81.75
268.216	88.75
268.448	81.75
268.681	81.75
268.913	87.75
269.145	81.75
269.377	86.75
269.609	88.75
269.841	65.75
270.073	74.75
270.306	98.75
270.538	89.75
270.77	80.75
271.002	83.75
271.234	92.75
271.466	94.75
271.698	95.75
271.93	89.75
272.162	81.75
272.394	90.75
272.626	87.75
272.858	91.75
273.09	77.75
273.322	67.75
273.553	79.75
273.785	85.75
274.017	88.75
274.249	90.75
274.481	66.75
274.713	80.75
274.945	95.75
275.176	87.75
275.408	84.75
275.64	86.75
275.872	65.75
276.104	80.75
276.335	106.75
276.567	97.75
276.799	120.75
277.031	103.75
277.262	89.75
277.494	76.75
277.726	76.75
277.957	81.75
278.189	84.75
278.421	90.75
278.652	83.75
278.884	79.75
279.115	82.75
279.347	67.75
279.579	90.75
279.81	81.75
280.042	95.75
280.273	88.75
280.505	91.75
280.736	102.75
280.968	71.75
281.199	83.75
281.431	88.75
281.662	85.75
281.894	96.75
282.125	102.75
282.356	139.75
282.588	149.75
282.819	118.75
283.051	83.75
283.282	79.75
283.513	88.75
283.745	91.75
283.976	86.75
284.207	87.75
284.439	96.75
284.67	96.75
284.901	95.75
285.132	72.75
285.364	89.75
285.595	84.75
285.826	85.75
286.057	98.75
286.288	88.75
286.52	88.75
286.751	88.75
286.982	87.75
287.213	86.75
287.444	95.75
287.675	93.75
287.906	100.75
288.138	83.75
288.369	114.75
288.6	85.75
288.831	86.75
289.062	95.75
289.293	89.75
289.524	73.75
289.755	82.75
289.986	98.75
290.217	79.75
290.448	86.75
290.679	101.75
290.91	90.75
291.141	88.75
291.371	92.75
291.602	98.75
291.833	81.75
292.064	75.75
292.295	85.75
292.526	85.75
292.757	100.75
292.987	87.75
293.218	99.75
293.449	80.75
293.68	86.75
293.91	88.75
294.141	94.75
294.372	97.75
294.603	84.75
294.833	85.75
295.064	94.75
295.295	98.75
295.525	93.75
295.756	100.75
295.987	120.75
296.217	156.75
296.448	138.75
296.679	101.75
296.909	101.75
297.14	90.75
297.37	90.75
297.601	85.75
297.831	91.75
298.062	93.75
298.292	87.75
298.523	97.75
298.753	90.75
298.984	72.75
299.214	78.75
299.445	85.75
299.675	102.75
299.905	92.75
300.136	83.75
300.366	89.75
300.597	91.75
300.827	100.75
301.057	113.75
301.288	108.75
301.518	99.75
301.748	84.75
301.979	107.75
302.209	92.75
302.439	86.75
302.669	95.75
302.9	101.75
303.13	121.75
303.36	101.75
303.59	92.75
303.82	129.75
304.051	96.75
304.281	86.75
304.511	92.75
304.741	93.75
304.971	83.75
305.201	95.75
305.431	90.75
305.661	83.75
305.891	76.75
306.121	99.75
306.352	101.75
306.582	115.75
306.812	108.75
307.042	96.75
307.272	82.75
307.502	96.75
307.731	101.75
307.961	98.75
308.191	90.75
308.421	88.75
308.651	78.75
308.881	83.75
309.111	93.75
309.341	97.75
309.571	97.75
309.8	104.75
310.03	98.75
310.26	118.75
310.49	95.75
310.72	95.75
310.949	87.75
311.179	114.75
311.409	95.75
311.639	79.75
311.868	97.75
312.098	98.75
312.328	110.75
312.557	104.75
312.787	108.75
313.017	105.75
313.246	83.75
313.476	92.75
313.706	86.75
313.935	94.75
314.165	95.75
314.394	88.75
314.624	90.75
314.853	84.75
315.083	105.75
315.312	99.75
315.542	109.75
315.771	97.75
316.001	80.75
316.23	75.75
316.46	86.75
316.689	89.75
316.919	90.75
317.148	96.75
317.377	91.75
317.607	91.75
317.836	105.75
318.065	85.75
318.295	92.75
318.524	92.75
318.753	98.75
318.983	83.75
319.212	92.75
319.441	106.75
319.67	92.75
319.9	97.75
320.129	92.75
320.358	99.75
320.587	106.75
320.816	104.75
321.046	103.75
321.275	97.75
321.504	90.75
321.733	90.75
321.962	106.75
322.191	106.75
322.42	101.75
322.649	105.75
322.878	127.75
323.108	116.75
323.337	128.75
323.566	147.75
323.795	160.75
324.024	228.75
324.253	427.75
324.482	914.75
324.71	1834.75
324.939	2458.75
325.168	917.75
325.397	269.75
325.626	141.75
325.855	141.75
326.084	124.75
326.313	127.75
326.542	157.75
326.77	251.75
326.999	502.75
327.228	987.75
327.457	1808.75
327.686	1457.75
327.914	394.75
328.143	232.75
328.372	183.75
328.6	145.75
328.829	140.75
329.058	147.75
329.287	148.75
329.515	118.75
329.744	119.75
329.972	126.75
330.201	161.75
330.43	160.75
330.658	164.75
330.887	153.75
331.115	135.75
331.344	95.75
331.572	123.75
331.801	101.75
332.03	105.75
332.258	111.75
332.486	105.75
332.715	83.75
332.943	104.75
333.172	96.75
333.4	111.75
333.629	116.75
333.857	134.75
334.085	131.75
334.314	147.75
334.542	188.75
334.771	188.75
334.999	127.75
335.227	107.75
335.455	113.75
335.684	98.75
335.912	83.75
336.14	100.75
336.369	92.75
336.597	91.75
336.825	111.75
337.053	96.75
337.281	107.75
337.51	84.75
337.738	101.75
337.966	91.75
338.194	103.75
338.422	108.75
338.65	100.75
338.878	97.75
339.106	94.75
339.334	76.75
339.562	91.75
339.79	93.75
340.018	100.75
340.246	87.75
340.474	96.75
340.702	87.75
340.93	80.75
341.158	98.75
341.386	85.75
341.614	85.75
341.842	99.75
342.07	96.75
342.298	94.75
342.526	88.75
342.754	96.75
342.981	75.75
343.209	101.75
343.437	110.75
343.665	91.75
343.893	75.75
344.12	92.75
344.348	90.75
344.576	103.75
344.804	94.75
345.031	123.75
345.259	114.75
345.487	84.75
345.714	89.75
345.942	105.75
346.17	98.75
346.397	89.75
346.625	100.75
346.853	87.75
347.08	103.75
347.308	103.75
347.535	98.75
347.763	113.75
347.99	96.75
348.218	124.75
348.445	105.75
348.673	111.75
348.9	106.75
349.128	105.75
349.355	105.75
349.583	87.75
349.81	99.75
350.037	103.75
350.265	97.75
350.492	84.75
350.72	97.75
350.947	103.75
351.174	115.75
351.402	117.75
351.629	95.75
351.856	126.75
352.083	104.75
352.311	110.75
352.538	99.75
352.765	107.75
352.992	117.75
353.22	111.75
353.447	103.75
353.674	104.75
353.901	106.75
354.128	89.75
354.355	100.75
354.583	94.75
354.81	104.75
355.037	107.75
355.264	93.75
355.491	105.75
355.718	97.75
355.945	81.75
356.172	93.75
356.399	84.75
356.626	90.75
356.853	87.75
357.08	88.75
357.307	85.75
357.534	107.75
357.761	91.75
357.988	99.75
358.215	93.75
358.441	71.75
358.668	97.75
358.895	93.75
359.122	88.75
359.349	99.75
359.576	106.75
359.802	98.75
360.029	127.75
360.256	121.75
360.483	90.75
360.709	87.75
360.936	90.75
361.163	100.75
361.39	99.75
361.616	103.75
361.843	95.75
362.07	101.75
362.296	102.75
362.523	85.75
362.749	95.75
362.976	98.75
363.203	101.75
363.429	85.75
363.656	86.75
363.882	89.75
364.109	101.75
364.335	76.75
364.562	96.75
364.788	83.75
365.015	88.75
365.241	109.75
365.468	123.75
365.694	112.75
365.92	111.75
366.147	92.75
366.373	83.75
366.599	102.75
366.826	100.75
367.052	69.75
367.278	93.75
367.505	102.75
367.731	106.75
367.957	90.75
368.184	100.75
368.41	105.75
368.636	120.75
368.862	117.75
369.089	117.75
369.315	99.75
369.541	87.75
369.767	96.75
369.993	86.75
370.219	91.75
370.445	93.75
370.672	91.75
370.898	82.75
371.124	88.75
371.35	97.75
371.576	91.75
371.802	83.75
372.028	88.75
372.254	94.75
372.48	81.75
372.706	92.75
372.932	86.75
373.158	91.75
373.384	97.75
373.61	80.75
373.835	78.75
374.061	81.75
374.287	90.75
374.513	90.75
374.739	103.75
374.965	97.75
375.191	80.75
375.416	83.75
375.642	84.75
375.868	92.75
376.094	88.75
376.319	86.75
376.545	87.75
376.771	104.75
376.997	100.75
377.222	88.75
377.448	99.75
377.674	102.75
377.899	99.75
378.125	90.75
378.35	96.75
378.576	92.75
378.802	92.75
379.027	84.75
379.253	96.75
379.478	108.75
379.704	103.75
379.929	93.75
380.155	106.75
380.38	96.75
380.606	91.75
380.831	93.75
381.057	93.75
381.282	96.75
381.507	105.75
381.733	97.75
381.958	99.75
382.184	84.75
382.409	100.75
382.634	90.75
382.86	94.75
383.085	101.75
383.31	93.75
383.535	109.75
383.761	106.75
383.986	100.75
384.211	89.75
384.436	112.75
384.662	100.75
384.887	95.75
385.112	106.75
385.337	96.75
385.562	91.75
385.787	96.75
386.013	111.75
386.238	119.75
386.463	103.75
386.688	107.75
386.913	103.75
387.138	108.75
387.363	121.75
387.588	97.75
387.813	101.75
388.038	102.75
388.263	126.75
388.488	104.75
388.713	98.75
388.938	85.75
389.163	86.75
389.387	103.75
389.612	100.75
389.837	82.75
390.062	96.75
390.287	106.75
390.512	95.75
390.736	94.75
390.961	91.75
391.186	90.75
391.411	94.75
391.636	93.75
391.86	86.75
392.085	82.75
392.31	88.75
392.534	83.75
392.759	91.75
392.984	95.75
393.208	104.75
393.433	90.75
393.658	89.75
393.882	99.75
394.107	88.75
394.331	89.75
394.556	83.75
394.78	96.75
395.005	100.75
395.229	86.75
395.454	78.75
395.678	91.75
395.903	95.75
396.127	89.75
396.352	90.75
396.576	98.75
396.801	98.75
397.025	93.75
397.249	96.75
397.474	92.75
397.698	89.75
397.922	97.75
398.147	79.75
398.371	76.75
398.595	83.75
398.82	81.75
399.044	106.75
399.268	91.75
399.492	97.75
399.717	95.75
399.941	90.75
400.165	93.75
400.389	81.75
400.613	80.75
400.837	78.75
401.062	78.75
401.286	95.75
401.51	87.75
401.734	89.75
401.958	99.75
402.182	138.75
402.406	180.75
402.63	133.75
402.854	96.75
403.078	98.75
403.302	85.75
403.526	81.75
403.75	99.75
403.974	94.75
404.198	89.75
404.422	96.75
404.645	84.75
404.869	99.75
405.093	96.75
405.317	97.75
405.541	114.75
405.765	100.75
405.988	123.75
406.212	200.75
406.436	259.75
406.66	168.75
406.883	115.75
407.107	88.75
407.331	99.75
407.555	103.75
407.778	104.75
408.002	101.75
408.226	80.75
408.449	91.75
408.673	91.75
408.896	88.75
409.12	89.75
409.344	83.75
409.567	86.75
409.791	90.75
410.014	92.75
410.238	96.75
410.461	93.75
410.685	89.75
410.908	112.75
411.132	101.75
411.355	101.75
411.578	85.75
411.802	96.75
412.025	92.75
412.249	100.75
412.472	100.75
412.695	105.75
412.919	85.75
413.142	87.75
413.365	65.75
413.589	91.75
413.812	75.75
414.035	82.75
414.258	96.75
414.482	87.75
414.705	82.75
414.928	95.75
415.151	89.75
415.374	92.75
415.597	101.75
415.821	90.75
416.044	84.75
416.267	87.75
416.49	88.75
416.713	95.75
416.936	91.75
417.159	78.75
417.382	90.75
417.605	83.75
417.828	106.75
418.051	102.75
418.274	92.75
418.497	71.75
418.72	101.75
418.943	101.75
419.166	88.75
419.389	87.75
419.611	82.75
419.834	84.75
420.057	88.75
420.28	94.75
420.503	80.75
420.726	78.75
420.948	96.75
421.171	98.75
421.394	79.75
421.617	90.75
421.839	90.75
422.062	96.75
422.285	90.75
422.507	95.75
422.73	114.75
422.953	80.75
423.175	99.75
423.398	95.75
423.621	99.75
423.843	95.75
424.066	90.75
424.288	84.75
424.511	92.75
424.733	98.75
424.956	104.75
425.178	104.75
425.401	94.75
425.623	99.75
425.846	94.75
426.068	99.75
426.291	104.75
426.513	79.75
426.735	73.75
426.958	107.75
427.18	113.75
427.402	147.75
427.625	195.75
427.847	150.75
428.069	138.75
428.292	98.75
428.514	91.75
428.736	100.75
428.958	88.75
429.181	104.75
429.403	85.75
429.625	82.75
429.847	82.75
430.069	111.75
430.292	104.75
430.514	77.75
430.736	82.75
430.958	89.75
431.18	97.75
431.402	82.75
431.624	85.75
431.846	89.75
432.068	91.75
432.29	82.75
432.512	83.75
432.734	96.75
432.956	88.75
433.178	112.75
433.4	108.75
433.622	114.75
433.844	99.75
434.066	85.75
434.287	82.75
434.509	86.75
434.731	93.75
434.953	84.75
435.175	95.75
435.397	80.75
435.618	82.75
435.84	97.75
436.062	133.75
436.284	120.75
436.505	109.75
436.727	116.75
436.949	106.75
437.17	89.75
437.392	92.75
437.614	96.75
437.835	103.75
438.057	136.75
438.278	109.75
438.5	111.75
438.721	132.75
438.943	117.75
439.165	94.75
439.386	87.75
439.608	97.75
439.829	90.75
440.05	130.75
440.272	163.75
440.493	105.75
440.715	80.75
440.936	78.75
441.158	88.75
441.379	99.75
441.6	89.75
441.822	96.75
442.043	88.75
442.264	107.75
442.486	99.75
442.707	99.75
442.928	127.75
443.149	134.75
443.371	146.75
443.592	117.75
443.813	117.75
444.034	106.75
444.255	100.75
444.476	86.75
444.698	79.75
444.919	96.75
445.14	147.75
445.361	122.75
445.582	111.75
445.803	151.75
446.024	135.75
446.245	128.75
446.466	103.75
446.687	96.75
446.908	96.75
447.129	94.75
447.35	94.75
447.571	95.75
447.792	82.75
448.013	114.75
448.234	105.75
448.455	90.75
448.675	116.75
448.896	119.75
449.117	94.75
449.338	89.75
449.559	121.75
449.779	127.75
450	92.75
450.221	90.75
450.442	85.75
450.662	92.75
450.883	117.75
451.104	131.75
451.324	96.75
451.545	75.75
451.766	92.75
451.986	100.75
452.207	94.75
452.428	96.75
452.648	101.75
452.869	126.75
453.089	119.75
453.31	125.75
453.53	107.75
453.751	90.75
453.971	119.75
454.192	121.75
454.412	97.75
454.633	92.75
454.853	83.75
455.073	87.75
455.294	88.75
455.514	90.75
455.734	90.75
455.955	85.75
456.175	87.75
456.395	81.75
456.616	64.75
456.836	71.75
457.056	75.75
457.276	81.75
457.497	73.75
457.717	74.75
457.937	89.75
458.157	89.75
458.377	87.75
458.598	125.75
458.818	171.75
459.038	178.75
459.258	126.75
459.478	93.75
459.698	90.75
459.918	76.75
460.138	91.75
460.358	83.75
460.578	82.75
460.798	97.75
461.018	92.75
461.238	81.75
461.458	94.75
461.678	88.75
461.898	90.75
462.118	77.75
462.338	69.75
462.558	76.75
462.777	86.75
462.997	87.75
463.217	82.75
463.437	85.75
463.657	83.75
463.876	81.75
464.096	91.75
464.316	87.75
464.536	100.75
464.755	98.75
464.975	103.75
465.195	183.75
465.414	189.75
465.634	95.75
465.854	76.75
466.073	71.75
466.293	80.75
466.512	77.75
466.732	81.75
466.951	78.75
467.171	77.75
467.391	84.75
467.61	112.75
467.829	101.75
468.049	111.75
468.268	141.75
468.488	82.75
468.707	96.75
468.927	93.75
469.146	91.75
469.365	84.75
469.585	92.75
469.804	92.75
470.023	104.75
470.243	101.75
470.462	92.75
470.681	116.75
470.901	88.75
471.12	84.75
471.339	89.75
471.558	87.75
471.777	80.75
471.997	93.75
472.216	145.75
472.435	211.75
472.654	111.75
472.873	82.75
473.092	93.75
473.311	82.75
473.53	88.75
473.749	88.75
473.968	100.75
474.187	96.75
474.406	92.75
474.625	74.75
474.844	88.75
475.063	97.75
475.282	91.75
475.501	85.75
475.72	87.75
475.939	92.75
476.158	84.75
476.377	68.75
476.596	75.75
476.814	93.75
477.033	101.75
477.252	104.75
477.471	81.75
477.69	90.75
477.908	86.75
478.127	97.75
478.346	104.75
478.564	95.75
478.783	91.75
479.002	84.75
479.22	102.75
479.439	100.75
479.658	124.75
479.876	92.75
480.095	94.75
480.313	86.75
480.532	96.75
480.751	117.75
480.969	161.75
481.188	333.75
481.406	234.75
481.624	98.75
481.843	84.75
482.061	104.75
482.28	97.75
482.498	95.75
482.717	77.75
482.935	100.75
483.153	92.75
483.372	87.75
483.59	93.75
483.808	86.75
484.027	77.75
484.245	103.75
484.463	96.75
484.681	90.75
484.9	92.75
485.118	96.75
485.336	100.75
485.554	107.75
485.772	82.75
485.99	99.75
486.209	102.75
486.427	114.75
486.645	98.75
486.863	119.75
487.081	113.75
487.299	95.75
487.517	100.75
487.735	102.75
487.953	102.75
488.171	95.75
488.389	96.75
488.607	100.75
488.825	92.75
489.043	105.75
489.261	97.75
489.479	79.75
489.696	92.75
489.914	92.75
490.132	89.75
490.35	85.75
490.568	95.75
490.786	81.75
491.003	89.75
491.221	95.75
491.439	87.75
491.657	103.75
491.874	93.75
492.092	90.75
492.31	93.75
492.527	92.75
492.745	76.75
492.963	75.75
493.18	93.75
493.398	83.75
493.615	92.75
493.833	97.75
494.05	87.75
494.268	92.75
494.485	90.75
494.703	97.75
494.92	100.75
495.138	87.75
495.355	102.75
495.573	100.75
495.79	96.75
496.008	82.75
496.225	100.75
496.442	93.75
496.66	102.75
496.877	98.75
497.094	96.75
497.312	95.75
497.529	88.75
497.746	101.75
497.963	94.75
498.181	93.75
498.398	98.75
498.615	114.75
498.832	105.75
499.049	89.75
499.267	92.75
499.484	93.75
499.701	77.75
499.918	89.75
500.135	78.75
500.352	89.75
500.569	77.75
500.786	84.75
501.003	87.75
501.22	95.75
501.437	92.75
501.654	103.75
501.871	132.75
502.088	95.75
502.305	92.75
502.522	99.75
502.739	85.75
502.956	101.75
503.172	96.75
503.389	84.75
503.606	115.75
503.823	105.75
504.04	93.75
504.256	92.75
504.473	85.75
504.69	103.75
504.907	82.75
505.123	98.75
505.34	90.75
505.557	100.75
505.773	87.75
505.99	87.75
506.207	90.75
506.423	109.75
506.64	103.75
506.856	83.75
507.073	102.75
507.289	102.75
507.506	99.75
507.722	129.75
507.939	120.75
508.155	101.75
508.372	106.75
508.588	82.75
508.805	117.75
509.021	98.75
509.238	97.75
509.454	87.75
509.67	102.75
509.887	114.75
510.103	135.75
510.319	229.75
510.536	895.75
510.752	3034.75
510.968	827.75
511.184	171.75
511.401	127.75
511.617	111.75
511.833	100.75
512.049	91.75
512.265	98.75
512.481	90.75
512.698	88.75
512.914	93.75
513.13	99.75
513.346	104.75
513.562	102.75
513.778	101.75
513.994	116.75
514.21	103.75
514.426	133.75
514.642	154.75
