Data from Circ_2018_H10_HRD10591_00074.txt Node
Date: Wed Jan 03 09:56:16 EST 2024
User: Yrep
Spectrometer: HR+D1059
Trigger mode: 1
Integration Time (sec): 1.000000E-1
Scans to average: 1
Electric dark correction enabled: true
Nonlinearity correction enabled: false
Boxcar width: 0
XAxis mode: Wavelengths
Number of Pixels in Spectrum: 2048
>>>>>Begin Spectral Data<<<<<
223.165	-17.75
223.4	-17.75
223.635	-17.75
223.869	-26.75
224.104	-26.75
224.338	-2.75
224.573	-23.75
224.808	-16.75
225.042	-9.75
225.277	-15.75
225.511	-0.75
225.746	1.25
225.98	23.25
226.215	14.25
226.449	28.25
226.683	38.25
226.918	20.25
227.152	15.25
227.387	21.25
227.621	26.25
227.856	29.25
228.09	49.25
228.324	45.25
228.559	54.25
228.793	62.25
229.027	76.25
229.262	81.25
229.496	71.25
229.73	68.25
229.964	83.25
230.199	78.25
230.433	75.25
230.667	82.25
230.901	78.25
231.136	67.25
231.37	59.25
231.604	72.25
231.838	77.25
232.072	76.25
232.306	72.25
232.541	83.25
232.775	75.25
233.009	78.25
233.243	92.25
233.477	90.25
233.711	85.25
233.945	83.25
234.179	75.25
234.413	80.25
234.647	87.25
234.881	93.25
235.115	72.25
235.349	91.25
235.583	86.25
235.817	80.25
236.051	89.25
236.285	84.25
236.519	81.25
236.753	80.25
236.987	85.25
237.221	84.25
237.455	82.25
237.689	83.25
237.922	72.25
238.156	76.25
238.39	84.25
238.624	63.25
238.858	75.25
239.091	88.25
239.325	69.25
239.559	62.25
239.793	89.25
240.027	80.25
240.26	88.25
240.494	89.25
240.728	72.25
240.961	64.25
241.195	70.25
241.429	63.25
241.662	78.25
241.896	79.25
242.13	86.25
242.363	85.25
242.597	70.25
242.83	80.25
243.064	89.25
243.298	73.25
243.531	74.25
243.765	75.25
243.998	85.25
244.232	76.25
244.465	83.25
244.699	87.25
244.932	86.25
245.166	79.25
245.399	65.25
245.633	90.25
245.866	89.25
246.099	75.25
246.333	77.25
246.566	82.25
246.8	76.25
247.033	86.25
247.266	71.25
247.5	74.25
247.733	70.25
247.966	86.25
248.2	83.25
248.433	79.25
248.666	86.25
248.899	82.25
249.133	85.25
249.366	95.25
249.599	99.25
249.832	85.25
250.066	91.25
250.299	81.25
250.532	78.25
250.765	73.25
250.998	69.25
251.231	79.25
251.465	84.25
251.698	83.25
251.931	94.25
252.164	90.25
252.397	69.25
252.63	82.25
252.863	71.25
253.096	84.25
253.329	74.25
253.562	93.25
253.795	81.25
254.028	88.25
254.261	99.25
254.494	79.25
254.727	76.25
254.96	83.25
255.193	71.25
255.426	74.25
255.659	83.25
255.892	72.25
256.124	86.25
256.357	69.25
256.59	85.25
256.823	84.25
257.056	78.25
257.289	86.25
257.521	84.25
257.754	86.25
257.987	81.25
258.22	79.25
258.452	80.25
258.685	78.25
258.918	87.25
259.151	62.25
259.383	96.25
259.616	80.25
259.849	87.25
260.081	70.25
260.314	82.25
260.547	88.25
260.779	83.25
261.012	81.25
261.244	94.25
261.477	73.25
261.71	88.25
261.942	110.25
262.175	114.25
262.407	85.25
262.64	70.25
262.872	87.25
263.105	96.25
263.337	86.25
263.57	86.25
263.802	74.25
264.035	72.25
264.267	79.25
264.499	88.25
264.732	94.25
264.964	90.25
265.197	91.25
265.429	104.25
265.661	89.25
265.894	80.25
266.126	94.25
266.358	79.25
266.591	85.25
266.823	96.25
267.055	93.25
267.287	76.25
267.52	91.25
267.752	82.25
267.984	77.25
268.216	88.25
268.448	86.25
268.681	83.25
268.913	88.25
269.145	87.25
269.377	84.25
269.609	79.25
269.841	85.25
270.073	88.25
270.306	86.25
270.538	82.25
270.77	85.25
271.002	67.25
271.234	74.25
271.466	77.25
271.698	81.25
271.93	79.25
272.162	76.25
272.394	85.25
272.626	83.25
272.858	92.25
273.09	85.25
273.322	83.25
273.553	93.25
273.785	94.25
274.017	82.25
274.249	81.25
274.481	80.25
274.713	77.25
274.945	104.25
275.176	80.25
275.408	86.25
275.64	92.25
275.872	92.25
276.104	90.25
276.335	88.25
276.567	101.25
276.799	101.25
277.031	101.25
277.262	92.25
277.494	85.25
277.726	93.25
277.957	87.25
278.189	76.25
278.421	81.25
278.652	69.25
278.884	99.25
279.115	80.25
279.347	72.25
279.579	78.25
279.81	81.25
280.042	91.25
280.273	90.25
280.505	81.25
280.736	91.25
280.968	83.25
281.199	96.25
281.431	79.25
281.662	102.25
281.894	80.25
282.125	87.25
282.356	132.25
282.588	156.25
282.819	110.25
283.051	86.25
283.282	89.25
283.513	77.25
283.745	81.25
283.976	86.25
284.207	87.25
284.439	92.25
284.67	90.25
284.901	90.25
285.132	86.25
285.364	82.25
285.595	99.25
285.826	77.25
286.057	102.25
286.288	96.25
286.52	82.25
286.751	83.25
286.982	93.25
287.213	75.25
287.444	76.25
287.675	87.25
287.906	91.25
288.138	87.25
288.369	86.25
288.6	78.25
288.831	80.25
289.062	69.25
289.293	91.25
289.524	91.25
289.755	82.25
289.986	88.25
290.217	82.25
290.448	86.25
290.679	92.25
290.91	86.25
291.141	85.25
291.371	95.25
291.602	75.25
291.833	97.25
292.064	90.25
292.295	91.25
292.526	88.25
292.757	88.25
292.987	94.25
293.218	88.25
293.449	97.25
293.68	83.25
293.91	88.25
294.141	85.25
294.372	88.25
294.603	90.25
294.833	101.25
295.064	85.25
295.295	83.25
295.525	85.25
295.756	95.25
295.987	126.25
296.217	162.25
296.448	137.25
296.679	88.25
296.909	81.25
297.14	88.25
297.37	84.25
297.601	84.25
297.831	80.25
298.062	73.25
298.292	90.25
298.523	72.25
298.753	90.25
298.984	77.25
299.214	73.25
299.445	90.25
299.675	89.25
299.905	84.25
300.136	100.25
300.366	88.25
300.597	88.25
300.827	95.25
301.057	99.25
301.288	126.25
301.518	90.25
301.748	79.25
301.979	99.25
302.209	99.25
302.439	86.25
302.669	87.25
302.9	98.25
303.13	93.25
303.36	93.25
303.59	110.25
303.82	106.25
304.051	107.25
304.281	98.25
304.511	83.25
304.741	92.25
304.971	93.25
305.201	87.25
305.431	98.25
305.661	98.25
305.891	88.25
306.121	96.25
306.352	95.25
306.582	113.25
306.812	94.25
307.042	98.25
307.272	99.25
307.502	94.25
307.731	98.25
307.961	75.25
308.191	89.25
308.421	74.25
308.651	94.25
308.881	103.25
309.111	78.25
309.341	99.25
309.571	100.25
309.8	103.25
310.03	93.25
310.26	102.25
310.49	110.25
310.72	100.25
310.949	83.25
311.179	93.25
311.409	98.25
311.639	95.25
311.868	97.25
312.098	100.25
312.328	102.25
312.557	107.25
312.787	107.25
313.017	92.25
313.246	90.25
313.476	91.25
313.706	82.25
313.935	82.25
314.165	94.25
314.394	96.25
314.624	99.25
314.853	97.25
315.083	84.25
315.312	95.25
315.542	100.25
315.771	101.25
316.001	86.25
316.23	97.25
316.46	77.25
316.689	92.25
316.919	88.25
317.148	105.25
317.377	94.25
317.607	95.25
317.836	99.25
318.065	92.25
318.295	92.25
318.524	81.25
318.753	95.25
318.983	83.25
319.212	97.25
319.441	107.25
319.67	133.25
319.9	93.25
320.129	101.25
320.358	99.25
320.587	95.25
320.816	96.25
321.046	100.25
321.275	107.25
321.504	87.25
321.733	95.25
321.962	98.25
322.191	76.25
322.42	106.25
322.649	109.25
322.878	108.25
323.108	125.25
323.337	135.25
323.566	135.25
323.795	154.25
324.024	223.25
324.253	420.25
324.482	867.25
324.71	1761.25
324.939	2373.25
325.168	881.25
325.397	257.25
325.626	145.25
325.855	144.25
326.084	127.25
326.313	131.25
326.542	165.25
326.77	259.25
326.999	456.25
327.228	965.25
327.457	1724.25
327.686	1371.25
327.914	409.25
328.143	208.25
328.372	175.25
328.6	133.25
328.829	115.25
329.058	149.25
329.287	144.25
329.515	118.25
329.744	125.25
329.972	103.25
330.201	138.25
330.43	170.25
330.658	137.25
330.887	149.25
331.115	115.25
331.344	91.25
331.572	97.25
331.801	98.25
332.03	85.25
332.258	99.25
332.486	88.25
332.715	89.25
332.943	95.25
333.172	95.25
333.4	94.25
333.629	109.25
333.857	105.25
334.085	115.25
334.314	138.25
334.542	182.25
334.771	175.25
334.999	111.25
335.227	106.25
335.455	94.25
335.684	91.25
335.912	93.25
336.14	102.25
336.369	89.25
336.597	109.25
336.825	91.25
337.053	100.25
337.281	104.25
337.51	96.25
337.738	101.25
337.966	95.25
338.194	94.25
338.422	102.25
338.65	116.25
338.878	101.25
339.106	96.25
339.334	97.25
339.562	105.25
339.79	88.25
340.018	90.25
340.246	89.25
340.474	95.25
340.702	97.25
340.93	87.25
341.158	92.25
341.386	97.25
341.614	98.25
341.842	101.25
342.07	78.25
342.298	85.25
342.526	90.25
342.754	81.25
342.981	75.25
343.209	88.25
343.437	89.25
343.665	84.25
343.893	86.25
344.12	89.25
344.348	85.25
344.576	93.25
344.804	92.25
345.031	98.25
345.259	95.25
345.487	102.25
345.714	102.25
345.942	92.25
346.17	96.25
346.397	96.25
346.625	94.25
346.853	90.25
347.08	96.25
347.308	96.25
347.535	91.25
347.763	105.25
347.99	98.25
348.218	106.25
348.445	112.25
348.673	103.25
348.9	101.25
349.128	99.25
349.355	86.25
349.583	93.25
349.81	102.25
350.037	103.25
350.265	93.25
350.492	94.25
350.72	94.25
350.947	105.25
351.174	112.25
351.402	123.25
351.629	100.25
351.856	94.25
352.083	99.25
352.311	114.25
352.538	103.25
352.765	117.25
352.992	117.25
353.22	104.25
353.447	108.25
353.674	102.25
353.901	91.25
354.128	101.25
354.355	77.25
354.583	102.25
354.81	91.25
355.037	115.25
355.264	105.25
355.491	104.25
355.718	92.25
355.945	102.25
356.172	99.25
356.399	78.25
356.626	91.25
356.853	83.25
357.08	83.25
357.307	89.25
357.534	74.25
357.761	73.25
357.988	89.25
358.215	74.25
358.441	94.25
358.668	86.25
358.895	98.25
359.122	103.25
359.349	85.25
359.576	100.25
359.802	108.25
360.029	111.25
360.256	111.25
360.483	89.25
360.709	82.25
360.936	97.25
361.163	90.25
361.39	102.25
361.616	95.25
361.843	96.25
362.07	104.25
362.296	103.25
362.523	96.25
362.749	91.25
362.976	82.25
363.203	94.25
363.429	93.25
363.656	93.25
363.882	85.25
364.109	83.25
364.335	80.25
364.562	86.25
364.788	91.25
365.015	87.25
365.241	99.25
365.468	105.25
365.694	95.25
365.92	94.25
366.147	90.25
366.373	88.25
366.599	86.25
366.826	95.25
367.052	77.25
367.278	94.25
367.505	98.25
367.731	88.25
367.957	97.25
368.184	97.25
368.41	112.25
368.636	129.25
368.862	137.25
369.089	116.25
369.315	97.25
369.541	90.25
369.767	88.25
369.993	89.25
370.219	95.25
370.445	95.25
370.672	73.25
370.898	91.25
371.124	73.25
371.35	89.25
371.576	95.25
371.802	89.25
372.028	88.25
372.254	88.25
372.48	90.25
372.706	74.25
372.932	79.25
373.158	81.25
373.384	96.25
373.61	92.25
373.835	83.25
374.061	82.25
374.287	86.25
374.513	86.25
374.739	86.25
374.965	91.25
375.191	82.25
375.416	84.25
375.642	84.25
375.868	100.25
376.094	89.25
376.319	102.25
376.545	86.25
376.771	89.25
376.997	85.25
377.222	85.25
377.448	83.25
377.674	94.25
377.899	81.25
378.125	77.25
378.35	94.25
378.576	84.25
378.802	103.25
379.027	108.25
379.253	98.25
379.478	95.25
379.704	98.25
379.929	81.25
380.155	89.25
380.38	93.25
380.606	88.25
380.831	101.25
381.057	91.25
381.282	94.25
381.507	85.25
381.733	87.25
381.958	104.25
382.184	105.25
382.409	91.25
382.634	97.25
382.86	98.25
383.085	95.25
383.31	91.25
383.535	98.25
383.761	96.25
383.986	99.25
384.211	97.25
384.436	100.25
384.662	93.25
384.887	99.25
385.112	94.25
385.337	99.25
385.562	110.25
385.787	111.25
386.013	101.25
386.238	98.25
386.463	106.25
386.688	110.25
386.913	106.25
387.138	113.25
387.363	87.25
387.588	107.25
387.813	107.25
388.038	107.25
388.263	113.25
388.488	97.25
388.713	80.25
388.938	94.25
389.163	108.25
389.387	106.25
389.612	109.25
389.837	83.25
390.062	91.25
390.287	86.25
390.512	102.25
390.736	94.25
390.961	90.25
391.186	99.25
391.411	94.25
391.636	88.25
391.86	83.25
392.085	89.25
392.31	90.25
392.534	73.25
392.759	96.25
392.984	93.25
393.208	82.25
393.433	83.25
393.658	100.25
393.882	80.25
394.107	98.25
394.331	80.25
394.556	97.25
394.78	91.25
395.005	82.25
395.229	87.25
395.454	97.25
395.678	102.25
395.903	89.25
396.127	90.25
396.352	92.25
396.576	83.25
396.801	88.25
397.025	85.25
397.249	84.25
397.474	86.25
397.698	83.25
397.922	103.25
398.147	82.25
398.371	78.25
398.595	90.25
398.82	75.25
399.044	70.25
399.268	94.25
399.492	83.25
399.717	77.25
399.941	88.25
400.165	103.25
400.389	83.25
400.613	88.25
400.837	78.25
401.062	82.25
401.286	91.25
401.51	96.25
401.734	88.25
401.958	98.25
402.182	155.25
402.406	192.25
402.63	135.25
402.854	101.25
403.078	84.25
403.302	78.25
403.526	87.25
403.75	90.25
403.974	94.25
404.198	99.25
404.422	93.25
404.645	101.25
404.869	84.25
405.093	90.25
405.317	99.25
405.541	97.25
405.765	86.25
405.988	124.25
406.212	210.25
406.436	261.25
406.66	166.25
406.883	90.25
407.107	95.25
407.331	84.25
407.555	102.25
407.778	99.25
408.002	104.25
408.226	90.25
408.449	100.25
408.673	88.25
408.896	83.25
409.12	83.25
409.344	105.25
409.567	80.25
409.791	91.25
410.014	95.25
410.238	74.25
410.461	96.25
410.685	91.25
410.908	101.25
411.132	95.25
411.355	94.25
411.578	113.25
411.802	93.25
412.025	88.25
412.249	95.25
412.472	102.25
412.695	102.25
412.919	91.25
413.142	91.25
413.365	83.25
413.589	90.25
413.812	98.25
414.035	97.25
414.258	83.25
414.482	90.25
414.705	100.25
414.928	103.25
415.151	94.25
415.374	93.25
415.597	94.25
415.821	90.25
416.044	76.25
416.267	91.25
416.49	85.25
416.713	81.25
416.936	86.25
417.159	90.25
417.382	83.25
417.605	95.25
417.828	86.25
418.051	102.25
418.274	86.25
418.497	86.25
418.72	77.25
418.943	92.25
419.166	88.25
419.389	102.25
419.611	84.25
419.834	85.25
420.057	83.25
420.28	91.25
420.503	87.25
420.726	98.25
420.948	78.25
421.171	89.25
421.394	73.25
421.617	93.25
421.839	97.25
422.062	89.25
422.285	89.25
422.507	102.25
422.73	94.25
422.953	95.25
423.175	91.25
423.398	82.25
423.621	96.25
423.843	86.25
424.066	86.25
424.288	83.25
424.511	81.25
424.733	98.25
424.956	107.25
425.178	103.25
425.401	93.25
425.623	96.25
425.846	105.25
426.068	111.25
426.291	92.25
426.513	104.25
426.735	101.25
426.958	114.25
427.18	104.25
427.402	127.25
427.625	184.25
427.847	146.25
428.069	116.25
428.292	112.25
428.514	63.25
428.736	88.25
428.958	88.25
429.181	89.25
429.403	94.25
429.625	97.25
429.847	90.25
430.069	106.25
430.292	95.25
430.514	83.25
430.736	79.25
430.958	94.25
431.18	78.25
431.402	85.25
431.624	91.25
431.846	89.25
432.068	70.25
432.29	83.25
432.512	87.25
432.734	86.25
432.956	78.25
433.178	95.25
433.4	89.25
433.622	94.25
433.844	97.25
434.066	71.25
434.287	78.25
434.509	95.25
434.731	79.25
434.953	99.25
435.175	78.25
435.397	82.25
435.618	94.25
435.84	111.25
436.062	115.25
436.284	99.25
436.505	96.25
436.727	112.25
436.949	87.25
437.17	98.25
437.392	84.25
437.614	85.25
437.835	103.25
438.057	122.25
438.278	96.25
438.5	103.25
438.721	123.25
438.943	90.25
439.165	95.25
439.386	86.25
439.608	102.25
439.829	105.25
440.05	110.25
440.272	149.25
440.493	106.25
440.715	70.25
440.936	90.25
441.158	85.25
441.379	82.25
441.6	79.25
441.822	114.25
442.043	87.25
442.264	103.25
442.486	101.25
442.707	86.25
442.928	102.25
443.149	137.25
443.371	135.25
443.592	117.25
443.813	110.25
444.034	106.25
444.255	89.25
444.476	89.25
444.698	65.25
444.919	77.25
445.14	129.25
445.361	133.25
445.582	102.25
445.803	147.25
446.024	127.25
446.245	144.25
446.466	116.25
446.687	97.25
446.908	78.25
447.129	77.25
447.35	91.25
447.571	87.25
447.792	86.25
448.013	101.25
448.234	122.25
448.455	88.25
448.675	127.25
448.896	121.25
449.117	93.25
449.338	104.25
449.559	130.25
449.779	137.25
450	82.25
450.221	101.25
450.442	87.25
450.662	99.25
450.883	100.25
451.104	119.25
451.324	97.25
451.545	85.25
451.766	82.25
451.986	89.25
452.207	101.25
452.428	86.25
452.648	101.25
452.869	112.25
453.089	110.25
453.31	130.25
453.53	86.25
453.751	103.25
453.971	93.25
454.192	112.25
454.412	83.25
454.633	85.25
454.853	79.25
455.073	90.25
455.294	104.25
455.514	117.25
455.734	92.25
455.955	88.25
456.175	88.25
456.395	75.25
456.616	80.25
456.836	90.25
457.056	91.25
457.276	79.25
457.497	86.25
457.717	78.25
457.937	83.25
458.157	88.25
458.377	85.25
458.598	107.25
458.818	166.25
459.038	165.25
459.258	120.25
459.478	97.25
459.698	74.25
459.918	85.25
460.138	86.25
460.358	81.25
460.578	90.25
460.798	87.25
461.018	85.25
461.238	82.25
461.458	79.25
461.678	78.25
461.898	97.25
462.118	73.25
462.338	93.25
462.558	84.25
462.777	96.25
462.997	87.25
463.217	75.25
463.437	84.25
463.657	88.25
463.876	93.25
464.096	92.25
464.316	94.25
464.536	100.25
464.755	91.25
464.975	109.25
465.195	201.25
465.414	198.25
465.634	97.25
465.854	81.25
466.073	95.25
466.293	85.25
466.512	86.25
466.732	80.25
466.951	102.25
467.171	88.25
467.391	97.25
467.61	93.25
467.829	101.25
468.049	121.25
468.268	118.25
468.488	84.25
468.707	89.25
468.927	96.25
469.146	89.25
469.365	91.25
469.585	70.25
469.804	95.25
470.023	88.25
470.243	85.25
470.462	97.25
470.681	124.25
470.901	87.25
471.12	89.25
471.339	88.25
471.558	95.25
471.777	73.25
471.997	103.25
472.216	146.25
472.435	201.25
472.654	101.25
472.873	83.25
473.092	95.25
473.311	88.25
473.53	90.25
473.749	78.25
473.968	90.25
474.187	112.25
474.406	85.25
474.625	92.25
474.844	85.25
475.063	85.25
475.282	78.25
475.501	67.25
475.72	81.25
475.939	88.25
476.158	78.25
476.377	97.25
476.596	98.25
476.814	100.25
477.033	93.25
477.252	91.25
477.471	87.25
477.69	84.25
477.908	85.25
478.127	80.25
478.346	85.25
478.564	87.25
478.783	100.25
479.002	93.25
479.22	102.25
479.439	106.25
479.658	101.25
479.876	98.25
480.095	90.25
480.313	93.25
480.532	103.25
480.751	102.25
480.969	150.25
481.188	303.25
481.406	218.25
481.624	104.25
481.843	99.25
482.061	94.25
482.28	101.25
482.498	91.25
482.717	81.25
482.935	93.25
483.153	88.25
483.372	80.25
483.59	100.25
483.808	83.25
484.027	80.25
484.245	84.25
484.463	99.25
484.681	101.25
484.9	81.25
485.118	82.25
485.336	94.25
485.554	97.25
485.772	90.25
485.99	88.25
486.209	107.25
486.427	111.25
486.645	103.25
486.863	123.25
487.081	92.25
487.299	107.25
487.517	89.25
487.735	92.25
487.953	91.25
488.171	90.25
488.389	94.25
488.607	95.25
488.825	87.25
489.043	104.25
489.261	98.25
489.479	92.25
489.696	100.25
489.914	92.25
490.132	83.25
490.35	93.25
490.568	88.25
490.786	92.25
491.003	84.25
491.221	87.25
491.439	84.25
491.657	97.25
491.874	96.25
492.092	97.25
492.31	93.25
492.527	95.25
492.745	90.25
492.963	75.25
493.18	98.25
493.398	90.25
493.615	101.25
493.833	90.25
494.05	74.25
494.268	89.25
494.485	102.25
494.703	94.25
494.92	87.25
495.138	90.25
495.355	90.25
495.573	99.25
495.79	97.25
496.008	93.25
496.225	81.25
496.442	88.25
496.66	84.25
496.877	90.25
497.094	94.25
497.312	81.25
497.529	96.25
497.746	89.25
497.963	92.25
498.181	97.25
498.398	101.25
498.615	128.25
498.832	107.25
499.049	89.25
499.267	100.25
499.484	103.25
499.701	100.25
499.918	103.25
500.135	78.25
500.352	86.25
500.569	95.25
500.786	93.25
501.003	90.25
501.22	85.25
501.437	87.25
501.654	102.25
501.871	107.25
502.088	86.25
502.305	93.25
502.522	78.25
502.739	86.25
502.956	95.25
503.172	93.25
503.389	94.25
503.606	120.25
503.823	89.25
504.04	87.25
504.256	93.25
504.473	91.25
504.69	86.25
504.907	90.25
505.123	87.25
505.34	86.25
505.557	88.25
505.773	82.25
505.99	87.25
506.207	87.25
506.423	83.25
506.64	86.25
506.856	95.25
507.073	87.25
507.289	87.25
507.506	98.25
507.722	103.25
507.939	115.25
508.155	102.25
508.372	91.25
508.588	85.25
508.805	106.25
509.021	96.25
509.238	100.25
509.454	104.25
509.67	109.25
509.887	104.25
510.103	136.25
510.319	248.25
510.536	922.25
510.752	3091.25
510.968	856.25
511.184	180.25
511.401	105.25
511.617	93.25
511.833	101.25
512.049	88.25
512.265	94.25
512.481	82.25
512.698	101.25
512.914	87.25
513.13	95.25
513.346	86.25
513.562	99.25
513.778	87.25
513.994	106.25
514.21	125.25
514.426	115.25
514.642	154.25
514.858	130.25
515.074	185.25
515.29	557.25
515.506	2007.25
