Data from Circ_2018_H10_HRD10591_00006.txt Node
Date: Wed Jan 03 09:56:03 EST 2024
User: Yrep
Spectrometer: HR+D1059
Trigger mode: 1
Integration Time (sec): 1.000000E-1
Scans to average: 1
Electric dark correction enabled: true
Nonlinearity correction enabled: false
Boxcar width: 0
XAxis mode: Wavelengths
Number of Pixels in Spectrum: 2048
>>>>>Begin Spectral Data<<<<<
223.165	-21.94
223.4	-21.94
223.635	-21.94
223.869	-23.94
224.104	-19.94
224.338	-9.94
224.573	-1.94
224.808	-12.94
225.042	-9.94
225.277	-6.94
225.511	6.06
225.746	-7.94
225.98	1.06
226.215	10.06
226.449	19.06
226.683	33.06
226.918	18.06
227.152	28.06
227.387	53.06
227.621	40.06
227.856	39.06
228.09	41.06
228.324	55.06
228.559	58.06
228.793	61.06
229.027	69.06
229.262	74.06
229.496	66.06
229.73	97.06
229.964	97.06
230.199	85.06
230.433	70.06
230.667	75.06
230.901	79.06
231.136	76.06
231.37	81.06
231.604	89.06
231.838	77.06
232.072	79.06
232.306	76.06
232.541	68.06
232.775	77.06
233.009	85.06
233.243	77.06
233.477	86.06
233.711	84.06
233.945	83.06
234.179	85.06
234.413	94.06
234.647	86.06
234.881	80.06
235.115	83.06
235.349	83.06
235.583	75.06
235.817	78.06
236.051	70.06
236.285	81.06
236.519	80.06
236.753	87.06
236.987	92.06
237.221	87.06
237.455	94.06
237.689	79.06
237.922	77.06
238.156	82.06
238.39	69.06
238.624	67.06
238.858	81.06
239.091	85.06
239.325	67.06
239.559	79.06
239.793	94.06
240.027	74.06
240.26	83.06
240.494	83.06
240.728	78.06
240.961	90.06
241.195	87.06
241.429	82.06
241.662	73.06
241.896	65.06
242.13	76.06
242.363	69.06
242.597	78.06
242.83	71.06
243.064	82.06
243.298	83.06
243.531	73.06
243.765	85.06
243.998	87.06
244.232	87.06
244.465	93.06
244.699	86.06
244.932	76.06
245.166	84.06
245.399	85.06
245.633	82.06
245.866	73.06
246.099	74.06
246.333	92.06
246.566	99.06
246.8	91.06
247.033	88.06
247.266	87.06
247.5	84.06
247.733	78.06
247.966	77.06
248.2	77.06
248.433	69.06
248.666	77.06
248.899	83.06
249.133	81.06
249.366	86.06
249.599	98.06
249.832	79.06
250.066	70.06
250.299	74.06
250.532	81.06
250.765	69.06
250.998	78.06
251.231	77.06
251.465	65.06
251.698	72.06
251.931	94.06
252.164	75.06
252.397	66.06
252.63	90.06
252.863	74.06
253.096	93.06
253.329	79.06
253.562	81.06
253.795	93.06
254.028	83.06
254.261	83.06
254.494	70.06
254.727	73.06
254.96	91.06
255.193	88.06
255.426	69.06
255.659	65.06
255.892	91.06
256.124	86.06
256.357	82.06
256.59	77.06
256.823	93.06
257.056	78.06
257.289	88.06
257.521	76.06
257.754	84.06
257.987	73.06
258.22	84.06
258.452	87.06
258.685	71.06
258.918	94.06
259.151	91.06
259.383	74.06
259.616	74.06
259.849	89.06
260.081	77.06
260.314	89.06
260.547	97.06
260.779	90.06
261.012	86.06
261.244	100.06
261.477	91.06
261.71	99.06
261.942	121.06
262.175	126.06
262.407	100.06
262.64	105.06
262.872	86.06
263.105	76.06
263.337	89.06
263.57	93.06
263.802	85.06
264.035	78.06
264.267	83.06
264.499	74.06
264.732	85.06
264.964	81.06
265.197	97.06
265.429	76.06
265.661	76.06
265.894	73.06
266.126	91.06
266.358	83.06
266.591	89.06
266.823	81.06
267.055	74.06
267.287	81.06
267.52	80.06
267.752	79.06
267.984	85.06
268.216	75.06
268.448	88.06
268.681	88.06
268.913	84.06
269.145	82.06
269.377	95.06
269.609	84.06
269.841	83.06
270.073	73.06
270.306	82.06
270.538	96.06
270.77	84.06
271.002	77.06
271.234	78.06
271.466	88.06
271.698	87.06
271.93	78.06
272.162	92.06
272.394	83.06
272.626	85.06
272.858	75.06
273.09	82.06
273.322	94.06
273.553	83.06
273.785	83.06
274.017	84.06
274.249	82.06
274.481	89.06
274.713	75.06
274.945	93.06
275.176	82.06
275.408	90.06
275.64	89.06
275.872	88.06
276.104	95.06
276.335	96.06
276.567	115.06
276.799	115.06
277.031	105.06
277.262	107.06
277.494	78.06
277.726	89.06
277.957	100.06
278.189	88.06
278.421	85.06
278.652	98.06
278.884	86.06
279.115	84.06
279.347	66.06
279.579	80.06
279.81	82.06
280.042	85.06
280.273	93.06
280.505	74.06
280.736	90.06
280.968	92.06
281.199	84.06
281.431	74.06
281.662	85.06
281.894	87.06
282.125	103.06
282.356	134.06
282.588	162.06
282.819	130.06
283.051	87.06
283.282	86.06
283.513	89.06
283.745	79.06
283.976	89.06
284.207	79.06
284.439	92.06
284.67	90.06
284.901	87.06
285.132	91.06
285.364	90.06
285.595	80.06
285.826	83.06
286.057	83.06
286.288	75.06
286.52	102.06
286.751	79.06
286.982	101.06
287.213	89.06
287.444	75.06
287.675	87.06
287.906	107.06
288.138	79.06
288.369	100.06
288.6	90.06
288.831	95.06
289.062	86.06
289.293	94.06
289.524	84.06
289.755	95.06
289.986	87.06
290.217	86.06
290.448	85.06
290.679	84.06
290.91	88.06
291.141	85.06
291.371	85.06
291.602	76.06
291.833	90.06
292.064	94.06
292.295	90.06
292.526	94.06
292.757	86.06
292.987	72.06
293.218	86.06
293.449	90.06
293.68	89.06
293.91	75.06
294.141	98.06
294.372	83.06
294.603	93.06
294.833	87.06
295.064	87.06
295.295	98.06
295.525	110.06
295.756	103.06
295.987	134.06
296.217	165.06
296.448	132.06
296.679	96.06
296.909	89.06
297.14	88.06
297.37	91.06
297.601	89.06
297.831	90.06
298.062	90.06
298.292	83.06
298.523	91.06
298.753	91.06
298.984	74.06
299.214	99.06
299.445	98.06
299.675	101.06
299.905	106.06
300.136	97.06
300.366	90.06
300.597	91.06
300.827	90.06
301.057	111.06
301.288	103.06
301.518	90.06
301.748	89.06
301.979	119.06
302.209	101.06
302.439	100.06
302.669	92.06
302.9	83.06
303.13	99.06
303.36	113.06
303.59	112.06
303.82	111.06
304.051	102.06
304.281	89.06
304.511	82.06
304.741	84.06
304.971	89.06
305.201	89.06
305.431	85.06
305.661	95.06
305.891	105.06
306.121	93.06
306.352	118.06
306.582	105.06
306.812	97.06
307.042	85.06
307.272	101.06
307.502	111.06
307.731	92.06
307.961	98.06
308.191	82.06
308.421	93.06
308.651	95.06
308.881	81.06
309.111	100.06
309.341	102.06
309.571	103.06
309.8	114.06
310.03	98.06
310.26	107.06
310.49	102.06
310.72	98.06
310.949	125.06
311.179	97.06
311.409	105.06
311.639	98.06
311.868	102.06
312.098	95.06
312.328	104.06
312.557	104.06
312.787	114.06
313.017	105.06
313.246	83.06
313.476	105.06
313.706	98.06
313.935	92.06
314.165	95.06
314.394	112.06
314.624	105.06
314.853	101.06
315.083	114.06
315.312	107.06
315.542	88.06
315.771	97.06
316.001	97.06
316.23	84.06
316.46	94.06
316.689	94.06
316.919	90.06
317.148	93.06
317.377	111.06
317.607	105.06
317.836	107.06
318.065	96.06
318.295	92.06
318.524	100.06
318.753	90.06
318.983	101.06
319.212	110.06
319.441	96.06
319.67	114.06
319.9	99.06
320.129	97.06
320.358	102.06
320.587	104.06
320.816	103.06
321.046	109.06
321.275	98.06
321.504	93.06
321.733	90.06
321.962	103.06
322.191	99.06
322.42	105.06
322.649	130.06
322.878	122.06
323.108	137.06
323.337	143.06
323.566	147.06
323.795	170.06
324.024	244.06
324.253	474.06
324.482	1032.06
324.71	2087.06
324.939	2621.06
325.168	989.06
325.397	288.06
325.626	172.06
325.855	151.06
326.084	145.06
326.313	141.06
326.542	180.06
326.77	247.06
326.999	517.06
327.228	1083.06
327.457	1985.06
327.686	1567.06
327.914	436.06
328.143	230.06
328.372	159.06
328.6	141.06
328.829	117.06
329.058	150.06
329.287	150.06
329.515	117.06
329.744	120.06
329.972	86.06
330.201	111.06
330.43	124.06
330.658	138.06
330.887	171.06
331.115	142.06
331.344	104.06
331.572	98.06
331.801	116.06
332.03	121.06
332.258	99.06
332.486	106.06
332.715	104.06
332.943	92.06
333.172	97.06
333.4	101.06
333.629	122.06
333.857	134.06
334.085	117.06
334.314	103.06
334.542	116.06
334.771	119.06
334.999	111.06
335.227	110.06
335.455	110.06
335.684	81.06
335.912	102.06
336.14	103.06
336.369	100.06
336.597	101.06
336.825	117.06
337.053	89.06
337.281	89.06
337.51	100.06
337.738	91.06
337.966	99.06
338.194	106.06
338.422	93.06
338.65	91.06
338.878	97.06
339.106	99.06
339.334	108.06
339.562	83.06
339.79	93.06
340.018	93.06
340.246	106.06
340.474	105.06
340.702	91.06
340.93	84.06
341.158	90.06
341.386	102.06
341.614	109.06
341.842	102.06
342.07	101.06
342.298	92.06
342.526	83.06
342.754	88.06
342.981	83.06
343.209	100.06
343.437	115.06
343.665	91.06
343.893	92.06
344.12	102.06
344.348	94.06
344.576	103.06
344.804	82.06
345.031	90.06
345.259	90.06
345.487	114.06
345.714	93.06
345.942	104.06
346.17	97.06
346.397	87.06
346.625	98.06
346.853	104.06
347.08	92.06
347.308	109.06
347.535	108.06
347.763	109.06
347.99	87.06
348.218	125.06
348.445	102.06
348.673	103.06
348.9	106.06
349.128	108.06
349.355	91.06
349.583	107.06
349.81	101.06
350.037	97.06
350.265	85.06
350.492	98.06
350.72	107.06
350.947	118.06
351.174	95.06
351.402	121.06
351.629	115.06
351.856	105.06
352.083	96.06
352.311	115.06
352.538	125.06
352.765	127.06
352.992	104.06
353.22	127.06
353.447	106.06
353.674	103.06
353.901	95.06
354.128	115.06
354.355	108.06
354.583	117.06
354.81	100.06
355.037	90.06
355.264	102.06
355.491	108.06
355.718	90.06
355.945	92.06
356.172	89.06
356.399	109.06
356.626	100.06
356.853	81.06
357.08	94.06
357.307	101.06
357.534	93.06
357.761	81.06
357.988	94.06
358.215	98.06
358.441	100.06
358.668	103.06
358.895	98.06
359.122	90.06
359.349	84.06
359.576	109.06
359.802	116.06
360.029	135.06
360.256	133.06
360.483	110.06
360.709	97.06
360.936	99.06
361.163	95.06
361.39	108.06
361.616	93.06
361.843	81.06
362.07	94.06
362.296	83.06
362.523	101.06
362.749	80.06
362.976	93.06
363.203	94.06
363.429	85.06
363.656	104.06
363.882	91.06
364.109	92.06
364.335	65.06
364.562	97.06
364.788	82.06
365.015	95.06
365.241	90.06
365.468	107.06
365.694	113.06
365.92	97.06
366.147	91.06
366.373	92.06
366.599	100.06
366.826	87.06
367.052	102.06
367.278	92.06
367.505	86.06
367.731	97.06
367.957	107.06
368.184	109.06
368.41	103.06
368.636	110.06
368.862	132.06
369.089	112.06
369.315	101.06
369.541	111.06
369.767	96.06
369.993	88.06
370.219	101.06
370.445	82.06
370.672	81.06
370.898	107.06
371.124	99.06
371.35	89.06
371.576	95.06
371.802	76.06
372.028	77.06
372.254	86.06
372.48	99.06
372.706	92.06
372.932	81.06
373.158	82.06
373.384	85.06
373.61	79.06
373.835	78.06
374.061	81.06
374.287	100.06
374.513	81.06
374.739	100.06
374.965	100.06
375.191	102.06
375.416	105.06
375.642	99.06
375.868	78.06
376.094	98.06
376.319	93.06
376.545	96.06
376.771	83.06
376.997	86.06
377.222	105.06
377.448	103.06
377.674	91.06
377.899	114.06
378.125	92.06
378.35	96.06
378.576	87.06
378.802	83.06
379.027	86.06
379.253	97.06
379.478	98.06
379.704	111.06
379.929	96.06
380.155	100.06
380.38	90.06
380.606	102.06
380.831	90.06
381.057	98.06
381.282	83.06
381.507	92.06
381.733	109.06
381.958	102.06
382.184	103.06
382.409	99.06
382.634	101.06
382.86	111.06
383.085	95.06
383.31	108.06
383.535	109.06
383.761	104.06
383.986	99.06
384.211	92.06
384.436	113.06
384.662	105.06
384.887	100.06
385.112	129.06
385.337	106.06
385.562	111.06
385.787	116.06
386.013	113.06
386.238	121.06
386.463	115.06
386.688	121.06
386.913	122.06
387.138	117.06
387.363	105.06
387.588	97.06
387.813	95.06
388.038	119.06
388.263	115.06
388.488	117.06
388.713	104.06
388.938	98.06
389.163	98.06
389.387	87.06
389.612	100.06
389.837	91.06
390.062	110.06
390.287	103.06
390.512	91.06
390.736	80.06
390.961	103.06
391.186	107.06
391.411	108.06
391.636	95.06
391.86	101.06
392.085	102.06
392.31	85.06
392.534	89.06
392.759	90.06
392.984	78.06
393.208	101.06
393.433	90.06
393.658	90.06
393.882	85.06
394.107	84.06
394.331	99.06
394.556	93.06
394.78	99.06
395.005	85.06
395.229	78.06
395.454	100.06
395.678	89.06
395.903	91.06
396.127	69.06
396.352	90.06
396.576	97.06
396.801	96.06
397.025	98.06
397.249	100.06
397.474	96.06
397.698	72.06
397.922	105.06
398.147	92.06
398.371	80.06
398.595	79.06
398.82	74.06
399.044	97.06
399.268	99.06
399.492	93.06
399.717	93.06
399.941	99.06
400.165	98.06
400.389	91.06
400.613	93.06
400.837	88.06
401.062	91.06
401.286	92.06
401.51	109.06
401.734	93.06
401.958	110.06
402.182	133.06
402.406	194.06
402.63	135.06
402.854	102.06
403.078	92.06
403.302	88.06
403.526	84.06
403.75	99.06
403.974	93.06
404.198	86.06
404.422	102.06
404.645	91.06
404.869	87.06
405.093	83.06
405.317	103.06
405.541	95.06
405.765	113.06
405.988	139.06
406.212	206.06
406.436	303.06
406.66	192.06
406.883	121.06
407.107	95.06
407.331	105.06
407.555	102.06
407.778	116.06
408.002	95.06
408.226	92.06
408.449	97.06
408.673	107.06
408.896	95.06
409.12	94.06
409.344	98.06
409.567	97.06
409.791	102.06
410.014	104.06
410.238	86.06
410.461	84.06
410.685	98.06
410.908	99.06
411.132	92.06
411.355	120.06
411.578	97.06
411.802	100.06
412.025	85.06
412.249	100.06
412.472	100.06
412.695	89.06
412.919	100.06
413.142	83.06
413.365	80.06
413.589	99.06
413.812	97.06
414.035	92.06
414.258	94.06
414.482	97.06
414.705	94.06
414.928	88.06
415.151	108.06
415.374	91.06
415.597	106.06
415.821	84.06
416.044	83.06
416.267	89.06
416.49	87.06
416.713	94.06
416.936	93.06
417.159	91.06
417.382	83.06
417.605	87.06
417.828	105.06
418.051	100.06
418.274	99.06
418.497	85.06
418.72	80.06
418.943	84.06
419.166	110.06
419.389	91.06
419.611	89.06
419.834	72.06
420.057	86.06
420.28	100.06
420.503	91.06
420.726	95.06
420.948	83.06
421.171	90.06
421.394	102.06
421.617	98.06
421.839	84.06
422.062	93.06
422.285	93.06
422.507	100.06
422.73	102.06
422.953	87.06
423.175	90.06
423.398	104.06
423.621	91.06
423.843	93.06
424.066	97.06
424.288	93.06
424.511	93.06
424.733	103.06
424.956	110.06
425.178	97.06
425.401	111.06
425.623	120.06
425.846	94.06
426.068	89.06
426.291	94.06
426.513	100.06
426.735	112.06
426.958	113.06
427.18	125.06
427.402	130.06
427.625	187.06
427.847	167.06
428.069	122.06
428.292	100.06
428.514	92.06
428.736	87.06
428.958	90.06
429.181	92.06
429.403	87.06
429.625	92.06
429.847	96.06
430.069	107.06
430.292	102.06
430.514	95.06
430.736	99.06
430.958	89.06
431.18	94.06
431.402	83.06
431.624	73.06
431.846	87.06
432.068	95.06
432.29	81.06
432.512	93.06
432.734	86.06
432.956	88.06
433.178	106.06
433.4	102.06
433.622	92.06
433.844	93.06
434.066	91.06
434.287	91.06
434.509	105.06
434.731	108.06
434.953	88.06
435.175	91.06
435.397	97.06
435.618	89.06
435.84	86.06
436.062	128.06
436.284	126.06
436.505	99.06
436.727	105.06
436.949	95.06
437.17	84.06
437.392	83.06
437.614	98.06
437.835	121.06
438.057	137.06
438.278	127.06
438.5	105.06
438.721	131.06
438.943	100.06
439.165	109.06
439.386	97.06
439.608	98.06
439.829	95.06
440.05	141.06
440.272	163.06
440.493	93.06
440.715	93.06
440.936	79.06
441.158	114.06
441.379	110.06
441.6	100.06
441.822	90.06
442.043	94.06
442.264	106.06
442.486	95.06
442.707	92.06
442.928	127.06
443.149	157.06
443.371	142.06
443.592	125.06
443.813	113.06
444.034	113.06
444.255	104.06
444.476	96.06
444.698	89.06
444.919	89.06
445.14	134.06
445.361	139.06
445.582	129.06
445.803	155.06
446.024	149.06
446.245	148.06
446.466	125.06
446.687	98.06
446.908	97.06
447.129	87.06
447.35	92.06
447.571	96.06
447.792	99.06
448.013	101.06
448.234	113.06
448.455	106.06
448.675	117.06
448.896	127.06
449.117	106.06
449.338	102.06
449.559	123.06
449.779	131.06
450	107.06
450.221	87.06
450.442	92.06
450.662	88.06
450.883	99.06
451.104	138.06
451.324	123.06
451.545	93.06
451.766	106.06
451.986	94.06
452.207	110.06
452.428	100.06
452.648	110.06
452.869	130.06
453.089	134.06
453.31	138.06
453.53	96.06
453.751	111.06
453.971	119.06
454.192	127.06
454.412	97.06
454.633	84.06
454.853	91.06
455.073	103.06
455.294	102.06
455.514	94.06
455.734	86.06
455.955	93.06
456.175	91.06
456.395	74.06
456.616	91.06
456.836	94.06
457.056	85.06
457.276	83.06
457.497	84.06
457.717	90.06
457.937	87.06
458.157	95.06
458.377	85.06
458.598	113.06
458.818	188.06
459.038	190.06
459.258	131.06
459.478	86.06
459.698	84.06
459.918	78.06
460.138	92.06
460.358	81.06
460.578	107.06
460.798	96.06
461.018	86.06
461.238	81.06
461.458	74.06
461.678	70.06
461.898	87.06
462.118	85.06
462.338	83.06
462.558	88.06
462.777	94.06
462.997	93.06
463.217	91.06
463.437	84.06
463.657	90.06
463.876	96.06
464.096	89.06
464.316	100.06
464.536	114.06
464.755	106.06
464.975	113.06
465.195	211.06
465.414	207.06
465.634	103.06
465.854	91.06
466.073	83.06
466.293	93.06
466.512	90.06
466.732	90.06
466.951	97.06
467.171	93.06
467.391	104.06
467.61	110.06
467.829	121.06
468.049	96.06
468.268	99.06
468.488	86.06
468.707	93.06
468.927	83.06
469.146	92.06
469.365	89.06
469.585	91.06
469.804	92.06
470.023	107.06
470.243	99.06
470.462	99.06
470.681	131.06
470.901	93.06
471.12	96.06
471.339	81.06
471.558	96.06
471.777	91.06
471.997	78.06
472.216	102.06
472.435	111.06
472.654	86.06
472.873	90.06
473.092	82.06
473.311	109.06
473.53	99.06
473.749	89.06
473.968	96.06
474.187	108.06
474.406	85.06
474.625	85.06
474.844	91.06
475.063	91.06
475.282	98.06
475.501	90.06
475.72	93.06
475.939	94.06
476.158	85.06
476.377	81.06
476.596	95.06
476.814	106.06
477.033	85.06
477.252	84.06
477.471	94.06
477.69	92.06
477.908	96.06
478.127	98.06
478.346	95.06
478.564	102.06
478.783	117.06
479.002	113.06
479.22	105.06
479.439	116.06
479.658	117.06
479.876	102.06
480.095	114.06
480.313	85.06
480.532	86.06
480.751	82.06
480.969	105.06
481.188	146.06
481.406	108.06
481.624	91.06
481.843	107.06
482.061	89.06
482.28	100.06
482.498	88.06
482.717	92.06
482.935	91.06
483.153	96.06
483.372	72.06
483.59	99.06
483.808	79.06
484.027	86.06
484.245	87.06
484.463	87.06
484.681	99.06
484.9	98.06
485.118	108.06
485.336	87.06
485.554	106.06
485.772	100.06
485.99	101.06
486.209	124.06
486.427	115.06
486.645	118.06
486.863	115.06
487.081	97.06
487.299	98.06
487.517	90.06
487.735	97.06
487.953	89.06
488.171	91.06
488.389	113.06
488.607	106.06
488.825	98.06
489.043	102.06
489.261	89.06
489.479	94.06
489.696	86.06
489.914	78.06
490.132	103.06
490.35	80.06
490.568	89.06
490.786	87.06
491.003	89.06
491.221	91.06
491.439	94.06
491.657	93.06
491.874	94.06
492.092	83.06
492.31	94.06
492.527	88.06
492.745	90.06
492.963	92.06
493.18	90.06
493.398	103.06
493.615	107.06
493.833	92.06
494.05	88.06
494.268	85.06
494.485	94.06
494.703	100.06
494.92	107.06
495.138	78.06
495.355	90.06
495.573	89.06
495.79	93.06
496.008	93.06
496.225	90.06
496.442	105.06
496.66	79.06
496.877	94.06
497.094	97.06
497.312	83.06
497.529	103.06
497.746	95.06
497.963	90.06
498.181	102.06
498.398	94.06
498.615	114.06
498.832	109.06
499.049	97.06
499.267	106.06
499.484	95.06
499.701	94.06
499.918	90.06
500.135	83.06
500.352	93.06
500.569	99.06
500.786	90.06
501.003	84.06
501.22	78.06
501.437	84.06
501.654	100.06
501.871	140.06
502.088	108.06
502.305	93.06
502.522	97.06
502.739	81.06
502.956	98.06
503.172	110.06
503.389	107.06
503.606	121.06
503.823	103.06
504.04	105.06
504.256	102.06
504.473	95.06
504.69	86.06
504.907	97.06
505.123	84.06
505.34	78.06
505.557	89.06
505.773	87.06
505.99	102.06
506.207	98.06
506.423	90.06
506.64	106.06
506.856	116.06
507.073	98.06
507.289	95.06
507.506	103.06
507.722	131.06
507.939	126.06
508.155	102.06
508.372	95.06
508.588	89.06
508.805	101.06
509.021	102.06
509.238	99.06
509.454	102.06
509.67	124.06
509.887	127.06
510.103	134.06
510.319	260.06
510.536	1029.06
510.752	3463.06
510.968	964.06
511.184	194.06
511.401	119.06
511.617	98.06
511.833	105.06
512.049	89.06
512.265	87.06
512.481	86.06
512.698	97.06
512.914	97.06
513.13	91.06
513.346	97.06
513.562	114.06
513.778	107.06
