Data from Circ_2018_H10_HRD10591_00017.txt Node
Date: Wed Jan 03 09:56:05 EST 2024
User: Yrep
Spectrometer: HR+D1059
Trigger mode: 1
Integration Time (sec): 1.000000E-1
Scans to average: 1
Electric dark correction enabled: true
Nonlinearity correction enabled: false
Boxcar width: 0
XAxis mode: Wavelengths
Number of Pixels in Spectrum: 2048
>>>>>Begin Spectral Data<<<<<
223.165	-5.19
223.4	-5.19
223.635	-5.19
223.869	-17.19
224.104	-21.19
224.338	-12.19
224.573	-13.19
224.808	-11.19
225.042	-21.19
225.277	-7.19
225.511	-8.19
225.746	1.81
225.98	12.81
226.215	5.81
226.449	16.81
226.683	26.81
226.918	22.81
227.152	29.81
227.387	31.81
227.621	37.81
227.856	34.81
228.09	47.81
228.324	52.81
228.559	61.81
228.793	66.81
229.027	53.81
229.262	63.81
229.496	75.81
229.73	83.81
229.964	76.81
230.199	72.81
230.433	80.81
230.667	75.81
230.901	82.81
231.136	80.81
231.37	72.81
231.604	70.81
231.838	84.81
232.072	82.81
232.306	81.81
232.541	80.81
232.775	86.81
233.009	84.81
233.243	67.81
233.477	76.81
233.711	76.81
233.945	82.81
234.179	67.81
234.413	81.81
234.647	90.81
234.881	75.81
235.115	84.81
235.349	91.81
235.583	70.81
235.817	81.81
236.051	73.81
236.285	80.81
236.519	84.81
236.753	80.81
236.987	67.81
237.221	84.81
237.455	80.81
237.689	74.81
237.922	78.81
238.156	69.81
238.39	72.81
238.624	84.81
238.858	67.81
239.091	73.81
239.325	72.81
239.559	68.81
239.793	87.81
240.027	76.81
240.26	75.81
240.494	79.81
240.728	68.81
240.961	78.81
241.195	68.81
241.429	86.81
241.662	74.81
241.896	56.81
242.13	82.81
242.363	86.81
242.597	80.81
242.83	66.81
243.064	60.81
243.298	87.81
243.531	75.81
243.765	71.81
243.998	94.81
244.232	82.81
244.465	102.81
244.699	99.81
244.932	74.81
245.166	62.81
245.399	83.81
245.633	79.81
245.866	74.81
246.099	75.81
246.333	89.81
246.566	66.81
246.8	84.81
247.033	81.81
247.266	87.81
247.5	84.81
247.733	66.81
247.966	72.81
248.2	80.81
248.433	83.81
248.666	85.81
248.899	85.81
249.133	83.81
249.366	99.81
249.599	91.81
249.832	86.81
250.066	66.81
250.299	86.81
250.532	106.81
250.765	78.81
250.998	75.81
251.231	88.81
251.465	85.81
251.698	82.81
251.931	72.81
252.164	82.81
252.397	74.81
252.63	71.81
252.863	78.81
253.096	81.81
253.329	83.81
253.562	90.81
253.795	94.81
254.028	92.81
254.261	74.81
254.494	79.81
254.727	78.81
254.96	80.81
255.193	75.81
255.426	79.81
255.659	74.81
255.892	80.81
256.124	88.81
256.357	78.81
256.59	79.81
256.823	80.81
257.056	77.81
257.289	91.81
257.521	91.81
257.754	92.81
257.987	83.81
258.22	88.81
258.452	93.81
258.685	89.81
258.918	94.81
259.151	85.81
259.383	76.81
259.616	86.81
259.849	91.81
260.081	84.81
260.314	96.81
260.547	86.81
260.779	88.81
261.012	65.81
261.244	81.81
261.477	104.81
261.71	97.81
261.942	139.81
262.175	131.81
262.407	83.81
262.64	88.81
262.872	70.81
263.105	79.81
263.337	97.81
263.57	80.81
263.802	85.81
264.035	83.81
264.267	89.81
264.499	77.81
264.732	81.81
264.964	87.81
265.197	77.81
265.429	85.81
265.661	78.81
265.894	92.81
266.126	79.81
266.358	88.81
266.591	77.81
266.823	82.81
267.055	70.81
267.287	70.81
267.52	82.81
267.752	83.81
267.984	89.81
268.216	81.81
268.448	85.81
268.681	87.81
268.913	86.81
269.145	78.81
269.377	88.81
269.609	66.81
269.841	86.81
270.073	88.81
270.306	97.81
270.538	87.81
270.77	76.81
271.002	74.81
271.234	82.81
271.466	80.81
271.698	95.81
271.93	79.81
272.162	83.81
272.394	79.81
272.626	82.81
272.858	92.81
273.09	78.81
273.322	89.81
273.553	95.81
273.785	90.81
274.017	74.81
274.249	80.81
274.481	86.81
274.713	70.81
274.945	96.81
275.176	67.81
275.408	91.81
275.64	94.81
275.872	77.81
276.104	87.81
276.335	106.81
276.567	97.81
276.799	117.81
277.031	108.81
277.262	96.81
277.494	93.81
277.726	82.81
277.957	78.81
278.189	76.81
278.421	82.81
278.652	96.81
278.884	73.81
279.115	77.81
279.347	97.81
279.579	79.81
279.81	82.81
280.042	99.81
280.273	80.81
280.505	92.81
280.736	76.81
280.968	72.81
281.199	81.81
281.431	78.81
281.662	94.81
281.894	105.81
282.125	100.81
282.356	122.81
282.588	150.81
282.819	121.81
283.051	89.81
283.282	80.81
283.513	91.81
283.745	83.81
283.976	87.81
284.207	86.81
284.439	82.81
284.67	85.81
284.901	80.81
285.132	81.81
285.364	80.81
285.595	90.81
285.826	88.81
286.057	89.81
286.288	88.81
286.52	89.81
286.751	91.81
286.982	87.81
287.213	83.81
287.444	92.81
287.675	93.81
287.906	93.81
288.138	98.81
288.369	83.81
288.6	93.81
288.831	86.81
289.062	89.81
289.293	82.81
289.524	88.81
289.755	96.81
289.986	85.81
290.217	70.81
290.448	85.81
290.679	87.81
290.91	80.81
291.141	85.81
291.371	87.81
291.602	86.81
291.833	95.81
292.064	88.81
292.295	91.81
292.526	96.81
292.757	91.81
292.987	80.81
293.218	93.81
293.449	83.81
293.68	87.81
293.91	86.81
294.141	93.81
294.372	86.81
294.603	93.81
294.833	78.81
295.064	90.81
295.295	92.81
295.525	83.81
295.756	99.81
295.987	114.81
296.217	138.81
296.448	134.81
296.679	80.81
296.909	95.81
297.14	89.81
297.37	100.81
297.601	99.81
297.831	76.81
298.062	83.81
298.292	90.81
298.523	99.81
298.753	73.81
298.984	85.81
299.214	76.81
299.445	84.81
299.675	102.81
299.905	90.81
300.136	98.81
300.366	93.81
300.597	99.81
300.827	93.81
301.057	100.81
301.288	101.81
301.518	82.81
301.748	81.81
301.979	107.81
302.209	94.81
302.439	79.81
302.669	103.81
302.9	79.81
303.13	101.81
303.36	92.81
303.59	93.81
303.82	103.81
304.051	95.81
304.281	96.81
304.511	81.81
304.741	87.81
304.971	98.81
305.201	93.81
305.431	89.81
305.661	86.81
305.891	88.81
306.121	99.81
306.352	97.81
306.582	97.81
306.812	92.81
307.042	87.81
307.272	95.81
307.502	98.81
307.731	97.81
307.961	97.81
308.191	111.81
308.421	80.81
308.651	92.81
308.881	97.81
309.111	110.81
309.341	91.81
309.571	105.81
309.8	93.81
310.03	96.81
310.26	114.81
310.49	91.81
310.72	97.81
310.949	105.81
311.179	96.81
311.409	99.81
311.639	89.81
311.868	104.81
312.098	91.81
312.328	98.81
312.557	111.81
312.787	107.81
313.017	105.81
313.246	98.81
313.476	93.81
313.706	89.81
313.935	106.81
314.165	109.81
314.394	99.81
314.624	91.81
314.853	96.81
315.083	93.81
315.312	95.81
315.542	91.81
315.771	104.81
316.001	99.81
316.23	81.81
316.46	98.81
316.689	92.81
316.919	91.81
317.148	95.81
317.377	94.81
317.607	88.81
317.836	99.81
318.065	94.81
318.295	99.81
318.524	89.81
318.753	81.81
318.983	110.81
319.212	97.81
319.441	116.81
319.67	106.81
319.9	85.81
320.129	92.81
320.358	103.81
320.587	92.81
320.816	98.81
321.046	102.81
321.275	107.81
321.504	88.81
321.733	89.81
321.962	96.81
322.191	93.81
322.42	119.81
322.649	122.81
322.878	123.81
323.108	130.81
323.337	115.81
323.566	147.81
323.795	179.81
324.024	224.81
324.253	452.81
324.482	935.81
324.71	1893.81
324.939	2473.81
325.168	904.81
325.397	260.81
325.626	152.81
325.855	126.81
326.084	131.81
326.313	138.81
326.542	178.81
326.77	248.81
326.999	521.81
327.228	1026.81
327.457	1817.81
327.686	1451.81
327.914	402.81
328.143	209.81
328.372	159.81
328.6	134.81
328.829	132.81
329.058	126.81
329.287	145.81
329.515	113.81
329.744	108.81
329.972	118.81
330.201	106.81
330.43	117.81
330.658	140.81
330.887	150.81
331.115	137.81
331.344	116.81
331.572	100.81
331.801	102.81
332.03	103.81
332.258	101.81
332.486	101.81
332.715	98.81
332.943	110.81
333.172	105.81
333.4	102.81
333.629	105.81
333.857	115.81
334.085	133.81
334.314	112.81
334.542	113.81
334.771	126.81
334.999	107.81
335.227	103.81
335.455	89.81
335.684	91.81
335.912	90.81
336.14	84.81
336.369	93.81
336.597	91.81
336.825	102.81
337.053	100.81
337.281	98.81
337.51	94.81
337.738	93.81
337.966	99.81
338.194	105.81
338.422	82.81
338.65	89.81
338.878	91.81
339.106	90.81
339.334	105.81
339.562	104.81
339.79	107.81
340.018	76.81
340.246	105.81
340.474	96.81
340.702	81.81
340.93	89.81
341.158	92.81
341.386	100.81
341.614	103.81
341.842	90.81
342.07	103.81
342.298	95.81
342.526	95.81
342.754	88.81
342.981	73.81
343.209	89.81
343.437	95.81
343.665	91.81
343.893	82.81
344.12	95.81
344.348	95.81
344.576	103.81
344.804	103.81
345.031	87.81
345.259	103.81
345.487	91.81
345.714	102.81
345.942	78.81
346.17	95.81
346.397	79.81
346.625	87.81
346.853	102.81
347.08	87.81
347.308	97.81
347.535	91.81
347.763	96.81
347.99	101.81
348.218	113.81
348.445	101.81
348.673	104.81
348.9	104.81
349.128	99.81
349.355	102.81
349.583	96.81
349.81	104.81
350.037	97.81
350.265	86.81
350.492	92.81
350.72	113.81
350.947	104.81
351.174	123.81
351.402	130.81
351.629	89.81
351.856	105.81
352.083	116.81
352.311	112.81
352.538	121.81
352.765	107.81
352.992	110.81
353.22	115.81
353.447	96.81
353.674	117.81
353.901	99.81
354.128	98.81
354.355	100.81
354.583	99.81
354.81	100.81
355.037	106.81
355.264	93.81
355.491	81.81
355.718	84.81
355.945	80.81
356.172	84.81
356.399	97.81
356.626	91.81
356.853	94.81
357.08	84.81
357.307	90.81
357.534	89.81
357.761	73.81
357.988	93.81
358.215	99.81
358.441	110.81
358.668	85.81
358.895	83.81
359.122	97.81
359.349	94.81
359.576	103.81
359.802	87.81
360.029	102.81
360.256	117.81
360.483	103.81
360.709	82.81
360.936	91.81
361.163	91.81
361.39	90.81
361.616	88.81
361.843	98.81
362.07	95.81
362.296	101.81
362.523	90.81
362.749	87.81
362.976	110.81
363.203	83.81
363.429	79.81
363.656	90.81
363.882	81.81
364.109	88.81
364.335	99.81
364.562	89.81
364.788	90.81
365.015	94.81
365.241	97.81
365.468	105.81
365.694	113.81
365.92	103.81
366.147	87.81
366.373	88.81
366.599	95.81
366.826	79.81
367.052	103.81
367.278	90.81
367.505	94.81
367.731	95.81
367.957	93.81
368.184	90.81
368.41	101.81
368.636	125.81
368.862	119.81
369.089	115.81
369.315	102.81
369.541	94.81
369.767	82.81
369.993	90.81
370.219	86.81
370.445	83.81
370.672	102.81
370.898	86.81
371.124	65.81
371.35	81.81
371.576	89.81
371.802	84.81
372.028	73.81
372.254	73.81
372.48	87.81
372.706	84.81
372.932	95.81
373.158	96.81
373.384	91.81
373.61	100.81
373.835	91.81
374.061	87.81
374.287	79.81
374.513	97.81
374.739	91.81
374.965	92.81
375.191	75.81
375.416	86.81
375.642	82.81
375.868	105.81
376.094	94.81
376.319	91.81
376.545	83.81
376.771	89.81
376.997	79.81
377.222	88.81
377.448	106.81
377.674	80.81
377.899	95.81
378.125	89.81
378.35	86.81
378.576	105.81
378.802	85.81
379.027	82.81
379.253	91.81
379.478	99.81
379.704	102.81
379.929	101.81
380.155	95.81
380.38	86.81
380.606	93.81
380.831	82.81
381.057	103.81
381.282	95.81
381.507	98.81
381.733	105.81
381.958	103.81
382.184	95.81
382.409	110.81
382.634	114.81
382.86	89.81
383.085	88.81
383.31	104.81
383.535	110.81
383.761	93.81
383.986	102.81
384.211	106.81
384.436	97.81
384.662	86.81
384.887	102.81
385.112	111.81
385.337	102.81
385.562	100.81
385.787	96.81
386.013	100.81
386.238	129.81
386.463	96.81
386.688	104.81
386.913	103.81
387.138	91.81
387.363	113.81
387.588	114.81
387.813	90.81
388.038	100.81
388.263	105.81
388.488	104.81
388.713	97.81
388.938	116.81
389.163	90.81
389.387	96.81
389.612	92.81
389.837	90.81
390.062	101.81
390.287	86.81
390.512	83.81
390.736	102.81
390.961	104.81
391.186	79.81
391.411	90.81
391.636	101.81
391.86	85.81
392.085	74.81
392.31	82.81
392.534	82.81
392.759	93.81
392.984	90.81
393.208	81.81
393.433	99.81
393.658	84.81
393.882	95.81
394.107	82.81
394.331	70.81
394.556	83.81
394.78	69.81
395.005	96.81
395.229	89.81
395.454	91.81
395.678	68.81
395.903	76.81
396.127	89.81
396.352	78.81
396.576	77.81
396.801	84.81
397.025	93.81
397.249	83.81
397.474	87.81
397.698	87.81
397.922	91.81
398.147	79.81
398.371	84.81
398.595	95.81
398.82	84.81
399.044	79.81
399.268	82.81
399.492	87.81
399.717	76.81
399.941	85.81
400.165	86.81
400.389	95.81
400.613	67.81
400.837	85.81
401.062	81.81
401.286	94.81
401.51	88.81
401.734	94.81
401.958	111.81
402.182	131.81
402.406	185.81
402.63	135.81
402.854	101.81
403.078	100.81
403.302	90.81
403.526	89.81
403.75	79.81
403.974	97.81
404.198	76.81
404.422	99.81
404.645	82.81
404.869	82.81
405.093	86.81
405.317	106.81
405.541	101.81
405.765	87.81
405.988	120.81
406.212	197.81
406.436	275.81
406.66	158.81
406.883	107.81
407.107	89.81
407.331	102.81
407.555	108.81
407.778	104.81
408.002	86.81
408.226	88.81
408.449	86.81
408.673	77.81
408.896	90.81
409.12	89.81
409.344	96.81
409.567	87.81
409.791	87.81
410.014	100.81
410.238	91.81
410.461	79.81
410.685	95.81
410.908	99.81
411.132	87.81
411.355	91.81
411.578	106.81
411.802	91.81
412.025	73.81
412.249	87.81
412.472	82.81
412.695	97.81
412.919	97.81
413.142	91.81
413.365	102.81
413.589	91.81
413.812	95.81
414.035	79.81
414.258	87.81
414.482	105.81
414.705	96.81
414.928	94.81
415.151	91.81
415.374	86.81
415.597	92.81
415.821	97.81
416.044	80.81
416.267	90.81
416.49	95.81
416.713	78.81
416.936	83.81
417.159	71.81
417.382	81.81
417.605	89.81
417.828	93.81
418.051	91.81
418.274	95.81
418.497	82.81
418.72	91.81
418.943	81.81
419.166	83.81
419.389	100.81
419.611	91.81
419.834	80.81
420.057	90.81
420.28	87.81
420.503	98.81
420.726	83.81
420.948	86.81
421.171	97.81
421.394	99.81
421.617	81.81
421.839	86.81
422.062	97.81
422.285	84.81
422.507	86.81
422.73	111.81
422.953	94.81
423.175	91.81
423.398	94.81
423.621	85.81
423.843	100.81
424.066	69.81
424.288	95.81
424.511	81.81
424.733	105.81
424.956	88.81
425.178	106.81
425.401	93.81
425.623	87.81
425.846	85.81
426.068	82.81
426.291	86.81
426.513	94.81
426.735	105.81
426.958	101.81
427.18	103.81
427.402	154.81
427.625	194.81
427.847	134.81
428.069	118.81
428.292	91.81
428.514	92.81
428.736	91.81
428.958	88.81
429.181	94.81
429.403	86.81
429.625	91.81
429.847	94.81
430.069	99.81
430.292	100.81
430.514	87.81
430.736	100.81
430.958	92.81
431.18	72.81
431.402	97.81
431.624	74.81
431.846	66.81
432.068	85.81
432.29	100.81
432.512	96.81
432.734	96.81
432.956	96.81
433.178	82.81
433.4	97.81
433.622	95.81
433.844	91.81
434.066	82.81
434.287	79.81
434.509	81.81
434.731	81.81
434.953	87.81
435.175	79.81
435.397	100.81
435.618	91.81
435.84	97.81
436.062	130.81
436.284	112.81
436.505	104.81
436.727	102.81
436.949	90.81
437.17	103.81
437.392	97.81
437.614	118.81
437.835	110.81
438.057	129.81
438.278	117.81
438.5	116.81
438.721	121.81
438.943	91.81
439.165	93.81
439.386	84.81
439.608	101.81
439.829	97.81
440.05	118.81
440.272	142.81
440.493	101.81
440.715	91.81
440.936	83.81
441.158	81.81
441.379	82.81
441.6	82.81
441.822	89.81
442.043	86.81
442.264	94.81
442.486	119.81
442.707	87.81
442.928	127.81
443.149	146.81
443.371	138.81
443.592	117.81
443.813	104.81
444.034	107.81
444.255	79.81
444.476	86.81
444.698	99.81
444.919	86.81
445.14	144.81
445.361	146.81
445.582	113.81
445.803	131.81
446.024	141.81
446.245	141.81
446.466	103.81
446.687	80.81
446.908	88.81
447.129	88.81
447.35	83.81
447.571	98.81
447.792	101.81
448.013	104.81
448.234	111.81
448.455	106.81
448.675	119.81
448.896	116.81
449.117	117.81
449.338	104.81
449.559	128.81
449.779	136.81
450	96.81
450.221	101.81
450.442	91.81
450.662	107.81
450.883	91.81
451.104	99.81
451.324	96.81
451.545	97.81
451.766	93.81
451.986	87.81
452.207	86.81
452.428	97.81
452.648	91.81
452.869	115.81
453.089	116.81
453.31	114.81
453.53	90.81
453.751	106.81
453.971	103.81
454.192	114.81
454.412	95.81
454.633	94.81
454.853	86.81
455.073	76.81
455.294	83.81
455.514	94.81
455.734	72.81
455.955	86.81
456.175	80.81
456.395	80.81
456.616	82.81
456.836	79.81
457.056	87.81
457.276	76.81
457.497	77.81
457.717	70.81
457.937	89.81
458.157	90.81
458.377	100.81
458.598	96.81
458.818	173.81
459.038	167.81
459.258	115.81
459.478	87.81
459.698	91.81
459.918	91.81
460.138	85.81
460.358	90.81
460.578	89.81
460.798	89.81
461.018	91.81
461.238	97.81
461.458	91.81
461.678	88.81
461.898	76.81
462.118	86.81
462.338	84.81
462.558	100.81
462.777	85.81
462.997	84.81
463.217	81.81
463.437	79.81
463.657	90.81
463.876	96.81
464.096	95.81
464.316	90.81
464.536	105.81
464.755	91.81
464.975	110.81
465.195	189.81
465.414	191.81
465.634	95.81
465.854	71.81
466.073	95.81
466.293	93.81
466.512	88.81
466.732	86.81
466.951	82.81
467.171	93.81
467.391	99.81
467.61	118.81
467.829	94.81
468.049	93.81
468.268	92.81
468.488	78.81
468.707	97.81
468.927	84.81
469.146	92.81
469.365	79.81
469.585	103.81
469.804	107.81
470.023	96.81
470.243	96.81
470.462	105.81
470.681	119.81
470.901	97.81
471.12	86.81
471.339	79.81
471.558	74.81
471.777	79.81
471.997	79.81
472.216	85.81
472.435	112.81
472.654	103.81
472.873	94.81
473.092	66.81
473.311	74.81
473.53	83.81
473.749	87.81
473.968	96.81
474.187	99.81
474.406	118.81
474.625	90.81
474.844	87.81
475.063	94.81
475.282	93.81
475.501	75.81
475.72	81.81
475.939	98.81
476.158	83.81
476.377	86.81
476.596	90.81
476.814	106.81
477.033	97.81
477.252	101.81
477.471	92.81
477.69	89.81
477.908	85.81
478.127	94.81
478.346	77.81
478.564	98.81
478.783	96.81
479.002	90.81
479.22	99.81
479.439	103.81
479.658	117.81
479.876	91.81
480.095	102.81
480.313	81.81
480.532	86.81
480.751	98.81
480.969	104.81
481.188	154.81
481.406	134.81
481.624	94.81
481.843	85.81
482.061	80.81
482.28	90.81
482.498	85.81
482.717	96.81
482.935	91.81
483.153	94.81
483.372	95.81
483.59	76.81
483.808	88.81
484.027	94.81
484.245	92.81
484.463	112.81
484.681	94.81
484.9	81.81
485.118	95.81
485.336	100.81
485.554	95.81
485.772	80.81
485.99	91.81
486.209	101.81
486.427	113.81
486.645	111.81
486.863	117.81
487.081	100.81
487.299	88.81
487.517	95.81
487.735	91.81
487.953	97.81
488.171	80.81
488.389	96.81
488.607	95.81
488.825	84.81
489.043	91.81
489.261	90.81
489.479	84.81
489.696	85.81
489.914	95.81
490.132	84.81
490.35	79.81
490.568	82.81
490.786	91.81
491.003	98.81
491.221	82.81
491.439	106.81
491.657	95.81
491.874	90.81
492.092	100.81
492.31	79.81
492.527	80.81
492.745	83.81
492.963	91.81
493.18	112.81
493.398	79.81
493.615	91.81
493.833	85.81
494.05	94.81
494.268	101.81
494.485	69.81
494.703	90.81
494.92	95.81
495.138	93.81
495.355	85.81
495.573	107.81
495.79	104.81
496.008	86.81
496.225	100.81
496.442	100.81
496.66	92.81
496.877	94.81
497.094	94.81
497.312	90.81
497.529	104.81
497.746	98.81
497.963	76.81
498.181	84.81
498.398	101.81
498.615	112.81
498.832	114.81
499.049	95.81
499.267	90.81
499.484	91.81
499.701	97.81
499.918	97.81
500.135	104.81
500.352	83.81
500.569	85.81
500.786	86.81
501.003	89.81
501.22	107.81
501.437	87.81
501.654	99.81
501.871	111.81
502.088	102.81
502.305	85.81
502.522	96.81
502.739	94.81
502.956	103.81
503.172	96.81
503.389	103.81
503.606	115.81
503.823	107.81
504.04	83.81
504.256	88.81
504.473	90.81
504.69	97.81
504.907	109.81
505.123	110.81
505.34	79.81
505.557	92.81
505.773	101.81
505.99	92.81
506.207	89.81
506.423	87.81
506.64	99.81
506.856	88.81
507.073	81.81
507.289	86.81
507.506	98.81
507.722	119.81
507.939	118.81
508.155	99.81
508.372	114.81
508.588	96.81
508.805	103.81
509.021	102.81
509.238	121.81
509.454	102.81
509.67	99.81
509.887	121.81
510.103	142.81
510.319	235.81
510.536	911.81
510.752	3103.81
510.968	896.81
511.184	190.81
511.401	111.81
511.617	103.81
511.833	88.81
512.049	84.81
512.265	86.81
512.481	103.81
512.698	103.81
512.914	101.81
513.13	88.81
513.346	90.81
513.562	85.81
513.778	112.81
513.994	106.81
514.21	103.81
514.426	122.81
514.642	162.81
514.858	137.81
515.074	188.81
