Data from Circ_2018_H10_HRD10591_00036.txt Node
Date: Wed Jan 03 09:56:09 EST 2024
User: Yrep
Spectrometer: HR+D1059
Trigger mode: 1
Integration Time (sec): 1.000000E-1
Scans to average: 1
Electric dark correction enabled: true
Nonlinearity correction enabled: false
Boxcar width: 0
XAxis mode: Wavelengths
Number of Pixels in Spectrum: 2048
>>>>>Begin Spectral Data<<<<<
223.165	-8.38
223.4	-8.38
223.635	-8.38
223.869	-18.38
224.104	-21.38
224.338	-6.38
224.573	-3.38
224.808	-4.38
225.042	-14.38
225.277	-9.38
225.511	-4.38
225.746	4.62
225.98	-1.38
226.215	9.62
226.449	2.62
226.683	29.62
226.918	23.62
227.152	21.62
227.387	27.62
227.621	45.62
227.856	26.62
228.09	24.62
228.324	45.62
228.559	71.62
228.793	58.62
229.027	61.62
229.262	62.62
229.496	73.62
229.73	69.62
229.964	66.62
230.199	64.62
230.433	81.62
230.667	71.62
230.901	77.62
231.136	77.62
231.37	70.62
231.604	85.62
231.838	78.62
232.072	72.62
232.306	68.62
232.541	78.62
232.775	76.62
233.009	75.62
233.243	88.62
233.477	81.62
233.711	66.62
233.945	72.62
234.179	87.62
234.413	75.62
234.647	70.62
234.881	94.62
235.115	78.62
235.349	86.62
235.583	88.62
235.817	89.62
236.051	83.62
236.285	78.62
236.519	75.62
236.753	80.62
236.987	53.62
237.221	80.62
237.455	96.62
237.689	87.62
237.922	79.62
238.156	81.62
238.39	85.62
238.624	76.62
238.858	70.62
239.091	75.62
239.325	79.62
239.559	66.62
239.793	81.62
240.027	65.62
240.26	74.62
240.494	84.62
240.728	77.62
240.961	75.62
241.195	68.62
241.429	73.62
241.662	79.62
241.896	74.62
242.13	66.62
242.363	81.62
242.597	72.62
242.83	70.62
243.064	73.62
243.298	85.62
243.531	74.62
243.765	73.62
243.998	81.62
244.232	83.62
244.465	93.62
244.699	77.62
244.932	72.62
245.166	65.62
245.399	81.62
245.633	79.62
245.866	73.62
246.099	81.62
246.333	71.62
246.566	86.62
246.8	66.62
247.033	82.62
247.266	82.62
247.5	75.62
247.733	79.62
247.966	80.62
248.2	88.62
248.433	91.62
248.666	71.62
248.899	86.62
249.133	85.62
249.366	101.62
249.599	77.62
249.832	86.62
250.066	86.62
250.299	83.62
250.532	85.62
250.765	73.62
250.998	83.62
251.231	75.62
251.465	81.62
251.698	77.62
251.931	81.62
252.164	61.62
252.397	74.62
252.63	82.62
252.863	78.62
253.096	77.62
253.329	79.62
253.562	74.62
253.795	82.62
254.028	82.62
254.261	75.62
254.494	78.62
254.727	84.62
254.96	76.62
255.193	92.62
255.426	71.62
255.659	81.62
255.892	85.62
256.124	73.62
256.357	90.62
256.59	80.62
256.823	70.62
257.056	78.62
257.289	81.62
257.521	77.62
257.754	89.62
257.987	82.62
258.22	75.62
258.452	83.62
258.685	69.62
258.918	81.62
259.151	88.62
259.383	84.62
259.616	84.62
259.849	89.62
260.081	84.62
260.314	85.62
260.547	79.62
260.779	84.62
261.012	73.62
261.244	70.62
261.477	102.62
261.71	92.62
261.942	120.62
262.175	123.62
262.407	85.62
262.64	67.62
262.872	91.62
263.105	71.62
263.337	95.62
263.57	85.62
263.802	73.62
264.035	77.62
264.267	72.62
264.499	77.62
264.732	70.62
264.964	85.62
265.197	95.62
265.429	92.62
265.661	89.62
265.894	85.62
266.126	100.62
266.358	89.62
266.591	85.62
266.823	85.62
267.055	71.62
267.287	77.62
267.52	73.62
267.752	61.62
267.984	79.62
268.216	96.62
268.448	74.62
268.681	92.62
268.913	75.62
269.145	80.62
269.377	96.62
269.609	74.62
269.841	80.62
270.073	87.62
270.306	84.62
270.538	86.62
270.77	78.62
271.002	87.62
271.234	94.62
271.466	89.62
271.698	81.62
271.93	87.62
272.162	83.62
272.394	94.62
272.626	80.62
272.858	75.62
273.09	88.62
273.322	78.62
273.553	81.62
273.785	84.62
274.017	90.62
274.249	85.62
274.481	86.62
274.713	97.62
274.945	88.62
275.176	75.62
275.408	87.62
275.64	97.62
275.872	83.62
276.104	84.62
276.335	89.62
276.567	95.62
276.799	107.62
277.031	98.62
277.262	89.62
277.494	91.62
277.726	73.62
277.957	80.62
278.189	93.62
278.421	78.62
278.652	85.62
278.884	80.62
279.115	76.62
279.347	82.62
279.579	86.62
279.81	96.62
280.042	86.62
280.273	88.62
280.505	82.62
280.736	79.62
280.968	89.62
281.199	95.62
281.431	65.62
281.662	85.62
281.894	95.62
282.125	87.62
282.356	127.62
282.588	130.62
282.819	110.62
283.051	85.62
283.282	87.62
283.513	84.62
283.745	89.62
283.976	80.62
284.207	72.62
284.439	70.62
284.67	83.62
284.901	86.62
285.132	75.62
285.364	74.62
285.595	94.62
285.826	91.62
286.057	73.62
286.288	82.62
286.52	81.62
286.751	88.62
286.982	99.62
287.213	79.62
287.444	88.62
287.675	99.62
287.906	96.62
288.138	104.62
288.369	83.62
288.6	82.62
288.831	81.62
289.062	82.62
289.293	87.62
289.524	82.62
289.755	80.62
289.986	71.62
290.217	81.62
290.448	90.62
290.679	85.62
290.91	85.62
291.141	84.62
291.371	80.62
291.602	77.62
291.833	78.62
292.064	93.62
292.295	91.62
292.526	84.62
292.757	84.62
292.987	88.62
293.218	86.62
293.449	90.62
293.68	78.62
293.91	88.62
294.141	99.62
294.372	79.62
294.603	87.62
294.833	92.62
295.064	88.62
295.295	92.62
295.525	76.62
295.756	83.62
295.987	122.62
296.217	139.62
296.448	131.62
296.679	91.62
296.909	89.62
297.14	87.62
297.37	99.62
297.601	78.62
297.831	93.62
298.062	77.62
298.292	77.62
298.523	85.62
298.753	94.62
298.984	91.62
299.214	97.62
299.445	85.62
299.675	92.62
299.905	96.62
300.136	99.62
300.366	87.62
300.597	107.62
300.827	87.62
301.057	97.62
301.288	87.62
301.518	97.62
301.748	93.62
301.979	107.62
302.209	87.62
302.439	86.62
302.669	101.62
302.9	84.62
303.13	81.62
303.36	112.62
303.59	103.62
303.82	104.62
304.051	98.62
304.281	86.62
304.511	87.62
304.741	86.62
304.971	92.62
305.201	86.62
305.431	85.62
305.661	94.62
305.891	97.62
306.121	85.62
306.352	109.62
306.582	101.62
306.812	83.62
307.042	93.62
307.272	88.62
307.502	104.62
307.731	96.62
307.961	96.62
308.191	83.62
308.421	70.62
308.651	106.62
308.881	102.62
309.111	86.62
309.341	96.62
309.571	90.62
309.8	101.62
310.03	90.62
310.26	90.62
310.49	95.62
310.72	88.62
310.949	103.62
311.179	103.62
311.409	98.62
311.639	87.62
311.868	93.62
312.098	105.62
312.328	95.62
312.557	107.62
312.787	115.62
313.017	101.62
313.246	80.62
313.476	82.62
313.706	103.62
313.935	104.62
314.165	102.62
314.394	83.62
314.624	107.62
314.853	97.62
315.083	92.62
315.312	84.62
315.542	94.62
315.771	98.62
316.001	86.62
316.23	103.62
316.46	86.62
316.689	96.62
316.919	101.62
317.148	104.62
317.377	89.62
317.607	94.62
317.836	73.62
318.065	90.62
318.295	93.62
318.524	89.62
318.753	90.62
318.983	104.62
319.212	107.62
319.441	121.62
319.67	109.62
319.9	87.62
320.129	85.62
320.358	85.62
320.587	88.62
320.816	96.62
321.046	111.62
321.275	104.62
321.504	100.62
321.733	105.62
321.962	105.62
322.191	88.62
322.42	110.62
322.649	95.62
322.878	110.62
323.108	121.62
323.337	129.62
323.566	121.62
323.795	155.62
324.024	203.62
324.253	416.62
324.482	823.62
324.71	1685.62
324.939	2165.62
325.168	792.62
325.397	242.62
325.626	147.62
325.855	132.62
326.084	121.62
326.313	125.62
326.542	153.62
326.77	222.62
326.999	457.62
327.228	904.62
327.457	1610.62
327.686	1301.62
327.914	365.62
328.143	201.62
328.372	156.62
328.6	115.62
328.829	125.62
329.058	126.62
329.287	145.62
329.515	118.62
329.744	110.62
329.972	102.62
330.201	125.62
330.43	139.62
330.658	151.62
330.887	151.62
331.115	118.62
331.344	96.62
331.572	110.62
331.801	113.62
332.03	104.62
332.258	90.62
332.486	90.62
332.715	88.62
332.943	85.62
333.172	98.62
333.4	84.62
333.629	106.62
333.857	109.62
334.085	114.62
334.314	114.62
334.542	132.62
334.771	125.62
334.999	106.62
335.227	100.62
335.455	101.62
335.684	100.62
335.912	82.62
336.14	107.62
336.369	97.62
336.597	90.62
336.825	88.62
337.053	91.62
337.281	91.62
337.51	97.62
337.738	91.62
337.966	83.62
338.194	100.62
338.422	96.62
338.65	93.62
338.878	87.62
339.106	94.62
339.334	97.62
339.562	90.62
339.79	90.62
340.018	84.62
340.246	89.62
340.474	90.62
340.702	88.62
340.93	80.62
341.158	86.62
341.386	109.62
341.614	81.62
341.842	87.62
342.07	88.62
342.298	88.62
342.526	89.62
342.754	83.62
342.981	103.62
343.209	84.62
343.437	100.62
343.665	107.62
343.893	90.62
344.12	87.62
344.348	81.62
344.576	100.62
344.804	94.62
345.031	102.62
345.259	101.62
345.487	100.62
345.714	83.62
345.942	97.62
346.17	103.62
346.397	101.62
346.625	109.62
346.853	84.62
347.08	82.62
347.308	85.62
347.535	97.62
347.763	87.62
347.99	97.62
348.218	92.62
348.445	109.62
348.673	97.62
348.9	98.62
349.128	92.62
349.355	105.62
349.583	93.62
349.81	87.62
350.037	95.62
350.265	88.62
350.492	89.62
350.72	90.62
350.947	91.62
351.174	119.62
351.402	106.62
351.629	109.62
351.856	91.62
352.083	92.62
352.311	109.62
352.538	102.62
352.765	112.62
352.992	133.62
353.22	115.62
353.447	101.62
353.674	103.62
353.901	96.62
354.128	104.62
354.355	85.62
354.583	91.62
354.81	101.62
355.037	105.62
355.264	98.62
355.491	90.62
355.718	93.62
355.945	100.62
356.172	81.62
356.399	100.62
356.626	99.62
356.853	85.62
357.08	83.62
357.307	79.62
357.534	84.62
357.761	99.62
357.988	104.62
358.215	98.62
358.441	96.62
358.668	92.62
358.895	75.62
359.122	82.62
359.349	88.62
359.576	95.62
359.802	114.62
360.029	113.62
360.256	116.62
360.483	103.62
360.709	87.62
360.936	94.62
361.163	93.62
361.39	99.62
361.616	94.62
361.843	99.62
362.07	92.62
362.296	92.62
362.523	103.62
362.749	89.62
362.976	94.62
363.203	85.62
363.429	76.62
363.656	105.62
363.882	87.62
364.109	94.62
364.335	91.62
364.562	95.62
364.788	74.62
365.015	102.62
365.241	92.62
365.468	112.62
365.694	109.62
365.92	89.62
366.147	86.62
366.373	97.62
366.599	77.62
366.826	101.62
367.052	90.62
367.278	81.62
367.505	82.62
367.731	95.62
367.957	103.62
368.184	98.62
368.41	96.62
368.636	112.62
368.862	113.62
369.089	97.62
369.315	91.62
369.541	102.62
369.767	107.62
369.993	88.62
370.219	88.62
370.445	74.62
370.672	86.62
370.898	87.62
371.124	82.62
371.35	95.62
371.576	83.62
371.802	100.62
372.028	88.62
372.254	91.62
372.48	81.62
372.706	82.62
372.932	74.62
373.158	65.62
373.384	85.62
373.61	78.62
373.835	97.62
374.061	94.62
374.287	94.62
374.513	92.62
374.739	93.62
374.965	80.62
375.191	103.62
375.416	91.62
375.642	68.62
375.868	96.62
376.094	90.62
376.319	74.62
376.545	95.62
376.771	76.62
376.997	86.62
377.222	72.62
377.448	91.62
377.674	86.62
377.899	79.62
378.125	85.62
378.35	81.62
378.576	90.62
378.802	77.62
379.027	79.62
379.253	84.62
379.478	95.62
379.704	83.62
379.929	93.62
380.155	95.62
380.38	93.62
380.606	80.62
380.831	83.62
381.057	97.62
381.282	97.62
381.507	90.62
381.733	88.62
381.958	107.62
382.184	104.62
382.409	108.62
382.634	91.62
382.86	81.62
383.085	91.62
383.31	93.62
383.535	103.62
383.761	107.62
383.986	97.62
384.211	96.62
384.436	101.62
384.662	94.62
384.887	98.62
385.112	90.62
385.337	113.62
385.562	102.62
385.787	101.62
386.013	102.62
386.238	100.62
386.463	111.62
386.688	103.62
386.913	95.62
387.138	121.62
387.363	102.62
387.588	94.62
387.813	115.62
388.038	100.62
388.263	106.62
388.488	111.62
388.713	106.62
388.938	89.62
389.163	88.62
389.387	97.62
389.612	117.62
389.837	90.62
390.062	96.62
390.287	90.62
390.512	87.62
390.736	94.62
390.961	88.62
391.186	96.62
391.411	83.62
391.636	91.62
391.86	89.62
392.085	74.62
392.31	83.62
392.534	99.62
392.759	89.62
392.984	94.62
393.208	90.62
393.433	86.62
393.658	85.62
393.882	85.62
394.107	76.62
394.331	73.62
394.556	91.62
394.78	95.62
395.005	78.62
395.229	73.62
395.454	79.62
395.678	78.62
395.903	56.62
396.127	95.62
396.352	93.62
396.576	84.62
396.801	78.62
397.025	81.62
397.249	70.62
397.474	81.62
397.698	83.62
397.922	85.62
398.147	94.62
398.371	78.62
398.595	71.62
398.82	81.62
399.044	87.62
399.268	84.62
399.492	91.62
399.717	97.62
399.941	72.62
400.165	99.62
400.389	89.62
400.613	75.62
400.837	81.62
401.062	88.62
401.286	86.62
401.51	83.62
401.734	95.62
401.958	98.62
402.182	145.62
402.406	175.62
402.63	113.62
402.854	80.62
403.078	80.62
403.302	79.62
403.526	78.62
403.75	100.62
403.974	94.62
404.198	73.62
404.422	96.62
404.645	96.62
404.869	91.62
405.093	99.62
405.317	109.62
405.541	104.62
405.765	105.62
405.988	127.62
406.212	191.62
406.436	257.62
406.66	150.62
406.883	105.62
407.107	98.62
407.331	109.62
407.555	85.62
407.778	99.62
408.002	86.62
408.226	91.62
408.449	99.62
408.673	100.62
408.896	100.62
409.12	75.62
409.344	85.62
409.567	92.62
409.791	97.62
410.014	78.62
410.238	87.62
410.461	104.62
410.685	108.62
410.908	92.62
411.132	103.62
411.355	77.62
411.578	102.62
411.802	85.62
412.025	81.62
412.249	100.62
412.472	75.62
412.695	95.62
412.919	78.62
413.142	78.62
413.365	68.62
413.589	88.62
413.812	86.62
414.035	101.62
414.258	80.62
414.482	75.62
414.705	94.62
414.928	81.62
415.151	83.62
415.374	94.62
415.597	99.62
415.821	84.62
416.044	95.62
416.267	96.62
416.49	85.62
416.713	83.62
416.936	83.62
417.159	81.62
417.382	97.62
417.605	89.62
417.828	95.62
418.051	99.62
418.274	82.62
418.497	78.62
418.72	79.62
418.943	96.62
419.166	78.62
419.389	101.62
419.611	101.62
419.834	89.62
420.057	89.62
420.28	88.62
420.503	87.62
420.726	89.62
420.948	90.62
421.171	96.62
421.394	91.62
421.617	110.62
421.839	99.62
422.062	89.62
422.285	91.62
422.507	94.62
422.73	87.62
422.953	83.62
423.175	90.62
423.398	82.62
423.621	83.62
423.843	79.62
424.066	86.62
424.288	79.62
424.511	86.62
424.733	98.62
424.956	103.62
425.178	100.62
425.401	105.62
425.623	95.62
425.846	97.62
426.068	88.62
426.291	112.62
426.513	99.62
426.735	92.62
426.958	96.62
427.18	94.62
427.402	129.62
427.625	183.62
427.847	148.62
428.069	98.62
428.292	94.62
428.514	84.62
428.736	86.62
428.958	88.62
429.181	81.62
429.403	85.62
429.625	67.62
429.847	85.62
430.069	89.62
430.292	75.62
430.514	81.62
430.736	80.62
430.958	97.62
431.18	85.62
431.402	87.62
431.624	84.62
431.846	85.62
432.068	75.62
432.29	73.62
432.512	86.62
432.734	75.62
432.956	88.62
433.178	87.62
433.4	103.62
433.622	73.62
433.844	94.62
434.066	89.62
434.287	81.62
434.509	100.62
434.731	74.62
434.953	79.62
435.175	88.62
435.397	79.62
435.618	91.62
435.84	95.62
436.062	129.62
436.284	121.62
436.505	96.62
436.727	98.62
436.949	95.62
437.17	91.62
437.392	83.62
437.614	105.62
437.835	106.62
438.057	117.62
438.278	103.62
438.5	95.62
438.721	120.62
438.943	104.62
439.165	98.62
439.386	95.62
439.608	102.62
439.829	103.62
440.05	123.62
440.272	128.62
440.493	97.62
440.715	96.62
440.936	84.62
441.158	90.62
441.379	101.62
441.6	90.62
441.822	89.62
442.043	87.62
442.264	96.62
442.486	89.62
442.707	74.62
442.928	112.62
443.149	130.62
443.371	132.62
443.592	128.62
443.813	104.62
444.034	96.62
444.255	86.62
444.476	90.62
444.698	91.62
444.919	105.62
445.14	116.62
445.361	113.62
445.582	125.62
445.803	137.62
446.024	139.62
446.245	141.62
446.466	117.62
446.687	85.62
446.908	100.62
447.129	98.62
447.35	78.62
447.571	83.62
447.792	93.62
448.013	101.62
448.234	112.62
448.455	98.62
448.675	91.62
448.896	118.62
449.117	99.62
449.338	104.62
449.559	113.62
449.779	126.62
450	91.62
450.221	92.62
450.442	86.62
450.662	95.62
450.883	107.62
451.104	97.62
451.324	96.62
451.545	87.62
451.766	86.62
451.986	79.62
452.207	78.62
452.428	105.62
452.648	94.62
452.869	114.62
453.089	117.62
453.31	123.62
453.53	85.62
453.751	96.62
453.971	98.62
454.192	109.62
454.412	92.62
454.633	89.62
454.853	68.62
455.073	66.62
455.294	79.62
455.514	105.62
455.734	96.62
455.955	89.62
456.175	75.62
456.395	83.62
456.616	80.62
456.836	87.62
457.056	87.62
457.276	74.62
457.497	85.62
457.717	86.62
457.937	85.62
458.157	86.62
458.377	76.62
458.598	104.62
458.818	153.62
459.038	167.62
459.258	122.62
459.478	89.62
459.698	80.62
459.918	80.62
460.138	83.62
460.358	78.62
460.578	94.62
460.798	89.62
461.018	85.62
461.238	80.62
461.458	94.62
461.678	98.62
461.898	81.62
462.118	79.62
462.338	91.62
462.558	81.62
462.777	93.62
462.997	90.62
463.217	91.62
463.437	92.62
463.657	84.62
463.876	82.62
464.096	98.62
464.316	96.62
464.536	86.62
464.755	89.62
464.975	98.62
465.195	171.62
465.414	182.62
465.634	105.62
465.854	82.62
466.073	82.62
466.293	72.62
466.512	86.62
466.732	87.62
466.951	92.62
467.171	89.62
467.391	83.62
467.61	104.62
467.829	91.62
468.049	110.62
468.268	94.62
468.488	76.62
468.707	94.62
468.927	83.62
469.146	86.62
469.365	82.62
469.585	85.62
469.804	87.62
470.023	105.62
470.243	88.62
470.462	95.62
470.681	126.62
470.901	97.62
471.12	86.62
471.339	74.62
471.558	75.62
471.777	79.62
471.997	95.62
472.216	94.62
472.435	141.62
472.654	98.62
472.873	86.62
473.092	88.62
473.311	89.62
473.53	87.62
473.749	80.62
473.968	93.62
474.187	110.62
474.406	117.62
474.625	97.62
474.844	82.62
475.063	90.62
475.282	82.62
475.501	83.62
475.72	82.62
475.939	86.62
476.158	88.62
476.377	86.62
476.596	88.62
476.814	99.62
477.033	89.62
477.252	81.62
477.471	90.62
477.69	78.62
477.908	86.62
478.127	78.62
478.346	87.62
478.564	90.62
478.783	85.62
479.002	88.62
479.22	82.62
479.439	65.62
479.658	91.62
479.876	78.62
480.095	73.62
480.313	83.62
480.532	86.62
480.751	104.62
480.969	106.62
481.188	191.62
481.406	149.62
481.624	97.62
481.843	100.62
482.061	99.62
482.28	90.62
482.498	88.62
482.717	105.62
482.935	83.62
483.153	90.62
483.372	90.62
483.59	84.62
483.808	91.62
484.027	81.62
484.245	86.62
484.463	101.62
484.681	108.62
484.9	81.62
485.118	94.62
485.336	83.62
485.554	97.62
485.772	98.62
485.99	96.62
486.209	104.62
486.427	107.62
486.645	105.62
486.863	110.62
487.081	98.62
487.299	81.62
487.517	90.62
487.735	92.62
487.953	82.62
488.171	77.62
488.389	89.62
488.607	101.62
488.825	96.62
489.043	92.62
489.261	89.62
489.479	93.62
489.696	102.62
489.914	92.62
490.132	89.62
490.35	94.62
490.568	86.62
490.786	83.62
491.003	80.62
491.221	85.62
491.439	87.62
491.657	85.62
491.874	94.62
492.092	83.62
492.31	93.62
492.527	91.62
492.745	92.62
492.963	96.62
493.18	86.62
493.398	90.62
493.615	99.62
493.833	91.62
494.05	98.62
494.268	80.62
494.485	83.62
494.703	73.62
494.92	83.62
495.138	87.62
495.355	93.62
495.573	101.62
495.79	100.62
496.008	82.62
496.225	76.62
496.442	98.62
496.66	106.62
496.877	86.62
497.094	89.62
497.312	78.62
497.529	87.62
497.746	93.62
497.963	74.62
498.181	100.62
498.398	97.62
498.615	101.62
498.832	115.62
499.049	98.62
499.267	98.62
499.484	86.62
499.701	75.62
499.918	91.62
500.135	79.62
500.352	85.62
500.569	89.62
500.786	99.62
501.003	100.62
501.22	82.62
501.437	104.62
501.654	91.62
501.871	96.62
502.088	86.62
502.305	92.62
502.522	86.62
502.739	79.62
502.956	96.62
503.172	84.62
503.389	93.62
503.606	112.62
503.823	104.62
504.04	98.62
504.256	95.62
504.473	95.62
504.69	88.62
504.907	83.62
505.123	86.62
505.34	88.62
505.557	86.62
505.773	86.62
505.99	106.62
506.207	79.62
506.423	81.62
506.64	88.62
506.856	82.62
507.073	86.62
507.289	84.62
507.506	81.62
507.722	119.62
507.939	108.62
508.155	112.62
508.372	94.62
508.588	90.62
508.805	103.62
509.021	93.62
509.238	82.62
509.454	102.62
509.67	92.62
509.887	95.62
510.103	143.62
510.319	227.62
510.536	834.62
510.752	2800.62
510.968	815.62
511.184	181.62
511.401	118.62
511.617	89.62
511.833	100.62
512.049	92.62
512.265	88.62
512.481	104.62
512.698	88.62
512.914	77.62
513.13	94.62
513.346	94.62
513.562	88.62
513.778	88.62
513.994	79.62
514.21	98.62
514.426	127.62
514.642	136.62
514.858	123.62
515.074	165.62
515.29	507.62
515.506	1823.62
515.721	701.62
515.937	173.62
