Data from Circ_2018_H10_HRD10591_00048.txt Node
Date: Wed Jan 03 09:56:11 EST 2024
User: Yrep
Spectrometer: HR+D1059
Trigger mode: 1
Integration Time (sec): 1.000000E-1
Scans to average: 1
Electric dark correction enabled: true
Nonlinearity correction enabled: false
Boxcar width: 0
XAxis mode: Wavelengths
Number of Pixels in Spectrum: 2048
>>>>>Begin Spectral Data<<<<<
223.165	-16.88
223.4	-16.88
223.635	-16.88
223.869	-28.88
224.104	-30.88
224.338	-16.88
224.573	-19.88
224.808	-16.88
225.042	-5.88
225.277	0.12
225.511	-2.88
225.746	7.12
225.98	15.12
226.215	18.12
226.449	8.12
226.683	21.12
226.918	35.12
227.152	34.12
227.387	32.12
227.621	26.12
227.856	42.12
228.09	50.12
228.324	54.12
228.559	43.12
228.793	57.12
229.027	54.12
229.262	65.12
229.496	68.12
229.73	84.12
229.964	77.12
230.199	68.12
230.433	75.12
230.667	85.12
230.901	79.12
231.136	62.12
231.37	76.12
231.604	86.12
231.838	82.12
232.072	86.12
232.306	96.12
232.541	89.12
232.775	90.12
233.009	84.12
233.243	76.12
233.477	95.12
233.711	79.12
233.945	72.12
234.179	62.12
234.413	80.12
234.647	63.12
234.881	77.12
235.115	70.12
235.349	74.12
235.583	84.12
235.817	80.12
236.051	74.12
236.285	84.12
236.519	83.12
236.753	69.12
236.987	77.12
237.221	95.12
237.455	84.12
237.689	96.12
237.922	79.12
238.156	72.12
238.39	70.12
238.624	84.12
238.858	71.12
239.091	71.12
239.325	89.12
239.559	82.12
239.793	86.12
240.027	80.12
240.26	85.12
240.494	79.12
240.728	87.12
240.961	80.12
241.195	80.12
241.429	77.12
241.662	75.12
241.896	69.12
242.13	88.12
242.363	64.12
242.597	65.12
242.83	74.12
243.064	66.12
243.298	84.12
243.531	84.12
243.765	80.12
243.998	87.12
244.232	97.12
244.465	98.12
244.699	88.12
244.932	77.12
245.166	80.12
245.399	83.12
245.633	69.12
245.866	74.12
246.099	81.12
246.333	88.12
246.566	84.12
246.8	72.12
247.033	78.12
247.266	80.12
247.5	85.12
247.733	84.12
247.966	96.12
248.2	81.12
248.433	80.12
248.666	95.12
248.899	100.12
249.133	93.12
249.366	96.12
249.599	96.12
249.832	80.12
250.066	77.12
250.299	81.12
250.532	86.12
250.765	75.12
250.998	84.12
251.231	72.12
251.465	89.12
251.698	85.12
251.931	88.12
252.164	83.12
252.397	68.12
252.63	87.12
252.863	81.12
253.096	74.12
253.329	84.12
253.562	75.12
253.795	95.12
254.028	84.12
254.261	71.12
254.494	91.12
254.727	85.12
254.96	93.12
255.193	76.12
255.426	58.12
255.659	67.12
255.892	69.12
256.124	68.12
256.357	84.12
256.59	86.12
256.823	70.12
257.056	84.12
257.289	80.12
257.521	76.12
257.754	99.12
257.987	74.12
258.22	73.12
258.452	80.12
258.685	80.12
258.918	89.12
259.151	80.12
259.383	80.12
259.616	73.12
259.849	70.12
260.081	85.12
260.314	88.12
260.547	87.12
260.779	84.12
261.012	82.12
261.244	84.12
261.477	88.12
261.71	86.12
261.942	112.12
262.175	122.12
262.407	91.12
262.64	89.12
262.872	75.12
263.105	75.12
263.337	73.12
263.57	74.12
263.802	75.12
264.035	73.12
264.267	83.12
264.499	86.12
264.732	87.12
264.964	90.12
265.197	95.12
265.429	84.12
265.661	96.12
265.894	95.12
266.126	84.12
266.358	77.12
266.591	86.12
266.823	77.12
267.055	93.12
267.287	90.12
267.52	92.12
267.752	81.12
267.984	85.12
268.216	77.12
268.448	83.12
268.681	84.12
268.913	100.12
269.145	88.12
269.377	82.12
269.609	73.12
269.841	79.12
270.073	86.12
270.306	83.12
270.538	85.12
270.77	91.12
271.002	86.12
271.234	97.12
271.466	91.12
271.698	77.12
271.93	70.12
272.162	85.12
272.394	104.12
272.626	96.12
272.858	82.12
273.09	84.12
273.322	78.12
273.553	83.12
273.785	92.12
274.017	77.12
274.249	86.12
274.481	90.12
274.713	92.12
274.945	83.12
275.176	92.12
275.408	88.12
275.64	91.12
275.872	87.12
276.104	88.12
276.335	90.12
276.567	100.12
276.799	115.12
277.031	97.12
277.262	90.12
277.494	96.12
277.726	93.12
277.957	78.12
278.189	87.12
278.421	97.12
278.652	98.12
278.884	88.12
279.115	92.12
279.347	88.12
279.579	87.12
279.81	72.12
280.042	85.12
280.273	84.12
280.505	78.12
280.736	89.12
280.968	93.12
281.199	83.12
281.431	86.12
281.662	90.12
281.894	86.12
282.125	95.12
282.356	131.12
282.588	155.12
282.819	108.12
283.051	90.12
283.282	78.12
283.513	81.12
283.745	102.12
283.976	80.12
284.207	87.12
284.439	96.12
284.67	94.12
284.901	91.12
285.132	81.12
285.364	68.12
285.595	72.12
285.826	77.12
286.057	83.12
286.288	88.12
286.52	102.12
286.751	81.12
286.982	71.12
287.213	85.12
287.444	101.12
287.675	89.12
287.906	85.12
288.138	96.12
288.369	97.12
288.6	91.12
288.831	88.12
289.062	94.12
289.293	91.12
289.524	95.12
289.755	73.12
289.986	85.12
290.217	76.12
290.448	85.12
290.679	89.12
290.91	99.12
291.141	79.12
291.371	87.12
291.602	93.12
291.833	85.12
292.064	86.12
292.295	103.12
292.526	95.12
292.757	73.12
292.987	79.12
293.218	73.12
293.449	80.12
293.68	80.12
293.91	89.12
294.141	77.12
294.372	80.12
294.603	91.12
294.833	73.12
295.064	91.12
295.295	82.12
295.525	98.12
295.756	98.12
295.987	121.12
296.217	155.12
296.448	137.12
296.679	100.12
296.909	97.12
297.14	96.12
297.37	96.12
297.601	85.12
297.831	76.12
298.062	100.12
298.292	79.12
298.523	90.12
298.753	73.12
298.984	81.12
299.214	82.12
299.445	98.12
299.675	103.12
299.905	101.12
300.136	81.12
300.366	92.12
300.597	88.12
300.827	83.12
301.057	100.12
301.288	110.12
301.518	98.12
301.748	88.12
301.979	96.12
302.209	100.12
302.439	83.12
302.669	82.12
302.9	90.12
303.13	87.12
303.36	90.12
303.59	102.12
303.82	113.12
304.051	92.12
304.281	101.12
304.511	97.12
304.741	99.12
304.971	92.12
305.201	99.12
305.431	79.12
305.661	84.12
305.891	87.12
306.121	107.12
306.352	105.12
306.582	114.12
306.812	96.12
307.042	104.12
307.272	92.12
307.502	93.12
307.731	99.12
307.961	101.12
308.191	87.12
308.421	93.12
308.651	95.12
308.881	100.12
309.111	87.12
309.341	117.12
309.571	92.12
309.8	93.12
310.03	89.12
310.26	93.12
310.49	100.12
310.72	95.12
310.949	106.12
311.179	97.12
311.409	103.12
311.639	101.12
311.868	100.12
312.098	98.12
312.328	99.12
312.557	97.12
312.787	111.12
313.017	91.12
313.246	103.12
313.476	99.12
313.706	92.12
313.935	99.12
314.165	83.12
314.394	101.12
314.624	91.12
314.853	90.12
315.083	100.12
315.312	80.12
315.542	90.12
315.771	85.12
316.001	83.12
316.23	97.12
316.46	91.12
316.689	91.12
316.919	89.12
317.148	88.12
317.377	106.12
317.607	93.12
317.836	81.12
318.065	90.12
318.295	99.12
318.524	98.12
318.753	92.12
318.983	85.12
319.212	92.12
319.441	109.12
319.67	109.12
319.9	82.12
320.129	110.12
320.358	108.12
320.587	96.12
320.816	92.12
321.046	95.12
321.275	101.12
321.504	99.12
321.733	105.12
321.962	88.12
322.191	91.12
322.42	108.12
322.649	104.12
322.878	114.12
323.108	126.12
323.337	119.12
323.566	138.12
323.795	172.12
324.024	232.12
324.253	435.12
324.482	927.12
324.71	1841.12
324.939	2397.12
325.168	898.12
325.397	261.12
325.626	161.12
325.855	134.12
326.084	131.12
326.313	149.12
326.542	167.12
326.77	230.12
326.999	475.12
327.228	979.12
327.457	1779.12
327.686	1423.12
327.914	400.12
328.143	198.12
328.372	173.12
328.6	149.12
328.829	122.12
329.058	132.12
329.287	148.12
329.515	118.12
329.744	118.12
329.972	107.12
330.201	132.12
330.43	140.12
330.658	141.12
330.887	167.12
331.115	143.12
331.344	97.12
331.572	99.12
331.801	116.12
332.03	104.12
332.258	97.12
332.486	102.12
332.715	109.12
332.943	90.12
333.172	100.12
333.4	97.12
333.629	110.12
333.857	128.12
334.085	101.12
334.314	136.12
334.542	156.12
334.771	166.12
334.999	112.12
335.227	106.12
335.455	101.12
335.684	107.12
335.912	112.12
336.14	101.12
336.369	104.12
336.597	91.12
336.825	109.12
337.053	88.12
337.281	98.12
337.51	92.12
337.738	98.12
337.966	83.12
338.194	100.12
338.422	103.12
338.65	102.12
338.878	98.12
339.106	102.12
339.334	80.12
339.562	78.12
339.79	81.12
340.018	91.12
340.246	98.12
340.474	106.12
340.702	85.12
340.93	74.12
341.158	92.12
341.386	106.12
341.614	93.12
341.842	98.12
342.07	102.12
342.298	100.12
342.526	80.12
342.754	97.12
342.981	99.12
343.209	67.12
343.437	115.12
343.665	91.12
343.893	90.12
344.12	96.12
344.348	90.12
344.576	81.12
344.804	86.12
345.031	98.12
345.259	102.12
345.487	96.12
345.714	109.12
345.942	99.12
346.17	86.12
346.397	89.12
346.625	82.12
346.853	76.12
347.08	96.12
347.308	98.12
347.535	100.12
347.763	92.12
347.99	94.12
348.218	96.12
348.445	108.12
348.673	106.12
348.9	88.12
349.128	82.12
349.355	96.12
349.583	89.12
349.81	108.12
350.037	96.12
350.265	97.12
350.492	104.12
350.72	107.12
350.947	92.12
351.174	108.12
351.402	120.12
351.629	119.12
351.856	103.12
352.083	101.12
352.311	106.12
352.538	101.12
352.765	101.12
352.992	116.12
353.22	122.12
353.447	106.12
353.674	87.12
353.901	95.12
354.128	91.12
354.355	104.12
354.583	90.12
354.81	96.12
355.037	112.12
355.264	94.12
355.491	99.12
355.718	95.12
355.945	101.12
356.172	88.12
356.399	90.12
356.626	88.12
356.853	97.12
357.08	104.12
357.307	94.12
357.534	82.12
357.761	96.12
357.988	97.12
358.215	99.12
358.441	90.12
358.668	97.12
358.895	80.12
359.122	107.12
359.349	87.12
359.576	102.12
359.802	113.12
360.029	128.12
360.256	123.12
360.483	104.12
360.709	87.12
360.936	98.12
361.163	95.12
361.39	106.12
361.616	88.12
361.843	77.12
362.07	102.12
362.296	92.12
362.523	97.12
362.749	99.12
362.976	100.12
363.203	100.12
363.429	98.12
363.656	112.12
363.882	99.12
364.109	102.12
364.335	96.12
364.562	101.12
364.788	111.12
365.015	90.12
365.241	100.12
365.468	106.12
365.694	110.12
365.92	87.12
366.147	82.12
366.373	89.12
366.599	102.12
366.826	92.12
367.052	93.12
367.278	85.12
367.505	93.12
367.731	79.12
367.957	90.12
368.184	92.12
368.41	101.12
368.636	124.12
368.862	114.12
369.089	101.12
369.315	98.12
369.541	105.12
369.767	75.12
369.993	100.12
370.219	88.12
370.445	97.12
370.672	94.12
370.898	88.12
371.124	98.12
371.35	108.12
371.576	83.12
371.802	83.12
372.028	84.12
372.254	99.12
372.48	101.12
372.706	92.12
372.932	84.12
373.158	82.12
373.384	96.12
373.61	96.12
373.835	87.12
374.061	81.12
374.287	87.12
374.513	89.12
374.739	101.12
374.965	89.12
375.191	93.12
375.416	96.12
375.642	83.12
375.868	80.12
376.094	89.12
376.319	88.12
376.545	89.12
376.771	85.12
376.997	87.12
377.222	80.12
377.448	92.12
377.674	83.12
377.899	94.12
378.125	95.12
378.35	108.12
378.576	100.12
378.802	101.12
379.027	92.12
379.253	89.12
379.478	89.12
379.704	91.12
379.929	92.12
380.155	106.12
380.38	88.12
380.606	99.12
380.831	92.12
381.057	106.12
381.282	98.12
381.507	96.12
381.733	100.12
381.958	87.12
382.184	93.12
382.409	113.12
382.634	111.12
382.86	108.12
383.085	91.12
383.31	107.12
383.535	88.12
383.761	88.12
383.986	97.12
384.211	95.12
384.436	92.12
384.662	103.12
384.887	107.12
385.112	105.12
385.337	96.12
385.562	101.12
385.787	108.12
386.013	108.12
386.238	111.12
386.463	107.12
386.688	111.12
386.913	109.12
387.138	102.12
387.363	113.12
387.588	104.12
387.813	97.12
388.038	93.12
388.263	100.12
388.488	105.12
388.713	103.12
388.938	85.12
389.163	97.12
389.387	93.12
389.612	96.12
389.837	107.12
390.062	101.12
390.287	83.12
390.512	89.12
390.736	92.12
390.961	90.12
391.186	83.12
391.411	101.12
391.636	90.12
391.86	101.12
392.085	100.12
392.31	90.12
392.534	99.12
392.759	84.12
392.984	97.12
393.208	89.12
393.433	81.12
393.658	97.12
393.882	96.12
394.107	92.12
394.331	95.12
394.556	76.12
394.78	108.12
395.005	95.12
395.229	80.12
395.454	77.12
395.678	79.12
395.903	85.12
396.127	87.12
396.352	85.12
396.576	94.12
396.801	78.12
397.025	78.12
397.249	95.12
397.474	83.12
397.698	96.12
397.922	95.12
398.147	102.12
398.371	91.12
398.595	80.12
398.82	83.12
399.044	88.12
399.268	96.12
399.492	94.12
399.717	91.12
399.941	93.12
400.165	105.12
400.389	92.12
400.613	76.12
400.837	83.12
401.062	86.12
401.286	101.12
401.51	86.12
401.734	95.12
401.958	94.12
402.182	144.12
402.406	179.12
402.63	118.12
402.854	79.12
403.078	102.12
403.302	72.12
403.526	98.12
403.75	80.12
403.974	102.12
404.198	91.12
404.422	84.12
404.645	93.12
404.869	86.12
405.093	105.12
405.317	108.12
405.541	107.12
405.765	112.12
405.988	129.12
406.212	200.12
406.436	268.12
406.66	161.12
406.883	102.12
407.107	92.12
407.331	97.12
407.555	100.12
407.778	106.12
408.002	106.12
408.226	77.12
408.449	91.12
408.673	87.12
408.896	81.12
409.12	99.12
409.344	87.12
409.567	92.12
409.791	90.12
410.014	103.12
410.238	86.12
410.461	100.12
410.685	106.12
410.908	104.12
411.132	104.12
411.355	109.12
411.578	90.12
411.802	82.12
412.025	97.12
412.249	77.12
412.472	99.12
412.695	94.12
412.919	99.12
413.142	120.12
413.365	95.12
413.589	94.12
413.812	79.12
414.035	89.12
414.258	92.12
414.482	83.12
414.705	92.12
414.928	87.12
415.151	101.12
415.374	101.12
415.597	87.12
415.821	96.12
416.044	84.12
416.267	73.12
416.49	92.12
416.713	84.12
416.936	79.12
417.159	81.12
417.382	100.12
417.605	91.12
417.828	81.12
418.051	98.12
418.274	94.12
418.497	89.12
418.72	84.12
418.943	92.12
419.166	84.12
419.389	84.12
419.611	89.12
419.834	81.12
420.057	88.12
420.28	90.12
420.503	87.12
420.726	80.12
420.948	80.12
421.171	75.12
421.394	94.12
421.617	92.12
421.839	78.12
422.062	105.12
422.285	88.12
422.507	96.12
422.73	95.12
422.953	90.12
423.175	89.12
423.398	103.12
423.621	85.12
423.843	87.12
424.066	87.12
424.288	83.12
424.511	101.12
424.733	103.12
424.956	112.12
425.178	105.12
425.401	102.12
425.623	96.12
425.846	101.12
426.068	92.12
426.291	99.12
426.513	96.12
426.735	102.12
426.958	98.12
427.18	104.12
427.402	143.12
427.625	179.12
427.847	140.12
428.069	133.12
428.292	98.12
428.514	97.12
428.736	79.12
428.958	90.12
429.181	92.12
429.403	75.12
429.625	97.12
429.847	105.12
430.069	87.12
430.292	90.12
430.514	96.12
430.736	90.12
430.958	80.12
431.18	96.12
431.402	80.12
431.624	73.12
431.846	83.12
432.068	95.12
432.29	87.12
432.512	87.12
432.734	88.12
432.956	98.12
433.178	84.12
433.4	97.12
433.622	73.12
433.844	97.12
434.066	88.12
434.287	96.12
434.509	93.12
434.731	88.12
434.953	81.12
435.175	77.12
435.397	91.12
435.618	93.12
435.84	102.12
436.062	129.12
436.284	105.12
436.505	98.12
436.727	98.12
436.949	87.12
437.17	98.12
437.392	86.12
437.614	104.12
437.835	128.12
438.057	139.12
438.278	115.12
438.5	103.12
438.721	109.12
438.943	100.12
439.165	82.12
439.386	99.12
439.608	96.12
439.829	100.12
440.05	116.12
440.272	166.12
440.493	100.12
440.715	88.12
440.936	91.12
441.158	68.12
441.379	96.12
441.6	102.12
441.822	96.12
442.043	102.12
442.264	105.12
442.486	110.12
442.707	105.12
442.928	92.12
443.149	132.12
443.371	143.12
443.592	123.12
443.813	111.12
444.034	122.12
444.255	99.12
444.476	75.12
444.698	93.12
444.919	89.12
445.14	138.12
445.361	134.12
445.582	128.12
445.803	155.12
446.024	145.12
446.245	129.12
446.466	101.12
446.687	92.12
446.908	96.12
447.129	91.12
447.35	92.12
447.571	96.12
447.792	106.12
448.013	105.12
448.234	117.12
448.455	101.12
448.675	107.12
448.896	119.12
449.117	102.12
449.338	99.12
449.559	127.12
449.779	128.12
450	94.12
450.221	100.12
450.442	86.12
450.662	98.12
450.883	117.12
451.104	101.12
451.324	101.12
451.545	89.12
451.766	85.12
451.986	86.12
452.207	93.12
452.428	95.12
452.648	86.12
452.869	116.12
453.089	121.12
453.31	132.12
453.53	97.12
453.751	96.12
453.971	88.12
454.192	109.12
454.412	91.12
454.633	80.12
454.853	87.12
455.073	92.12
455.294	83.12
455.514	107.12
455.734	77.12
455.955	75.12
456.175	90.12
456.395	81.12
456.616	77.12
456.836	71.12
457.056	90.12
457.276	81.12
457.497	88.12
457.717	80.12
457.937	84.12
458.157	77.12
458.377	97.12
458.598	117.12
458.818	163.12
459.038	188.12
459.258	126.12
459.478	85.12
459.698	89.12
459.918	90.12
460.138	81.12
460.358	78.12
460.578	92.12
460.798	96.12
461.018	84.12
461.238	89.12
461.458	91.12
461.678	88.12
461.898	91.12
462.118	85.12
462.338	87.12
462.558	96.12
462.777	95.12
462.997	87.12
463.217	91.12
463.437	87.12
463.657	90.12
463.876	79.12
464.096	96.12
464.316	88.12
464.536	100.12
464.755	97.12
464.975	112.12
465.195	184.12
465.414	170.12
465.634	105.12
465.854	88.12
466.073	82.12
466.293	89.12
466.512	91.12
466.732	95.12
466.951	86.12
467.171	99.12
467.391	99.12
467.61	107.12
467.829	101.12
468.049	100.12
468.268	128.12
468.488	91.12
468.707	82.12
468.927	79.12
469.146	80.12
469.365	81.12
469.585	89.12
469.804	103.12
470.023	104.12
470.243	103.12
470.462	104.12
470.681	106.12
470.901	103.12
471.12	91.12
471.339	84.12
471.558	81.12
471.777	84.12
471.997	99.12
472.216	127.12
472.435	171.12
472.654	100.12
472.873	89.12
473.092	83.12
473.311	79.12
473.53	89.12
473.749	92.12
473.968	83.12
474.187	102.12
474.406	88.12
474.625	81.12
474.844	83.12
475.063	78.12
475.282	77.12
475.501	96.12
475.72	71.12
475.939	80.12
476.158	83.12
476.377	77.12
476.596	72.12
476.814	78.12
477.033	86.12
477.252	80.12
477.471	89.12
477.69	74.12
477.908	87.12
478.127	80.12
478.346	79.12
478.564	70.12
478.783	95.12
479.002	100.12
479.22	90.12
479.439	107.12
479.658	124.12
479.876	83.12
480.095	76.12
480.313	75.12
480.532	79.12
480.751	99.12
480.969	129.12
481.188	223.12
481.406	184.12
481.624	103.12
481.843	98.12
482.061	102.12
482.28	93.12
482.498	93.12
482.717	92.12
482.935	101.12
483.153	102.12
483.372	90.12
483.59	88.12
483.808	82.12
484.027	77.12
484.245	81.12
484.463	106.12
484.681	103.12
484.9	102.12
485.118	100.12
485.336	79.12
485.554	99.12
485.772	85.12
485.99	99.12
486.209	105.12
486.427	91.12
486.645	117.12
486.863	129.12
487.081	96.12
487.299	87.12
487.517	96.12
487.735	79.12
487.953	92.12
488.171	92.12
488.389	100.12
488.607	108.12
488.825	92.12
489.043	84.12
489.261	95.12
489.479	105.12
489.696	82.12
489.914	87.12
490.132	96.12
490.35	99.12
490.568	93.12
490.786	82.12
491.003	92.12
491.221	85.12
491.439	97.12
491.657	89.12
491.874	91.12
492.092	81.12
492.31	99.12
492.527	102.12
492.745	101.12
492.963	94.12
493.18	90.12
493.398	84.12
493.615	100.12
493.833	92.12
494.05	76.12
494.268	98.12
494.485	81.12
494.703	89.12
494.92	87.12
495.138	92.12
495.355	88.12
495.573	88.12
495.79	89.12
496.008	91.12
496.225	95.12
496.442	97.12
496.66	95.12
496.877	100.12
497.094	72.12
497.312	73.12
497.529	93.12
497.746	88.12
497.963	84.12
498.181	96.12
498.398	96.12
498.615	105.12
498.832	102.12
499.049	71.12
499.267	97.12
499.484	98.12
499.701	91.12
499.918	92.12
500.135	76.12
500.352	91.12
500.569	102.12
500.786	91.12
501.003	105.12
501.22	82.12
501.437	102.12
501.654	103.12
501.871	108.12
502.088	101.12
502.305	86.12
502.522	95.12
502.739	86.12
502.956	98.12
503.172	92.12
503.389	101.12
503.606	110.12
503.823	94.12
504.04	86.12
504.256	78.12
504.473	95.12
504.69	84.12
504.907	99.12
505.123	88.12
505.34	87.12
505.557	84.12
505.773	90.12
505.99	87.12
506.207	79.12
506.423	92.12
506.64	97.12
506.856	91.12
507.073	92.12
507.289	88.12
507.506	89.12
507.722	125.12
507.939	140.12
508.155	87.12
508.372	100.12
508.588	93.12
508.805	97.12
509.021	94.12
509.238	83.12
509.454	100.12
509.67	95.12
509.887	113.12
510.103	135.12
510.319	234.12
510.536	931.12
510.752	3157.12
510.968	887.12
511.184	170.12
511.401	133.12
511.617	101.12
511.833	83.12
512.049	101.12
512.265	87.12
512.481	99.12
512.698	89.12
512.914	96.12
513.13	88.12
513.346	96.12
513.562	98.12
513.778	99.12
513.994	103.12
514.21	108.12
514.426	121.12
514.642	152.12
514.858	137.12
