Data from Circ_2018_H10_HRD10591_00097.txt Node
Date: Wed Jan 03 09:56:21 EST 2024
User: Yrep
Spectrometer: HR+D1059
Trigger mode: 1
Integration Time (sec): 1.000000E-1
Scans to average: 1
Electric dark correction enabled: true
Nonlinearity correction enabled: false
Boxcar width: 0
XAxis mode: Wavelengths
Number of Pixels in Spectrum: 2048
>>>>>Begin Spectral Data<<<<<
223.165	-7.62
223.4	-7.62
223.635	-7.62
223.869	-25.62
224.104	-25.62
224.338	-15.62
224.573	-14.62
224.808	-10.62
225.042	-4.62
225.277	-1.62
225.511	-6.62
225.746	9.38
225.98	3.38
226.215	19.38
226.449	18.38
226.683	33.38
226.918	11.38
227.152	17.38
227.387	32.38
227.621	31.38
227.856	43.38
228.09	46.38
228.324	50.38
228.559	55.38
228.793	68.38
229.027	63.38
229.262	65.38
229.496	80.38
229.73	83.38
229.964	75.38
230.199	75.38
230.433	89.38
230.667	80.38
230.901	65.38
231.136	80.38
231.37	56.38
231.604	71.38
231.838	80.38
232.072	64.38
232.306	76.38
232.541	76.38
232.775	79.38
233.009	88.38
233.243	82.38
233.477	91.38
233.711	90.38
233.945	76.38
234.179	77.38
234.413	58.38
234.647	81.38
234.881	81.38
235.115	76.38
235.349	86.38
235.583	75.38
235.817	79.38
236.051	84.38
236.285	82.38
236.519	70.38
236.753	75.38
236.987	76.38
237.221	94.38
237.455	86.38
237.689	77.38
237.922	89.38
238.156	61.38
238.39	75.38
238.624	56.38
238.858	72.38
239.091	76.38
239.325	66.38
239.559	89.38
239.793	75.38
240.027	77.38
240.26	63.38
240.494	97.38
240.728	68.38
240.961	76.38
241.195	80.38
241.429	81.38
241.662	79.38
241.896	72.38
242.13	69.38
242.363	80.38
242.597	73.38
242.83	79.38
243.064	66.38
243.298	73.38
243.531	80.38
243.765	83.38
243.998	75.38
244.232	82.38
244.465	83.38
244.699	92.38
244.932	65.38
245.166	67.38
245.399	72.38
245.633	78.38
245.866	69.38
246.099	73.38
246.333	80.38
246.566	67.38
246.8	70.38
247.033	89.38
247.266	75.38
247.5	55.38
247.733	70.38
247.966	77.38
248.2	83.38
248.433	81.38
248.666	83.38
248.899	89.38
249.133	82.38
249.366	95.38
249.599	87.38
249.832	71.38
250.066	78.38
250.299	73.38
250.532	71.38
250.765	81.38
250.998	74.38
251.231	81.38
251.465	67.38
251.698	79.38
251.931	73.38
252.164	71.38
252.397	65.38
252.63	74.38
252.863	71.38
253.096	59.38
253.329	81.38
253.562	80.38
253.795	62.38
254.028	67.38
254.261	89.38
254.494	82.38
254.727	68.38
254.96	76.38
255.193	89.38
255.426	83.38
255.659	66.38
255.892	80.38
256.124	70.38
256.357	88.38
256.59	83.38
256.823	76.38
257.056	88.38
257.289	78.38
257.521	76.38
257.754	78.38
257.987	86.38
258.22	83.38
258.452	81.38
258.685	80.38
258.918	71.38
259.151	83.38
259.383	79.38
259.616	75.38
259.849	87.38
260.081	68.38
260.314	89.38
260.547	83.38
260.779	86.38
261.012	79.38
261.244	69.38
261.477	81.38
261.71	98.38
261.942	118.38
262.175	124.38
262.407	90.38
262.64	90.38
262.872	80.38
263.105	82.38
263.337	71.38
263.57	83.38
263.802	86.38
264.035	80.38
264.267	74.38
264.499	73.38
264.732	75.38
264.964	82.38
265.197	73.38
265.429	72.38
265.661	70.38
265.894	73.38
266.126	93.38
266.358	83.38
266.591	92.38
266.823	76.38
267.055	78.38
267.287	85.38
267.52	86.38
267.752	79.38
267.984	87.38
268.216	90.38
268.448	84.38
268.681	87.38
268.913	83.38
269.145	78.38
269.377	84.38
269.609	56.38
269.841	75.38
270.073	88.38
270.306	67.38
270.538	79.38
270.77	83.38
271.002	81.38
271.234	73.38
271.466	79.38
271.698	86.38
271.93	78.38
272.162	88.38
272.394	83.38
272.626	84.38
272.858	92.38
273.09	70.38
273.322	78.38
273.553	82.38
273.785	82.38
274.017	81.38
274.249	86.38
274.481	74.38
274.713	65.38
274.945	87.38
275.176	90.38
275.408	101.38
275.64	89.38
275.872	77.38
276.104	78.38
276.335	104.38
276.567	103.38
276.799	107.38
277.031	111.38
277.262	88.38
277.494	78.38
277.726	88.38
277.957	72.38
278.189	83.38
278.421	88.38
278.652	82.38
278.884	72.38
279.115	86.38
279.347	87.38
279.579	88.38
279.81	89.38
280.042	102.38
280.273	110.38
280.505	94.38
280.736	103.38
280.968	74.38
281.199	89.38
281.431	86.38
281.662	90.38
281.894	93.38
282.125	107.38
282.356	139.38
282.588	158.38
282.819	123.38
283.051	89.38
283.282	87.38
283.513	88.38
283.745	84.38
283.976	83.38
284.207	92.38
284.439	87.38
284.67	85.38
284.901	71.38
285.132	74.38
285.364	89.38
285.595	92.38
285.826	69.38
286.057	84.38
286.288	83.38
286.52	78.38
286.751	79.38
286.982	78.38
287.213	91.38
287.444	82.38
287.675	88.38
287.906	94.38
288.138	101.38
288.369	88.38
288.6	81.38
288.831	89.38
289.062	90.38
289.293	81.38
289.524	85.38
289.755	83.38
289.986	81.38
290.217	80.38
290.448	81.38
290.679	85.38
290.91	96.38
291.141	83.38
291.371	96.38
291.602	78.38
291.833	83.38
292.064	78.38
292.295	83.38
292.526	92.38
292.757	80.38
292.987	76.38
293.218	76.38
293.449	100.38
293.68	93.38
293.91	86.38
294.141	102.38
294.372	84.38
294.603	93.38
294.833	90.38
295.064	94.38
295.295	96.38
295.525	93.38
295.756	98.38
295.987	132.38
296.217	146.38
296.448	131.38
296.679	86.38
296.909	93.38
297.14	110.38
297.37	92.38
297.601	74.38
297.831	97.38
298.062	94.38
298.292	90.38
298.523	83.38
298.753	87.38
298.984	90.38
299.214	85.38
299.445	90.38
299.675	102.38
299.905	94.38
300.136	74.38
300.366	96.38
300.597	93.38
300.827	90.38
301.057	111.38
301.288	86.38
301.518	86.38
301.748	87.38
301.979	86.38
302.209	96.38
302.439	77.38
302.669	93.38
302.9	73.38
303.13	83.38
303.36	100.38
303.59	106.38
303.82	115.38
304.051	98.38
304.281	99.38
304.511	88.38
304.741	77.38
304.971	78.38
305.201	81.38
305.431	95.38
305.661	90.38
305.891	99.38
306.121	97.38
306.352	90.38
306.582	120.38
306.812	80.38
307.042	97.38
307.272	99.38
307.502	107.38
307.731	101.38
307.961	88.38
308.191	84.38
308.421	92.38
308.651	83.38
308.881	85.38
309.111	97.38
309.341	94.38
309.571	88.38
309.8	93.38
310.03	97.38
310.26	90.38
310.49	101.38
310.72	95.38
310.949	96.38
311.179	113.38
311.409	101.38
311.639	95.38
311.868	95.38
312.098	102.38
312.328	89.38
312.557	93.38
312.787	102.38
313.017	104.38
313.246	88.38
313.476	86.38
313.706	100.38
313.935	89.38
314.165	103.38
314.394	101.38
314.624	110.38
314.853	79.38
315.083	81.38
315.312	79.38
315.542	91.38
315.771	94.38
316.001	89.38
316.23	89.38
316.46	88.38
316.689	83.38
316.919	99.38
317.148	89.38
317.377	94.38
317.607	80.38
317.836	98.38
318.065	77.38
318.295	94.38
318.524	88.38
318.753	92.38
318.983	89.38
319.212	89.38
319.441	106.38
319.67	113.38
319.9	78.38
320.129	83.38
320.358	95.38
320.587	85.38
320.816	92.38
321.046	111.38
321.275	97.38
321.504	89.38
321.733	111.38
321.962	90.38
322.191	95.38
322.42	107.38
322.649	107.38
322.878	112.38
323.108	106.38
323.337	120.38
323.566	131.38
323.795	162.38
324.024	213.38
324.253	426.38
324.482	890.38
324.71	1825.38
324.939	2376.38
325.168	881.38
325.397	271.38
325.626	148.38
325.855	133.38
326.084	119.38
326.313	132.38
326.542	164.38
326.77	242.38
326.999	467.38
327.228	995.38
327.457	1753.38
327.686	1433.38
327.914	415.38
328.143	212.38
328.372	167.38
328.6	149.38
328.829	130.38
329.058	147.38
329.287	137.38
329.515	112.38
329.744	88.38
329.972	137.38
330.201	136.38
330.43	188.38
330.658	161.38
330.887	154.38
331.115	134.38
331.344	92.38
331.572	105.38
331.801	98.38
332.03	112.38
332.258	99.38
332.486	95.38
332.715	90.38
332.943	81.38
333.172	86.38
333.4	110.38
333.629	112.38
333.857	127.38
334.085	144.38
334.314	150.38
334.542	208.38
334.771	215.38
334.999	122.38
335.227	117.38
335.455	93.38
335.684	111.38
335.912	111.38
336.14	97.38
336.369	111.38
336.597	93.38
336.825	102.38
337.053	92.38
337.281	88.38
337.51	90.38
337.738	82.38
337.966	103.38
338.194	91.38
338.422	90.38
338.65	86.38
338.878	112.38
339.106	103.38
339.334	102.38
339.562	98.38
339.79	108.38
340.018	85.38
340.246	95.38
340.474	97.38
340.702	91.38
340.93	91.38
341.158	94.38
341.386	99.38
341.614	98.38
341.842	101.38
342.07	91.38
342.298	83.38
342.526	83.38
342.754	89.38
342.981	86.38
343.209	88.38
343.437	90.38
343.665	90.38
343.893	85.38
344.12	82.38
344.348	81.38
344.576	82.38
344.804	94.38
345.031	116.38
345.259	111.38
345.487	97.38
345.714	86.38
345.942	87.38
346.17	84.38
346.397	95.38
346.625	100.38
346.853	74.38
347.08	93.38
347.308	87.38
347.535	95.38
347.763	93.38
347.99	100.38
348.218	92.38
348.445	98.38
348.673	102.38
348.9	85.38
349.128	95.38
349.355	85.38
349.583	89.38
349.81	96.38
350.037	88.38
350.265	93.38
350.492	99.38
350.72	97.38
350.947	102.38
351.174	115.38
351.402	114.38
351.629	112.38
351.856	100.38
352.083	97.38
352.311	113.38
352.538	111.38
352.765	115.38
352.992	124.38
353.22	100.38
353.447	109.38
353.674	79.38
353.901	93.38
354.128	85.38
354.355	103.38
354.583	98.38
354.81	112.38
355.037	101.38
355.264	91.38
355.491	86.38
355.718	79.38
355.945	91.38
356.172	106.38
356.399	91.38
356.626	96.38
356.853	90.38
357.08	88.38
357.307	88.38
357.534	79.38
357.761	84.38
357.988	104.38
358.215	88.38
358.441	100.38
358.668	96.38
358.895	93.38
359.122	84.38
359.349	91.38
359.576	107.38
359.802	107.38
360.029	101.38
360.256	118.38
360.483	99.38
360.709	91.38
360.936	106.38
361.163	86.38
361.39	103.38
361.616	113.38
361.843	91.38
362.07	96.38
362.296	101.38
362.523	98.38
362.749	87.38
362.976	102.38
363.203	83.38
363.429	84.38
363.656	119.38
363.882	84.38
364.109	91.38
364.335	98.38
364.562	99.38
364.788	87.38
365.015	113.38
365.241	104.38
365.468	112.38
365.694	114.38
365.92	96.38
366.147	79.38
366.373	92.38
366.599	74.38
366.826	87.38
367.052	92.38
367.278	100.38
367.505	96.38
367.731	85.38
367.957	78.38
368.184	107.38
368.41	107.38
368.636	126.38
368.862	136.38
369.089	102.38
369.315	103.38
369.541	67.38
369.767	96.38
369.993	88.38
370.219	76.38
370.445	79.38
370.672	100.38
370.898	77.38
371.124	88.38
371.35	90.38
371.576	89.38
371.802	93.38
372.028	83.38
372.254	91.38
372.48	76.38
372.706	91.38
372.932	87.38
373.158	79.38
373.384	83.38
373.61	87.38
373.835	89.38
374.061	75.38
374.287	91.38
374.513	89.38
374.739	86.38
374.965	90.38
375.191	78.38
375.416	89.38
375.642	72.38
375.868	85.38
376.094	88.38
376.319	74.38
376.545	74.38
376.771	77.38
376.997	80.38
377.222	98.38
377.448	88.38
377.674	102.38
377.899	74.38
378.125	89.38
378.35	87.38
378.576	78.38
378.802	75.38
379.027	82.38
379.253	88.38
379.478	77.38
379.704	95.38
379.929	98.38
380.155	85.38
380.38	77.38
380.606	86.38
380.831	89.38
381.057	93.38
381.282	89.38
381.507	94.38
381.733	95.38
381.958	93.38
382.184	86.38
382.409	102.38
382.634	99.38
382.86	108.38
383.085	99.38
383.31	104.38
383.535	97.38
383.761	97.38
383.986	87.38
384.211	93.38
384.436	88.38
384.662	79.38
384.887	84.38
385.112	92.38
385.337	94.38
385.562	104.38
385.787	101.38
386.013	104.38
386.238	122.38
386.463	110.38
386.688	97.38
386.913	96.38
387.138	114.38
387.363	91.38
387.588	95.38
387.813	106.38
388.038	101.38
388.263	88.38
388.488	97.38
388.713	101.38
388.938	84.38
389.163	100.38
389.387	93.38
389.612	87.38
389.837	97.38
390.062	85.38
390.287	83.38
390.512	78.38
390.736	87.38
390.961	105.38
391.186	89.38
391.411	105.38
391.636	93.38
391.86	82.38
392.085	72.38
392.31	81.38
392.534	83.38
392.759	94.38
392.984	84.38
393.208	81.38
393.433	98.38
393.658	84.38
393.882	87.38
394.107	75.38
394.331	80.38
394.556	86.38
394.78	77.38
395.005	84.38
395.229	96.38
395.454	70.38
395.678	91.38
395.903	90.38
396.127	94.38
396.352	67.38
396.576	81.38
396.801	90.38
397.025	72.38
397.249	81.38
397.474	91.38
397.698	78.38
397.922	105.38
398.147	81.38
398.371	93.38
398.595	91.38
398.82	93.38
399.044	84.38
399.268	86.38
399.492	98.38
399.717	79.38
399.941	78.38
400.165	98.38
400.389	93.38
400.613	90.38
400.837	78.38
401.062	93.38
401.286	88.38
401.51	90.38
401.734	101.38
401.958	106.38
402.182	146.38
402.406	184.38
402.63	127.38
402.854	94.38
403.078	91.38
403.302	81.38
403.526	78.38
403.75	85.38
403.974	86.38
404.198	93.38
404.422	100.38
404.645	90.38
404.869	88.38
405.093	96.38
405.317	97.38
405.541	102.38
405.765	94.38
405.988	141.38
406.212	204.38
406.436	259.38
406.66	165.38
406.883	111.38
407.107	93.38
407.331	113.38
407.555	110.38
407.778	107.38
408.002	101.38
408.226	79.38
408.449	80.38
408.673	93.38
408.896	91.38
409.12	97.38
409.344	86.38
409.567	102.38
409.791	87.38
410.014	102.38
410.238	85.38
410.461	96.38
410.685	86.38
410.908	105.38
411.132	105.38
411.355	93.38
411.578	89.38
411.802	87.38
412.025	83.38
412.249	94.38
412.472	99.38
412.695	96.38
412.919	96.38
413.142	75.38
413.365	80.38
413.589	87.38
413.812	75.38
414.035	83.38
414.258	104.38
414.482	85.38
414.705	88.38
414.928	74.38
415.151	94.38
415.374	92.38
415.597	94.38
415.821	68.38
416.044	86.38
416.267	89.38
416.49	90.38
416.713	94.38
416.936	85.38
417.159	88.38
417.382	88.38
417.605	79.38
417.828	80.38
418.051	71.38
418.274	91.38
418.497	73.38
418.72	81.38
418.943	98.38
419.166	89.38
419.389	88.38
419.611	93.38
419.834	80.38
420.057	91.38
420.28	90.38
420.503	102.38
420.726	87.38
420.948	82.38
421.171	89.38
421.394	102.38
421.617	90.38
421.839	96.38
422.062	70.38
422.285	85.38
422.507	107.38
422.73	117.38
422.953	72.38
423.175	87.38
423.398	81.38
423.621	80.38
423.843	86.38
424.066	84.38
424.288	88.38
424.511	86.38
424.733	99.38
424.956	114.38
425.178	98.38
425.401	106.38
425.623	98.38
425.846	77.38
426.068	91.38
426.291	89.38
426.513	88.38
426.735	92.38
426.958	102.38
427.18	116.38
427.402	174.38
427.625	198.38
427.847	164.38
428.069	123.38
428.292	81.38
428.514	79.38
428.736	96.38
428.958	81.38
429.181	89.38
429.403	93.38
429.625	77.38
429.847	80.38
430.069	107.38
430.292	85.38
430.514	78.38
430.736	88.38
430.958	87.38
431.18	79.38
431.402	99.38
431.624	79.38
431.846	89.38
432.068	87.38
432.29	79.38
432.512	78.38
432.734	80.38
432.956	95.38
433.178	87.38
433.4	103.38
433.622	87.38
433.844	97.38
434.066	90.38
434.287	86.38
434.509	92.38
434.731	82.38
434.953	81.38
435.175	73.38
435.397	94.38
435.618	90.38
435.84	102.38
436.062	109.38
436.284	137.38
436.505	109.38
436.727	87.38
436.949	96.38
437.17	84.38
437.392	87.38
437.614	105.38
437.835	111.38
438.057	123.38
438.278	111.38
438.5	109.38
438.721	114.38
438.943	91.38
439.165	84.38
439.386	83.38
439.608	98.38
439.829	125.38
440.05	137.38
440.272	149.38
440.493	105.38
440.715	94.38
440.936	87.38
441.158	88.38
441.379	94.38
441.6	97.38
441.822	89.38
442.043	83.38
442.264	105.38
442.486	95.38
442.707	83.38
442.928	96.38
443.149	138.38
443.371	140.38
443.592	111.38
443.813	120.38
444.034	115.38
444.255	103.38
444.476	78.38
444.698	83.38
444.919	90.38
445.14	126.38
445.361	133.38
445.582	122.38
445.803	148.38
446.024	143.38
446.245	134.38
446.466	121.38
446.687	93.38
446.908	79.38
447.129	87.38
447.35	89.38
447.571	88.38
447.792	92.38
448.013	88.38
448.234	104.38
448.455	111.38
448.675	129.38
448.896	133.38
449.117	103.38
449.338	98.38
449.559	126.38
449.779	140.38
450	92.38
450.221	70.38
450.442	87.38
450.662	104.38
450.883	111.38
451.104	114.38
451.324	111.38
451.545	86.38
451.766	81.38
451.986	77.38
452.207	82.38
452.428	99.38
452.648	95.38
452.869	115.38
453.089	116.38
453.31	118.38
453.53	86.38
453.751	81.38
453.971	127.38
454.192	121.38
454.412	94.38
454.633	90.38
454.853	101.38
455.073	73.38
455.294	95.38
455.514	98.38
455.734	86.38
455.955	91.38
456.175	93.38
456.395	98.38
456.616	97.38
456.836	89.38
457.056	72.38
457.276	88.38
457.497	88.38
457.717	92.38
457.937	88.38
458.157	83.38
458.377	84.38
458.598	110.38
458.818	179.38
459.038	184.38
459.258	120.38
459.478	98.38
459.698	85.38
459.918	89.38
460.138	79.38
460.358	82.38
460.578	80.38
460.798	88.38
461.018	82.38
461.238	69.38
461.458	86.38
461.678	83.38
461.898	88.38
462.118	88.38
462.338	81.38
462.558	85.38
462.777	82.38
462.997	90.38
463.217	92.38
463.437	83.38
463.657	91.38
463.876	75.38
464.096	89.38
464.316	89.38
464.536	92.38
464.755	92.38
464.975	109.38
465.195	193.38
465.414	197.38
465.634	101.38
465.854	90.38
466.073	80.38
466.293	81.38
466.512	65.38
466.732	76.38
466.951	97.38
467.171	96.38
467.391	90.38
467.61	113.38
467.829	105.38
468.049	115.38
468.268	131.38
468.488	92.38
468.707	80.38
468.927	83.38
469.146	82.38
469.365	65.38
469.585	93.38
469.804	96.38
470.023	102.38
470.243	91.38
470.462	101.38
470.681	119.38
470.901	94.38
471.12	80.38
471.339	79.38
471.558	97.38
471.777	81.38
471.997	92.38
472.216	169.38
472.435	250.38
472.654	121.38
472.873	93.38
473.092	85.38
473.311	93.38
473.53	80.38
473.749	90.38
473.968	90.38
474.187	111.38
474.406	102.38
474.625	74.38
474.844	86.38
475.063	93.38
475.282	85.38
475.501	87.38
475.72	78.38
475.939	84.38
476.158	87.38
476.377	71.38
476.596	92.38
476.814	96.38
477.033	94.38
477.252	81.38
477.471	77.38
477.69	91.38
477.908	85.38
478.127	79.38
478.346	90.38
478.564	81.38
478.783	85.38
479.002	99.38
479.22	88.38
479.439	103.38
479.658	109.38
479.876	95.38
480.095	89.38
480.313	103.38
480.532	110.38
480.751	109.38
480.969	173.38
481.188	390.38
481.406	273.38
481.624	125.38
481.843	95.38
482.061	78.38
482.28	109.38
482.498	84.38
482.717	89.38
482.935	82.38
483.153	88.38
483.372	79.38
483.59	80.38
483.808	87.38
484.027	97.38
484.245	101.38
484.463	98.38
484.681	87.38
484.9	93.38
485.118	87.38
485.336	100.38
485.554	88.38
485.772	93.38
485.99	105.38
486.209	101.38
486.427	109.38
486.645	109.38
486.863	116.38
487.081	93.38
487.299	88.38
487.517	97.38
487.735	99.38
487.953	100.38
488.171	83.38
488.389	97.38
488.607	111.38
488.825	103.38
489.043	99.38
489.261	87.38
489.479	80.38
489.696	92.38
489.914	97.38
490.132	88.38
490.35	98.38
490.568	95.38
490.786	81.38
491.003	92.38
491.221	87.38
491.439	87.38
491.657	92.38
491.874	95.38
492.092	96.38
492.31	99.38
492.527	82.38
492.745	92.38
492.963	93.38
493.18	86.38
493.398	88.38
493.615	85.38
493.833	94.38
494.05	100.38
494.268	94.38
494.485	89.38
494.703	74.38
494.92	85.38
495.138	91.38
495.355	79.38
495.573	93.38
495.79	88.38
496.008	92.38
496.225	85.38
496.442	100.38
496.66	88.38
496.877	86.38
497.094	86.38
497.312	88.38
497.529	86.38
497.746	99.38
497.963	87.38
498.181	85.38
498.398	115.38
498.615	102.38
498.832	98.38
499.049	96.38
499.267	95.38
499.484	86.38
499.701	82.38
499.918	88.38
500.135	72.38
500.352	85.38
500.569	83.38
500.786	86.38
501.003	82.38
501.22	103.38
501.437	88.38
501.654	97.38
501.871	113.38
502.088	89.38
502.305	102.38
502.522	87.38
502.739	79.38
502.956	81.38
503.172	86.38
503.389	96.38
503.606	94.38
503.823	102.38
504.04	90.38
504.256	99.38
504.473	86.38
504.69	98.38
504.907	97.38
505.123	80.38
505.34	90.38
505.557	84.38
505.773	75.38
505.99	85.38
506.207	84.38
506.423	88.38
506.64	81.38
506.856	95.38
507.073	88.38
507.289	87.38
507.506	110.38
507.722	115.38
507.939	133.38
508.155	87.38
508.372	94.38
508.588	92.38
508.805	96.38
509.021	81.38
509.238	98.38
509.454	94.38
509.67	103.38
509.887	121.38
510.103	151.38
510.319	225.38
510.536	919.38
510.752	3087.38
510.968	879.38
511.184	193.38
511.401	125.38
511.617	101.38
511.833	89.38
512.049	97.38
512.265	90.38
512.481	101.38
512.698	88.38
512.914	91.38
513.13	93.38
513.346	98.38
513.562	89.38
513.778	89.38
513.994	114.38
514.21	99.38
514.426	131.38
514.642	139.38
514.858	139.38
515.074	169.38
515.29	555.38
515.506	2065.38
515.721	792.38
