Data from Circ_2018_H10_HRD10591_00028.txt Node
Date: Wed Jan 03 09:56:07 EST 2024
User: Yrep
Spectrometer: HR+D1059
Trigger mode: 1
Integration Time (sec): 1.000000E-1
Scans to average: 1
Electric dark correction enabled: true
Nonlinearity correction enabled: false
Boxcar width: 0
XAxis mode: Wavelengths
Number of Pixels in Spectrum: 2048
>>>>>Begin Spectral Data<<<<<
223.165	-7.81
223.4	-7.81
223.635	-7.81
223.869	-12.81
224.104	-27.81
224.338	-22.81
224.573	-20.81
224.808	-20.81
225.042	-9.81
225.277	-1.81
225.511	2.19
225.746	0.19
225.98	22.19
226.215	16.19
226.449	13.19
226.683	14.19
226.918	27.19
227.152	29.19
227.387	31.19
227.621	55.19
227.856	46.19
228.09	40.19
228.324	55.19
228.559	67.19
228.793	65.19
229.027	55.19
229.262	65.19
229.496	73.19
229.73	87.19
229.964	92.19
230.199	81.19
230.433	68.19
230.667	77.19
230.901	78.19
231.136	85.19
231.37	83.19
231.604	78.19
231.838	83.19
232.072	86.19
232.306	82.19
232.541	90.19
232.775	92.19
233.009	80.19
233.243	81.19
233.477	93.19
233.711	90.19
233.945	81.19
234.179	57.19
234.413	73.19
234.647	83.19
234.881	73.19
235.115	83.19
235.349	72.19
235.583	73.19
235.817	78.19
236.051	82.19
236.285	97.19
236.519	68.19
236.753	73.19
236.987	92.19
237.221	86.19
237.455	93.19
237.689	78.19
237.922	91.19
238.156	69.19
238.39	72.19
238.624	65.19
238.858	88.19
239.091	93.19
239.325	81.19
239.559	88.19
239.793	86.19
240.027	92.19
240.26	81.19
240.494	68.19
240.728	78.19
240.961	87.19
241.195	70.19
241.429	77.19
241.662	84.19
241.896	84.19
242.13	71.19
242.363	76.19
242.597	73.19
242.83	76.19
243.064	66.19
243.298	84.19
243.531	91.19
243.765	79.19
243.998	82.19
244.232	72.19
244.465	84.19
244.699	100.19
244.932	83.19
245.166	99.19
245.399	73.19
245.633	71.19
245.866	87.19
246.099	91.19
246.333	81.19
246.566	80.19
246.8	93.19
247.033	68.19
247.266	98.19
247.5	92.19
247.733	81.19
247.966	76.19
248.2	79.19
248.433	67.19
248.666	93.19
248.899	76.19
249.133	81.19
249.366	98.19
249.599	105.19
249.832	87.19
250.066	85.19
250.299	83.19
250.532	78.19
250.765	74.19
250.998	85.19
251.231	86.19
251.465	82.19
251.698	77.19
251.931	76.19
252.164	80.19
252.397	96.19
252.63	86.19
252.863	78.19
253.096	81.19
253.329	85.19
253.562	74.19
253.795	80.19
254.028	77.19
254.261	76.19
254.494	85.19
254.727	96.19
254.96	85.19
255.193	77.19
255.426	82.19
255.659	77.19
255.892	82.19
256.124	86.19
256.357	86.19
256.59	60.19
256.823	79.19
257.056	86.19
257.289	74.19
257.521	89.19
257.754	84.19
257.987	77.19
258.22	72.19
258.452	78.19
258.685	88.19
258.918	82.19
259.151	76.19
259.383	76.19
259.616	88.19
259.849	87.19
260.081	72.19
260.314	69.19
260.547	81.19
260.779	86.19
261.012	91.19
261.244	81.19
261.477	106.19
261.71	106.19
261.942	134.19
262.175	113.19
262.407	102.19
262.64	97.19
262.872	87.19
263.105	79.19
263.337	92.19
263.57	85.19
263.802	79.19
264.035	76.19
264.267	78.19
264.499	85.19
264.732	87.19
264.964	83.19
265.197	89.19
265.429	97.19
265.661	90.19
265.894	81.19
266.126	78.19
266.358	77.19
266.591	102.19
266.823	84.19
267.055	91.19
267.287	86.19
267.52	87.19
267.752	74.19
267.984	77.19
268.216	70.19
268.448	88.19
268.681	81.19
268.913	89.19
269.145	84.19
269.377	87.19
269.609	72.19
269.841	75.19
270.073	69.19
270.306	68.19
270.538	101.19
270.77	85.19
271.002	85.19
271.234	71.19
271.466	91.19
271.698	76.19
271.93	84.19
272.162	96.19
272.394	86.19
272.626	87.19
272.858	79.19
273.09	89.19
273.322	86.19
273.553	94.19
273.785	84.19
274.017	93.19
274.249	88.19
274.481	85.19
274.713	89.19
274.945	90.19
275.176	94.19
275.408	83.19
275.64	96.19
275.872	92.19
276.104	80.19
276.335	105.19
276.567	106.19
276.799	116.19
277.031	106.19
277.262	102.19
277.494	96.19
277.726	86.19
277.957	84.19
278.189	71.19
278.421	85.19
278.652	90.19
278.884	98.19
279.115	81.19
279.347	109.19
279.579	93.19
279.81	78.19
280.042	91.19
280.273	79.19
280.505	88.19
280.736	98.19
280.968	84.19
281.199	99.19
281.431	95.19
281.662	93.19
281.894	89.19
282.125	99.19
282.356	115.19
282.588	146.19
282.819	122.19
283.051	77.19
283.282	81.19
283.513	88.19
283.745	93.19
283.976	89.19
284.207	82.19
284.439	101.19
284.67	83.19
284.901	99.19
285.132	97.19
285.364	98.19
285.595	86.19
285.826	82.19
286.057	102.19
286.288	97.19
286.52	81.19
286.751	75.19
286.982	74.19
287.213	88.19
287.444	95.19
287.675	89.19
287.906	84.19
288.138	91.19
288.369	96.19
288.6	83.19
288.831	85.19
289.062	89.19
289.293	92.19
289.524	86.19
289.755	95.19
289.986	87.19
290.217	80.19
290.448	92.19
290.679	87.19
290.91	100.19
291.141	100.19
291.371	91.19
291.602	96.19
291.833	92.19
292.064	81.19
292.295	91.19
292.526	95.19
292.757	84.19
292.987	98.19
293.218	93.19
293.449	84.19
293.68	85.19
293.91	88.19
294.141	75.19
294.372	96.19
294.603	85.19
294.833	89.19
295.064	88.19
295.295	102.19
295.525	96.19
295.756	106.19
295.987	112.19
296.217	138.19
296.448	145.19
296.679	108.19
296.909	80.19
297.14	89.19
297.37	100.19
297.601	96.19
297.831	107.19
298.062	87.19
298.292	80.19
298.523	92.19
298.753	82.19
298.984	89.19
299.214	92.19
299.445	86.19
299.675	98.19
299.905	96.19
300.136	95.19
300.366	84.19
300.597	90.19
300.827	98.19
301.057	116.19
301.288	108.19
301.518	101.19
301.748	83.19
301.979	121.19
302.209	93.19
302.439	83.19
302.669	95.19
302.9	99.19
303.13	111.19
303.36	97.19
303.59	101.19
303.82	119.19
304.051	92.19
304.281	96.19
304.511	90.19
304.741	91.19
304.971	80.19
305.201	83.19
305.431	88.19
305.661	80.19
305.891	91.19
306.121	92.19
306.352	97.19
306.582	120.19
306.812	110.19
307.042	85.19
307.272	97.19
307.502	89.19
307.731	89.19
307.961	99.19
308.191	101.19
308.421	85.19
308.651	88.19
308.881	96.19
309.111	93.19
309.341	89.19
309.571	104.19
309.8	101.19
310.03	98.19
310.26	84.19
310.49	100.19
310.72	119.19
310.949	104.19
311.179	90.19
311.409	85.19
311.639	92.19
311.868	106.19
312.098	99.19
312.328	101.19
312.557	97.19
312.787	109.19
313.017	105.19
313.246	91.19
313.476	86.19
313.706	96.19
313.935	91.19
314.165	101.19
314.394	108.19
314.624	93.19
314.853	99.19
315.083	96.19
315.312	100.19
315.542	78.19
315.771	100.19
316.001	91.19
316.23	101.19
316.46	99.19
316.689	93.19
316.919	102.19
317.148	96.19
317.377	102.19
317.607	94.19
317.836	93.19
318.065	93.19
318.295	80.19
318.524	90.19
318.753	90.19
318.983	103.19
319.212	102.19
319.441	117.19
319.67	115.19
319.9	89.19
320.129	96.19
320.358	108.19
320.587	90.19
320.816	113.19
321.046	97.19
321.275	90.19
321.504	99.19
321.733	93.19
321.962	94.19
322.191	102.19
322.42	111.19
322.649	103.19
322.878	109.19
323.108	115.19
323.337	135.19
323.566	128.19
323.795	170.19
324.024	209.19
324.253	436.19
324.482	882.19
324.71	1808.19
324.939	2355.19
325.168	845.19
325.397	251.19
325.626	162.19
325.855	138.19
326.084	140.19
326.313	143.19
326.542	160.19
326.77	220.19
326.999	480.19
327.228	968.19
327.457	1737.19
327.686	1383.19
327.914	397.19
328.143	193.19
328.372	157.19
328.6	140.19
328.829	140.19
329.058	149.19
329.287	139.19
329.515	112.19
329.744	114.19
329.972	103.19
330.201	102.19
330.43	133.19
330.658	139.19
330.887	172.19
331.115	124.19
331.344	116.19
331.572	96.19
331.801	114.19
332.03	117.19
332.258	96.19
332.486	96.19
332.715	87.19
332.943	93.19
333.172	105.19
333.4	113.19
333.629	115.19
333.857	115.19
334.085	109.19
334.314	117.19
334.542	114.19
334.771	134.19
334.999	106.19
335.227	107.19
335.455	101.19
335.684	104.19
335.912	99.19
336.14	96.19
336.369	112.19
336.597	91.19
336.825	90.19
337.053	96.19
337.281	89.19
337.51	93.19
337.738	101.19
337.966	98.19
338.194	91.19
338.422	94.19
338.65	85.19
338.878	105.19
339.106	85.19
339.334	89.19
339.562	98.19
339.79	90.19
340.018	99.19
340.246	81.19
340.474	104.19
340.702	91.19
340.93	75.19
341.158	97.19
341.386	97.19
341.614	95.19
341.842	93.19
342.07	105.19
342.298	75.19
342.526	87.19
342.754	82.19
342.981	85.19
343.209	90.19
343.437	105.19
343.665	90.19
343.893	98.19
344.12	105.19
344.348	80.19
344.576	102.19
344.804	93.19
345.031	101.19
345.259	99.19
345.487	87.19
345.714	93.19
345.942	103.19
346.17	82.19
346.397	95.19
346.625	105.19
346.853	90.19
347.08	92.19
347.308	93.19
347.535	96.19
347.763	104.19
347.99	118.19
348.218	100.19
348.445	97.19
348.673	99.19
348.9	121.19
349.128	102.19
349.355	98.19
349.583	93.19
349.81	95.19
350.037	105.19
350.265	93.19
350.492	85.19
350.72	99.19
350.947	105.19
351.174	109.19
351.402	115.19
351.629	104.19
351.856	101.19
352.083	102.19
352.311	106.19
352.538	125.19
352.765	113.19
352.992	112.19
353.22	99.19
353.447	110.19
353.674	96.19
353.901	101.19
354.128	100.19
354.355	97.19
354.583	101.19
354.81	100.19
355.037	98.19
355.264	94.19
355.491	103.19
355.718	93.19
355.945	90.19
356.172	94.19
356.399	90.19
356.626	95.19
356.853	88.19
357.08	106.19
357.307	96.19
357.534	104.19
357.761	103.19
357.988	116.19
358.215	88.19
358.441	92.19
358.668	108.19
358.895	86.19
359.122	92.19
359.349	93.19
359.576	109.19
359.802	101.19
360.029	131.19
360.256	118.19
360.483	92.19
360.709	91.19
360.936	104.19
361.163	102.19
361.39	97.19
361.616	98.19
361.843	90.19
362.07	85.19
362.296	88.19
362.523	96.19
362.749	89.19
362.976	85.19
363.203	94.19
363.429	90.19
363.656	89.19
363.882	81.19
364.109	66.19
364.335	98.19
364.562	91.19
364.788	93.19
365.015	100.19
365.241	99.19
365.468	122.19
365.694	124.19
365.92	101.19
366.147	83.19
366.373	92.19
366.599	75.19
366.826	92.19
367.052	92.19
367.278	99.19
367.505	82.19
367.731	109.19
367.957	98.19
368.184	84.19
368.41	96.19
368.636	115.19
368.862	121.19
369.089	117.19
369.315	103.19
369.541	98.19
369.767	88.19
369.993	84.19
370.219	78.19
370.445	110.19
370.672	92.19
370.898	84.19
371.124	87.19
371.35	93.19
371.576	85.19
371.802	89.19
372.028	95.19
372.254	89.19
372.48	86.19
372.706	93.19
372.932	85.19
373.158	90.19
373.384	81.19
373.61	94.19
373.835	95.19
374.061	99.19
374.287	89.19
374.513	89.19
374.739	95.19
374.965	94.19
375.191	98.19
375.416	97.19
375.642	78.19
375.868	70.19
376.094	98.19
376.319	94.19
376.545	85.19
376.771	88.19
376.997	95.19
377.222	89.19
377.448	91.19
377.674	89.19
377.899	67.19
378.125	90.19
378.35	90.19
378.576	74.19
378.802	84.19
379.027	94.19
379.253	85.19
379.478	101.19
379.704	98.19
379.929	100.19
380.155	97.19
380.38	97.19
380.606	97.19
380.831	104.19
381.057	93.19
381.282	96.19
381.507	82.19
381.733	94.19
381.958	94.19
382.184	101.19
382.409	92.19
382.634	96.19
382.86	78.19
383.085	97.19
383.31	99.19
383.535	99.19
383.761	99.19
383.986	109.19
384.211	107.19
384.436	101.19
384.662	97.19
384.887	100.19
385.112	98.19
385.337	102.19
385.562	92.19
385.787	92.19
386.013	113.19
386.238	120.19
386.463	104.19
386.688	114.19
386.913	121.19
387.138	101.19
387.363	106.19
387.588	95.19
387.813	93.19
388.038	98.19
388.263	104.19
388.488	103.19
388.713	94.19
388.938	105.19
389.163	95.19
389.387	95.19
389.612	106.19
389.837	84.19
390.062	88.19
390.287	98.19
390.512	91.19
390.736	93.19
390.961	99.19
391.186	94.19
391.411	97.19
391.636	85.19
391.86	85.19
392.085	75.19
392.31	82.19
392.534	85.19
392.759	83.19
392.984	88.19
393.208	93.19
393.433	93.19
393.658	86.19
393.882	81.19
394.107	89.19
394.331	108.19
394.556	99.19
394.78	90.19
395.005	85.19
395.229	95.19
395.454	94.19
395.678	80.19
395.903	98.19
396.127	86.19
396.352	91.19
396.576	83.19
396.801	81.19
397.025	88.19
397.249	83.19
397.474	92.19
397.698	92.19
397.922	107.19
398.147	96.19
398.371	101.19
398.595	87.19
398.82	100.19
399.044	82.19
399.268	84.19
399.492	81.19
399.717	103.19
399.941	100.19
400.165	99.19
400.389	106.19
400.613	87.19
400.837	95.19
401.062	92.19
401.286	98.19
401.51	85.19
401.734	98.19
401.958	91.19
402.182	121.19
402.406	174.19
402.63	140.19
402.854	98.19
403.078	89.19
403.302	89.19
403.526	81.19
403.75	89.19
403.974	90.19
404.198	89.19
404.422	85.19
404.645	97.19
404.869	91.19
405.093	104.19
405.317	94.19
405.541	103.19
405.765	117.19
405.988	134.19
406.212	196.19
406.436	256.19
406.66	164.19
406.883	116.19
407.107	106.19
407.331	105.19
407.555	106.19
407.778	101.19
408.002	105.19
408.226	104.19
408.449	82.19
408.673	88.19
408.896	90.19
409.12	91.19
409.344	96.19
409.567	103.19
409.791	96.19
410.014	110.19
410.238	94.19
410.461	99.19
410.685	104.19
410.908	110.19
411.132	105.19
411.355	96.19
411.578	90.19
411.802	68.19
412.025	80.19
412.249	91.19
412.472	100.19
412.695	97.19
412.919	77.19
413.142	84.19
413.365	86.19
413.589	84.19
413.812	84.19
414.035	83.19
414.258	98.19
414.482	99.19
414.705	82.19
414.928	79.19
415.151	96.19
415.374	97.19
415.597	100.19
415.821	95.19
416.044	81.19
416.267	88.19
416.49	96.19
416.713	99.19
416.936	87.19
417.159	79.19
417.382	97.19
417.605	83.19
417.828	98.19
418.051	75.19
418.274	95.19
418.497	97.19
418.72	92.19
418.943	99.19
419.166	80.19
419.389	87.19
419.611	76.19
419.834	85.19
420.057	76.19
420.28	101.19
420.503	84.19
420.726	94.19
420.948	93.19
421.171	102.19
421.394	101.19
421.617	94.19
421.839	106.19
422.062	80.19
422.285	81.19
422.507	99.19
422.73	106.19
422.953	96.19
423.175	83.19
423.398	85.19
423.621	89.19
423.843	100.19
424.066	101.19
424.288	93.19
424.511	93.19
424.733	96.19
424.956	105.19
425.178	106.19
425.401	104.19
425.623	102.19
425.846	96.19
426.068	88.19
426.291	78.19
426.513	90.19
426.735	72.19
426.958	100.19
427.18	104.19
427.402	150.19
427.625	182.19
427.847	138.19
428.069	113.19
428.292	88.19
428.514	83.19
428.736	89.19
428.958	85.19
429.181	80.19
429.403	83.19
429.625	81.19
429.847	83.19
430.069	81.19
430.292	87.19
430.514	89.19
430.736	81.19
430.958	91.19
431.18	94.19
431.402	79.19
431.624	95.19
431.846	94.19
432.068	83.19
432.29	88.19
432.512	81.19
432.734	92.19
432.956	86.19
433.178	89.19
433.4	102.19
433.622	89.19
433.844	100.19
434.066	96.19
434.287	90.19
434.509	88.19
434.731	90.19
434.953	93.19
435.175	88.19
435.397	86.19
435.618	84.19
435.84	107.19
436.062	132.19
436.284	112.19
436.505	95.19
436.727	93.19
436.949	81.19
437.17	89.19
437.392	93.19
437.614	92.19
437.835	126.19
438.057	124.19
438.278	113.19
438.5	111.19
438.721	102.19
438.943	108.19
439.165	89.19
439.386	106.19
439.608	92.19
439.829	97.19
440.05	119.19
440.272	132.19
440.493	105.19
440.715	91.19
440.936	103.19
441.158	85.19
441.379	97.19
441.6	98.19
441.822	93.19
442.043	90.19
442.264	106.19
442.486	109.19
442.707	104.19
442.928	98.19
443.149	145.19
443.371	130.19
443.592	122.19
443.813	114.19
444.034	125.19
444.255	92.19
444.476	83.19
444.698	86.19
444.919	95.19
445.14	119.19
445.361	128.19
445.582	110.19
445.803	142.19
446.024	157.19
446.245	124.19
446.466	101.19
446.687	89.19
446.908	84.19
447.129	83.19
447.35	97.19
447.571	81.19
447.792	102.19
448.013	109.19
448.234	100.19
448.455	91.19
448.675	119.19
448.896	110.19
449.117	100.19
449.338	103.19
449.559	146.19
449.779	137.19
450	89.19
450.221	96.19
450.442	97.19
450.662	90.19
450.883	102.19
451.104	129.19
451.324	101.19
451.545	95.19
451.766	100.19
451.986	94.19
452.207	91.19
452.428	89.19
452.648	110.19
452.869	130.19
453.089	121.19
453.31	139.19
453.53	102.19
453.751	87.19
453.971	105.19
454.192	105.19
454.412	93.19
454.633	92.19
454.853	82.19
455.073	86.19
455.294	94.19
455.514	96.19
455.734	107.19
455.955	106.19
456.175	90.19
456.395	91.19
456.616	74.19
456.836	90.19
457.056	93.19
457.276	94.19
457.497	89.19
457.717	88.19
457.937	81.19
458.157	76.19
458.377	100.19
458.598	109.19
458.818	160.19
459.038	170.19
459.258	132.19
459.478	86.19
459.698	75.19
459.918	88.19
460.138	89.19
460.358	69.19
460.578	88.19
460.798	93.19
461.018	84.19
461.238	88.19
461.458	89.19
461.678	83.19
461.898	93.19
462.118	100.19
462.338	83.19
462.558	81.19
462.777	76.19
462.997	86.19
463.217	79.19
463.437	86.19
463.657	70.19
463.876	84.19
464.096	78.19
464.316	93.19
464.536	91.19
464.755	108.19
464.975	118.19
465.195	192.19
465.414	198.19
465.634	102.19
465.854	85.19
466.073	90.19
466.293	99.19
466.512	84.19
466.732	89.19
466.951	92.19
467.171	101.19
467.391	85.19
467.61	105.19
467.829	96.19
468.049	96.19
468.268	92.19
468.488	98.19
468.707	104.19
468.927	87.19
469.146	86.19
469.365	105.19
469.585	79.19
469.804	84.19
470.023	94.19
470.243	101.19
470.462	104.19
470.681	125.19
470.901	90.19
471.12	99.19
471.339	94.19
471.558	77.19
471.777	75.19
471.997	77.19
472.216	94.19
472.435	138.19
472.654	104.19
472.873	94.19
473.092	84.19
473.311	98.19
473.53	87.19
473.749	88.19
473.968	100.19
474.187	91.19
474.406	97.19
474.625	70.19
474.844	97.19
475.063	81.19
475.282	84.19
475.501	92.19
475.72	102.19
475.939	100.19
476.158	86.19
476.377	93.19
476.596	89.19
476.814	99.19
477.033	99.19
477.252	93.19
477.471	97.19
477.69	93.19
477.908	82.19
478.127	91.19
478.346	83.19
478.564	81.19
478.783	96.19
479.002	103.19
479.22	99.19
479.439	109.19
479.658	115.19
479.876	98.19
480.095	102.19
480.313	114.19
480.532	98.19
480.751	100.19
480.969	106.19
481.188	166.19
481.406	140.19
481.624	102.19
481.843	91.19
482.061	88.19
482.28	88.19
482.498	94.19
482.717	92.19
482.935	85.19
483.153	88.19
483.372	87.19
483.59	103.19
483.808	99.19
484.027	99.19
484.245	89.19
484.463	93.19
484.681	89.19
484.9	95.19
485.118	88.19
485.336	97.19
485.554	89.19
485.772	98.19
485.99	90.19
486.209	91.19
486.427	109.19
486.645	103.19
486.863	112.19
487.081	100.19
487.299	90.19
487.517	93.19
487.735	101.19
487.953	85.19
488.171	85.19
488.389	83.19
488.607	110.19
488.825	97.19
489.043	103.19
489.261	84.19
489.479	92.19
489.696	90.19
489.914	93.19
490.132	87.19
490.35	91.19
490.568	94.19
490.786	81.19
491.003	97.19
491.221	91.19
491.439	90.19
491.657	91.19
491.874	89.19
492.092	92.19
492.31	90.19
492.527	91.19
492.745	91.19
492.963	90.19
493.18	96.19
493.398	96.19
493.615	90.19
493.833	89.19
494.05	90.19
494.268	95.19
494.485	85.19
494.703	78.19
494.92	93.19
495.138	89.19
495.355	88.19
495.573	100.19
495.79	88.19
496.008	95.19
496.225	89.19
496.442	89.19
496.66	92.19
496.877	100.19
497.094	103.19
497.312	75.19
497.529	82.19
497.746	75.19
497.963	96.19
498.181	85.19
498.398	91.19
498.615	113.19
498.832	113.19
499.049	97.19
499.267	92.19
499.484	78.19
499.701	97.19
499.918	97.19
500.135	88.19
500.352	97.19
500.569	97.19
500.786	102.19
501.003	106.19
501.22	93.19
501.437	87.19
501.654	108.19
501.871	115.19
502.088	97.19
502.305	98.19
502.522	82.19
502.739	95.19
502.956	100.19
503.172	94.19
503.389	91.19
503.606	97.19
503.823	104.19
504.04	90.19
504.256	107.19
504.473	95.19
504.69	88.19
504.907	97.19
505.123	93.19
505.34	105.19
505.557	88.19
505.773	93.19
505.99	95.19
506.207	89.19
506.423	105.19
506.64	87.19
506.856	80.19
507.073	87.19
507.289	91.19
507.506	106.19
507.722	132.19
507.939	119.19
508.155	90.19
508.372	88.19
508.588	85.19
508.805	97.19
509.021	91.19
509.238	97.19
509.454	86.19
509.67	117.19
509.887	124.19
510.103	143.19
510.319	242.19
510.536	867.19
510.752	2894.19
510.968	835.19
511.184	166.19
511.401	115.19
511.617	101.19
511.833	98.19
512.049	93.19
512.265	102.19
512.481	103.19
512.698	83.19
512.914	109.19
513.13	107.19
513.346	81.19
513.562	114.19
513.778	102.19
513.994	107.19
514.21	110.19
514.426	133.19
514.642	138.19
514.858	138.19
