Data from Circ_2018_H10_HRD10591_00005.txt Node
Date: Wed Jan 03 09:56:03 EST 2024
User: Yrep
Spectrometer: HR+D1059
Trigger mode: 1
Integration Time (sec): 1.000000E-1
Scans to average: 1
Electric dark correction enabled: true
Nonlinearity correction enabled: false
Boxcar width: 0
XAxis mode: Wavelengths
Number of Pixels in Spectrum: 2048
>>>>>Begin Spectral Data<<<<<
223.165	-19.06
223.4	-19.06
223.635	-19.06
223.869	-27.06
224.104	-22.06
224.338	-0.06
224.573	-20.06
224.808	0.94
225.042	-20.06
225.277	-16.06
225.511	11.94
225.746	9.94
225.98	7.94
226.215	8.94
226.449	25.94
226.683	19.94
226.918	7.94
227.152	30.94
227.387	29.94
227.621	43.94
227.856	41.94
228.09	39.94
228.324	57.94
228.559	56.94
228.793	165.94
229.027	473.94
229.262	523.94
229.496	571.94
229.73	811.94
229.964	800.94
230.199	556.94
230.433	496.94
230.667	475.94
230.901	459.94
231.136	438.94
231.37	440.94
231.604	443.94
231.838	455.94
232.072	453.94
232.306	459.94
232.541	450.94
232.775	468.94
233.009	461.94
233.243	455.94
233.477	473.94
233.711	490.94
233.945	508.94
234.179	507.94
234.413	509.94
234.647	520.94
234.881	520.94
235.115	540.94
235.349	544.94
235.583	544.94
235.817	593.94
236.051	618.94
236.285	598.94
236.519	628.94
236.753	680.94
236.987	883.94
237.221	1349.94
237.455	1474.94
237.689	919.94
237.922	718.94
238.156	723.94
238.39	683.94
238.624	659.94
238.858	650.94
239.091	666.94
239.325	656.94
239.559	671.94
239.793	715.94
240.027	767.94
240.26	907.94
240.494	971.94
240.728	935.94
240.961	916.94
241.195	814.94
241.429	785.94
241.662	767.94
241.896	761.94
242.13	743.94
242.363	734.94
242.597	787.94
242.83	800.94
243.064	840.94
243.298	803.94
243.531	809.94
243.765	820.94
243.998	835.94
244.232	870.94
244.465	888.94
244.699	883.94
244.932	925.94
245.166	876.94
245.399	895.94
245.633	910.94
245.866	889.94
246.099	931.94
246.333	931.94
246.566	972.94
246.8	950.94
247.033	977.94
247.266	1051.94
247.5	1077.94
247.733	1118.94
247.966	1113.94
248.2	1127.94
248.433	1127.94
248.666	1188.94
248.899	1322.94
249.133	1397.94
249.366	1400.94
249.599	1317.94
249.832	1219.94
250.066	1207.94
250.299	1242.94
250.532	1334.94
250.765	1519.94
250.998	1692.94
251.231	1607.94
251.465	1464.94
251.698	1396.94
251.931	1365.94
252.164	1353.94
252.397	1417.94
252.63	1441.94
252.863	1533.94
253.096	1663.94
253.329	1720.94
253.562	1625.94
253.795	1524.94
254.028	1515.94
254.261	1617.94
254.494	1786.94
254.727	2152.94
254.96	2203.94
255.193	1904.94
255.426	1718.94
255.659	1659.94
255.892	1637.94
256.124	1679.94
256.357	1632.94
256.59	1583.94
256.823	1530.94
257.056	1515.94
257.289	1537.94
257.521	1516.94
257.754	1517.94
257.987	1548.94
258.22	1520.94
258.452	1563.94
258.685	1550.94
258.918	1557.94
259.151	1622.94
259.383	1673.94
259.616	1684.94
259.849	1741.94
260.081	1875.94
260.314	2042.94
260.547	2031.94
260.779	1835.94
261.012	1740.94
261.244	1700.94
261.477	1663.94
261.71	1680.94
261.942	1747.94
262.175	1799.94
262.407	1713.94
262.64	1627.94
262.872	1604.94
263.105	1649.94
263.337	1638.94
263.57	1660.94
263.802	1658.94
264.035	1671.94
264.267	1637.94
264.499	1642.94
264.732	1667.94
264.964	1665.94
265.197	1711.94
265.429	1681.94
265.661	1675.94
265.894	1739.94
266.126	1736.94
266.358	1738.94
266.591	1773.94
266.823	1836.94
267.055	1909.94
267.287	1820.94
267.52	1818.94
267.752	1803.94
267.984	1856.94
268.216	1909.94
268.448	1944.94
268.681	1949.94
268.913	2100.94
269.145	2303.94
269.377	2332.94
269.609	2257.94
269.841	2205.94
270.073	2365.94
270.306	2653.94
270.538	2732.94
270.77	2617.94
271.002	2504.94
271.234	2430.94
271.466	2585.94
271.698	2696.94
271.93	2709.94
272.162	2693.94
272.394	2594.94
272.626	2491.94
272.858	2354.94
273.09	2325.94
273.322	2263.94
273.553	2226.94
273.785	2217.94
274.017	2202.94
274.249	2220.94
274.481	2276.94
274.713	2275.94
274.945	2251.94
275.176	2259.94
275.408	2251.94
275.64	2249.94
275.872	2269.94
276.104	2305.94
276.335	2296.94
276.567	2383.94
276.799	2601.94
277.031	2815.94
277.262	2889.94
277.494	2733.94
277.726	2525.94
277.957	2517.94
278.189	2422.94
278.421	2377.94
278.652	2376.94
278.884	2405.94
279.115	2355.94
279.347	2371.94
279.579	2375.94
279.81	2366.94
280.042	2372.94
280.273	2370.94
280.505	2394.94
280.736	2410.94
280.968	2411.94
281.199	2382.94
281.431	2489.94
281.662	2465.94
281.894	2547.94
282.125	2547.94
282.356	2763.94
282.588	2863.94
282.819	2684.94
283.051	2553.94
283.282	2505.94
283.513	2581.94
283.745	2588.94
283.976	2596.94
284.207	2621.94
284.439	2637.94
284.67	2626.94
284.901	2585.94
285.132	2654.94
285.364	2625.94
285.595	2605.94
285.826	2620.94
286.057	2655.94
286.288	2600.94
286.52	2681.94
286.751	2698.94
286.982	2671.94
287.213	2697.94
287.444	2731.94
287.675	2794.94
287.906	2888.94
288.138	2975.94
288.369	2902.94
288.6	2906.94
288.831	2829.94
289.062	2817.94
289.293	2828.94
289.524	2820.94
289.755	2794.94
289.986	2842.94
290.217	2779.94
290.448	2752.94
290.679	2805.94
290.91	2819.94
291.141	2758.94
291.371	2766.94
291.602	2838.94
291.833	2790.94
292.064	2791.94
292.295	2830.94
292.526	2835.94
292.757	2851.94
292.987	2795.94
293.218	2814.94
293.449	2846.94
293.68	2800.94
293.91	2836.94
294.141	2858.94
294.372	2819.94
294.603	2883.94
294.833	2877.94
295.064	2866.94
295.295	2870.94
295.525	2893.94
295.756	2974.94
295.987	3071.94
296.217	3277.94
296.448	3152.94
296.679	2951.94
296.909	2916.94
297.14	2976.94
297.37	2981.94
297.601	3049.94
297.831	2996.94
298.062	3073.94
298.292	3075.94
298.523	3135.94
298.753	3131.94
298.984	3055.94
299.214	3127.94
299.445	3080.94
299.675	3070.94
299.905	3176.94
300.136	3100.94
300.366	3097.94
300.597	3202.94
300.827	3291.94
301.057	3346.94
301.288	3395.94
301.518	3288.94
301.748	3325.94
301.979	3340.94
302.209	3363.94
302.439	3384.94
302.669	3298.94
302.9	3275.94
303.13	3265.94
303.36	3315.94
303.59	3319.94
303.82	3429.94
304.051	3388.94
304.281	3269.94
304.511	3285.94
304.741	3313.94
304.971	3240.94
305.201	3277.94
305.431	3221.94
305.661	3309.94
305.891	3325.94
306.121	3239.94
306.352	3381.94
306.582	3372.94
306.812	3263.94
307.042	3240.94
307.272	3284.94
307.502	3300.94
307.731	3251.94
307.961	3249.94
308.191	3273.94
308.421	3332.94
308.651	3331.94
308.881	3285.94
309.111	3353.94
309.341	3365.94
309.571	3461.94
309.8	3561.94
310.03	3554.94
310.26	3620.94
310.49	3602.94
310.72	3735.94
310.949	3780.94
311.179	3752.94
311.409	3650.94
311.639	3739.94
311.868	3703.94
312.098	3719.94
312.328	3824.94
312.557	3948.94
312.787	4093.94
313.017	3961.94
313.246	3792.94
313.476	3733.94
313.706	3779.94
313.935	3902.94
314.165	3981.94
314.394	3992.94
314.624	3935.94
314.853	3773.94
315.083	3808.94
315.312	3744.94
315.542	3712.94
315.771	3685.94
316.001	3655.94
316.23	3708.94
316.46	3688.94
316.689	3714.94
316.919	3759.94
317.148	3825.94
317.377	3762.94
317.607	3741.94
317.836	3776.94
318.065	3659.94
318.295	3650.94
318.524	3689.94
318.753	3656.94
318.983	3718.94
319.212	3670.94
319.441	3760.94
319.67	3793.94
319.9	3735.94
320.129	3698.94
320.358	3773.94
320.587	3775.94
320.816	3835.94
321.046	3869.94
321.275	3816.94
321.504	3908.94
321.733	3867.94
321.962	3941.94
322.191	4035.94
322.42	4143.94
322.649	4238.94
322.878	4266.94
323.108	4375.94
323.337	4601.94
323.566	4800.94
323.795	5123.94
324.024	5909.94
324.253	7906.94
324.482	12008.94
324.71	15597.94
324.939	15597.94
325.168	13623.94
325.397	6847.94
325.626	5394.94
325.855	5011.94
326.084	4861.94
326.313	4839.94
326.542	5034.94
326.77	5781.94
326.999	7525.94
327.228	11240.94
327.457	14959.94
327.686	14143.94
327.914	7604.94
328.143	5956.94
328.372	5628.94
328.6	5317.94
328.829	5309.94
329.058	5590.94
329.287	5432.94
329.515	5071.94
329.744	4882.94
329.972	4931.94
330.201	5105.94
330.43	5372.94
330.658	5665.94
330.887	6028.94
331.115	5496.94
331.344	5022.94
331.572	5014.94
331.801	5060.94
332.03	5016.94
332.258	4993.94
332.486	4958.94
332.715	5107.94
332.943	5216.94
333.172	5365.94
333.4	5516.94
333.629	5655.94
333.857	5713.94
334.085	5628.94
334.314	5639.94
334.542	5722.94
334.771	5722.94
334.999	5453.94
335.227	5302.94
335.455	5144.94
335.684	5076.94
335.912	5011.94
336.14	4933.94
336.369	4992.94
336.597	5052.94
336.825	4938.94
337.053	4825.94
337.281	4798.94
337.51	4763.94
337.738	4740.94
337.966	4719.94
338.194	4721.94
338.422	4659.94
338.65	4496.94
338.878	4589.94
339.106	4569.94
339.334	4517.94
339.562	4421.94
339.79	4387.94
340.018	4415.94
340.246	4470.94
340.474	4458.94
340.702	4413.94
340.93	4373.94
341.158	4434.94
341.386	4458.94
341.614	4430.94
341.842	4383.94
342.07	4308.94
342.298	4306.94
342.526	4363.94
342.754	4355.94
342.981	4300.94
343.209	4384.94
343.437	4675.94
343.665	4893.94
343.893	5158.94
344.12	5191.94
344.348	5009.94
344.576	4829.94
344.804	4682.94
345.031	4707.94
345.259	4638.94
345.487	4438.94
345.714	4340.94
345.942	4305.94
346.17	4204.94
346.397	4243.94
346.625	4241.94
346.853	4218.94
347.08	4181.94
347.308	4238.94
347.535	4352.94
347.763	4416.94
347.99	4347.94
348.218	4395.94
348.445	4358.94
348.673	4277.94
348.9	4219.94
349.128	4143.94
349.355	4085.94
349.583	4080.94
349.81	4115.94
350.037	4068.94
350.265	3976.94
350.492	4049.94
350.72	4088.94
350.947	4123.94
351.174	4195.94
351.402	4242.94
351.629	4192.94
351.856	4212.94
352.083	4254.94
352.311	4287.94
352.538	4308.94
352.765	4223.94
352.992	4169.94
353.22	4113.94
353.447	4117.94
353.674	4029.94
353.901	4022.94
354.128	3949.94
354.355	3972.94
354.583	3996.94
354.81	3970.94
355.037	3925.94
355.264	3992.94
355.491	3985.94
355.718	3990.94
355.945	3875.94
356.172	4019.94
356.399	3971.94
356.626	4047.94
356.853	3998.94
357.08	3936.94
357.307	3986.94
357.534	3931.94
357.761	3971.94
357.988	3969.94
358.215	4006.94
358.441	3969.94
358.668	4023.94
358.895	4070.94
359.122	4081.94
359.349	4204.94
359.576	4294.94
359.802	4517.94
360.029	4733.94
360.256	4710.94
360.483	4467.94
360.709	4209.94
360.936	4210.94
361.163	4293.94
361.39	4286.94
361.616	4204.94
361.843	4191.94
362.07	4269.94
362.296	4206.94
362.523	4163.94
362.749	4145.94
362.976	4122.94
363.203	4133.94
363.429	4095.94
363.656	4091.94
363.882	4127.94
364.109	4019.94
364.335	4047.94
364.562	4010.94
364.788	4027.94
365.015	4091.94
365.241	4105.94
365.468	4120.94
365.694	4181.94
365.92	4078.94
366.147	4038.94
366.373	4061.94
366.599	4051.94
366.826	3996.94
367.052	4024.94
367.278	4029.94
367.505	4121.94
367.731	4070.94
367.957	4127.94
368.184	4126.94
368.41	4228.94
368.636	4292.94
368.862	4274.94
369.089	4221.94
369.315	4149.94
369.541	4095.94
369.767	4168.94
369.993	4167.94
370.219	4186.94
370.445	4243.94
370.672	4242.94
370.898	4297.94
371.124	4229.94
371.35	4342.94
371.576	4340.94
371.802	4264.94
372.028	4262.94
372.254	4375.94
372.48	4381.94
372.706	4481.94
372.932	4450.94
373.158	4427.94
373.384	4436.94
373.61	4271.94
373.835	4393.94
374.061	4283.94
374.287	4450.94
374.513	4522.94
374.739	4685.94
374.965	4778.94
375.191	4735.94
375.416	4628.94
375.642	4564.94
375.868	4513.94
376.094	4448.94
376.319	4347.94
376.545	4387.94
376.771	4356.94
376.997	4340.94
377.222	4323.94
377.448	4295.94
377.674	4267.94
377.899	4204.94
378.125	4289.94
378.35	4268.94
378.576	4230.94
378.802	4288.94
379.027	4263.94
379.253	4234.94
379.478	4303.94
379.704	4295.94
379.929	4334.94
380.155	4319.94
380.38	4363.94
380.606	4305.94
380.831	4348.94
381.057	4337.94
381.282	4333.94
381.507	4394.94
381.733	4430.94
381.958	4482.94
382.184	4483.94
382.409	4515.94
382.634	4570.94
382.86	4595.94
383.085	4651.94
383.31	4731.94
383.535	4767.94
383.761	4864.94
383.986	4857.94
384.211	5024.94
384.436	5063.94
384.662	5056.94
384.887	5104.94
385.112	5188.94
385.337	5184.94
385.562	5216.94
385.787	5268.94
386.013	5344.94
386.238	5407.94
386.463	5364.94
386.688	5223.94
386.913	5155.94
387.138	5161.94
387.363	5200.94
387.588	5150.94
387.813	5122.94
388.038	5159.94
388.263	5216.94
388.488	5139.94
388.713	5158.94
388.938	5111.94
389.163	5148.94
389.387	5119.94
389.612	5116.94
389.837	5083.94
390.062	5106.94
390.287	5145.94
390.512	5083.94
390.736	5141.94
390.961	5249.94
391.186	5256.94
391.411	5480.94
391.636	5600.94
391.86	5717.94
392.085	5834.94
392.31	5622.94
392.534	5565.94
392.759	5507.94
392.984	5432.94
393.208	5345.94
393.433	5371.94
393.658	5386.94
393.882	5410.94
394.107	5366.94
394.331	5378.94
394.556	5442.94
394.78	5451.94
395.005	5537.94
395.229	5591.94
395.454	5736.94
395.678	5839.94
395.903	5818.94
396.127	5824.94
396.352	5704.94
396.576	5499.94
396.801	5459.94
397.025	5544.94
397.249	5706.94
397.474	5789.94
397.698	5831.94
397.922	6001.94
398.147	6091.94
398.371	6186.94
398.595	6401.94
398.82	6598.94
399.044	7195.94
399.268	7995.94
399.492	9089.94
399.717	9683.94
399.941	9386.94
400.165	8727.94
400.389	8116.94
400.613	7265.94
400.837	6806.94
401.062	6709.94
401.286	6667.94
401.51	6527.94
401.734	6542.94
401.958	6727.94
402.182	6831.94
402.406	7009.94
402.63	6974.94
402.854	7051.94
403.078	7078.94
403.302	7218.94
403.526	7381.94
403.75	7426.94
403.974	7396.94
404.198	7435.94
404.422	7511.94
404.645	7437.94
404.869	7413.94
405.093	7574.94
405.317	7799.94
405.541	7801.94
405.765	7383.94
405.988	7299.94
406.212	7621.94
406.436	7791.94
406.66	7958.94
406.883	7833.94
407.107	8413.94
407.331	8880.94
407.555	9375.94
407.778	8987.94
408.002	8301.94
408.226	7878.94
408.449	7829.94
408.673	7744.94
408.896	7890.94
409.12	8011.94
409.344	7532.94
409.567	7144.94
409.791	7180.94
410.014	7004.94
410.238	7061.94
410.461	6998.94
410.685	7090.94
410.908	7103.94
411.132	7349.94
411.355	7398.94
411.578	7052.94
411.802	6747.94
412.025	6805.94
412.249	6935.94
412.472	6968.94
412.695	7013.94
412.919	6629.94
413.142	6531.94
413.365	6484.94
413.589	6483.94
413.812	6337.94
414.035	6264.94
414.258	6396.94
414.482	6388.94
414.705	6453.94
414.928	6394.94
415.151	6447.94
415.374	6459.94
415.597	6395.94
415.821	6278.94
416.044	6277.94
416.267	6191.94
416.49	6224.94
416.713	6252.94
416.936	6270.94
417.159	6327.94
417.382	6288.94
417.605	6341.94
417.828	6496.94
418.051	6656.94
418.274	6575.94
418.497	6424.94
418.72	6594.94
418.943	6457.94
419.166	6896.94
419.389	7308.94
419.611	7126.94
419.834	6931.94
420.057	6821.94
420.28	6666.94
420.503	6439.94
420.726	6527.94
420.948	6613.94
421.171	7021.94
421.394	7052.94
421.617	6498.94
421.839	6504.94
422.062	6635.94
422.285	6867.94
422.507	7500.94
422.73	7987.94
422.953	7402.94
423.175	7059.94
423.398	7012.94
423.621	6984.94
423.843	7303.94
424.066	7232.94
424.288	7200.94
424.511	7326.94
424.733	7868.94
424.956	8310.94
425.178	7841.94
425.401	7927.94
425.623	7852.94
425.846	6853.94
426.068	6662.94
426.291	6620.94
426.513	6621.94
426.735	6656.94
426.958	7167.94
427.18	7944.94
427.402	9069.94
427.625	9316.94
427.847	7858.94
428.069	6940.94
428.292	6449.94
428.514	6118.94
428.736	6085.94
428.958	5985.94
429.181	5752.94
429.403	5799.94
429.625	6040.94
429.847	6319.94
430.069	6856.94
430.292	6442.94
430.514	5823.94
430.736	5853.94
430.958	5824.94
431.18	5666.94
431.402	5687.94
431.624	5635.94
431.846	5710.94
432.068	5816.94
432.29	5811.94
432.512	5749.94
432.734	5848.94
432.956	5745.94
433.178	5884.94
433.4	5846.94
433.622	5748.94
433.844	5773.94
434.066	5807.94
434.287	5916.94
434.509	6133.94
434.731	6375.94
434.953	6564.94
435.175	6597.94
435.397	6756.94
435.618	6700.94
435.84	6926.94
436.062	7793.94
436.284	7855.94
436.505	6560.94
436.727	6357.94
436.949	6004.94
437.17	5856.94
437.392	5945.94
437.614	6001.94
437.835	6478.94
438.057	7349.94
438.278	7961.94
438.5	7990.94
438.721	8720.94
438.943	7611.94
439.165	6483.94
439.386	6284.94
439.608	6323.94
439.829	6366.94
440.05	6763.94
440.272	7234.94
440.493	6561.94
440.715	6188.94
440.936	6174.94
441.158	6201.94
441.379	6276.94
441.6	6752.94
441.822	6821.94
442.043	7343.94
442.264	8028.94
442.486	7842.94
442.707	7038.94
442.928	6854.94
443.149	7016.94
443.371	7232.94
443.592	7820.94
443.813	8824.94
444.034	8667.94
444.255	7530.94
444.476	7382.94
444.698	7623.94
444.919	7638.94
445.14	7499.94
445.361	7318.94
445.582	7499.94
445.803	8142.94
446.024	8793.94
446.245	8352.94
446.466	7418.94
446.687	6493.94
446.908	6171.94
447.129	5841.94
447.35	5751.94
447.571	5636.94
447.792	5608.94
448.013	5619.94
448.234	5944.94
448.455	6593.94
448.675	7795.94
448.896	8165.94
449.117	6775.94
449.338	7049.94
449.559	8237.94
449.779	8529.94
450	6501.94
450.221	5740.94
450.442	5591.94
450.662	5561.94
450.883	5584.94
451.104	5729.94
451.324	5550.94
451.545	5355.94
451.766	5233.94
451.986	5181.94
452.207	5104.94
452.428	5107.94
452.648	5115.94
452.869	5133.94
453.089	5232.94
453.31	5334.94
453.53	5082.94
453.751	5055.94
453.971	5143.94
454.192	5264.94
454.412	5079.94
454.633	5043.94
454.853	4951.94
455.073	4962.94
455.294	5423.94
455.514	5892.94
455.734	5428.94
455.955	4863.94
456.175	4743.94
456.395	4694.94
456.616	4726.94
456.836	4764.94
457.056	4686.94
457.276	4566.94
457.497	4766.94
457.717	4743.94
457.937	4793.94
458.157	4939.94
458.377	4938.94
458.598	5339.94
458.818	6122.94
459.038	6911.94
459.258	6775.94
459.478	6032.94
459.698	5807.94
459.918	5954.94
460.138	6102.94
460.358	6398.94
460.578	6392.94
460.798	6480.94
461.018	6538.94
461.238	6316.94
461.458	6322.94
461.678	6280.94
461.898	6413.94
462.118	6494.94
462.338	6731.94
462.558	6873.94
462.777	7189.94
462.997	7808.94
463.217	8241.94
463.437	7935.94
463.657	7389.94
463.876	7224.94
464.096	7248.94
464.316	7271.94
464.536	7314.94
464.755	7103.94
464.975	6995.94
465.195	7227.94
465.414	7298.94
465.634	6293.94
465.854	5959.94
466.073	5726.94
466.293	5515.94
466.512	5383.94
466.732	5252.94
466.951	5328.94
467.171	5267.94
467.391	5284.94
467.61	5416.94
467.829	5420.94
468.049	5320.94
468.268	5102.94
468.488	5036.94
468.707	5058.94
468.927	5019.94
469.146	4987.94
469.365	5091.94
469.585	5100.94
469.804	5274.94
470.023	5552.94
470.243	5416.94
470.462	5564.94
470.681	5700.94
470.901	5580.94
471.12	5420.94
471.339	5317.94
471.558	5372.94
471.777	5255.94
471.997	5090.94
472.216	5092.94
472.435	5267.94
472.654	5110.94
472.873	4953.94
473.092	5003.94
473.311	4951.94
473.53	5028.94
473.749	5196.94
473.968	5752.94
474.187	6673.94
474.406	6227.94
474.625	5360.94
474.844	5087.94
475.063	5034.94
475.282	5052.94
475.501	5078.94
475.72	5189.94
475.939	5179.94
476.158	5235.94
476.377	5257.94
476.596	5149.94
476.814	5378.94
477.033	5447.94
477.252	5560.94
477.471	5596.94
477.69	5677.94
477.908	5857.94
478.127	5884.94
478.346	5989.94
478.564	6131.94
478.783	6118.94
479.002	6349.94
479.22	6355.94
479.439	6420.94
479.658	6506.94
479.876	6700.94
480.095	6859.94
480.313	7208.94
480.532	7159.94
480.751	6917.94
480.969	6919.94
481.188	7002.94
481.406	6848.94
481.624	6469.94
481.843	6271.94
482.061	6092.94
482.28	5962.94
482.498	5934.94
482.717	5873.94
482.935	5861.94
483.153	5781.94
483.372	5874.94
483.59	5903.94
483.808	5928.94
484.027	5889.94
484.245	5963.94
484.463	6003.94
484.681	6065.94
484.9	6121.94
485.118	6215.94
485.336	6172.94
485.554	6232.94
485.772	6321.94
485.99	6312.94
486.209	6299.94
486.427	6396.94
486.645	6424.94
486.863	6494.94
487.081	6502.94
487.299	6403.94
487.517	6362.94
487.735	6300.94
487.953	6274.94
