Data from Circ_2018_H10_HRD10591_00012.txt Node
Date: Wed Jan 03 09:56:04 EST 2024
User: Yrep
Spectrometer: HR+D1059
Trigger mode: 1
Integration Time (sec): 1.000000E-1
Scans to average: 1
Electric dark correction enabled: true
Nonlinearity correction enabled: false
Boxcar width: 0
XAxis mode: Wavelengths
Number of Pixels in Spectrum: 2048
>>>>>Begin Spectral Data<<<<<
223.165	-8.19
223.4	-8.19
223.635	-8.19
223.869	-19.19
224.104	-24.19
224.338	-11.19
224.573	1.81
224.808	-18.19
225.042	-18.19
225.277	-3.19
225.511	-6.19
225.746	8.81
225.98	-1.19
226.215	16.81
226.449	14.81
226.683	6.81
226.918	27.81
227.152	32.81
227.387	43.81
227.621	39.81
227.856	39.81
228.09	53.81
228.324	55.81
228.559	60.81
228.793	73.81
229.027	69.81
229.262	63.81
229.496	79.81
229.73	91.81
229.964	83.81
230.199	84.81
230.433	76.81
230.667	85.81
230.901	73.81
231.136	89.81
231.37	78.81
231.604	83.81
231.838	94.81
232.072	75.81
232.306	83.81
232.541	67.81
232.775	93.81
233.009	77.81
233.243	80.81
233.477	93.81
233.711	74.81
233.945	87.81
234.179	87.81
234.413	65.81
234.647	87.81
234.881	78.81
235.115	73.81
235.349	86.81
235.583	81.81
235.817	93.81
236.051	70.81
236.285	85.81
236.519	76.81
236.753	82.81
236.987	89.81
237.221	81.81
237.455	79.81
237.689	76.81
237.922	88.81
238.156	81.81
238.39	86.81
238.624	69.81
238.858	81.81
239.091	70.81
239.325	71.81
239.559	77.81
239.793	94.81
240.027	85.81
240.26	79.81
240.494	86.81
240.728	77.81
240.961	74.81
241.195	78.81
241.429	89.81
241.662	81.81
241.896	75.81
242.13	82.81
242.363	75.81
242.597	76.81
242.83	92.81
243.064	72.81
243.298	86.81
243.531	80.81
243.765	81.81
243.998	69.81
244.232	93.81
244.465	86.81
244.699	78.81
244.932	70.81
245.166	72.81
245.399	79.81
245.633	74.81
245.866	95.81
246.099	65.81
246.333	82.81
246.566	77.81
246.8	83.81
247.033	76.81
247.266	70.81
247.5	87.81
247.733	85.81
247.966	79.81
248.2	79.81
248.433	78.81
248.666	72.81
248.899	86.81
249.133	94.81
249.366	97.81
249.599	88.81
249.832	79.81
250.066	82.81
250.299	83.81
250.532	94.81
250.765	77.81
250.998	86.81
251.231	83.81
251.465	72.81
251.698	89.81
251.931	80.81
252.164	75.81
252.397	76.81
252.63	71.81
252.863	89.81
253.096	74.81
253.329	72.81
253.562	89.81
253.795	84.81
254.028	82.81
254.261	93.81
254.494	77.81
254.727	85.81
254.96	91.81
255.193	74.81
255.426	88.81
255.659	92.81
255.892	85.81
256.124	73.81
256.357	80.81
256.59	83.81
256.823	89.81
257.056	85.81
257.289	84.81
257.521	82.81
257.754	83.81
257.987	86.81
258.22	73.81
258.452	74.81
258.685	69.81
258.918	87.81
259.151	82.81
259.383	99.81
259.616	88.81
259.849	93.81
260.081	87.81
260.314	91.81
260.547	77.81
260.779	89.81
261.012	86.81
261.244	89.81
261.477	89.81
261.71	90.81
261.942	118.81
262.175	127.81
262.407	84.81
262.64	95.81
262.872	78.81
263.105	78.81
263.337	97.81
263.57	72.81
263.802	89.81
264.035	88.81
264.267	79.81
264.499	88.81
264.732	92.81
264.964	91.81
265.197	90.81
265.429	90.81
265.661	87.81
265.894	69.81
266.126	93.81
266.358	84.81
266.591	89.81
266.823	91.81
267.055	95.81
267.287	84.81
267.52	79.81
267.752	96.81
267.984	92.81
268.216	102.81
268.448	89.81
268.681	79.81
268.913	84.81
269.145	87.81
269.377	75.81
269.609	93.81
269.841	78.81
270.073	89.81
270.306	73.81
270.538	81.81
270.77	83.81
271.002	82.81
271.234	73.81
271.466	77.81
271.698	83.81
271.93	70.81
272.162	80.81
272.394	103.81
272.626	85.81
272.858	99.81
273.09	84.81
273.322	83.81
273.553	75.81
273.785	87.81
274.017	78.81
274.249	93.81
274.481	73.81
274.713	82.81
274.945	83.81
275.176	77.81
275.408	73.81
275.64	98.81
275.872	88.81
276.104	95.81
276.335	90.81
276.567	95.81
276.799	102.81
277.031	101.81
277.262	95.81
277.494	103.81
277.726	99.81
277.957	90.81
278.189	84.81
278.421	78.81
278.652	94.81
278.884	92.81
279.115	79.81
279.347	83.81
279.579	86.81
279.81	78.81
280.042	91.81
280.273	85.81
280.505	93.81
280.736	83.81
280.968	77.81
281.199	86.81
281.431	82.81
281.662	84.81
281.894	93.81
282.125	97.81
282.356	126.81
282.588	144.81
282.819	124.81
283.051	100.81
283.282	93.81
283.513	85.81
283.745	84.81
283.976	102.81
284.207	95.81
284.439	95.81
284.67	90.81
284.901	82.81
285.132	90.81
285.364	101.81
285.595	90.81
285.826	98.81
286.057	104.81
286.288	93.81
286.52	92.81
286.751	86.81
286.982	78.81
287.213	73.81
287.444	92.81
287.675	93.81
287.906	98.81
288.138	86.81
288.369	98.81
288.6	103.81
288.831	85.81
289.062	88.81
289.293	104.81
289.524	90.81
289.755	79.81
289.986	90.81
290.217	89.81
290.448	98.81
290.679	102.81
290.91	89.81
291.141	96.81
291.371	91.81
291.602	92.81
291.833	85.81
292.064	91.81
292.295	98.81
292.526	94.81
292.757	93.81
292.987	73.81
293.218	96.81
293.449	90.81
293.68	86.81
293.91	93.81
294.141	81.81
294.372	80.81
294.603	95.81
294.833	89.81
295.064	90.81
295.295	89.81
295.525	100.81
295.756	106.81
295.987	105.81
296.217	138.81
296.448	137.81
296.679	104.81
296.909	91.81
297.14	82.81
297.37	89.81
297.601	90.81
297.831	99.81
298.062	83.81
298.292	92.81
298.523	86.81
298.753	93.81
298.984	94.81
299.214	96.81
299.445	96.81
299.675	94.81
299.905	102.81
300.136	91.81
300.366	87.81
300.597	100.81
300.827	102.81
301.057	100.81
301.288	107.81
301.518	96.81
301.748	92.81
301.979	106.81
302.209	94.81
302.439	81.81
302.669	94.81
302.9	99.81
303.13	88.81
303.36	87.81
303.59	99.81
303.82	108.81
304.051	115.81
304.281	86.81
304.511	93.81
304.741	89.81
304.971	83.81
305.201	94.81
305.431	88.81
305.661	79.81
305.891	92.81
306.121	98.81
306.352	112.81
306.582	99.81
306.812	89.81
307.042	80.81
307.272	107.81
307.502	103.81
307.731	96.81
307.961	110.81
308.191	87.81
308.421	102.81
308.651	93.81
308.881	102.81
309.111	109.81
309.341	114.81
309.571	108.81
309.8	108.81
310.03	90.81
310.26	81.81
310.49	109.81
310.72	92.81
310.949	101.81
311.179	94.81
311.409	91.81
311.639	99.81
311.868	79.81
312.098	90.81
312.328	98.81
312.557	109.81
312.787	117.81
313.017	100.81
313.246	101.81
313.476	104.81
313.706	99.81
313.935	105.81
314.165	88.81
314.394	96.81
314.624	105.81
314.853	100.81
315.083	102.81
315.312	100.81
315.542	103.81
315.771	99.81
316.001	90.81
316.23	95.81
316.46	104.81
316.689	81.81
316.919	94.81
317.148	88.81
317.377	107.81
317.607	110.81
317.836	88.81
318.065	95.81
318.295	89.81
318.524	95.81
318.753	94.81
318.983	92.81
319.212	111.81
319.441	108.81
319.67	123.81
319.9	100.81
320.129	102.81
320.358	92.81
320.587	80.81
320.816	106.81
321.046	109.81
321.275	85.81
321.504	101.81
321.733	95.81
321.962	98.81
322.191	102.81
322.42	102.81
322.649	108.81
322.878	116.81
323.108	130.81
323.337	130.81
323.566	133.81
323.795	158.81
324.024	218.81
324.253	372.81
324.482	842.81
324.71	1740.81
324.939	2182.81
325.168	858.81
325.397	249.81
325.626	156.81
325.855	129.81
326.084	141.81
326.313	142.81
326.542	156.81
326.77	225.81
326.999	461.81
327.228	934.81
327.457	1699.81
327.686	1337.81
327.914	383.81
328.143	195.81
328.372	143.81
328.6	137.81
328.829	123.81
329.058	136.81
329.287	135.81
329.515	122.81
329.744	111.81
329.972	107.81
330.201	106.81
330.43	125.81
330.658	133.81
330.887	154.81
331.115	127.81
331.344	106.81
331.572	112.81
331.801	119.81
332.03	98.81
332.258	105.81
332.486	94.81
332.715	99.81
332.943	87.81
333.172	99.81
333.4	94.81
333.629	108.81
333.857	118.81
334.085	109.81
334.314	108.81
334.542	125.81
334.771	140.81
334.999	108.81
335.227	111.81
335.455	92.81
335.684	119.81
335.912	111.81
336.14	84.81
336.369	109.81
336.597	108.81
336.825	99.81
337.053	92.81
337.281	98.81
337.51	94.81
337.738	91.81
337.966	94.81
338.194	94.81
338.422	94.81
338.65	97.81
338.878	107.81
339.106	91.81
339.334	99.81
339.562	84.81
339.79	97.81
340.018	100.81
340.246	108.81
340.474	107.81
340.702	99.81
340.93	98.81
341.158	102.81
341.386	92.81
341.614	105.81
341.842	105.81
342.07	91.81
342.298	95.81
342.526	82.81
342.754	103.81
342.981	103.81
343.209	97.81
343.437	92.81
343.665	89.81
343.893	94.81
344.12	94.81
344.348	83.81
344.576	95.81
344.804	92.81
345.031	106.81
345.259	90.81
345.487	94.81
345.714	105.81
345.942	86.81
346.17	77.81
346.397	90.81
346.625	100.81
346.853	109.81
347.08	102.81
347.308	106.81
347.535	101.81
347.763	91.81
347.99	102.81
348.218	102.81
348.445	88.81
348.673	95.81
348.9	113.81
349.128	107.81
349.355	94.81
349.583	87.81
349.81	98.81
350.037	99.81
350.265	107.81
350.492	94.81
350.72	103.81
350.947	90.81
351.174	114.81
351.402	110.81
351.629	110.81
351.856	102.81
352.083	101.81
352.311	110.81
352.538	100.81
352.765	118.81
352.992	124.81
353.22	110.81
353.447	112.81
353.674	103.81
353.901	102.81
354.128	120.81
354.355	99.81
354.583	104.81
354.81	97.81
355.037	97.81
355.264	85.81
355.491	102.81
355.718	97.81
355.945	115.81
356.172	105.81
356.399	90.81
356.626	79.81
356.853	100.81
357.08	92.81
357.307	98.81
357.534	101.81
357.761	117.81
357.988	93.81
358.215	101.81
358.441	103.81
358.668	90.81
358.895	103.81
359.122	101.81
359.349	98.81
359.576	97.81
359.802	101.81
360.029	128.81
360.256	107.81
360.483	97.81
360.709	95.81
360.936	103.81
361.163	92.81
361.39	80.81
361.616	106.81
361.843	96.81
362.07	87.81
362.296	85.81
362.523	99.81
362.749	107.81
362.976	96.81
363.203	102.81
363.429	91.81
363.656	94.81
363.882	105.81
364.109	74.81
364.335	92.81
364.562	100.81
364.788	85.81
365.015	89.81
365.241	94.81
365.468	105.81
365.694	107.81
365.92	98.81
366.147	97.81
366.373	94.81
366.599	79.81
366.826	104.81
367.052	83.81
367.278	96.81
367.505	103.81
367.731	94.81
367.957	82.81
368.184	82.81
368.41	88.81
368.636	113.81
368.862	132.81
369.089	89.81
369.315	99.81
369.541	93.81
369.767	79.81
369.993	91.81
370.219	100.81
370.445	87.81
370.672	93.81
370.898	87.81
371.124	83.81
371.35	87.81
371.576	93.81
371.802	83.81
372.028	91.81
372.254	90.81
372.48	90.81
372.706	85.81
372.932	92.81
373.158	107.81
373.384	94.81
373.61	94.81
373.835	82.81
374.061	87.81
374.287	94.81
374.513	103.81
374.739	96.81
374.965	92.81
375.191	91.81
375.416	100.81
375.642	95.81
375.868	92.81
376.094	101.81
376.319	102.81
376.545	80.81
376.771	89.81
376.997	97.81
377.222	86.81
377.448	88.81
377.674	105.81
377.899	99.81
378.125	90.81
378.35	88.81
378.576	92.81
378.802	95.81
379.027	91.81
379.253	102.81
379.478	97.81
379.704	89.81
379.929	101.81
380.155	98.81
380.38	114.81
380.606	101.81
380.831	94.81
381.057	105.81
381.282	100.81
381.507	97.81
381.733	92.81
381.958	102.81
382.184	96.81
382.409	92.81
382.634	115.81
382.86	109.81
383.085	103.81
383.31	113.81
383.535	107.81
383.761	108.81
383.986	98.81
384.211	94.81
384.436	85.81
384.662	88.81
384.887	113.81
385.112	102.81
385.337	115.81
385.562	104.81
385.787	115.81
386.013	110.81
386.238	135.81
386.463	109.81
386.688	92.81
386.913	109.81
387.138	117.81
387.363	114.81
387.588	86.81
387.813	102.81
388.038	108.81
388.263	111.81
388.488	104.81
388.713	90.81
388.938	96.81
389.163	90.81
389.387	110.81
389.612	90.81
389.837	98.81
390.062	86.81
390.287	81.81
390.512	100.81
390.736	83.81
390.961	91.81
391.186	98.81
391.411	96.81
391.636	100.81
391.86	91.81
392.085	86.81
392.31	94.81
392.534	96.81
392.759	100.81
392.984	88.81
393.208	95.81
393.433	107.81
393.658	104.81
393.882	91.81
394.107	81.81
394.331	98.81
394.556	91.81
394.78	86.81
395.005	85.81
395.229	81.81
395.454	91.81
395.678	101.81
395.903	100.81
396.127	86.81
396.352	100.81
396.576	73.81
396.801	75.81
397.025	80.81
397.249	93.81
397.474	94.81
397.698	84.81
397.922	88.81
398.147	98.81
398.371	92.81
398.595	88.81
398.82	99.81
399.044	88.81
399.268	76.81
399.492	96.81
399.717	92.81
399.941	94.81
400.165	97.81
400.389	92.81
400.613	88.81
400.837	85.81
401.062	79.81
401.286	99.81
401.51	87.81
401.734	114.81
401.958	106.81
402.182	142.81
402.406	168.81
402.63	132.81
402.854	97.81
403.078	101.81
403.302	90.81
403.526	94.81
403.75	89.81
403.974	91.81
404.198	98.81
404.422	78.81
404.645	84.81
404.869	83.81
405.093	99.81
405.317	101.81
405.541	94.81
405.765	94.81
405.988	128.81
406.212	189.81
406.436	248.81
406.66	138.81
406.883	113.81
407.107	93.81
407.331	93.81
407.555	120.81
407.778	91.81
408.002	78.81
408.226	91.81
408.449	105.81
408.673	101.81
408.896	91.81
409.12	92.81
409.344	83.81
409.567	92.81
409.791	85.81
410.014	96.81
410.238	98.81
410.461	103.81
410.685	99.81
410.908	98.81
411.132	119.81
411.355	98.81
411.578	99.81
411.802	99.81
412.025	90.81
412.249	84.81
412.472	83.81
412.695	77.81
412.919	91.81
413.142	102.81
413.365	87.81
413.589	89.81
413.812	90.81
414.035	99.81
414.258	90.81
414.482	98.81
414.705	71.81
414.928	99.81
415.151	105.81
415.374	93.81
415.597	92.81
415.821	78.81
416.044	89.81
416.267	87.81
416.49	97.81
416.713	102.81
416.936	95.81
417.159	84.81
417.382	94.81
417.605	86.81
417.828	100.81
418.051	108.81
418.274	87.81
418.497	92.81
418.72	95.81
418.943	89.81
419.166	93.81
419.389	93.81
419.611	92.81
419.834	110.81
420.057	78.81
420.28	78.81
420.503	94.81
420.726	76.81
420.948	75.81
421.171	90.81
421.394	94.81
421.617	86.81
421.839	83.81
422.062	92.81
422.285	92.81
422.507	109.81
422.73	100.81
422.953	92.81
423.175	88.81
423.398	75.81
423.621	83.81
423.843	97.81
424.066	89.81
424.288	93.81
424.511	103.81
424.733	103.81
424.956	97.81
425.178	93.81
425.401	99.81
425.623	103.81
425.846	94.81
426.068	92.81
426.291	99.81
426.513	92.81
426.735	82.81
426.958	93.81
427.18	103.81
427.402	145.81
427.625	179.81
427.847	136.81
428.069	94.81
428.292	89.81
428.514	78.81
428.736	88.81
428.958	88.81
429.181	81.81
429.403	95.81
429.625	93.81
429.847	85.81
430.069	94.81
430.292	90.81
430.514	90.81
430.736	86.81
430.958	107.81
431.18	92.81
431.402	90.81
431.624	99.81
431.846	66.81
432.068	81.81
432.29	79.81
432.512	91.81
432.734	88.81
432.956	78.81
433.178	104.81
433.4	97.81
433.622	102.81
433.844	95.81
434.066	97.81
434.287	83.81
434.509	86.81
434.731	95.81
434.953	94.81
435.175	90.81
435.397	88.81
435.618	102.81
435.84	97.81
436.062	114.81
436.284	108.81
436.505	105.81
436.727	97.81
436.949	98.81
437.17	95.81
437.392	89.81
437.614	101.81
437.835	117.81
438.057	128.81
438.278	114.81
438.5	100.81
438.721	133.81
438.943	102.81
439.165	108.81
439.386	69.81
439.608	84.81
439.829	107.81
440.05	122.81
440.272	128.81
440.493	115.81
440.715	94.81
440.936	81.81
441.158	84.81
441.379	86.81
441.6	110.81
441.822	101.81
442.043	91.81
442.264	98.81
442.486	115.81
442.707	100.81
442.928	108.81
443.149	137.81
443.371	143.81
443.592	115.81
443.813	103.81
444.034	98.81
444.255	106.81
444.476	98.81
444.698	94.81
444.919	76.81
445.14	124.81
445.361	129.81
445.582	123.81
445.803	138.81
446.024	142.81
446.245	141.81
446.466	110.81
446.687	90.81
446.908	89.81
447.129	91.81
447.35	83.81
447.571	84.81
447.792	93.81
448.013	108.81
448.234	109.81
448.455	98.81
448.675	129.81
448.896	115.81
449.117	98.81
449.338	102.81
449.559	121.81
449.779	122.81
450	90.81
450.221	79.81
450.442	97.81
450.662	96.81
450.883	118.81
451.104	107.81
451.324	98.81
451.545	84.81
451.766	100.81
451.986	98.81
452.207	91.81
452.428	99.81
452.648	110.81
452.869	116.81
453.089	120.81
453.31	131.81
453.53	107.81
453.751	92.81
453.971	113.81
454.192	118.81
454.412	105.81
454.633	86.81
454.853	85.81
455.073	88.81
455.294	85.81
455.514	107.81
455.734	82.81
455.955	88.81
456.175	95.81
456.395	77.81
456.616	79.81
456.836	106.81
457.056	86.81
457.276	91.81
457.497	85.81
457.717	77.81
457.937	84.81
458.157	94.81
458.377	99.81
458.598	102.81
458.818	158.81
459.038	158.81
459.258	134.81
459.478	98.81
459.698	94.81
459.918	90.81
460.138	84.81
460.358	97.81
460.578	79.81
460.798	92.81
461.018	85.81
461.238	88.81
461.458	110.81
461.678	107.81
461.898	101.81
462.118	70.81
462.338	89.81
462.558	84.81
462.777	75.81
462.997	91.81
463.217	81.81
463.437	91.81
463.657	98.81
463.876	96.81
464.096	87.81
464.316	90.81
464.536	101.81
464.755	106.81
464.975	121.81
465.195	166.81
465.414	165.81
465.634	103.81
465.854	87.81
466.073	94.81
466.293	86.81
466.512	93.81
466.732	91.81
466.951	75.81
467.171	107.81
467.391	96.81
467.61	115.81
467.829	94.81
468.049	86.81
468.268	103.81
468.488	99.81
468.707	91.81
468.927	83.81
469.146	89.81
469.365	93.81
469.585	102.81
469.804	97.81
470.023	95.81
470.243	97.81
470.462	91.81
470.681	105.81
470.901	91.81
471.12	95.81
471.339	84.81
471.558	90.81
471.777	94.81
471.997	92.81
472.216	94.81
472.435	124.81
472.654	83.81
472.873	94.81
473.092	92.81
473.311	93.81
473.53	78.81
473.749	97.81
473.968	90.81
474.187	105.81
474.406	91.81
474.625	100.81
474.844	87.81
475.063	98.81
475.282	89.81
475.501	93.81
475.72	83.81
475.939	95.81
476.158	90.81
476.377	101.81
476.596	95.81
476.814	109.81
477.033	92.81
477.252	94.81
477.471	80.81
477.69	97.81
477.908	89.81
478.127	101.81
478.346	90.81
478.564	92.81
478.783	96.81
479.002	89.81
479.22	108.81
479.439	94.81
479.658	98.81
479.876	99.81
480.095	87.81
480.313	87.81
480.532	93.81
480.751	101.81
480.969	98.81
481.188	143.81
481.406	123.81
481.624	109.81
481.843	102.81
482.061	93.81
482.28	102.81
482.498	93.81
482.717	94.81
482.935	78.81
483.153	115.81
483.372	91.81
483.59	91.81
483.808	84.81
484.027	89.81
484.245	96.81
484.463	96.81
484.681	96.81
484.9	105.81
485.118	100.81
485.336	89.81
485.554	109.81
485.772	103.81
485.99	101.81
486.209	95.81
486.427	96.81
486.645	120.81
486.863	107.81
487.081	93.81
487.299	103.81
487.517	89.81
487.735	103.81
487.953	97.81
488.171	83.81
488.389	100.81
488.607	120.81
488.825	100.81
489.043	98.81
489.261	90.81
489.479	100.81
489.696	83.81
489.914	93.81
490.132	91.81
490.35	110.81
490.568	90.81
490.786	88.81
491.003	94.81
491.221	87.81
491.439	88.81
491.657	87.81
491.874	89.81
492.092	80.81
492.31	96.81
492.527	85.81
492.745	83.81
492.963	89.81
493.18	104.81
493.398	91.81
493.615	98.81
493.833	90.81
494.05	101.81
494.268	103.81
494.485	115.81
494.703	88.81
494.92	92.81
495.138	113.81
495.355	95.81
495.573	93.81
495.79	100.81
496.008	93.81
496.225	85.81
496.442	89.81
496.66	92.81
496.877	85.81
497.094	87.81
497.312	93.81
497.529	91.81
497.746	83.81
497.963	93.81
498.181	96.81
498.398	95.81
498.615	118.81
498.832	94.81
499.049	94.81
499.267	92.81
499.484	94.81
499.701	106.81
499.918	95.81
500.135	92.81
500.352	111.81
500.569	95.81
500.786	78.81
501.003	95.81
501.22	95.81
501.437	94.81
501.654	91.81
501.871	96.81
502.088	87.81
502.305	94.81
502.522	99.81
502.739	89.81
502.956	90.81
503.172	111.81
503.389	101.81
503.606	112.81
503.823	102.81
504.04	93.81
504.256	98.81
504.473	74.81
504.69	87.81
504.907	104.81
505.123	98.81
505.34	98.81
505.557	95.81
505.773	102.81
505.99	92.81
506.207	107.81
506.423	84.81
506.64	103.81
506.856	87.81
507.073	101.81
507.289	93.81
507.506	97.81
507.722	108.81
507.939	119.81
508.155	100.81
508.372	88.81
508.588	85.81
508.805	99.81
509.021	95.81
509.238	102.81
509.454	107.81
509.67	119.81
509.887	113.81
510.103	142.81
510.319	223.81
510.536	869.81
510.752	2853.81
510.968	822.81
511.184	172.81
511.401	121.81
511.617	107.81
511.833	102.81
512.049	95.81
512.265	85.81
512.481	84.81
512.698	104.81
512.914	107.81
513.13	98.81
513.346	93.81
513.562	99.81
513.778	99.81
513.994	105.81
514.21	112.81
514.426	119.81
