Data from Circ_2018_H10_HRD10591_00086.txt Node
Date: Wed Jan 03 09:56:19 EST 2024
User: Yrep
Spectrometer: HR+D1059
Trigger mode: 1
Integration Time (sec): 1.000000E-1
Scans to average: 1
Electric dark correction enabled: true
Nonlinearity correction enabled: false
Boxcar width: 0
XAxis mode: Wavelengths
Number of Pixels in Spectrum: 2048
>>>>>Begin Spectral Data<<<<<
223.165	-14.25
223.4	-14.25
223.635	-14.25
223.869	-26.25
224.104	-20.25
224.338	-13.25
224.573	-23.25
224.808	-13.25
225.042	-8.25
225.277	-4.25
225.511	-1.25
225.746	-1.25
225.98	9.75
226.215	18.75
226.449	20.75
226.683	28.75
226.918	30.75
227.152	16.75
227.387	18.75
227.621	20.75
227.856	23.75
228.09	44.75
228.324	53.75
228.559	53.75
228.793	38.75
229.027	36.75
229.262	61.75
229.496	79.75
229.73	93.75
229.964	68.75
230.199	73.75
230.433	76.75
230.667	82.75
230.901	64.75
231.136	70.75
231.37	69.75
231.604	85.75
231.838	68.75
232.072	81.75
232.306	75.75
232.541	77.75
232.775	66.75
233.009	64.75
233.243	76.75
233.477	69.75
233.711	85.75
233.945	76.75
234.179	69.75
234.413	80.75
234.647	65.75
234.881	78.75
235.115	67.75
235.349	66.75
235.583	60.75
235.817	74.75
236.051	72.75
236.285	87.75
236.519	83.75
236.753	85.75
236.987	62.75
237.221	79.75
237.455	82.75
237.689	77.75
237.922	64.75
238.156	77.75
238.39	67.75
238.624	67.75
238.858	71.75
239.091	70.75
239.325	74.75
239.559	71.75
239.793	70.75
240.027	62.75
240.26	84.75
240.494	65.75
240.728	77.75
240.961	80.75
241.195	70.75
241.429	68.75
241.662	65.75
241.896	78.75
242.13	79.75
242.363	74.75
242.597	77.75
242.83	96.75
243.064	72.75
243.298	82.75
243.531	70.75
243.765	79.75
243.998	69.75
244.232	83.75
244.465	81.75
244.699	78.75
244.932	81.75
245.166	71.75
245.399	72.75
245.633	77.75
245.866	63.75
246.099	73.75
246.333	73.75
246.566	74.75
246.8	83.75
247.033	69.75
247.266	70.75
247.5	83.75
247.733	69.75
247.966	83.75
248.2	66.75
248.433	78.75
248.666	72.75
248.899	77.75
249.133	72.75
249.366	89.75
249.599	91.75
249.832	63.75
250.066	71.75
250.299	85.75
250.532	77.75
250.765	71.75
250.998	80.75
251.231	70.75
251.465	65.75
251.698	80.75
251.931	89.75
252.164	86.75
252.397	66.75
252.63	67.75
252.863	60.75
253.096	81.75
253.329	77.75
253.562	82.75
253.795	85.75
254.028	81.75
254.261	74.75
254.494	68.75
254.727	74.75
254.96	73.75
255.193	73.75
255.426	80.75
255.659	82.75
255.892	75.75
256.124	70.75
256.357	79.75
256.59	77.75
256.823	71.75
257.056	74.75
257.289	71.75
257.521	79.75
257.754	84.75
257.987	77.75
258.22	81.75
258.452	82.75
258.685	71.75
258.918	64.75
259.151	65.75
259.383	91.75
259.616	83.75
259.849	87.75
260.081	81.75
260.314	89.75
260.547	81.75
260.779	81.75
261.012	81.75
261.244	79.75
261.477	80.75
261.71	99.75
261.942	96.75
262.175	121.75
262.407	78.75
262.64	85.75
262.872	71.75
263.105	65.75
263.337	77.75
263.57	84.75
263.802	90.75
264.035	83.75
264.267	87.75
264.499	82.75
264.732	72.75
264.964	85.75
265.197	78.75
265.429	88.75
265.661	84.75
265.894	84.75
266.126	91.75
266.358	74.75
266.591	86.75
266.823	85.75
267.055	69.75
267.287	88.75
267.52	77.75
267.752	80.75
267.984	80.75
268.216	89.75
268.448	80.75
268.681	77.75
268.913	93.75
269.145	75.75
269.377	71.75
269.609	74.75
269.841	75.75
270.073	80.75
270.306	82.75
270.538	86.75
270.77	72.75
271.002	63.75
271.234	83.75
271.466	85.75
271.698	74.75
271.93	80.75
272.162	82.75
272.394	90.75
272.626	76.75
272.858	79.75
273.09	68.75
273.322	83.75
273.553	78.75
273.785	87.75
274.017	71.75
274.249	83.75
274.481	79.75
274.713	85.75
274.945	84.75
275.176	73.75
275.408	74.75
275.64	92.75
275.872	103.75
276.104	94.75
276.335	90.75
276.567	92.75
276.799	84.75
277.031	101.75
277.262	81.75
277.494	89.75
277.726	80.75
277.957	80.75
278.189	88.75
278.421	91.75
278.652	85.75
278.884	75.75
279.115	81.75
279.347	88.75
279.579	82.75
279.81	83.75
280.042	78.75
280.273	81.75
280.505	80.75
280.736	91.75
280.968	68.75
281.199	87.75
281.431	75.75
281.662	76.75
281.894	97.75
282.125	114.75
282.356	123.75
282.588	139.75
282.819	110.75
283.051	87.75
283.282	84.75
283.513	78.75
283.745	74.75
283.976	78.75
284.207	83.75
284.439	75.75
284.67	99.75
284.901	75.75
285.132	76.75
285.364	82.75
285.595	89.75
285.826	88.75
286.057	83.75
286.288	81.75
286.52	83.75
286.751	74.75
286.982	82.75
287.213	76.75
287.444	91.75
287.675	83.75
287.906	102.75
288.138	93.75
288.369	80.75
288.6	82.75
288.831	90.75
289.062	93.75
289.293	75.75
289.524	81.75
289.755	75.75
289.986	69.75
290.217	78.75
290.448	70.75
290.679	80.75
290.91	79.75
291.141	89.75
291.371	94.75
291.602	83.75
291.833	84.75
292.064	72.75
292.295	90.75
292.526	78.75
292.757	90.75
292.987	76.75
293.218	77.75
293.449	85.75
293.68	97.75
293.91	90.75
294.141	78.75
294.372	84.75
294.603	100.75
294.833	87.75
295.064	83.75
295.295	84.75
295.525	108.75
295.756	93.75
295.987	107.75
296.217	125.75
296.448	130.75
296.679	97.75
296.909	87.75
297.14	70.75
297.37	92.75
297.601	70.75
297.831	93.75
298.062	88.75
298.292	87.75
298.523	90.75
298.753	91.75
298.984	79.75
299.214	76.75
299.445	70.75
299.675	97.75
299.905	95.75
300.136	99.75
300.366	100.75
300.597	80.75
300.827	87.75
301.057	95.75
301.288	97.75
301.518	83.75
301.748	72.75
301.979	80.75
302.209	92.75
302.439	88.75
302.669	74.75
302.9	79.75
303.13	81.75
303.36	99.75
303.59	104.75
303.82	92.75
304.051	90.75
304.281	87.75
304.511	84.75
304.741	78.75
304.971	86.75
305.201	87.75
305.431	88.75
305.661	79.75
305.891	92.75
306.121	91.75
306.352	97.75
306.582	94.75
306.812	93.75
307.042	93.75
307.272	78.75
307.502	97.75
307.731	98.75
307.961	81.75
308.191	107.75
308.421	87.75
308.651	86.75
308.881	77.75
309.111	68.75
309.341	87.75
309.571	97.75
309.8	112.75
310.03	97.75
310.26	99.75
310.49	98.75
310.72	99.75
310.949	111.75
311.179	97.75
311.409	89.75
311.639	87.75
311.868	87.75
312.098	89.75
312.328	87.75
312.557	86.75
312.787	107.75
313.017	100.75
313.246	92.75
313.476	86.75
313.706	87.75
313.935	104.75
314.165	104.75
314.394	101.75
314.624	92.75
314.853	100.75
315.083	89.75
315.312	90.75
315.542	90.75
315.771	86.75
316.001	95.75
316.23	83.75
316.46	60.75
316.689	90.75
316.919	81.75
317.148	89.75
317.377	100.75
317.607	93.75
317.836	107.75
318.065	92.75
318.295	100.75
318.524	90.75
318.753	102.75
318.983	86.75
319.212	84.75
319.441	95.75
319.67	98.75
319.9	92.75
320.129	91.75
320.358	98.75
320.587	101.75
320.816	90.75
321.046	102.75
321.275	76.75
321.504	87.75
321.733	114.75
321.962	96.75
322.191	93.75
322.42	96.75
322.649	102.75
322.878	119.75
323.108	101.75
323.337	113.75
323.566	132.75
323.795	148.75
324.024	191.75
324.253	392.75
324.482	804.75
324.71	1589.75
324.939	2115.75
325.168	783.75
325.397	228.75
325.626	129.75
325.855	147.75
326.084	128.75
326.313	125.75
326.542	146.75
326.77	226.75
326.999	435.75
327.228	856.75
327.457	1541.75
327.686	1230.75
327.914	351.75
328.143	190.75
328.372	163.75
328.6	130.75
328.829	123.75
329.058	126.75
329.287	128.75
329.515	108.75
329.744	106.75
329.972	112.75
330.201	138.75
330.43	143.75
330.658	144.75
330.887	150.75
331.115	129.75
331.344	102.75
331.572	83.75
331.801	96.75
332.03	110.75
332.258	87.75
332.486	91.75
332.715	91.75
332.943	84.75
333.172	86.75
333.4	96.75
333.629	113.75
333.857	124.75
334.085	120.75
334.314	141.75
334.542	152.75
334.771	167.75
334.999	105.75
335.227	106.75
335.455	99.75
335.684	86.75
335.912	90.75
336.14	95.75
336.369	94.75
336.597	95.75
336.825	86.75
337.053	81.75
337.281	101.75
337.51	87.75
337.738	94.75
337.966	76.75
338.194	85.75
338.422	103.75
338.65	86.75
338.878	79.75
339.106	91.75
339.334	78.75
339.562	88.75
339.79	95.75
340.018	78.75
340.246	90.75
340.474	87.75
340.702	92.75
340.93	96.75
341.158	75.75
341.386	95.75
341.614	94.75
341.842	88.75
342.07	84.75
342.298	82.75
342.526	87.75
342.754	79.75
342.981	79.75
343.209	87.75
343.437	92.75
343.665	77.75
343.893	70.75
344.12	94.75
344.348	80.75
344.576	80.75
344.804	90.75
345.031	89.75
345.259	86.75
345.487	78.75
345.714	92.75
345.942	71.75
346.17	87.75
346.397	108.75
346.625	75.75
346.853	74.75
347.08	92.75
347.308	95.75
347.535	88.75
347.763	93.75
347.99	95.75
348.218	96.75
348.445	103.75
348.673	85.75
348.9	93.75
349.128	93.75
349.355	85.75
349.583	89.75
349.81	97.75
350.037	96.75
350.265	101.75
350.492	92.75
350.72	92.75
350.947	105.75
351.174	109.75
351.402	111.75
351.629	103.75
351.856	98.75
352.083	80.75
352.311	91.75
352.538	94.75
352.765	126.75
352.992	100.75
353.22	119.75
353.447	103.75
353.674	92.75
353.901	89.75
354.128	91.75
354.355	91.75
354.583	92.75
354.81	79.75
355.037	95.75
355.264	83.75
355.491	93.75
355.718	89.75
355.945	91.75
356.172	92.75
356.399	69.75
356.626	85.75
356.853	89.75
357.08	81.75
357.307	94.75
357.534	83.75
357.761	87.75
357.988	79.75
358.215	82.75
358.441	100.75
358.668	89.75
358.895	103.75
359.122	87.75
359.349	84.75
359.576	87.75
359.802	101.75
360.029	108.75
360.256	101.75
360.483	90.75
360.709	94.75
360.936	84.75
361.163	92.75
361.39	92.75
361.616	94.75
361.843	86.75
362.07	106.75
362.296	97.75
362.523	97.75
362.749	88.75
362.976	96.75
363.203	95.75
363.429	89.75
363.656	88.75
363.882	95.75
364.109	90.75
364.335	85.75
364.562	89.75
364.788	88.75
365.015	93.75
365.241	98.75
365.468	109.75
365.694	102.75
365.92	92.75
366.147	83.75
366.373	83.75
366.599	82.75
366.826	88.75
367.052	84.75
367.278	75.75
367.505	65.75
367.731	87.75
367.957	89.75
368.184	79.75
368.41	97.75
368.636	112.75
368.862	104.75
369.089	104.75
369.315	95.75
369.541	95.75
369.767	78.75
369.993	89.75
370.219	94.75
370.445	85.75
370.672	85.75
370.898	82.75
371.124	78.75
371.35	88.75
371.576	85.75
371.802	68.75
372.028	77.75
372.254	90.75
372.48	96.75
372.706	88.75
372.932	91.75
373.158	87.75
373.384	86.75
373.61	85.75
373.835	87.75
374.061	96.75
374.287	71.75
374.513	93.75
374.739	99.75
374.965	84.75
375.191	79.75
375.416	78.75
375.642	82.75
375.868	79.75
376.094	95.75
376.319	79.75
376.545	77.75
376.771	88.75
376.997	85.75
377.222	83.75
377.448	77.75
377.674	93.75
377.899	102.75
378.125	89.75
378.35	79.75
378.576	77.75
378.802	83.75
379.027	85.75
379.253	94.75
379.478	87.75
379.704	95.75
379.929	86.75
380.155	80.75
380.38	99.75
380.606	82.75
380.831	101.75
381.057	105.75
381.282	90.75
381.507	92.75
381.733	79.75
381.958	93.75
382.184	92.75
382.409	92.75
382.634	97.75
382.86	95.75
383.085	95.75
383.31	92.75
383.535	92.75
383.761	87.75
383.986	95.75
384.211	76.75
384.436	91.75
384.662	86.75
384.887	94.75
385.112	102.75
385.337	102.75
385.562	81.75
385.787	121.75
386.013	95.75
386.238	105.75
386.463	111.75
386.688	93.75
386.913	91.75
387.138	100.75
387.363	103.75
387.588	98.75
387.813	91.75
388.038	104.75
388.263	89.75
388.488	103.75
388.713	96.75
388.938	76.75
389.163	87.75
389.387	89.75
389.612	80.75
389.837	70.75
390.062	89.75
390.287	88.75
390.512	90.75
390.736	77.75
390.961	85.75
391.186	79.75
391.411	84.75
391.636	92.75
391.86	83.75
392.085	85.75
392.31	95.75
392.534	70.75
392.759	77.75
392.984	87.75
393.208	88.75
393.433	92.75
393.658	79.75
393.882	79.75
394.107	86.75
394.331	80.75
394.556	80.75
394.78	69.75
395.005	84.75
395.229	83.75
395.454	92.75
395.678	72.75
395.903	89.75
396.127	77.75
396.352	86.75
396.576	77.75
396.801	82.75
397.025	70.75
397.249	88.75
397.474	85.75
397.698	81.75
397.922	80.75
398.147	101.75
398.371	90.75
398.595	64.75
398.82	80.75
399.044	81.75
399.268	71.75
399.492	79.75
399.717	79.75
399.941	80.75
400.165	97.75
400.389	77.75
400.613	78.75
400.837	83.75
401.062	99.75
401.286	86.75
401.51	86.75
401.734	93.75
401.958	100.75
402.182	124.75
402.406	171.75
402.63	118.75
402.854	92.75
403.078	92.75
403.302	85.75
403.526	85.75
403.75	97.75
403.974	84.75
404.198	89.75
404.422	80.75
404.645	88.75
404.869	92.75
405.093	92.75
405.317	97.75
405.541	97.75
405.765	101.75
405.988	116.75
406.212	183.75
406.436	245.75
406.66	148.75
406.883	107.75
407.107	100.75
407.331	87.75
407.555	84.75
407.778	95.75
408.002	96.75
408.226	83.75
408.449	73.75
408.673	80.75
408.896	85.75
409.12	85.75
409.344	80.75
409.567	97.75
409.791	80.75
410.014	104.75
410.238	85.75
410.461	86.75
410.685	87.75
410.908	98.75
411.132	104.75
411.355	107.75
411.578	99.75
411.802	87.75
412.025	86.75
412.249	82.75
412.472	86.75
412.695	92.75
412.919	84.75
413.142	89.75
413.365	71.75
413.589	90.75
413.812	85.75
414.035	79.75
414.258	91.75
414.482	94.75
414.705	80.75
414.928	81.75
415.151	88.75
415.374	94.75
415.597	83.75
415.821	87.75
416.044	84.75
416.267	70.75
416.49	79.75
416.713	73.75
416.936	91.75
417.159	87.75
417.382	92.75
417.605	82.75
417.828	95.75
418.051	84.75
418.274	83.75
418.497	82.75
418.72	64.75
418.943	76.75
419.166	84.75
419.389	90.75
419.611	72.75
419.834	70.75
420.057	91.75
420.28	91.75
420.503	73.75
420.726	84.75
420.948	79.75
421.171	85.75
421.394	63.75
421.617	80.75
421.839	70.75
422.062	107.75
422.285	96.75
422.507	88.75
422.73	80.75
422.953	80.75
423.175	85.75
423.398	82.75
423.621	85.75
423.843	86.75
424.066	73.75
424.288	73.75
424.511	108.75
424.733	81.75
424.956	103.75
425.178	90.75
425.401	76.75
425.623	94.75
425.846	79.75
426.068	77.75
426.291	94.75
426.513	77.75
426.735	84.75
426.958	83.75
427.18	96.75
427.402	131.75
427.625	162.75
427.847	130.75
428.069	114.75
428.292	82.75
428.514	78.75
428.736	75.75
428.958	64.75
429.181	98.75
429.403	80.75
429.625	86.75
429.847	82.75
430.069	90.75
430.292	93.75
430.514	78.75
430.736	79.75
430.958	64.75
431.18	79.75
431.402	68.75
431.624	69.75
431.846	91.75
432.068	80.75
432.29	81.75
432.512	79.75
432.734	95.75
432.956	82.75
433.178	115.75
433.4	86.75
433.622	83.75
433.844	78.75
434.066	101.75
434.287	94.75
434.509	83.75
434.731	83.75
434.953	80.75
435.175	96.75
435.397	91.75
435.618	77.75
435.84	90.75
436.062	112.75
436.284	90.75
436.505	94.75
436.727	113.75
436.949	93.75
437.17	88.75
437.392	93.75
437.614	94.75
437.835	108.75
438.057	125.75
438.278	103.75
438.5	107.75
438.721	110.75
438.943	108.75
439.165	90.75
439.386	89.75
439.608	90.75
439.829	79.75
440.05	125.75
440.272	137.75
440.493	100.75
440.715	83.75
440.936	82.75
441.158	83.75
441.379	81.75
441.6	87.75
441.822	97.75
442.043	91.75
442.264	90.75
442.486	89.75
442.707	78.75
442.928	95.75
443.149	125.75
443.371	131.75
443.592	110.75
443.813	109.75
444.034	105.75
444.255	75.75
444.476	89.75
444.698	85.75
444.919	77.75
445.14	121.75
445.361	129.75
445.582	120.75
445.803	146.75
446.024	128.75
446.245	128.75
446.466	105.75
446.687	88.75
446.908	86.75
447.129	73.75
447.35	93.75
447.571	96.75
447.792	92.75
448.013	109.75
448.234	109.75
448.455	101.75
448.675	107.75
448.896	107.75
449.117	84.75
449.338	100.75
449.559	121.75
449.779	124.75
450	86.75
450.221	97.75
450.442	83.75
450.662	85.75
450.883	107.75
451.104	113.75
451.324	95.75
451.545	79.75
451.766	79.75
451.986	81.75
452.207	89.75
452.428	85.75
452.648	97.75
452.869	97.75
453.089	112.75
453.31	123.75
453.53	95.75
453.751	86.75
453.971	102.75
454.192	95.75
454.412	103.75
454.633	94.75
454.853	79.75
455.073	86.75
455.294	90.75
455.514	83.75
455.734	92.75
455.955	78.75
456.175	89.75
456.395	81.75
456.616	81.75
456.836	75.75
457.056	91.75
457.276	73.75
457.497	73.75
457.717	78.75
457.937	71.75
458.157	84.75
458.377	77.75
458.598	102.75
458.818	153.75
459.038	170.75
459.258	109.75
459.478	75.75
459.698	83.75
459.918	78.75
460.138	85.75
460.358	82.75
460.578	79.75
460.798	83.75
461.018	83.75
461.238	83.75
461.458	66.75
461.678	89.75
461.898	95.75
462.118	78.75
462.338	89.75
462.558	92.75
462.777	69.75
462.997	71.75
463.217	66.75
463.437	89.75
463.657	81.75
463.876	94.75
464.096	95.75
464.316	98.75
464.536	91.75
464.755	100.75
464.975	95.75
465.195	161.75
465.414	162.75
465.634	82.75
465.854	91.75
466.073	85.75
466.293	69.75
466.512	76.75
466.732	85.75
466.951	72.75
467.171	97.75
467.391	91.75
467.61	106.75
467.829	96.75
468.049	97.75
468.268	100.75
468.488	96.75
468.707	88.75
468.927	93.75
469.146	84.75
469.365	91.75
469.585	80.75
469.804	96.75
470.023	109.75
470.243	102.75
470.462	89.75
470.681	124.75
470.901	88.75
471.12	84.75
471.339	89.75
471.558	91.75
471.777	77.75
471.997	91.75
472.216	140.75
472.435	200.75
472.654	103.75
472.873	85.75
473.092	93.75
473.311	79.75
473.53	84.75
473.749	95.75
473.968	86.75
474.187	99.75
474.406	106.75
474.625	85.75
474.844	82.75
475.063	75.75
475.282	93.75
475.501	75.75
475.72	84.75
475.939	81.75
476.158	87.75
476.377	68.75
476.596	93.75
476.814	85.75
477.033	99.75
477.252	82.75
477.471	86.75
477.69	83.75
477.908	85.75
478.127	97.75
478.346	73.75
478.564	76.75
478.783	104.75
479.002	87.75
479.22	81.75
479.439	91.75
479.658	103.75
479.876	98.75
480.095	89.75
480.313	81.75
480.532	91.75
480.751	104.75
480.969	144.75
481.188	299.75
481.406	213.75
481.624	102.75
481.843	99.75
482.061	94.75
482.28	82.75
482.498	79.75
482.717	74.75
482.935	92.75
483.153	89.75
483.372	90.75
483.59	82.75
483.808	79.75
484.027	79.75
484.245	76.75
484.463	91.75
484.681	81.75
484.9	94.75
485.118	85.75
485.336	69.75
485.554	98.75
485.772	92.75
485.99	91.75
486.209	98.75
486.427	111.75
486.645	112.75
486.863	113.75
487.081	103.75
487.299	89.75
487.517	93.75
487.735	84.75
487.953	84.75
488.171	86.75
488.389	87.75
488.607	86.75
488.825	89.75
489.043	94.75
489.261	85.75
489.479	83.75
489.696	87.75
489.914	78.75
490.132	82.75
490.35	91.75
490.568	98.75
490.786	80.75
491.003	88.75
491.221	82.75
491.439	105.75
491.657	88.75
491.874	69.75
492.092	88.75
492.31	100.75
492.527	85.75
492.745	76.75
492.963	100.75
493.18	88.75
493.398	91.75
493.615	83.75
493.833	89.75
494.05	84.75
494.268	113.75
494.485	94.75
494.703	94.75
494.92	93.75
495.138	66.75
495.355	95.75
495.573	86.75
495.79	78.75
496.008	84.75
496.225	90.75
496.442	91.75
496.66	90.75
496.877	94.75
497.094	93.75
497.312	89.75
497.529	84.75
497.746	99.75
497.963	97.75
498.181	84.75
498.398	101.75
498.615	109.75
498.832	111.75
499.049	80.75
499.267	75.75
499.484	87.75
499.701	84.75
499.918	81.75
500.135	93.75
500.352	95.75
500.569	87.75
500.786	82.75
501.003	85.75
501.22	81.75
501.437	69.75
501.654	88.75
501.871	88.75
502.088	79.75
502.305	86.75
502.522	80.75
502.739	87.75
502.956	81.75
503.172	108.75
503.389	91.75
503.606	100.75
503.823	96.75
504.04	78.75
504.256	86.75
504.473	91.75
504.69	80.75
504.907	99.75
505.123	73.75
505.34	75.75
505.557	89.75
505.773	93.75
505.99	94.75
506.207	98.75
506.423	89.75
506.64	84.75
506.856	73.75
507.073	97.75
507.289	87.75
507.506	83.75
507.722	99.75
507.939	110.75
508.155	77.75
508.372	81.75
508.588	90.75
508.805	93.75
509.021	113.75
509.238	92.75
509.454	90.75
509.67	106.75
509.887	111.75
510.103	127.75
510.319	223.75
510.536	800.75
510.752	2691.75
510.968	767.75
511.184	175.75
511.401	117.75
511.617	106.75
511.833	91.75
512.049	106.75
512.265	100.75
512.481	79.75
512.698	92.75
512.914	82.75
513.13	87.75
513.346	95.75
513.562	85.75
513.778	96.75
513.994	95.75
514.21	103.75
514.426	108.75
514.642	141.75
514.858	136.75
515.074	175.75
515.29	490.75
515.506	1731.75
515.721	657.75
515.937	167.75
516.153	115.75
516.369	109.75
516.585	104.75
