Data from Circ_2018_H10_HRD10591_00014.txt Node
Date: Wed Jan 03 09:56:04 EST 2024
User: Yrep
Spectrometer: HR+D1059
Trigger mode: 1
Integration Time (sec): 1.000000E-1
Scans to average: 1
Electric dark correction enabled: true
Nonlinearity correction enabled: false
Boxcar width: 0
XAxis mode: Wavelengths
Number of Pixels in Spectrum: 2048
>>>>>Begin Spectral Data<<<<<
223.165	-40.12
223.4	-40.12
223.635	-40.12
223.869	-24.12
224.104	-18.12
224.338	-13.12
224.573	-7.12
224.808	0.88
225.042	-4.12
225.277	-7.12
225.511	-1.12
225.746	7.88
225.98	3.88
226.215	9.88
226.449	10.88
226.683	18.88
226.918	20.88
227.152	41.88
227.387	31.88
227.621	40.88
227.856	34.88
228.09	38.88
228.324	66.88
228.559	56.88
228.793	171.88
229.027	452.88
229.262	549.88
229.496	640.88
229.73	852.88
229.964	852.88
230.199	585.88
230.433	496.88
230.667	483.88
230.901	454.88
231.136	431.88
231.37	441.88
231.604	472.88
231.838	478.88
232.072	458.88
232.306	479.88
232.541	466.88
232.775	482.88
233.009	464.88
233.243	469.88
233.477	488.88
233.711	499.88
233.945	514.88
234.179	504.88
234.413	518.88
234.647	524.88
234.881	537.88
235.115	517.88
235.349	586.88
235.583	567.88
235.817	585.88
236.051	643.88
236.285	621.88
236.519	649.88
236.753	739.88
236.987	940.88
237.221	1426.88
237.455	1556.88
237.689	936.88
237.922	752.88
238.156	758.88
238.39	685.88
238.624	662.88
238.858	667.88
239.091	668.88
239.325	683.88
239.559	693.88
239.793	710.88
240.027	794.88
240.26	946.88
240.494	997.88
240.728	981.88
240.961	906.88
241.195	848.88
241.429	804.88
241.662	791.88
241.896	808.88
242.13	765.88
242.363	802.88
242.597	822.88
242.83	829.88
243.064	823.88
243.298	867.88
243.531	857.88
243.765	863.88
243.998	852.88
244.232	882.88
244.465	904.88
244.699	931.88
244.932	909.88
245.166	915.88
245.399	927.88
245.633	930.88
245.866	928.88
246.099	952.88
246.333	937.88
246.566	982.88
246.8	1010.88
247.033	1040.88
247.266	1066.88
247.5	1118.88
247.733	1186.88
247.966	1174.88
248.2	1185.88
248.433	1178.88
248.666	1208.88
248.899	1363.88
249.133	1502.88
249.366	1500.88
249.599	1368.88
249.832	1229.88
250.066	1276.88
250.299	1332.88
250.532	1484.88
250.765	1643.88
250.998	1788.88
251.231	1691.88
251.465	1510.88
251.698	1487.88
251.931	1483.88
252.164	1414.88
252.397	1450.88
252.63	1496.88
252.863	1566.88
253.096	1722.88
253.329	1799.88
253.562	1640.88
253.795	1596.88
254.028	1618.88
254.261	1691.88
254.494	1883.88
254.727	2231.88
254.96	2334.88
255.193	2042.88
255.426	1818.88
255.659	1748.88
255.892	1827.88
256.124	1915.88
256.357	1843.88
256.59	1674.88
256.823	1593.88
257.056	1566.88
257.289	1585.88
257.521	1593.88
257.754	1569.88
257.987	1563.88
258.22	1576.88
258.452	1575.88
258.685	1618.88
258.918	1600.88
259.151	1639.88
259.383	1719.88
259.616	1747.88
259.849	1830.88
260.081	2000.88
260.314	2176.88
260.547	2053.88
260.779	1891.88
261.012	1805.88
261.244	1762.88
261.477	1747.88
261.71	1768.88
261.942	1844.88
262.175	1862.88
262.407	1763.88
262.64	1696.88
262.872	1724.88
263.105	1692.88
263.337	1715.88
263.57	1723.88
263.802	1742.88
264.035	1732.88
264.267	1722.88
264.499	1683.88
264.732	1732.88
264.964	1714.88
265.197	1775.88
265.429	1767.88
265.661	1771.88
265.894	1786.88
266.126	1794.88
266.358	1825.88
266.591	1828.88
266.823	1947.88
267.055	1915.88
267.287	1894.88
267.52	1908.88
267.752	1928.88
267.984	1883.88
268.216	1978.88
268.448	2012.88
268.681	2043.88
268.913	2174.88
269.145	2412.88
269.377	2499.88
269.609	2326.88
269.841	2358.88
270.073	2479.88
270.306	2757.88
270.538	2889.88
270.77	2757.88
271.002	2622.88
271.234	2554.88
271.466	2709.88
271.698	2838.88
271.93	2824.88
272.162	2838.88
272.394	2835.88
272.626	2600.88
272.858	2465.88
273.09	2335.88
273.322	2366.88
273.553	2300.88
273.785	2313.88
274.017	2324.88
274.249	2304.88
274.481	2344.88
274.713	2315.88
274.945	2370.88
275.176	2356.88
275.408	2340.88
275.64	2329.88
275.872	2357.88
276.104	2367.88
276.335	2430.88
276.567	2503.88
276.799	2642.88
277.031	2910.88
277.262	3025.88
277.494	2854.88
277.726	2680.88
277.957	2596.88
278.189	2526.88
278.421	2490.88
278.652	2504.88
278.884	2433.88
279.115	2443.88
279.347	2487.88
279.579	2455.88
279.81	2405.88
280.042	2467.88
280.273	2530.88
280.505	2502.88
280.736	2504.88
280.968	2509.88
281.199	2519.88
281.431	2560.88
281.662	2550.88
281.894	2529.88
282.125	2601.88
282.356	2816.88
282.588	2952.88
282.819	2823.88
283.051	2637.88
283.282	2645.88
283.513	2653.88
283.745	2661.88
283.976	2701.88
284.207	2729.88
284.439	2742.88
284.67	2708.88
284.901	2687.88
285.132	2737.88
285.364	2716.88
285.595	2743.88
285.826	2676.88
286.057	2737.88
286.288	2699.88
286.52	2728.88
286.751	2762.88
286.982	2798.88
287.213	2805.88
287.444	2846.88
287.675	2919.88
287.906	2997.88
288.138	3035.88
288.369	3001.88
288.6	3012.88
288.831	2961.88
289.062	2896.88
289.293	2882.88
289.524	2889.88
289.755	2852.88
289.986	2820.88
290.217	2866.88
290.448	2902.88
290.679	2882.88
290.91	2901.88
291.141	2905.88
291.371	2893.88
291.602	2910.88
291.833	2888.88
292.064	2923.88
292.295	2928.88
292.526	2904.88
292.757	2897.88
292.987	2855.88
293.218	2854.88
293.449	2954.88
293.68	2913.88
293.91	2917.88
294.141	2986.88
294.372	2942.88
294.603	2946.88
294.833	2956.88
295.064	3026.88
295.295	2945.88
295.525	2933.88
295.756	3063.88
295.987	3188.88
296.217	3295.88
296.448	3257.88
296.679	3108.88
296.909	3043.88
297.14	3028.88
297.37	3083.88
297.601	3119.88
297.831	3209.88
298.062	3115.88
298.292	3189.88
298.523	3226.88
298.753	3231.88
298.984	3212.88
299.214	3193.88
299.445	3195.88
299.675	3225.88
299.905	3299.88
300.136	3239.88
300.366	3233.88
300.597	3283.88
300.827	3429.88
301.057	3492.88
301.288	3485.88
301.518	3420.88
301.748	3454.88
301.979	3560.88
302.209	3522.88
302.439	3474.88
302.669	3459.88
302.9	3434.88
303.13	3468.88
303.36	3439.88
303.59	3495.88
303.82	3488.88
304.051	3460.88
304.281	3429.88
304.511	3372.88
304.741	3378.88
304.971	3407.88
305.201	3394.88
305.431	3397.88
305.661	3360.88
305.891	3394.88
306.121	3375.88
306.352	3436.88
306.582	3459.88
306.812	3360.88
307.042	3398.88
307.272	3345.88
307.502	3442.88
307.731	3439.88
307.961	3398.88
308.191	3400.88
308.421	3396.88
308.651	3454.88
308.881	3444.88
309.111	3474.88
309.341	3433.88
309.571	3646.88
309.8	3658.88
310.03	3724.88
310.26	3774.88
310.49	3751.88
310.72	3862.88
310.949	3974.88
311.179	3857.88
311.409	3777.88
311.639	3787.88
311.868	3778.88
312.098	3876.88
312.328	4001.88
312.557	4092.88
312.787	4099.88
313.017	4035.88
313.246	3932.88
313.476	3831.88
313.706	3938.88
313.935	4036.88
314.165	4095.88
314.394	4116.88
314.624	4023.88
314.853	4010.88
315.083	3922.88
315.312	3867.88
315.542	3868.88
315.771	3858.88
316.001	3694.88
316.23	3814.88
316.46	3806.88
316.689	3872.88
316.919	3916.88
317.148	3947.88
317.377	3944.88
317.607	3959.88
317.836	3850.88
318.065	3829.88
318.295	3804.88
318.524	3854.88
318.753	3735.88
318.983	3783.88
319.212	3778.88
319.441	3859.88
319.67	3922.88
319.9	3838.88
320.129	3811.88
320.358	3806.88
320.587	3927.88
320.816	3984.88
321.046	4004.88
321.275	3966.88
321.504	3983.88
321.733	4053.88
321.962	4135.88
322.191	4167.88
322.42	4303.88
322.649	4412.88
322.878	4431.88
323.108	4537.88
323.337	4848.88
323.566	5059.88
323.795	5328.88
324.024	6061.88
324.253	8247.88
324.482	12431.88
324.71	15596.88
324.939	15596.88
325.168	13976.88
325.397	7176.88
325.626	5577.88
325.855	5138.88
326.084	5031.88
326.313	5049.88
326.542	5224.88
326.77	5962.88
326.999	7866.88
327.228	11607.88
327.457	15242.88
327.686	14449.88
327.914	7999.88
328.143	6341.88
328.372	6021.88
328.6	5724.88
328.829	5570.88
329.058	5800.88
329.287	5738.88
329.515	5367.88
329.744	5127.88
329.972	5276.88
330.201	5502.88
330.43	5874.88
330.658	6060.88
330.887	6292.88
331.115	5745.88
331.344	5274.88
331.572	5150.88
331.801	5305.88
332.03	5213.88
332.258	5171.88
332.486	5127.88
332.715	5277.88
332.943	5449.88
333.172	5628.88
333.4	5781.88
333.629	5829.88
333.857	6000.88
334.085	6117.88
334.314	6188.88
334.542	6329.88
334.771	6242.88
334.999	5800.88
335.227	5550.88
335.455	5435.88
335.684	5268.88
335.912	5264.88
336.14	5141.88
336.369	5068.88
336.597	5270.88
336.825	5216.88
337.053	5024.88
337.281	4903.88
337.51	4901.88
337.738	4894.88
337.966	4882.88
338.194	4905.88
338.422	4743.88
338.65	4720.88
338.878	4764.88
339.106	4648.88
339.334	4666.88
339.562	4578.88
339.79	4567.88
340.018	4612.88
340.246	4564.88
340.474	4604.88
340.702	4558.88
340.93	4534.88
341.158	4599.88
341.386	4630.88
341.614	4647.88
341.842	4506.88
342.07	4425.88
342.298	4403.88
342.526	4455.88
342.754	4478.88
342.981	4489.88
343.209	4569.88
343.437	4802.88
343.665	5147.88
343.893	5363.88
344.12	5403.88
344.348	5122.88
344.576	5022.88
344.804	4940.88
345.031	4887.88
345.259	4775.88
345.487	4561.88
345.714	4498.88
345.942	4400.88
346.17	4374.88
346.397	4307.88
346.625	4412.88
346.853	4359.88
347.08	4381.88
347.308	4459.88
347.535	4508.88
347.763	4528.88
347.99	4356.88
348.218	4518.88
348.445	4496.88
348.673	4359.88
348.9	4393.88
349.128	4300.88
349.355	4189.88
349.583	4203.88
349.81	4270.88
350.037	4207.88
350.265	4113.88
350.492	4217.88
350.72	4181.88
350.947	4213.88
351.174	4411.88
351.402	4480.88
351.629	4371.88
351.856	4348.88
352.083	4414.88
352.311	4461.88
352.538	4448.88
352.765	4419.88
352.992	4397.88
353.22	4280.88
353.447	4278.88
353.674	4225.88
353.901	4133.88
354.128	4054.88
354.355	4088.88
354.583	4171.88
354.81	4166.88
355.037	4045.88
355.264	4043.88
355.491	4118.88
355.718	4112.88
355.945	4076.88
356.172	4090.88
356.399	4081.88
356.626	4082.88
356.853	4097.88
357.08	4072.88
357.307	4064.88
357.534	4085.88
357.761	4139.88
357.988	4087.88
358.215	4115.88
358.441	4167.88
358.668	4158.88
358.895	4283.88
359.122	4161.88
359.349	4402.88
359.576	4402.88
359.802	4662.88
360.029	4838.88
360.256	4872.88
360.483	4614.88
360.709	4415.88
360.936	4358.88
361.163	4402.88
361.39	4414.88
361.616	4360.88
361.843	4254.88
362.07	4393.88
362.296	4408.88
362.523	4372.88
362.749	4400.88
362.976	4327.88
363.203	4186.88
363.429	4216.88
363.656	4241.88
363.882	4232.88
364.109	4168.88
364.335	4164.88
364.562	4189.88
364.788	4125.88
365.015	4155.88
365.241	4184.88
365.468	4250.88
365.694	4337.88
365.92	4260.88
366.147	4138.88
366.373	4218.88
366.599	4247.88
366.826	4202.88
367.052	4170.88
367.278	4258.88
367.505	4237.88
367.731	4246.88
367.957	4252.88
368.184	4244.88
368.41	4339.88
368.636	4393.88
368.862	4448.88
369.089	4358.88
369.315	4288.88
369.541	4315.88
369.767	4347.88
369.993	4315.88
370.219	4293.88
370.445	4314.88
370.672	4366.88
370.898	4406.88
371.124	4404.88
371.35	4471.88
371.576	4466.88
371.802	4393.88
372.028	4418.88
372.254	4439.88
372.48	4469.88
372.706	4582.88
372.932	4618.88
373.158	4567.88
373.384	4518.88
373.61	4472.88
373.835	4515.88
374.061	4508.88
374.287	4542.88
374.513	4624.88
374.739	4817.88
374.965	4816.88
375.191	4857.88
375.416	4765.88
375.642	4635.88
375.868	4628.88
376.094	4544.88
376.319	4487.88
376.545	4466.88
376.771	4512.88
376.997	4443.88
377.222	4460.88
377.448	4454.88
377.674	4450.88
377.899	4433.88
378.125	4428.88
378.35	4411.88
378.576	4451.88
378.802	4360.88
379.027	4388.88
379.253	4413.88
379.478	4392.88
379.704	4358.88
379.929	4386.88
380.155	4459.88
380.38	4485.88
380.606	4501.88
380.831	4412.88
381.057	4462.88
381.282	4489.88
381.507	4503.88
381.733	4560.88
381.958	4549.88
382.184	4617.88
382.409	4689.88
382.634	4672.88
382.86	4641.88
383.085	4803.88
383.31	4814.88
383.535	4938.88
383.761	4901.88
383.986	5058.88
384.211	5118.88
384.436	5159.88
384.662	5250.88
384.887	5412.88
385.112	5318.88
385.337	5353.88
385.562	5434.88
385.787	5374.88
386.013	5505.88
386.238	5505.88
386.463	5515.88
386.688	5473.88
386.913	5313.88
387.138	5328.88
387.363	5330.88
387.588	5220.88
387.813	5267.88
388.038	5300.88
388.263	5286.88
388.488	5312.88
388.713	5366.88
388.938	5309.88
389.163	5279.88
389.387	5315.88
389.612	5207.88
389.837	5202.88
390.062	5121.88
390.287	5254.88
390.512	5223.88
390.736	5308.88
390.961	5374.88
391.186	5473.88
391.411	5597.88
391.636	5720.88
391.86	5908.88
392.085	5986.88
392.31	5841.88
392.534	5758.88
392.759	5658.88
392.984	5538.88
393.208	5603.88
393.433	5540.88
393.658	5449.88
393.882	5519.88
394.107	5470.88
394.331	5552.88
394.556	5617.88
394.78	5646.88
395.005	5671.88
395.229	5732.88
395.454	5879.88
395.678	6014.88
395.903	6060.88
396.127	6056.88
396.352	5917.88
396.576	5694.88
396.801	5624.88
397.025	5777.88
397.249	5806.88
397.474	5986.88
397.698	6029.88
397.922	6173.88
398.147	6300.88
398.371	6390.88
398.595	6512.88
398.82	6830.88
399.044	7376.88
399.268	8201.88
399.492	9220.88
399.717	9884.88
399.941	9754.88
400.165	9059.88
400.389	8398.88
400.613	7516.88
400.837	7170.88
401.062	6914.88
401.286	6745.88
401.51	6713.88
401.734	6676.88
401.958	6791.88
402.182	7002.88
402.406	7178.88
402.63	7168.88
402.854	7305.88
403.078	7306.88
403.302	7494.88
403.526	7579.88
403.75	7607.88
403.974	7683.88
404.198	7647.88
404.422	7819.88
404.645	7736.88
404.869	7726.88
405.093	7930.88
405.317	8092.88
405.541	8151.88
405.765	7722.88
405.988	7623.88
406.212	7698.88
406.436	7998.88
406.66	8087.88
406.883	8035.88
407.107	8674.88
407.331	9267.88
407.555	9656.88
407.778	9316.88
408.002	8618.88
408.226	8162.88
408.449	8027.88
408.673	7886.88
408.896	8074.88
409.12	8188.88
409.344	7711.88
409.567	7387.88
409.791	7457.88
410.014	7217.88
410.238	7145.88
410.461	7281.88
410.685	7289.88
410.908	7395.88
411.132	7597.88
411.355	7694.88
411.578	7265.88
411.802	7003.88
412.025	7020.88
412.249	7217.88
412.472	7377.88
412.695	7433.88
412.919	7056.88
413.142	6864.88
413.365	6744.88
413.589	6714.88
413.812	6567.88
414.035	6503.88
414.258	6566.88
414.482	6632.88
414.705	6607.88
414.928	6642.88
415.151	6548.88
415.374	6575.88
415.597	6476.88
415.821	6380.88
416.044	6479.88
416.267	6482.88
416.49	6373.88
416.713	6458.88
416.936	6465.88
417.159	6465.88
417.382	6614.88
417.605	6626.88
417.828	6783.88
418.051	6875.88
418.274	6782.88
418.497	6689.88
418.72	6729.88
418.943	6677.88
419.166	7166.88
419.389	7530.88
419.611	7408.88
419.834	7136.88
420.057	7124.88
420.28	6936.88
420.503	6755.88
420.726	6747.88
420.948	6968.88
421.171	7376.88
421.394	7294.88
421.617	6750.88
421.839	6780.88
422.062	6892.88
422.285	7111.88
422.507	7671.88
422.73	8254.88
422.953	7605.88
423.175	7231.88
423.398	7300.88
423.621	7282.88
423.843	7545.88
424.066	7460.88
424.288	7362.88
424.511	7530.88
424.733	8136.88
424.956	8543.88
425.178	8094.88
425.401	8276.88
425.623	8129.88
425.846	7040.88
426.068	6862.88
426.291	6889.88
426.513	6838.88
426.735	6960.88
426.958	7483.88
427.18	8275.88
427.402	9365.88
427.625	9672.88
427.847	8149.88
428.069	7366.88
428.292	6674.88
428.514	6361.88
428.736	6224.88
428.958	6251.88
429.181	6077.88
429.403	6050.88
429.625	6139.88
429.847	6596.88
430.069	7119.88
430.292	6664.88
430.514	6041.88
430.736	6050.88
430.958	5963.88
431.18	5881.88
431.402	5869.88
431.624	5856.88
431.846	5957.88
432.068	5868.88
432.29	5998.88
432.512	5906.88
432.734	6072.88
432.956	6020.88
433.178	6086.88
433.4	5991.88
433.622	5874.88
433.844	5988.88
434.066	5968.88
434.287	6139.88
434.509	6362.88
434.731	6541.88
434.953	6749.88
435.175	6832.88
435.397	6997.88
435.618	6835.88
435.84	7325.88
436.062	8142.88
436.284	8145.88
436.505	6865.88
436.727	6512.88
436.949	6195.88
437.17	6078.88
437.392	6056.88
437.614	6224.88
437.835	6750.88
438.057	7675.88
438.278	8350.88
438.5	8264.88
438.721	9019.88
438.943	7894.88
439.165	6677.88
439.386	6574.88
439.608	6580.88
439.829	6665.88
440.05	7106.88
440.272	7429.88
440.493	6760.88
440.715	6398.88
440.936	6400.88
441.158	6363.88
441.379	6481.88
441.6	6858.88
441.822	7124.88
442.043	7637.88
442.264	8352.88
442.486	8136.88
442.707	7182.88
442.928	7087.88
443.149	7257.88
443.371	7492.88
443.592	8030.88
443.813	9043.88
444.034	9002.88
444.255	7870.88
444.476	7713.88
444.698	7815.88
444.919	7948.88
445.14	7721.88
445.361	7515.88
445.582	7814.88
445.803	8458.88
446.024	9052.88
446.245	8752.88
446.466	7905.88
446.687	6747.88
446.908	6401.88
447.129	6047.88
447.35	5911.88
447.571	5887.88
447.792	5770.88
448.013	5899.88
448.234	6184.88
448.455	6824.88
448.675	8210.88
448.896	8458.88
449.117	7084.88
449.338	7395.88
449.559	8582.88
449.779	8758.88
450	6763.88
450.221	6047.88
450.442	5764.88
450.662	5755.88
450.883	5839.88
451.104	5942.88
451.324	5792.88
451.545	5551.88
451.766	5451.88
451.986	5314.88
452.207	5249.88
452.428	5260.88
452.648	5254.88
452.869	5317.88
453.089	5386.88
453.31	5571.88
453.53	5277.88
453.751	5228.88
453.971	5326.88
454.192	5461.88
454.412	5212.88
454.633	5147.88
454.853	5091.88
455.073	5124.88
455.294	5569.88
455.514	6188.88
455.734	5616.88
455.955	4995.88
456.175	4905.88
456.395	4891.88
456.616	4832.88
456.836	4779.88
457.056	4779.88
457.276	4714.88
457.497	4896.88
457.717	4889.88
457.937	4956.88
458.157	4998.88
458.377	5184.88
458.598	5550.88
458.818	6371.88
459.038	7171.88
459.258	7028.88
459.478	6282.88
459.698	6012.88
459.918	6119.88
460.138	6308.88
460.358	6585.88
460.578	6537.88
460.798	6624.88
461.018	6618.88
461.238	6438.88
461.458	6443.88
461.678	6437.88
461.898	6549.88
462.118	6656.88
462.338	6920.88
462.558	7103.88
462.777	7387.88
462.997	7995.88
463.217	8409.88
463.437	8249.88
463.657	7573.88
463.876	7444.88
464.096	7576.88
464.316	7426.88
464.536	7508.88
464.755	7339.88
464.975	7178.88
465.195	7513.88
465.414	7562.88
465.634	6591.88
465.854	6156.88
466.073	5921.88
466.293	5742.88
466.512	5546.88
466.732	5442.88
466.951	5539.88
467.171	5422.88
467.391	5531.88
467.61	5649.88
467.829	5562.88
468.049	5512.88
468.268	5350.88
468.488	5203.88
468.707	5164.88
468.927	5250.88
469.146	5206.88
469.365	5297.88
469.585	5226.88
469.804	5515.88
470.023	5588.88
470.243	5612.88
470.462	5764.88
470.681	5867.88
470.901	5780.88
471.12	5593.88
471.339	5540.88
471.558	5504.88
471.777	5425.88
471.997	5301.88
472.216	5389.88
472.435	5611.88
472.654	5399.88
472.873	5265.88
473.092	5235.88
473.311	5158.88
473.53	5211.88
473.749	5429.88
473.968	5956.88
474.187	6965.88
474.406	6558.88
474.625	5509.88
474.844	5239.88
475.063	5172.88
475.282	5172.88
475.501	5291.88
475.72	5366.88
475.939	5306.88
476.158	5320.88
476.377	5432.88
476.596	5375.88
476.814	5531.88
477.033	5552.88
477.252	5730.88
477.471	5782.88
477.69	5912.88
477.908	5973.88
478.127	6159.88
478.346	6250.88
478.564	6350.88
478.783	6463.88
479.002	6555.88
479.22	6574.88
479.439	6658.88
479.658	6769.88
479.876	6929.88
480.095	7093.88
480.313	7571.88
480.532	7333.88
480.751	7199.88
480.969	7207.88
481.188	7624.88
481.406	7456.88
481.624	6819.88
481.843	6532.88
482.061	6326.88
482.28	6245.88
482.498	6162.88
482.717	6064.88
482.935	6080.88
483.153	6006.88
483.372	6095.88
483.59	6128.88
483.808	6131.88
484.027	6111.88
484.245	6209.88
484.463	6210.88
484.681	6280.88
484.9	6298.88
485.118	6328.88
485.336	6302.88
485.554	6430.88
485.772	6480.88
485.99	6497.88
486.209	6555.88
486.427	6544.88
486.645	6706.88
486.863	6794.88
487.081	6688.88
487.299	6653.88
487.517	6546.88
487.735	6548.88
487.953	6583.88
