Data from Circ_2018_H10_HRD10591_00076.txt Node
Date: Wed Jan 03 09:56:17 EST 2024
User: Yrep
Spectrometer: HR+D1059
Trigger mode: 1
Integration Time (sec): 1.000000E-1
Scans to average: 1
Electric dark correction enabled: true
Nonlinearity correction enabled: false
Boxcar width: 0
XAxis mode: Wavelengths
Number of Pixels in Spectrum: 2048
>>>>>Begin Spectral Data<<<<<
223.165	-19
223.4	-19
223.635	-19
223.869	-28
224.104	-9
224.338	-20
224.573	-30
224.808	-5
225.042	-5
225.277	-4
225.511	10
225.746	4
225.98	-5
226.215	18
226.449	13
226.683	22
226.918	22
227.152	36
227.387	38
227.621	34
227.856	43
228.09	52
228.324	58
228.559	65
228.793	63
229.027	73
229.262	57
229.496	76
229.73	81
229.964	99
230.199	76
230.433	85
230.667	82
230.901	68
231.136	78
231.37	83
231.604	84
231.838	81
232.072	82
232.306	88
232.541	78
232.775	85
233.009	82
233.243	71
233.477	73
233.711	98
233.945	84
234.179	77
234.413	86
234.647	81
234.881	92
235.115	66
235.349	86
235.583	80
235.817	79
236.051	65
236.285	75
236.519	84
236.753	78
236.987	71
237.221	92
237.455	99
237.689	85
237.922	86
238.156	72
238.39	78
238.624	78
238.858	71
239.091	65
239.325	80
239.559	77
239.793	89
240.027	87
240.26	84
240.494	78
240.728	75
240.961	80
241.195	70
241.429	78
241.662	76
241.896	76
242.13	77
242.363	73
242.597	81
242.83	74
243.064	79
243.298	83
243.531	78
243.765	82
243.998	89
244.232	83
244.465	90
244.699	62
244.932	83
245.166	78
245.399	78
245.633	77
245.866	91
246.099	72
246.333	83
246.566	71
246.8	68
247.033	76
247.266	85
247.5	78
247.733	78
247.966	84
248.2	82
248.433	74
248.666	76
248.899	85
249.133	92
249.366	102
249.599	107
249.832	86
250.066	73
250.299	83
250.532	86
250.765	75
250.998	76
251.231	83
251.465	85
251.698	81
251.931	78
252.164	74
252.397	85
252.63	92
252.863	84
253.096	86
253.329	86
253.562	87
253.795	80
254.028	85
254.261	90
254.494	86
254.727	84
254.96	94
255.193	76
255.426	82
255.659	76
255.892	69
256.124	75
256.357	81
256.59	84
256.823	87
257.056	94
257.289	86
257.521	80
257.754	81
257.987	69
258.22	87
258.452	84
258.685	89
258.918	86
259.151	90
259.383	85
259.616	82
259.849	84
260.081	91
260.314	91
260.547	84
260.779	86
261.012	80
261.244	85
261.477	91
261.71	93
261.942	104
262.175	137
262.407	104
262.64	89
262.872	89
263.105	89
263.337	86
263.57	70
263.802	84
264.035	87
264.267	93
264.499	90
264.732	89
264.964	86
265.197	86
265.429	83
265.661	84
265.894	76
266.126	77
266.358	91
266.591	82
266.823	92
267.055	87
267.287	92
267.52	87
267.752	90
267.984	77
268.216	83
268.448	94
268.681	81
268.913	82
269.145	87
269.377	99
269.609	71
269.841	78
270.073	85
270.306	100
270.538	99
270.77	85
271.002	97
271.234	89
271.466	95
271.698	84
271.93	74
272.162	103
272.394	85
272.626	97
272.858	91
273.09	80
273.322	68
273.553	91
273.785	96
274.017	77
274.249	88
274.481	87
274.713	88
274.945	96
275.176	94
275.408	92
275.64	90
275.872	87
276.104	112
276.335	86
276.567	102
276.799	103
277.031	105
277.262	93
277.494	89
277.726	91
277.957	91
278.189	78
278.421	91
278.652	93
278.884	81
279.115	81
279.347	79
279.579	87
279.81	96
280.042	90
280.273	109
280.505	98
280.736	96
280.968	74
281.199	93
281.431	80
281.662	87
281.894	90
282.125	92
282.356	120
282.588	161
282.819	138
283.051	93
283.282	92
283.513	81
283.745	85
283.976	70
284.207	88
284.439	102
284.67	87
284.901	88
285.132	94
285.364	97
285.595	86
285.826	91
286.057	93
286.288	89
286.52	96
286.751	91
286.982	83
287.213	77
287.444	76
287.675	83
287.906	86
288.138	92
288.369	108
288.6	86
288.831	89
289.062	89
289.293	80
289.524	78
289.755	82
289.986	82
290.217	81
290.448	87
290.679	70
290.91	101
291.141	93
291.371	80
291.602	87
291.833	68
292.064	93
292.295	96
292.526	86
292.757	96
292.987	96
293.218	93
293.449	84
293.68	100
293.91	87
294.141	88
294.372	78
294.603	78
294.833	92
295.064	86
295.295	89
295.525	81
295.756	115
295.987	125
296.217	157
296.448	149
296.679	96
296.909	91
297.14	99
297.37	87
297.601	86
297.831	93
298.062	89
298.292	96
298.523	101
298.753	92
298.984	100
299.214	93
299.445	101
299.675	93
299.905	99
300.136	99
300.366	85
300.597	90
300.827	86
301.057	102
301.288	115
301.518	97
301.748	106
301.979	103
302.209	75
302.439	92
302.669	99
302.9	107
303.13	98
303.36	88
303.59	101
303.82	112
304.051	108
304.281	84
304.511	84
304.741	91
304.971	94
305.201	91
305.431	94
305.661	102
305.891	107
306.121	93
306.352	106
306.582	101
306.812	101
307.042	101
307.272	99
307.502	85
307.731	103
307.961	94
308.191	85
308.421	95
308.651	89
308.881	91
309.111	79
309.341	88
309.571	101
309.8	100
310.03	103
310.26	87
310.49	92
310.72	108
310.949	107
311.179	110
311.409	94
311.639	107
311.868	96
312.098	112
312.328	113
312.557	113
312.787	112
313.017	96
313.246	92
313.476	76
313.706	85
313.935	97
314.165	107
314.394	102
314.624	108
314.853	106
315.083	91
315.312	94
315.542	100
315.771	90
316.001	99
316.23	97
316.46	83
316.689	78
316.919	98
317.148	86
317.377	85
317.607	82
317.836	93
318.065	98
318.295	97
318.524	94
318.753	97
318.983	100
319.212	108
319.441	107
319.67	125
319.9	93
320.129	103
320.358	104
320.587	115
320.816	111
321.046	120
321.275	95
321.504	105
321.733	91
321.962	99
322.191	101
322.42	103
322.649	120
322.878	124
323.108	110
323.337	126
323.566	134
323.795	168
324.024	235
324.253	440
324.482	900
324.71	1866
324.939	2435
325.168	911
325.397	276
325.626	154
325.855	136
326.084	131
326.313	133
326.542	167
326.77	244
326.999	500
327.228	977
327.457	1778
327.686	1428
327.914	408
328.143	222
328.372	189
328.6	136
328.829	136
329.058	137
329.287	142
329.515	106
329.744	124
329.972	118
330.201	136
330.43	173
330.658	149
330.887	164
331.115	140
331.344	99
331.572	108
331.801	126
332.03	111
332.258	103
332.486	91
332.715	94
332.943	100
333.172	102
333.4	99
333.629	125
333.857	133
334.085	135
334.314	145
334.542	174
334.771	178
334.999	111
335.227	114
335.455	105
335.684	99
335.912	86
336.14	108
336.369	95
336.597	107
336.825	100
337.053	103
337.281	100
337.51	104
337.738	98
337.966	96
338.194	108
338.422	99
338.65	110
338.878	101
339.106	89
339.334	100
339.562	93
339.79	94
340.018	108
340.246	108
340.474	94
340.702	91
340.93	85
341.158	97
341.386	102
341.614	91
341.842	102
342.07	103
342.298	104
342.526	100
342.754	93
342.981	87
343.209	90
343.437	96
343.665	89
343.893	95
344.12	84
344.348	88
344.576	94
344.804	101
345.031	93
345.259	105
345.487	92
345.714	92
345.942	89
346.17	83
346.397	85
346.625	92
346.853	91
347.08	82
347.308	96
347.535	105
347.763	110
347.99	112
348.218	98
348.445	113
348.673	105
348.9	94
349.128	81
349.355	99
349.583	86
349.81	94
350.037	96
350.265	89
350.492	92
350.72	98
350.947	109
351.174	133
351.402	106
351.629	116
351.856	114
352.083	106
352.311	101
352.538	96
352.765	116
352.992	111
353.22	122
353.447	108
353.674	106
353.901	105
354.128	104
354.355	97
354.583	82
354.81	106
355.037	94
355.264	95
355.491	87
355.718	99
355.945	100
356.172	90
356.399	101
356.626	95
356.853	99
357.08	94
357.307	99
357.534	83
357.761	102
357.988	88
358.215	99
358.441	101
358.668	86
358.895	87
359.122	101
359.349	93
359.576	87
359.802	114
360.029	114
360.256	114
360.483	105
360.709	84
360.936	81
361.163	97
361.39	115
361.616	99
361.843	105
362.07	109
362.296	101
362.523	87
362.749	97
362.976	99
363.203	86
363.429	92
363.656	93
363.882	85
364.109	97
364.335	93
364.562	95
364.788	97
365.015	95
365.241	89
365.468	111
365.694	100
365.92	91
366.147	101
366.373	102
366.599	97
366.826	100
367.052	82
367.278	78
367.505	85
367.731	86
367.957	89
368.184	102
368.41	102
368.636	121
368.862	130
369.089	135
369.315	101
369.541	105
369.767	87
369.993	87
370.219	91
370.445	85
370.672	98
370.898	95
371.124	99
371.35	84
371.576	80
371.802	94
372.028	78
372.254	86
372.48	87
372.706	77
372.932	90
373.158	84
373.384	103
373.61	94
373.835	93
374.061	101
374.287	97
374.513	85
374.739	77
374.965	102
375.191	61
375.416	93
375.642	107
375.868	101
376.094	82
376.319	88
376.545	96
376.771	102
376.997	101
377.222	103
377.448	97
377.674	78
377.899	81
378.125	87
378.35	86
378.576	86
378.802	87
379.027	88
379.253	86
379.478	79
379.704	81
379.929	98
380.155	94
380.38	91
380.606	100
380.831	94
381.057	104
381.282	92
381.507	86
381.733	87
381.958	98
382.184	112
382.409	117
382.634	99
382.86	99
383.085	98
383.31	107
383.535	87
383.761	102
383.986	99
384.211	89
384.436	98
384.662	87
384.887	96
385.112	112
385.337	97
385.562	88
385.787	109
386.013	116
386.238	102
386.463	108
386.688	107
386.913	89
387.138	115
387.363	90
387.588	105
387.813	90
388.038	102
388.263	105
388.488	93
388.713	93
388.938	79
389.163	93
389.387	93
389.612	94
389.837	98
390.062	99
390.287	109
390.512	94
390.736	99
390.961	93
391.186	96
391.411	90
391.636	94
391.86	83
392.085	73
392.31	87
392.534	70
392.759	84
392.984	91
393.208	82
393.433	91
393.658	83
393.882	86
394.107	83
394.331	92
394.556	77
394.78	96
395.005	84
395.229	93
395.454	95
395.678	76
395.903	90
396.127	91
396.352	94
396.576	99
396.801	88
397.025	77
397.249	89
397.474	84
397.698	89
397.922	94
398.147	100
398.371	92
398.595	90
398.82	83
399.044	73
399.268	76
399.492	94
399.717	92
399.941	94
400.165	97
400.389	87
400.613	78
400.837	91
401.062	93
401.286	86
401.51	94
401.734	92
401.958	108
402.182	149
402.406	180
402.63	117
402.854	93
403.078	84
403.302	71
403.526	93
403.75	93
403.974	99
404.198	96
404.422	94
404.645	87
404.869	83
405.093	109
405.317	101
405.541	122
405.765	104
405.988	130
406.212	194
406.436	281
406.66	172
406.883	113
407.107	107
407.331	91
407.555	109
407.778	110
408.002	94
408.226	97
408.449	74
408.673	86
408.896	106
409.12	113
409.344	100
409.567	88
409.791	99
410.014	101
410.238	89
410.461	94
410.685	104
410.908	93
411.132	109
411.355	104
411.578	89
411.802	90
412.025	75
412.249	74
412.472	78
412.695	97
412.919	85
413.142	78
413.365	87
413.589	90
413.812	90
414.035	95
414.258	80
414.482	77
414.705	105
414.928	109
415.151	90
415.374	90
415.597	80
415.821	89
416.044	93
416.267	88
416.49	86
416.713	81
416.936	95
417.159	94
417.382	89
417.605	90
417.828	84
418.051	87
418.274	97
418.497	81
418.72	97
418.943	86
419.166	88
419.389	97
419.611	94
419.834	87
420.057	88
420.28	95
420.503	83
420.726	99
420.948	79
421.171	98
421.394	94
421.617	91
421.839	89
422.062	84
422.285	90
422.507	115
422.73	114
422.953	93
423.175	99
423.398	90
423.621	88
423.843	94
424.066	86
424.288	89
424.511	99
424.733	95
424.956	103
425.178	110
425.401	104
425.623	101
425.846	93
426.068	95
426.291	96
426.513	92
426.735	94
426.958	96
427.18	99
427.402	155
427.625	204
427.847	144
428.069	114
428.292	85
428.514	87
428.736	94
428.958	81
429.181	80
429.403	86
429.625	75
429.847	112
430.069	106
430.292	91
430.514	79
430.736	92
430.958	95
431.18	83
431.402	93
431.624	86
431.846	91
432.068	95
432.29	101
432.512	85
432.734	87
432.956	101
433.178	85
433.4	85
433.622	85
433.844	86
434.066	92
434.287	91
434.509	94
434.731	97
434.953	82
435.175	86
435.397	85
435.618	100
435.84	105
436.062	122
436.284	123
436.505	98
436.727	101
436.949	86
437.17	84
437.392	92
437.614	113
437.835	132
438.057	125
438.278	110
438.5	98
438.721	114
438.943	108
439.165	88
439.386	80
439.608	101
439.829	98
440.05	129
440.272	154
440.493	106
440.715	83
440.936	94
441.158	86
441.379	82
441.6	89
441.822	102
442.043	87
442.264	92
442.486	103
442.707	105
442.928	107
443.149	146
443.371	151
443.592	129
443.813	114
444.034	113
444.255	90
444.476	106
444.698	98
444.919	85
445.14	135
445.361	135
445.582	132
445.803	151
446.024	160
446.245	152
446.466	122
446.687	92
446.908	80
447.129	83
447.35	96
447.571	98
447.792	103
448.013	97
448.234	106
448.455	88
448.675	118
448.896	130
449.117	108
449.338	102
449.559	147
449.779	139
450	115
450.221	104
450.442	99
450.662	98
450.883	104
451.104	118
451.324	97
451.545	94
451.766	87
451.986	87
452.207	97
452.428	106
452.648	102
452.869	126
453.089	122
453.31	125
453.53	102
453.751	97
453.971	103
454.192	134
454.412	96
454.633	98
454.853	97
455.073	85
455.294	108
455.514	98
455.734	82
455.955	74
456.175	78
456.395	92
456.616	77
456.836	100
457.056	87
457.276	84
457.497	91
457.717	93
457.937	87
458.157	97
458.377	84
458.598	132
458.818	158
459.038	186
459.258	112
459.478	92
459.698	90
459.918	89
460.138	90
460.358	79
460.578	90
460.798	98
461.018	102
461.238	100
461.458	71
461.678	75
461.898	87
462.118	75
462.338	77
462.558	74
462.777	94
462.997	104
463.217	99
463.437	89
463.657	97
463.876	92
464.096	87
464.316	101
464.536	99
464.755	103
464.975	119
465.195	182
465.414	185
465.634	109
465.854	83
466.073	77
466.293	92
466.512	84
466.732	84
466.951	84
467.171	94
467.391	86
467.61	107
467.829	101
468.049	115
468.268	138
468.488	100
468.707	87
468.927	82
469.146	97
469.365	94
469.585	82
469.804	114
470.023	116
470.243	81
470.462	112
470.681	120
470.901	105
471.12	83
471.339	75
471.558	90
471.777	97
471.997	100
472.216	150
472.435	219
472.654	117
472.873	79
473.092	104
473.311	87
473.53	81
473.749	82
473.968	96
474.187	121
474.406	105
474.625	84
474.844	91
475.063	91
475.282	84
475.501	88
475.72	82
475.939	98
476.158	85
476.377	83
476.596	100
476.814	106
477.033	98
477.252	95
477.471	89
477.69	100
477.908	94
478.127	86
478.346	96
478.564	104
478.783	94
479.002	105
479.22	96
479.439	109
479.658	114
479.876	105
480.095	114
480.313	105
480.532	94
480.751	101
480.969	144
481.188	313
481.406	242
481.624	110
481.843	92
482.061	67
482.28	83
482.498	85
482.717	88
482.935	87
483.153	87
483.372	84
483.59	96
483.808	102
484.027	89
484.245	98
484.463	96
484.681	97
484.9	88
485.118	93
485.336	96
485.554	91
485.772	93
485.99	105
486.209	105
486.427	105
486.645	128
486.863	137
487.081	105
487.299	96
487.517	96
487.735	86
487.953	98
488.171	100
488.389	84
488.607	103
488.825	92
489.043	89
489.261	98
489.479	91
489.696	77
489.914	83
490.132	85
490.35	96
490.568	89
490.786	99
491.003	83
491.221	86
491.439	86
491.657	94
491.874	93
492.092	94
492.31	77
492.527	94
492.745	95
492.963	83
493.18	91
493.398	97
493.615	84
493.833	89
494.05	84
494.268	91
494.485	92
494.703	100
494.92	84
495.138	83
495.355	87
495.573	84
495.79	89
496.008	96
496.225	95
496.442	96
496.66	102
496.877	93
497.094	87
497.312	91
497.529	86
497.746	96
497.963	102
498.181	94
498.398	98
498.615	110
498.832	114
499.049	88
499.267	98
499.484	83
499.701	83
499.918	85
500.135	89
500.352	81
500.569	89
500.786	102
501.003	91
501.22	86
501.437	113
501.654	98
501.871	137
502.088	107
502.305	112
502.522	83
502.739	67
502.956	86
503.172	95
503.389	106
503.606	101
503.823	103
504.04	92
504.256	102
504.473	106
504.69	89
504.907	103
505.123	109
505.34	91
505.557	88
505.773	84
505.99	93
506.207	96
506.423	96
506.64	84
506.856	103
507.073	97
507.289	92
507.506	109
507.722	118
507.939	110
508.155	109
508.372	80
508.588	94
508.805	107
509.021	101
509.238	104
509.454	103
509.67	113
509.887	115
510.103	143
510.319	228
510.536	940
510.752	3281
510.968	919
511.184	206
511.401	133
511.617	106
511.833	106
512.049	100
512.265	98
512.481	90
512.698	104
512.914	99
513.13	104
513.346	93
513.562	102
513.778	98
513.994	107
514.21	115
514.426	131
514.642	148
514.858	141
515.074	191
515.29	584
515.506	2141
515.721	766
515.937	182
516.153	141
516.369	112
516.585	100
516.801	100
517.016	85
517.232	86
517.448	104
517.664	88
517.879	89
518.095	87
518.311	92
518.527	108
518.742	86
518.958	89
519.173	85
519.389	89
519.605	108
519.82	90
520.036	113
520.251	151
520.467	118
520.682	111
520.898	114
521.113	135
521.329	176
521.544	237
521.76	720
521.975	3515
522.19	2138
522.406	400
522.621	140
522.836	119
523.052	100
523.267	97
523.482	109
523.698	109
523.913	146
524.128	114
524.343	96
524.559	92
524.774	92
524.989	101
525.204	102
525.419	104
525.634	98
525.849	86
526.064	86
526.28	89
526.495	97
526.71	83
526.925	93
527.14	96
527.355	86
527.57	96
527.785	102
527.999	95
528.214	98
528.429	103
528.644	85
528.859	100
529.074	89
529.289	155
529.503	230
529.718	122
529.933	98
530.148	91
530.363	82
530.577	107
530.792	102
531.007	87
531.221	89
531.436	88
531.651	91
531.865	93
532.08	101
532.295	82
532.509	90
532.724	88
532.938	96
533.153	113
533.367	99
533.582	90
533.796	101
534.011	92
534.225	96
534.44	75
534.654	77
534.868	88
535.083	85
535.297	101
535.511	108
535.726	109
535.94	110
536.154	90
536.369	84
536.583	96
536.797	87
537.011	81
537.225	97
537.44	102
537.654	90
537.868	90
538.082	97
538.296	92
538.51	91
538.724	91
538.938	94
539.153	95
539.367	112
539.581	88
539.795	83
540.009	76
540.222	83
540.436	84
540.65	75
540.864	98
541.078	107
541.292	83
541.506	84
541.72	87
541.934	83
542.147	100
542.361	96
542.575	98
542.789	97
543.002	93
543.216	100
543.43	96
543.644	84
543.857	93
544.071	81
544.285	85
544.498	82
544.712	92
544.925	77
545.139	84
545.352	86
545.566	84
545.779	83
545.993	91
546.206	85
546.42	102
546.633	82
546.847	95
547.06	86
547.274	96
547.487	85
547.7	82
547.914	99
548.127	91
548.34	108
548.554	86
548.767	86
548.98	96
549.193	91
549.407	88
549.62	87
549.833	99
550.046	84
550.259	82
550.473	106
550.686	73
550.899	91
551.112	88
551.325	90
551.538	79
551.751	93
551.964	84
552.177	91
552.39	80
552.603	88
552.816	91
553.029	73
553.242	95
553.455	91
553.667	120
553.88	108
554.093	89
554.306	104
554.519	101
554.732	108
554.944	104
555.157	83
555.37	109
555.583	97
555.795	104
556.008	74
556.221	85
556.433	89
556.646	97
556.859	87
557.071	84
557.284	88
557.496	100
557.709	81
557.921	101
558.134	96
558.346	103
558.559	82
558.771	85
558.984	92
559.196	82
559.409	81
559.621	93
559.833	84
560.046	94
560.258	88
560.47	104
560.683	98
560.895	91
561.107	88
561.32	83
561.532	89
561.744	75
561.956	99
562.168	89
562.381	78
562.593	99
562.805	97
563.017	112
563.229	92
563.441	83
563.653	90
563.865	74
564.077	80
564.289	81
564.501	91
564.713	97
564.925	98
565.137	105
565.349	92
565.561	93
565.773	93
565.985	87
566.197	96
566.408	85
566.62	90
566.832	98
567.044	95
567.255	86
567.467	85
567.679	89
567.891	102
568.102	96
568.314	88
568.526	78
568.737	92
568.949	90
569.161	87
569.372	86
569.584	97
569.795	93
570.007	136
570.218	312
570.43	155
570.641	100
570.853	87
571.064	106
571.276	79
571.487	102
571.698	83
571.91	82
572.121	81
572.333	84
572.544	88
572.755	85
572.966	84
573.178	84
573.389	82
573.6	95
573.811	90
574.023	89
574.234	87
574.445	88
574.656	96
574.867	96
575.078	86
575.289	81
575.501	83
575.712	70
575.923	105
576.134	89
576.345	96
576.556	86
576.767	84
576.978	102
577.188	74
577.399	92
577.61	93
577.821	90
578.032	122
578.243	332
578.454	1074
578.665	268
578.875	113
579.086	101
579.297	101
579.508	98
579.718	93
579.929	81
580.14	96
580.35	100
580.561	93
580.772	84
580.982	91
581.193	91
581.403	82
581.614	91
581.825	107
582.035	91
