Data from Circ_2018_H10_HRD10591_00080.txt Node
Date: Wed Jan 03 09:56:18 EST 2024
User: Yrep
Spectrometer: HR+D1059
Trigger mode: 1
Integration Time (sec): 1.000000E-1
Scans to average: 1
Electric dark correction enabled: true
Nonlinearity correction enabled: false
Boxcar width: 0
XAxis mode: Wavelengths
Number of Pixels in Spectrum: 2048
>>>>>Begin Spectral Data<<<<<
223.165	-13.69
223.4	-13.69
223.635	-13.69
223.869	-25.69
224.104	-17.69
224.338	-14.69
224.573	-10.69
224.808	-6.69
225.042	-4.69
225.277	-6.69
225.511	-6.69
225.746	1.31
225.98	10.31
226.215	2.31
226.449	17.31
226.683	10.31
226.918	26.31
227.152	39.31
227.387	26.31
227.621	30.31
227.856	38.31
228.09	45.31
228.324	48.31
228.559	69.31
228.793	60.31
229.027	67.31
229.262	54.31
229.496	62.31
229.73	94.31
229.964	82.31
230.199	65.31
230.433	71.31
230.667	74.31
230.901	60.31
231.136	77.31
231.37	73.31
231.604	82.31
231.838	82.31
232.072	89.31
232.306	95.31
232.541	81.31
232.775	79.31
233.009	91.31
233.243	73.31
233.477	75.31
233.711	72.31
233.945	76.31
234.179	95.31
234.413	91.31
234.647	71.31
234.881	93.31
235.115	77.31
235.349	75.31
235.583	69.31
235.817	76.31
236.051	75.31
236.285	75.31
236.519	70.31
236.753	73.31
236.987	68.31
237.221	74.31
237.455	74.31
237.689	67.31
237.922	75.31
238.156	72.31
238.39	77.31
238.624	80.31
238.858	91.31
239.091	78.31
239.325	93.31
239.559	94.31
239.793	78.31
240.027	76.31
240.26	89.31
240.494	82.31
240.728	80.31
240.961	65.31
241.195	89.31
241.429	67.31
241.662	78.31
241.896	79.31
242.13	92.31
242.363	72.31
242.597	78.31
242.83	92.31
243.064	62.31
243.298	73.31
243.531	76.31
243.765	73.31
243.998	67.31
244.232	68.31
244.465	82.31
244.699	75.31
244.932	72.31
245.166	67.31
245.399	84.31
245.633	78.31
245.866	90.31
246.099	79.31
246.333	80.31
246.566	73.31
246.8	85.31
247.033	73.31
247.266	79.31
247.5	80.31
247.733	77.31
247.966	79.31
248.2	75.31
248.433	94.31
248.666	90.31
248.899	86.31
249.133	96.31
249.366	95.31
249.599	89.31
249.832	99.31
250.066	91.31
250.299	80.31
250.532	91.31
250.765	90.31
250.998	62.31
251.231	77.31
251.465	80.31
251.698	69.31
251.931	99.31
252.164	79.31
252.397	76.31
252.63	62.31
252.863	69.31
253.096	84.31
253.329	80.31
253.562	81.31
253.795	71.31
254.028	71.31
254.261	89.31
254.494	70.31
254.727	80.31
254.96	84.31
255.193	77.31
255.426	82.31
255.659	75.31
255.892	63.31
256.124	76.31
256.357	70.31
256.59	83.31
256.823	71.31
257.056	68.31
257.289	75.31
257.521	76.31
257.754	72.31
257.987	85.31
258.22	82.31
258.452	94.31
258.685	77.31
258.918	69.31
259.151	87.31
259.383	78.31
259.616	79.31
259.849	71.31
260.081	78.31
260.314	92.31
260.547	84.31
260.779	68.31
261.012	79.31
261.244	85.31
261.477	90.31
261.71	95.31
261.942	129.31
262.175	116.31
262.407	89.31
262.64	84.31
262.872	75.31
263.105	75.31
263.337	79.31
263.57	90.31
263.802	82.31
264.035	87.31
264.267	85.31
264.499	79.31
264.732	76.31
264.964	90.31
265.197	81.31
265.429	77.31
265.661	76.31
265.894	91.31
266.126	87.31
266.358	91.31
266.591	76.31
266.823	83.31
267.055	89.31
267.287	74.31
267.52	84.31
267.752	88.31
267.984	99.31
268.216	79.31
268.448	97.31
268.681	85.31
268.913	78.31
269.145	84.31
269.377	96.31
269.609	84.31
269.841	84.31
270.073	76.31
270.306	76.31
270.538	80.31
270.77	94.31
271.002	74.31
271.234	78.31
271.466	89.31
271.698	82.31
271.93	84.31
272.162	93.31
272.394	95.31
272.626	85.31
272.858	84.31
273.09	91.31
273.322	87.31
273.553	92.31
273.785	87.31
274.017	83.31
274.249	87.31
274.481	73.31
274.713	87.31
274.945	79.31
275.176	94.31
275.408	75.31
275.64	90.31
275.872	91.31
276.104	107.31
276.335	76.31
276.567	98.31
276.799	112.31
277.031	103.31
277.262	84.31
277.494	83.31
277.726	96.31
277.957	87.31
278.189	85.31
278.421	76.31
278.652	86.31
278.884	96.31
279.115	91.31
279.347	79.31
279.579	89.31
279.81	84.31
280.042	88.31
280.273	97.31
280.505	87.31
280.736	82.31
280.968	86.31
281.199	87.31
281.431	102.31
281.662	94.31
281.894	74.31
282.125	99.31
282.356	118.31
282.588	148.31
282.819	123.31
283.051	96.31
283.282	86.31
283.513	86.31
283.745	96.31
283.976	76.31
284.207	79.31
284.439	86.31
284.67	79.31
284.901	96.31
285.132	85.31
285.364	79.31
285.595	79.31
285.826	85.31
286.057	100.31
286.288	107.31
286.52	81.31
286.751	87.31
286.982	95.31
287.213	90.31
287.444	83.31
287.675	89.31
287.906	83.31
288.138	97.31
288.369	89.31
288.6	91.31
288.831	82.31
289.062	75.31
289.293	82.31
289.524	87.31
289.755	84.31
289.986	78.31
290.217	83.31
290.448	92.31
290.679	76.31
290.91	70.31
291.141	87.31
291.371	93.31
291.602	72.31
291.833	74.31
292.064	91.31
292.295	91.31
292.526	90.31
292.757	98.31
292.987	84.31
293.218	91.31
293.449	94.31
293.68	97.31
293.91	76.31
294.141	79.31
294.372	84.31
294.603	86.31
294.833	72.31
295.064	85.31
295.295	93.31
295.525	88.31
295.756	107.31
295.987	121.31
296.217	134.31
296.448	136.31
296.679	83.31
296.909	88.31
297.14	87.31
297.37	94.31
297.601	92.31
297.831	90.31
298.062	88.31
298.292	100.31
298.523	86.31
298.753	84.31
298.984	89.31
299.214	80.31
299.445	86.31
299.675	94.31
299.905	91.31
300.136	91.31
300.366	81.31
300.597	92.31
300.827	94.31
301.057	97.31
301.288	104.31
301.518	100.31
301.748	88.31
301.979	96.31
302.209	89.31
302.439	100.31
302.669	94.31
302.9	82.31
303.13	85.31
303.36	92.31
303.59	107.31
303.82	111.31
304.051	104.31
304.281	85.31
304.511	97.31
304.741	89.31
304.971	92.31
305.201	74.31
305.431	95.31
305.661	104.31
305.891	89.31
306.121	95.31
306.352	100.31
306.582	101.31
306.812	103.31
307.042	83.31
307.272	87.31
307.502	88.31
307.731	91.31
307.961	104.31
308.191	97.31
308.421	86.31
308.651	82.31
308.881	90.31
309.111	95.31
309.341	104.31
309.571	98.31
309.8	93.31
310.03	106.31
310.26	105.31
310.49	104.31
310.72	114.31
310.949	116.31
311.179	109.31
311.409	89.31
311.639	90.31
311.868	92.31
312.098	96.31
312.328	101.31
312.557	110.31
312.787	97.31
313.017	88.31
313.246	106.31
313.476	103.31
313.706	99.31
313.935	94.31
314.165	99.31
314.394	88.31
314.624	99.31
314.853	92.31
315.083	84.31
315.312	87.31
315.542	100.31
315.771	103.31
316.001	88.31
316.23	91.31
316.46	88.31
316.689	95.31
316.919	102.31
317.148	86.31
317.377	95.31
317.607	104.31
317.836	100.31
318.065	96.31
318.295	89.31
318.524	74.31
318.753	101.31
318.983	100.31
319.212	116.31
319.441	131.31
319.67	119.31
319.9	90.31
320.129	78.31
320.358	99.31
320.587	95.31
320.816	90.31
321.046	103.31
321.275	95.31
321.504	91.31
321.733	103.31
321.962	88.31
322.191	86.31
322.42	105.31
322.649	115.31
322.878	103.31
323.108	122.31
323.337	133.31
323.566	134.31
323.795	147.31
324.024	212.31
324.253	391.31
324.482	835.31
324.71	1743.31
324.939	2215.31
325.168	844.31
325.397	255.31
325.626	143.31
325.855	133.31
326.084	138.31
326.313	123.31
326.542	153.31
326.77	237.31
326.999	451.31
327.228	912.31
327.457	1680.31
327.686	1334.31
327.914	388.31
328.143	194.31
328.372	181.31
328.6	134.31
328.829	112.31
329.058	140.31
329.287	137.31
329.515	113.31
329.744	112.31
329.972	119.31
330.201	130.31
330.43	170.31
330.658	140.31
330.887	154.31
331.115	129.31
331.344	104.31
331.572	100.31
331.801	121.31
332.03	102.31
332.258	99.31
332.486	95.31
332.715	100.31
332.943	91.31
333.172	96.31
333.4	82.31
333.629	121.31
333.857	111.31
334.085	128.31
334.314	132.31
334.542	187.31
334.771	182.31
334.999	103.31
335.227	106.31
335.455	107.31
335.684	89.31
335.912	81.31
336.14	80.31
336.369	88.31
336.597	87.31
336.825	95.31
337.053	95.31
337.281	90.31
337.51	90.31
337.738	85.31
337.966	100.31
338.194	94.31
338.422	87.31
338.65	96.31
338.878	94.31
339.106	98.31
339.334	108.31
339.562	96.31
339.79	86.31
340.018	87.31
340.246	92.31
340.474	98.31
340.702	101.31
340.93	98.31
341.158	94.31
341.386	95.31
341.614	99.31
341.842	83.31
342.07	88.31
342.298	99.31
342.526	85.31
342.754	89.31
342.981	106.31
343.209	103.31
343.437	102.31
343.665	90.31
343.893	88.31
344.12	94.31
344.348	82.31
344.576	85.31
344.804	94.31
345.031	100.31
345.259	91.31
345.487	82.31
345.714	90.31
345.942	94.31
346.17	89.31
346.397	94.31
346.625	87.31
346.853	88.31
347.08	98.31
347.308	102.31
347.535	100.31
347.763	100.31
347.99	94.31
348.218	115.31
348.445	103.31
348.673	89.31
348.9	96.31
349.128	97.31
349.355	97.31
349.583	101.31
349.81	94.31
350.037	80.31
350.265	107.31
350.492	76.31
350.72	101.31
350.947	110.31
351.174	115.31
351.402	116.31
351.629	108.31
351.856	102.31
352.083	111.31
352.311	104.31
352.538	100.31
352.765	119.31
352.992	121.31
353.22	129.31
353.447	118.31
353.674	107.31
353.901	101.31
354.128	105.31
354.355	100.31
354.583	99.31
354.81	108.31
355.037	84.31
355.264	88.31
355.491	92.31
355.718	78.31
355.945	89.31
356.172	98.31
356.399	100.31
356.626	102.31
356.853	101.31
357.08	89.31
357.307	84.31
357.534	80.31
357.761	98.31
357.988	103.31
358.215	101.31
358.441	81.31
358.668	91.31
358.895	81.31
359.122	104.31
359.349	91.31
359.576	91.31
359.802	107.31
360.029	102.31
360.256	96.31
360.483	95.31
360.709	84.31
360.936	87.31
361.163	86.31
361.39	96.31
361.616	83.31
361.843	95.31
362.07	100.31
362.296	76.31
362.523	86.31
362.749	98.31
362.976	89.31
363.203	99.31
363.429	76.31
363.656	94.31
363.882	92.31
364.109	92.31
364.335	93.31
364.562	88.31
364.788	94.31
365.015	97.31
365.241	112.31
365.468	107.31
365.694	109.31
365.92	110.31
366.147	94.31
366.373	86.31
366.599	86.31
366.826	88.31
367.052	89.31
367.278	98.31
367.505	88.31
367.731	103.31
367.957	102.31
368.184	92.31
368.41	108.31
368.636	111.31
368.862	119.31
369.089	99.31
369.315	87.31
369.541	101.31
369.767	92.31
369.993	91.31
370.219	89.31
370.445	95.31
370.672	83.31
370.898	86.31
371.124	86.31
371.35	90.31
371.576	104.31
371.802	81.31
372.028	83.31
372.254	87.31
372.48	92.31
372.706	83.31
372.932	100.31
373.158	83.31
373.384	98.31
373.61	93.31
373.835	87.31
374.061	97.31
374.287	94.31
374.513	88.31
374.739	79.31
374.965	79.31
375.191	83.31
375.416	93.31
375.642	96.31
375.868	91.31
376.094	85.31
376.319	103.31
376.545	96.31
376.771	87.31
376.997	79.31
377.222	79.31
377.448	95.31
377.674	99.31
377.899	79.31
378.125	89.31
378.35	95.31
378.576	90.31
378.802	88.31
379.027	101.31
379.253	84.31
379.478	95.31
379.704	85.31
379.929	82.31
380.155	94.31
380.38	91.31
380.606	111.31
380.831	99.31
381.057	94.31
381.282	98.31
381.507	101.31
381.733	95.31
381.958	85.31
382.184	91.31
382.409	94.31
382.634	102.31
382.86	103.31
383.085	95.31
383.31	89.31
383.535	79.31
383.761	92.31
383.986	97.31
384.211	100.31
384.436	91.31
384.662	93.31
384.887	98.31
385.112	118.31
385.337	123.31
385.562	97.31
385.787	94.31
386.013	101.31
386.238	110.31
386.463	111.31
386.688	105.31
386.913	110.31
387.138	107.31
387.363	89.31
387.588	97.31
387.813	95.31
388.038	86.31
388.263	106.31
388.488	96.31
388.713	79.31
388.938	98.31
389.163	104.31
389.387	93.31
389.612	101.31
389.837	107.31
390.062	76.31
390.287	98.31
390.512	96.31
390.736	97.31
390.961	89.31
391.186	94.31
391.411	93.31
391.636	103.31
391.86	83.31
392.085	69.31
392.31	82.31
392.534	103.31
392.759	95.31
392.984	106.31
393.208	92.31
393.433	88.31
393.658	79.31
393.882	78.31
394.107	74.31
394.331	85.31
394.556	81.31
394.78	102.31
395.005	91.31
395.229	98.31
395.454	73.31
395.678	87.31
395.903	94.31
396.127	83.31
396.352	102.31
396.576	82.31
396.801	78.31
397.025	86.31
397.249	91.31
397.474	83.31
397.698	87.31
397.922	85.31
398.147	85.31
398.371	92.31
398.595	95.31
398.82	85.31
399.044	88.31
399.268	86.31
399.492	85.31
399.717	91.31
399.941	89.31
400.165	99.31
400.389	98.31
400.613	89.31
400.837	89.31
401.062	96.31
401.286	90.31
401.51	95.31
401.734	89.31
401.958	117.31
402.182	135.31
402.406	170.31
402.63	128.31
402.854	113.31
403.078	87.31
403.302	97.31
403.526	89.31
403.75	71.31
403.974	89.31
404.198	93.31
404.422	90.31
404.645	89.31
404.869	97.31
405.093	99.31
405.317	95.31
405.541	103.31
405.765	104.31
405.988	114.31
406.212	191.31
406.436	267.31
406.66	163.31
406.883	102.31
407.107	102.31
407.331	94.31
407.555	91.31
407.778	96.31
408.002	83.31
408.226	87.31
408.449	79.31
408.673	81.31
408.896	103.31
409.12	89.31
409.344	85.31
409.567	92.31
409.791	93.31
410.014	84.31
410.238	87.31
410.461	92.31
410.685	90.31
410.908	101.31
411.132	91.31
411.355	111.31
411.578	105.31
411.802	89.31
412.025	96.31
412.249	80.31
412.472	113.31
412.695	104.31
412.919	86.31
413.142	82.31
413.365	77.31
413.589	87.31
413.812	94.31
414.035	89.31
414.258	84.31
414.482	98.31
414.705	79.31
414.928	84.31
415.151	94.31
415.374	93.31
415.597	86.31
415.821	76.31
416.044	87.31
416.267	82.31
416.49	87.31
416.713	101.31
416.936	97.31
417.159	89.31
417.382	92.31
417.605	87.31
417.828	85.31
418.051	94.31
418.274	91.31
418.497	83.31
418.72	95.31
418.943	84.31
419.166	80.31
419.389	80.31
419.611	104.31
419.834	94.31
420.057	87.31
420.28	91.31
420.503	88.31
420.726	79.31
420.948	86.31
421.171	106.31
421.394	91.31
421.617	78.31
421.839	74.31
422.062	88.31
422.285	94.31
422.507	106.31
422.73	107.31
422.953	84.31
423.175	93.31
423.398	87.31
423.621	80.31
423.843	89.31
424.066	90.31
424.288	98.31
424.511	103.31
424.733	97.31
424.956	104.31
425.178	111.31
425.401	98.31
425.623	105.31
425.846	76.31
426.068	83.31
426.291	88.31
426.513	74.31
426.735	90.31
426.958	88.31
427.18	111.31
427.402	155.31
427.625	185.31
427.847	144.31
428.069	115.31
428.292	84.31
428.514	74.31
428.736	66.31
428.958	83.31
429.181	92.31
429.403	88.31
429.625	89.31
429.847	86.31
430.069	99.31
430.292	99.31
430.514	82.31
430.736	81.31
430.958	94.31
431.18	73.31
431.402	94.31
431.624	88.31
431.846	97.31
432.068	79.31
432.29	82.31
432.512	95.31
432.734	86.31
432.956	81.31
433.178	93.31
433.4	117.31
433.622	89.31
433.844	100.31
434.066	86.31
434.287	71.31
434.509	79.31
434.731	89.31
434.953	84.31
435.175	87.31
435.397	86.31
435.618	97.31
435.84	112.31
436.062	113.31
436.284	107.31
436.505	98.31
436.727	105.31
436.949	100.31
437.17	87.31
437.392	72.31
437.614	82.31
437.835	102.31
438.057	117.31
438.278	115.31
438.5	105.31
438.721	110.31
438.943	101.31
439.165	95.31
439.386	86.31
439.608	100.31
439.829	115.31
440.05	115.31
440.272	123.31
440.493	97.31
440.715	100.31
440.936	90.31
441.158	90.31
441.379	97.31
441.6	109.31
441.822	84.31
442.043	100.31
442.264	104.31
442.486	94.31
442.707	88.31
442.928	105.31
443.149	130.31
443.371	135.31
443.592	114.31
443.813	124.31
444.034	98.31
444.255	93.31
444.476	87.31
444.698	94.31
444.919	90.31
445.14	134.31
445.361	117.31
445.582	101.31
445.803	138.31
446.024	138.31
446.245	122.31
446.466	117.31
446.687	95.31
446.908	92.31
447.129	81.31
447.35	91.31
447.571	90.31
447.792	80.31
448.013	100.31
448.234	101.31
448.455	93.31
448.675	108.31
448.896	131.31
449.117	94.31
449.338	91.31
449.559	124.31
449.779	123.31
450	87.31
450.221	79.31
450.442	87.31
450.662	103.31
450.883	110.31
451.104	110.31
451.324	98.31
451.545	98.31
451.766	80.31
451.986	78.31
452.207	97.31
452.428	83.31
452.648	107.31
452.869	122.31
453.089	120.31
453.31	130.31
453.53	99.31
453.751	91.31
453.971	105.31
454.192	111.31
454.412	88.31
454.633	88.31
454.853	87.31
455.073	83.31
455.294	100.31
455.514	87.31
455.734	76.31
455.955	79.31
456.175	88.31
456.395	81.31
456.616	91.31
456.836	80.31
457.056	86.31
457.276	82.31
457.497	87.31
457.717	95.31
457.937	86.31
458.157	92.31
458.377	89.31
458.598	108.31
458.818	150.31
459.038	173.31
459.258	120.31
459.478	91.31
459.698	83.31
459.918	94.31
460.138	80.31
460.358	80.31
460.578	81.31
460.798	98.31
461.018	79.31
461.238	67.31
461.458	84.31
461.678	95.31
461.898	94.31
462.118	70.31
462.338	96.31
462.558	81.31
462.777	83.31
462.997	74.31
463.217	80.31
463.437	97.31
463.657	89.31
463.876	96.31
464.096	92.31
464.316	99.31
464.536	78.31
464.755	96.31
464.975	106.31
465.195	167.31
465.414	170.31
465.634	100.31
465.854	84.31
466.073	88.31
466.293	86.31
466.512	82.31
466.732	85.31
466.951	98.31
467.171	78.31
467.391	106.31
467.61	100.31
467.829	96.31
468.049	117.31
468.268	120.31
468.488	91.31
468.707	84.31
468.927	96.31
469.146	89.31
469.365	93.31
469.585	93.31
469.804	96.31
470.023	87.31
470.243	81.31
470.462	89.31
470.681	111.31
470.901	92.31
471.12	85.31
471.339	91.31
471.558	90.31
471.777	98.31
471.997	98.31
472.216	138.31
472.435	207.31
472.654	98.31
472.873	99.31
473.092	94.31
473.311	90.31
473.53	78.31
473.749	91.31
473.968	91.31
474.187	107.31
474.406	98.31
474.625	82.31
474.844	84.31
475.063	92.31
475.282	77.31
475.501	95.31
475.72	92.31
475.939	99.31
476.158	90.31
476.377	85.31
476.596	86.31
476.814	97.31
477.033	89.31
477.252	102.31
477.471	95.31
477.69	84.31
477.908	80.31
478.127	97.31
478.346	80.31
478.564	97.31
478.783	92.31
479.002	96.31
479.22	84.31
479.439	104.31
479.658	101.31
479.876	109.31
480.095	92.31
480.313	95.31
480.532	99.31
480.751	83.31
480.969	125.31
481.188	330.31
481.406	227.31
481.624	108.31
481.843	103.31
482.061	94.31
482.28	85.31
482.498	83.31
482.717	94.31
482.935	94.31
483.153	81.31
483.372	106.31
483.59	105.31
483.808	91.31
484.027	81.31
484.245	89.31
484.463	97.31
484.681	99.31
484.9	96.31
485.118	109.31
485.336	86.31
485.554	93.31
485.772	84.31
485.99	99.31
486.209	107.31
486.427	101.31
486.645	99.31
486.863	116.31
487.081	103.31
487.299	102.31
487.517	101.31
487.735	107.31
487.953	99.31
488.171	100.31
488.389	80.31
488.607	92.31
488.825	104.31
489.043	77.31
489.261	94.31
489.479	89.31
489.696	93.31
489.914	93.31
490.132	86.31
490.35	76.31
490.568	86.31
490.786	87.31
491.003	94.31
491.221	91.31
491.439	99.31
491.657	91.31
491.874	89.31
492.092	86.31
492.31	91.31
492.527	85.31
492.745	92.31
492.963	82.31
493.18	81.31
493.398	86.31
493.615	99.31
493.833	102.31
494.05	101.31
494.268	83.31
494.485	98.31
494.703	100.31
494.92	88.31
495.138	79.31
495.355	99.31
495.573	87.31
495.79	84.31
496.008	97.31
496.225	95.31
496.442	96.31
496.66	87.31
496.877	89.31
497.094	85.31
497.312	89.31
497.529	87.31
497.746	87.31
497.963	96.31
498.181	104.31
498.398	97.31
498.615	114.31
498.832	95.31
499.049	90.31
499.267	90.31
499.484	89.31
499.701	97.31
499.918	96.31
500.135	91.31
500.352	87.31
500.569	87.31
500.786	84.31
501.003	98.31
501.22	77.31
501.437	94.31
501.654	101.31
501.871	110.31
502.088	89.31
502.305	87.31
502.522	104.31
502.739	91.31
502.956	101.31
503.172	82.31
503.389	104.31
503.606	108.31
503.823	107.31
504.04	86.31
504.256	105.31
504.473	91.31
504.69	80.31
504.907	106.31
505.123	82.31
505.34	91.31
505.557	94.31
505.773	106.31
505.99	79.31
506.207	84.31
506.423	90.31
506.64	85.31
506.856	86.31
507.073	99.31
507.289	86.31
507.506	86.31
507.722	115.31
507.939	114.31
508.155	98.31
508.372	98.31
508.588	87.31
508.805	95.31
509.021	84.31
509.238	103.31
509.454	98.31
509.67	86.31
509.887	96.31
510.103	118.31
510.319	238.31
510.536	858.31
510.752	2875.31
510.968	812.31
511.184	182.31
511.401	99.31
511.617	98.31
511.833	124.31
512.049	91.31
512.265	94.31
512.481	98.31
512.698	106.31
512.914	96.31
513.13	82.31
513.346	89.31
513.562	96.31
513.778	102.31
513.994	103.31
514.21	113.31
514.426	107.31
514.642	146.31
514.858	134.31
515.074	182.31
515.29	543.31
