Data from Circ_2018_H10_HRD10591_00054.txt Node
Date: Wed Jan 03 09:56:12 EST 2024
User: Yrep
Spectrometer: HR+D1059
Trigger mode: 1
Integration Time (sec): 1.000000E-1
Scans to average: 1
Electric dark correction enabled: true
Nonlinearity correction enabled: false
Boxcar width: 0
XAxis mode: Wavelengths
Number of Pixels in Spectrum: 2048
>>>>>Begin Spectral Data<<<<<
223.165	-32.06
223.4	-32.06
223.635	-32.06
223.869	-29.06
224.104	-24.06
224.338	-12.06
224.573	-5.06
224.808	-17.06
225.042	0.94
225.277	-11.06
225.511	3.94
225.746	6.94
225.98	9.94
226.215	19.94
226.449	23.94
226.683	18.94
226.918	24.94
227.152	20.94
227.387	21.94
227.621	20.94
227.856	40.94
228.09	60.94
228.324	39.94
228.559	40.94
228.793	49.94
229.027	58.94
229.262	75.94
229.496	70.94
229.73	93.94
229.964	98.94
230.199	75.94
230.433	75.94
230.667	74.94
230.901	76.94
231.136	75.94
231.37	73.94
231.604	85.94
231.838	81.94
232.072	68.94
232.306	78.94
232.541	79.94
232.775	69.94
233.009	77.94
233.243	66.94
233.477	70.94
233.711	72.94
233.945	83.94
234.179	79.94
234.413	80.94
234.647	80.94
234.881	79.94
235.115	76.94
235.349	71.94
235.583	82.94
235.817	71.94
236.051	78.94
236.285	73.94
236.519	62.94
236.753	67.94
236.987	70.94
237.221	87.94
237.455	86.94
237.689	77.94
237.922	59.94
238.156	62.94
238.39	70.94
238.624	79.94
238.858	77.94
239.091	78.94
239.325	74.94
239.559	81.94
239.793	80.94
240.027	95.94
240.26	64.94
240.494	80.94
240.728	74.94
240.961	77.94
241.195	71.94
241.429	75.94
241.662	58.94
241.896	72.94
242.13	75.94
242.363	89.94
242.597	77.94
242.83	75.94
243.064	84.94
243.298	90.94
243.531	78.94
243.765	76.94
243.998	71.94
244.232	90.94
244.465	78.94
244.699	82.94
244.932	86.94
245.166	83.94
245.399	75.94
245.633	65.94
245.866	90.94
246.099	63.94
246.333	77.94
246.566	77.94
246.8	68.94
247.033	80.94
247.266	67.94
247.5	74.94
247.733	73.94
247.966	86.94
248.2	90.94
248.433	92.94
248.666	80.94
248.899	64.94
249.133	76.94
249.366	105.94
249.599	92.94
249.832	86.94
250.066	83.94
250.299	66.94
250.532	70.94
250.765	78.94
250.998	90.94
251.231	71.94
251.465	88.94
251.698	65.94
251.931	69.94
252.164	84.94
252.397	75.94
252.63	68.94
252.863	68.94
253.096	75.94
253.329	72.94
253.562	77.94
253.795	74.94
254.028	65.94
254.261	80.94
254.494	87.94
254.727	72.94
254.96	74.94
255.193	70.94
255.426	69.94
255.659	71.94
255.892	81.94
256.124	71.94
256.357	83.94
256.59	79.94
256.823	97.94
257.056	80.94
257.289	72.94
257.521	79.94
257.754	75.94
257.987	72.94
258.22	74.94
258.452	84.94
258.685	79.94
258.918	77.94
259.151	74.94
259.383	89.94
259.616	68.94
259.849	85.94
260.081	84.94
260.314	74.94
260.547	86.94
260.779	67.94
261.012	81.94
261.244	74.94
261.477	95.94
261.71	115.94
261.942	148.94
262.175	160.94
262.407	106.94
262.64	77.94
262.872	82.94
263.105	71.94
263.337	83.94
263.57	82.94
263.802	85.94
264.035	80.94
264.267	72.94
264.499	80.94
264.732	77.94
264.964	68.94
265.197	96.94
265.429	84.94
265.661	80.94
265.894	81.94
266.126	93.94
266.358	81.94
266.591	77.94
266.823	78.94
267.055	83.94
267.287	80.94
267.52	70.94
267.752	79.94
267.984	87.94
268.216	78.94
268.448	78.94
268.681	71.94
268.913	69.94
269.145	82.94
269.377	74.94
269.609	78.94
269.841	78.94
270.073	78.94
270.306	79.94
270.538	81.94
270.77	72.94
271.002	78.94
271.234	66.94
271.466	73.94
271.698	99.94
271.93	70.94
272.162	95.94
272.394	91.94
272.626	79.94
272.858	73.94
273.09	75.94
273.322	75.94
273.553	87.94
273.785	73.94
274.017	74.94
274.249	68.94
274.481	79.94
274.713	85.94
274.945	90.94
275.176	87.94
275.408	95.94
275.64	93.94
275.872	99.94
276.104	83.94
276.335	100.94
276.567	101.94
276.799	129.94
277.031	115.94
277.262	103.94
277.494	97.94
277.726	72.94
277.957	75.94
278.189	85.94
278.421	71.94
278.652	75.94
278.884	67.94
279.115	70.94
279.347	70.94
279.579	73.94
279.81	88.94
280.042	93.94
280.273	103.94
280.505	92.94
280.736	80.94
280.968	80.94
281.199	84.94
281.431	87.94
281.662	85.94
281.894	84.94
282.125	107.94
282.356	150.94
282.588	164.94
282.819	133.94
283.051	98.94
283.282	86.94
283.513	94.94
283.745	92.94
283.976	95.94
284.207	80.94
284.439	90.94
284.67	84.94
284.901	76.94
285.132	80.94
285.364	74.94
285.595	79.94
285.826	77.94
286.057	72.94
286.288	84.94
286.52	88.94
286.751	76.94
286.982	84.94
287.213	87.94
287.444	82.94
287.675	86.94
287.906	83.94
288.138	77.94
288.369	111.94
288.6	95.94
288.831	84.94
289.062	108.94
289.293	93.94
289.524	102.94
289.755	89.94
289.986	94.94
290.217	87.94
290.448	82.94
290.679	97.94
290.91	86.94
291.141	75.94
291.371	74.94
291.602	90.94
291.833	85.94
292.064	95.94
292.295	81.94
292.526	86.94
292.757	71.94
292.987	92.94
293.218	80.94
293.449	84.94
293.68	93.94
293.91	90.94
294.141	89.94
294.372	92.94
294.603	81.94
294.833	84.94
295.064	74.94
295.295	85.94
295.525	79.94
295.756	111.94
295.987	144.94
296.217	173.94
296.448	151.94
296.679	92.94
296.909	90.94
297.14	92.94
297.37	95.94
297.601	95.94
297.831	91.94
298.062	84.94
298.292	94.94
298.523	96.94
298.753	77.94
298.984	74.94
299.214	79.94
299.445	94.94
299.675	103.94
299.905	106.94
300.136	100.94
300.366	76.94
300.597	85.94
300.827	99.94
301.057	106.94
301.288	109.94
301.518	95.94
301.748	106.94
301.979	97.94
302.209	94.94
302.439	84.94
302.669	83.94
302.9	95.94
303.13	84.94
303.36	94.94
303.59	99.94
303.82	130.94
304.051	84.94
304.281	87.94
304.511	64.94
304.741	84.94
304.971	93.94
305.201	74.94
305.431	85.94
305.661	87.94
305.891	95.94
306.121	95.94
306.352	103.94
306.582	126.94
306.812	77.94
307.042	95.94
307.272	99.94
307.502	100.94
307.731	94.94
307.961	92.94
308.191	79.94
308.421	80.94
308.651	97.94
308.881	84.94
309.111	94.94
309.341	99.94
309.571	101.94
309.8	114.94
310.03	79.94
310.26	93.94
310.49	100.94
310.72	99.94
310.949	129.94
311.179	120.94
311.409	90.94
311.639	89.94
311.868	109.94
312.098	85.94
312.328	86.94
312.557	107.94
312.787	122.94
313.017	112.94
313.246	95.94
313.476	102.94
313.706	88.94
313.935	82.94
314.165	97.94
314.394	103.94
314.624	104.94
314.853	87.94
315.083	98.94
315.312	100.94
315.542	91.94
315.771	88.94
316.001	93.94
316.23	92.94
316.46	97.94
316.689	97.94
316.919	85.94
317.148	105.94
317.377	104.94
317.607	96.94
317.836	98.94
318.065	77.94
318.295	94.94
318.524	94.94
318.753	87.94
318.983	110.94
319.212	89.94
319.441	119.94
319.67	130.94
319.9	101.94
320.129	83.94
320.358	95.94
320.587	112.94
320.816	93.94
321.046	105.94
321.275	101.94
321.504	92.94
321.733	91.94
321.962	93.94
322.191	105.94
322.42	114.94
322.649	127.94
322.878	124.94
323.108	135.94
323.337	149.94
323.566	150.94
323.795	179.94
324.024	266.94
324.253	584.94
324.482	1238.94
324.71	2579.94
324.939	3352.94
325.168	1260.94
325.397	340.94
325.626	186.94
325.855	134.94
326.084	151.94
326.313	159.94
326.542	183.94
326.77	292.94
326.999	641.94
327.228	1281.94
327.457	2402.94
327.686	1946.94
327.914	554.94
328.143	280.94
328.372	246.94
328.6	182.94
328.829	186.94
329.058	169.94
329.287	173.94
329.515	145.94
329.744	133.94
329.972	115.94
330.201	183.94
330.43	246.94
330.658	198.94
330.887	215.94
331.115	170.94
331.344	119.94
331.572	112.94
331.801	122.94
332.03	121.94
332.258	111.94
332.486	87.94
332.715	75.94
332.943	97.94
333.172	93.94
333.4	119.94
333.629	124.94
333.857	132.94
334.085	139.94
334.314	172.94
334.542	272.94
334.771	266.94
334.999	140.94
335.227	113.94
335.455	98.94
335.684	95.94
335.912	99.94
336.14	101.94
336.369	108.94
336.597	110.94
336.825	107.94
337.053	101.94
337.281	91.94
337.51	97.94
337.738	91.94
337.966	102.94
338.194	117.94
338.422	99.94
338.65	108.94
338.878	89.94
339.106	90.94
339.334	94.94
339.562	95.94
339.79	78.94
340.018	92.94
340.246	107.94
340.474	101.94
340.702	94.94
340.93	84.94
341.158	91.94
341.386	99.94
341.614	96.94
341.842	101.94
342.07	94.94
342.298	93.94
342.526	93.94
342.754	93.94
342.981	90.94
343.209	71.94
343.437	98.94
343.665	94.94
343.893	87.94
344.12	83.94
344.348	83.94
344.576	78.94
344.804	95.94
345.031	102.94
345.259	104.94
345.487	93.94
345.714	106.94
345.942	87.94
346.17	93.94
346.397	87.94
346.625	94.94
346.853	101.94
347.08	101.94
347.308	106.94
347.535	108.94
347.763	112.94
347.99	90.94
348.218	102.94
348.445	117.94
348.673	112.94
348.9	110.94
349.128	94.94
349.355	100.94
349.583	99.94
349.81	84.94
350.037	90.94
350.265	103.94
350.492	95.94
350.72	91.94
350.947	101.94
351.174	127.94
351.402	132.94
351.629	104.94
351.856	109.94
352.083	116.94
352.311	122.94
352.538	122.94
352.765	125.94
352.992	133.94
353.22	139.94
353.447	115.94
353.674	95.94
353.901	113.94
354.128	86.94
354.355	106.94
354.583	113.94
354.81	106.94
355.037	67.94
355.264	87.94
355.491	74.94
355.718	82.94
355.945	101.94
356.172	94.94
356.399	93.94
356.626	109.94
356.853	78.94
357.08	102.94
357.307	83.94
357.534	85.94
357.761	92.94
357.988	95.94
358.215	96.94
358.441	79.94
358.668	97.94
358.895	94.94
359.122	79.94
359.349	82.94
359.576	93.94
359.802	111.94
360.029	150.94
360.256	137.94
360.483	128.94
360.709	90.94
360.936	100.94
361.163	102.94
361.39	112.94
361.616	108.94
361.843	94.94
362.07	101.94
362.296	92.94
362.523	80.94
362.749	95.94
362.976	104.94
363.203	95.94
363.429	107.94
363.656	88.94
363.882	95.94
364.109	87.94
364.335	108.94
364.562	103.94
364.788	93.94
365.015	86.94
365.241	117.94
365.468	128.94
365.694	114.94
365.92	102.94
366.147	98.94
366.373	97.94
366.599	94.94
366.826	90.94
367.052	92.94
367.278	90.94
367.505	87.94
367.731	107.94
367.957	118.94
368.184	105.94
368.41	110.94
368.636	132.94
368.862	138.94
369.089	138.94
369.315	107.94
369.541	106.94
369.767	102.94
369.993	85.94
370.219	89.94
370.445	79.94
370.672	91.94
370.898	85.94
371.124	91.94
371.35	72.94
371.576	90.94
371.802	90.94
372.028	72.94
372.254	86.94
372.48	92.94
372.706	96.94
372.932	91.94
373.158	94.94
373.384	78.94
373.61	106.94
373.835	104.94
374.061	101.94
374.287	103.94
374.513	78.94
374.739	81.94
374.965	78.94
375.191	91.94
375.416	98.94
375.642	85.94
375.868	90.94
376.094	82.94
376.319	101.94
376.545	80.94
376.771	79.94
376.997	87.94
377.222	92.94
377.448	94.94
377.674	66.94
377.899	100.94
378.125	96.94
378.35	99.94
378.576	73.94
378.802	81.94
379.027	85.94
379.253	81.94
379.478	94.94
379.704	78.94
379.929	97.94
380.155	97.94
380.38	79.94
380.606	87.94
380.831	86.94
381.057	107.94
381.282	97.94
381.507	100.94
381.733	93.94
381.958	93.94
382.184	106.94
382.409	97.94
382.634	118.94
382.86	95.94
383.085	100.94
383.31	95.94
383.535	98.94
383.761	109.94
383.986	92.94
384.211	109.94
384.436	81.94
384.662	90.94
384.887	93.94
385.112	88.94
385.337	84.94
385.562	107.94
385.787	106.94
386.013	102.94
386.238	111.94
386.463	82.94
386.688	101.94
386.913	94.94
387.138	102.94
387.363	93.94
387.588	98.94
387.813	98.94
388.038	98.94
388.263	108.94
388.488	92.94
388.713	101.94
388.938	83.94
389.163	92.94
389.387	87.94
389.612	86.94
389.837	93.94
390.062	91.94
390.287	95.94
390.512	85.94
390.736	92.94
390.961	75.94
391.186	82.94
391.411	94.94
391.636	87.94
391.86	70.94
392.085	71.94
392.31	97.94
392.534	101.94
392.759	88.94
392.984	83.94
393.208	85.94
393.433	91.94
393.658	102.94
393.882	72.94
394.107	70.94
394.331	77.94
394.556	83.94
394.78	86.94
395.005	77.94
395.229	81.94
395.454	83.94
395.678	75.94
395.903	94.94
396.127	97.94
396.352	79.94
396.576	78.94
396.801	83.94
397.025	85.94
397.249	85.94
397.474	79.94
397.698	78.94
397.922	86.94
398.147	71.94
398.371	86.94
398.595	83.94
398.82	82.94
399.044	90.94
399.268	82.94
399.492	92.94
399.717	81.94
399.941	86.94
400.165	93.94
400.389	88.94
400.613	90.94
400.837	92.94
401.062	81.94
401.286	83.94
401.51	91.94
401.734	100.94
401.958	112.94
402.182	162.94
402.406	230.94
402.63	157.94
402.854	96.94
403.078	87.94
403.302	79.94
403.526	79.94
403.75	85.94
403.974	80.94
404.198	74.94
404.422	80.94
404.645	86.94
404.869	95.94
405.093	113.94
405.317	113.94
405.541	132.94
405.765	130.94
405.988	144.94
406.212	238.94
406.436	387.94
406.66	228.94
406.883	124.94
407.107	94.94
407.331	108.94
407.555	119.94
407.778	96.94
408.002	99.94
408.226	96.94
408.449	93.94
408.673	95.94
408.896	90.94
409.12	93.94
409.344	85.94
409.567	90.94
409.791	91.94
410.014	86.94
410.238	85.94
410.461	67.94
410.685	95.94
410.908	98.94
411.132	113.94
411.355	94.94
411.578	82.94
411.802	82.94
412.025	79.94
412.249	91.94
412.472	113.94
412.695	98.94
412.919	103.94
413.142	87.94
413.365	85.94
413.589	77.94
413.812	83.94
414.035	87.94
414.258	86.94
414.482	76.94
414.705	85.94
414.928	81.94
415.151	88.94
415.374	89.94
415.597	84.94
415.821	87.94
416.044	90.94
416.267	90.94
416.49	81.94
416.713	64.94
416.936	78.94
417.159	91.94
417.382	91.94
417.605	83.94
417.828	95.94
418.051	90.94
418.274	79.94
418.497	80.94
418.72	69.94
418.943	54.94
419.166	71.94
419.389	83.94
419.611	89.94
419.834	88.94
420.057	87.94
420.28	85.94
420.503	86.94
420.726	91.94
420.948	80.94
421.171	79.94
421.394	89.94
421.617	92.94
421.839	94.94
422.062	86.94
422.285	94.94
422.507	90.94
422.73	117.94
422.953	84.94
423.175	86.94
423.398	90.94
423.621	90.94
423.843	82.94
424.066	98.94
424.288	87.94
424.511	88.94
424.733	99.94
424.956	126.94
425.178	102.94
425.401	102.94
425.623	113.94
425.846	99.94
426.068	85.94
426.291	101.94
426.513	87.94
426.735	88.94
426.958	100.94
427.18	130.94
427.402	172.94
427.625	245.94
427.847	185.94
428.069	143.94
428.292	95.94
428.514	80.94
428.736	79.94
428.958	69.94
429.181	92.94
429.403	97.94
429.625	71.94
429.847	95.94
430.069	114.94
430.292	84.94
430.514	72.94
430.736	92.94
430.958	85.94
431.18	75.94
431.402	77.94
431.624	75.94
431.846	88.94
432.068	74.94
432.29	75.94
432.512	81.94
432.734	95.94
432.956	91.94
433.178	87.94
433.4	111.94
433.622	108.94
433.844	94.94
434.066	78.94
434.287	93.94
434.509	87.94
434.731	90.94
434.953	86.94
435.175	92.94
435.397	99.94
435.618	90.94
435.84	114.94
436.062	135.94
436.284	124.94
436.505	97.94
436.727	97.94
436.949	92.94
437.17	100.94
437.392	77.94
437.614	95.94
437.835	132.94
438.057	169.94
438.278	149.94
438.5	107.94
438.721	136.94
438.943	109.94
439.165	88.94
439.386	87.94
439.608	81.94
439.829	114.94
440.05	154.94
440.272	187.94
440.493	139.94
440.715	86.94
440.936	80.94
441.158	85.94
441.379	94.94
441.6	94.94
441.822	92.94
442.043	108.94
442.264	121.94
442.486	116.94
442.707	109.94
442.928	129.94
443.149	181.94
443.371	177.94
443.592	123.94
443.813	132.94
444.034	139.94
444.255	95.94
444.476	84.94
444.698	97.94
444.919	101.94
445.14	132.94
445.361	134.94
445.582	131.94
445.803	174.94
446.024	192.94
446.245	168.94
446.466	141.94
446.687	85.94
446.908	95.94
447.129	86.94
447.35	99.94
447.571	100.94
447.792	101.94
448.013	95.94
448.234	112.94
448.455	114.94
448.675	123.94
448.896	144.94
449.117	91.94
449.338	93.94
449.559	134.94
449.779	160.94
450	81.94
450.221	85.94
450.442	93.94
450.662	106.94
450.883	129.94
451.104	140.94
451.324	96.94
451.545	96.94
451.766	87.94
451.986	85.94
452.207	81.94
452.428	98.94
452.648	108.94
452.869	130.94
453.089	138.94
453.31	144.94
453.53	100.94
453.751	104.94
453.971	122.94
454.192	147.94
454.412	95.94
454.633	91.94
454.853	93.94
455.073	76.94
455.294	92.94
455.514	93.94
455.734	77.94
455.955	97.94
456.175	95.94
456.395	84.94
456.616	84.94
456.836	85.94
457.056	92.94
457.276	70.94
457.497	68.94
457.717	88.94
457.937	75.94
458.157	75.94
458.377	94.94
458.598	144.94
458.818	231.94
459.038	250.94
459.258	160.94
459.478	103.94
459.698	89.94
459.918	89.94
460.138	70.94
460.358	74.94
460.578	74.94
460.798	83.94
461.018	93.94
461.238	75.94
461.458	78.94
461.678	79.94
461.898	99.94
462.118	88.94
462.338	86.94
462.558	72.94
462.777	91.94
462.997	97.94
463.217	92.94
463.437	74.94
463.657	82.94
463.876	84.94
464.096	82.94
464.316	97.94
464.536	102.94
464.755	88.94
464.975	137.94
465.195	255.94
465.414	277.94
465.634	116.94
465.854	85.94
466.073	78.94
466.293	80.94
466.512	90.94
466.732	84.94
466.951	88.94
467.171	91.94
467.391	104.94
467.61	123.94
467.829	114.94
468.049	116.94
468.268	145.94
468.488	89.94
468.707	94.94
468.927	98.94
469.146	92.94
469.365	90.94
469.585	91.94
469.804	104.94
470.023	117.94
470.243	121.94
470.462	115.94
470.681	144.94
470.901	93.94
471.12	90.94
471.339	89.94
471.558	91.94
471.777	86.94
471.997	95.94
472.216	154.94
472.435	296.94
472.654	138.94
472.873	97.94
473.092	102.94
473.311	74.94
473.53	78.94
473.749	80.94
473.968	107.94
474.187	122.94
474.406	101.94
474.625	96.94
474.844	84.94
475.063	87.94
475.282	79.94
475.501	84.94
475.72	91.94
475.939	77.94
476.158	85.94
476.377	82.94
476.596	93.94
476.814	101.94
477.033	94.94
477.252	73.94
477.471	75.94
477.69	78.94
477.908	89.94
478.127	85.94
478.346	87.94
478.564	79.94
478.783	98.94
479.002	107.94
479.22	103.94
479.439	102.94
479.658	131.94
479.876	95.94
480.095	91.94
480.313	88.94
480.532	93.94
480.751	81.94
480.969	163.94
481.188	495.94
481.406	360.94
481.624	124.94
481.843	77.94
482.061	87.94
482.28	80.94
482.498	97.94
482.717	74.94
482.935	87.94
483.153	83.94
483.372	79.94
483.59	88.94
483.808	77.94
484.027	80.94
484.245	84.94
484.463	94.94
484.681	100.94
484.9	90.94
485.118	83.94
485.336	80.94
485.554	99.94
485.772	112.94
485.99	97.94
486.209	97.94
486.427	95.94
486.645	122.94
486.863	106.94
487.081	108.94
487.299	91.94
487.517	90.94
487.735	78.94
487.953	79.94
488.171	94.94
488.389	93.94
488.607	94.94
488.825	92.94
489.043	88.94
489.261	84.94
489.479	86.94
489.696	77.94
489.914	84.94
490.132	98.94
490.35	89.94
490.568	86.94
490.786	95.94
491.003	83.94
491.221	83.94
491.439	88.94
491.657	90.94
491.874	91.94
492.092	91.94
492.31	78.94
492.527	86.94
492.745	80.94
492.963	96.94
493.18	95.94
493.398	87.94
493.615	84.94
493.833	95.94
494.05	80.94
494.268	77.94
494.485	82.94
494.703	95.94
494.92	93.94
495.138	75.94
495.355	96.94
495.573	92.94
495.79	99.94
496.008	95.94
496.225	75.94
496.442	96.94
496.66	87.94
496.877	98.94
497.094	103.94
497.312	91.94
497.529	84.94
497.746	78.94
497.963	85.94
498.181	84.94
498.398	86.94
498.615	125.94
498.832	97.94
499.049	93.94
499.267	77.94
499.484	74.94
499.701	89.94
499.918	95.94
500.135	84.94
500.352	95.94
500.569	86.94
500.786	92.94
501.003	99.94
501.22	98.94
501.437	95.94
501.654	86.94
501.871	126.94
502.088	80.94
502.305	92.94
502.522	81.94
502.739	92.94
502.956	82.94
503.172	99.94
503.389	104.94
503.606	134.94
503.823	112.94
504.04	76.94
504.256	98.94
504.473	94.94
504.69	86.94
504.907	92.94
505.123	80.94
505.34	89.94
505.557	86.94
505.773	86.94
505.99	95.94
506.207	82.94
506.423	87.94
506.64	93.94
506.856	77.94
507.073	78.94
507.289	75.94
507.506	107.94
507.722	132.94
507.939	145.94
508.155	101.94
508.372	86.94
508.588	95.94
508.805	101.94
509.021	88.94
509.238	109.94
509.454	108.94
509.67	103.94
509.887	129.94
510.103	134.94
510.319	283.94
510.536	1205.94
510.752	4334.94
510.968	1160.94
511.184	217.94
511.401	133.94
511.617	103.94
511.833	97.94
512.049	101.94
512.265	96.94
512.481	98.94
512.698	94.94
512.914	102.94
513.13	101.94
513.346	97.94
513.562	88.94
513.778	101.94
513.994	98.94
514.21	118.94
514.426	156.94
514.642	202.94
514.858	183.94
