Data from Circ_2018_H10_HRD10591_00060.txt Node
Date: Wed Jan 03 09:56:14 EST 2024
User: Yrep
Spectrometer: HR+D1059
Trigger mode: 1
Integration Time (sec): 1.000000E-1
Scans to average: 1
Electric dark correction enabled: true
Nonlinearity correction enabled: false
Boxcar width: 0
XAxis mode: Wavelengths
Number of Pixels in Spectrum: 2048
>>>>>Begin Spectral Data<<<<<
223.165	-26.44
223.4	-26.44
223.635	-26.44
223.869	-19.44
224.104	-11.44
224.338	-10.44
224.573	-3.44
224.808	-16.44
225.042	0.56
225.277	-4.44
225.511	-15.44
225.746	7.56
225.98	8.56
226.215	5.56
226.449	21.56
226.683	16.56
226.918	21.56
227.152	25.56
227.387	50.56
227.621	33.56
227.856	35.56
228.09	53.56
228.324	41.56
228.559	74.56
228.793	58.56
229.027	67.56
229.262	71.56
229.496	77.56
229.73	76.56
229.964	80.56
230.199	88.56
230.433	90.56
230.667	96.56
230.901	87.56
231.136	80.56
231.37	64.56
231.604	66.56
231.838	76.56
232.072	85.56
232.306	73.56
232.541	78.56
232.775	88.56
233.009	88.56
233.243	85.56
233.477	87.56
233.711	102.56
233.945	69.56
234.179	74.56
234.413	88.56
234.647	92.56
234.881	87.56
235.115	83.56
235.349	87.56
235.583	83.56
235.817	94.56
236.051	65.56
236.285	64.56
236.519	94.56
236.753	74.56
236.987	79.56
237.221	93.56
237.455	89.56
237.689	82.56
237.922	71.56
238.156	86.56
238.39	69.56
238.624	78.56
238.858	75.56
239.091	78.56
239.325	72.56
239.559	99.56
239.793	76.56
240.027	75.56
240.26	87.56
240.494	69.56
240.728	70.56
240.961	87.56
241.195	73.56
241.429	66.56
241.662	79.56
241.896	78.56
242.13	82.56
242.363	81.56
242.597	77.56
242.83	78.56
243.064	69.56
243.298	67.56
243.531	90.56
243.765	93.56
243.998	83.56
244.232	90.56
244.465	91.56
244.699	83.56
244.932	88.56
245.166	81.56
245.399	90.56
245.633	93.56
245.866	98.56
246.099	75.56
246.333	76.56
246.566	95.56
246.8	88.56
247.033	81.56
247.266	82.56
247.5	89.56
247.733	90.56
247.966	75.56
248.2	83.56
248.433	94.56
248.666	78.56
248.899	74.56
249.133	95.56
249.366	97.56
249.599	111.56
249.832	90.56
250.066	84.56
250.299	73.56
250.532	95.56
250.765	86.56
250.998	77.56
251.231	82.56
251.465	67.56
251.698	88.56
251.931	77.56
252.164	75.56
252.397	87.56
252.63	89.56
252.863	94.56
253.096	68.56
253.329	71.56
253.562	84.56
253.795	89.56
254.028	92.56
254.261	89.56
254.494	85.56
254.727	72.56
254.96	75.56
255.193	88.56
255.426	91.56
255.659	76.56
255.892	88.56
256.124	82.56
256.357	82.56
256.59	89.56
256.823	95.56
257.056	81.56
257.289	76.56
257.521	80.56
257.754	78.56
257.987	76.56
258.22	90.56
258.452	90.56
258.685	92.56
258.918	84.56
259.151	88.56
259.383	81.56
259.616	77.56
259.849	80.56
260.081	83.56
260.314	82.56
260.547	86.56
260.779	94.56
261.012	85.56
261.244	75.56
261.477	76.56
261.71	100.56
261.942	113.56
262.175	126.56
262.407	89.56
262.64	92.56
262.872	85.56
263.105	90.56
263.337	86.56
263.57	89.56
263.802	88.56
264.035	92.56
264.267	93.56
264.499	81.56
264.732	100.56
264.964	71.56
265.197	85.56
265.429	92.56
265.661	86.56
265.894	79.56
266.126	91.56
266.358	94.56
266.591	90.56
266.823	97.56
267.055	92.56
267.287	86.56
267.52	85.56
267.752	75.56
267.984	84.56
268.216	83.56
268.448	84.56
268.681	86.56
268.913	85.56
269.145	96.56
269.377	84.56
269.609	85.56
269.841	98.56
270.073	101.56
270.306	78.56
270.538	88.56
270.77	95.56
271.002	87.56
271.234	73.56
271.466	78.56
271.698	76.56
271.93	85.56
272.162	96.56
272.394	79.56
272.626	92.56
272.858	81.56
273.09	89.56
273.322	89.56
273.553	73.56
273.785	91.56
274.017	96.56
274.249	77.56
274.481	89.56
274.713	94.56
274.945	91.56
275.176	91.56
275.408	95.56
275.64	82.56
275.872	85.56
276.104	106.56
276.335	94.56
276.567	118.56
276.799	130.56
277.031	112.56
277.262	98.56
277.494	90.56
277.726	89.56
277.957	92.56
278.189	86.56
278.421	95.56
278.652	90.56
278.884	93.56
279.115	83.56
279.347	71.56
279.579	81.56
279.81	91.56
280.042	97.56
280.273	99.56
280.505	106.56
280.736	92.56
280.968	98.56
281.199	101.56
281.431	84.56
281.662	91.56
281.894	101.56
282.125	94.56
282.356	130.56
282.588	160.56
282.819	119.56
283.051	107.56
283.282	89.56
283.513	85.56
283.745	81.56
283.976	100.56
284.207	95.56
284.439	89.56
284.67	77.56
284.901	95.56
285.132	89.56
285.364	88.56
285.595	84.56
285.826	93.56
286.057	96.56
286.288	91.56
286.52	91.56
286.751	94.56
286.982	95.56
287.213	86.56
287.444	92.56
287.675	99.56
287.906	87.56
288.138	95.56
288.369	97.56
288.6	103.56
288.831	92.56
289.062	95.56
289.293	96.56
289.524	88.56
289.755	93.56
289.986	94.56
290.217	79.56
290.448	89.56
290.679	80.56
290.91	86.56
291.141	79.56
291.371	77.56
291.602	77.56
291.833	95.56
292.064	82.56
292.295	100.56
292.526	85.56
292.757	86.56
292.987	85.56
293.218	90.56
293.449	89.56
293.68	84.56
293.91	86.56
294.141	97.56
294.372	93.56
294.603	88.56
294.833	98.56
295.064	83.56
295.295	95.56
295.525	113.56
295.756	107.56
295.987	123.56
296.217	176.56
296.448	151.56
296.679	91.56
296.909	89.56
297.14	99.56
297.37	107.56
297.601	83.56
297.831	76.56
298.062	100.56
298.292	93.56
298.523	90.56
298.753	95.56
298.984	93.56
299.214	75.56
299.445	99.56
299.675	98.56
299.905	98.56
300.136	116.56
300.366	85.56
300.597	94.56
300.827	105.56
301.057	109.56
301.288	117.56
301.518	100.56
301.748	85.56
301.979	96.56
302.209	94.56
302.439	82.56
302.669	89.56
302.9	92.56
303.13	91.56
303.36	90.56
303.59	107.56
303.82	119.56
304.051	102.56
304.281	90.56
304.511	99.56
304.741	107.56
304.971	95.56
305.201	97.56
305.431	77.56
305.661	77.56
305.891	106.56
306.121	96.56
306.352	104.56
306.582	98.56
306.812	107.56
307.042	110.56
307.272	93.56
307.502	106.56
307.731	90.56
307.961	84.56
308.191	109.56
308.421	106.56
308.651	92.56
308.881	87.56
309.111	101.56
309.341	103.56
309.571	114.56
309.8	93.56
310.03	91.56
310.26	90.56
310.49	93.56
310.72	118.56
310.949	125.56
311.179	105.56
311.409	93.56
311.639	103.56
311.868	83.56
312.098	93.56
312.328	89.56
312.557	107.56
312.787	91.56
313.017	103.56
313.246	94.56
313.476	93.56
313.706	101.56
313.935	94.56
314.165	102.56
314.394	109.56
314.624	87.56
314.853	93.56
315.083	83.56
315.312	93.56
315.542	88.56
315.771	92.56
316.001	101.56
316.23	101.56
316.46	91.56
316.689	90.56
316.919	93.56
317.148	97.56
317.377	94.56
317.607	102.56
317.836	79.56
318.065	101.56
318.295	90.56
318.524	87.56
318.753	87.56
318.983	95.56
319.212	109.56
319.441	114.56
319.67	117.56
319.9	89.56
320.129	97.56
320.358	89.56
320.587	103.56
320.816	105.56
321.046	101.56
321.275	109.56
321.504	105.56
321.733	96.56
321.962	108.56
322.191	96.56
322.42	94.56
322.649	99.56
322.878	113.56
323.108	118.56
323.337	136.56
323.566	129.56
323.795	150.56
324.024	232.56
324.253	411.56
324.482	884.56
324.71	1767.56
324.939	2264.56
325.168	860.56
325.397	255.56
325.626	161.56
325.855	125.56
326.084	114.56
326.313	138.56
326.542	153.56
326.77	253.56
326.999	467.56
327.228	949.56
327.457	1707.56
327.686	1335.56
327.914	406.56
328.143	217.56
328.372	168.56
328.6	142.56
328.829	125.56
329.058	142.56
329.287	145.56
329.515	101.56
329.744	122.56
329.972	122.56
330.201	158.56
330.43	157.56
330.658	134.56
330.887	166.56
331.115	127.56
331.344	106.56
331.572	113.56
331.801	120.56
332.03	101.56
332.258	103.56
332.486	100.56
332.715	96.56
332.943	88.56
333.172	88.56
333.4	98.56
333.629	118.56
333.857	133.56
334.085	129.56
334.314	138.56
334.542	161.56
334.771	163.56
334.999	118.56
335.227	112.56
335.455	106.56
335.684	102.56
335.912	93.56
336.14	101.56
336.369	93.56
336.597	96.56
336.825	107.56
337.053	99.56
337.281	87.56
337.51	98.56
337.738	100.56
337.966	91.56
338.194	87.56
338.422	82.56
338.65	89.56
338.878	77.56
339.106	94.56
339.334	98.56
339.562	89.56
339.79	95.56
340.018	94.56
340.246	98.56
340.474	98.56
340.702	91.56
340.93	95.56
341.158	97.56
341.386	117.56
341.614	93.56
341.842	86.56
342.07	99.56
342.298	94.56
342.526	101.56
342.754	99.56
342.981	87.56
343.209	90.56
343.437	95.56
343.665	100.56
343.893	96.56
344.12	84.56
344.348	88.56
344.576	92.56
344.804	92.56
345.031	101.56
345.259	99.56
345.487	97.56
345.714	100.56
345.942	110.56
346.17	96.56
346.397	108.56
346.625	109.56
346.853	105.56
347.08	94.56
347.308	116.56
347.535	96.56
347.763	113.56
347.99	93.56
348.218	98.56
348.445	121.56
348.673	100.56
348.9	86.56
349.128	97.56
349.355	100.56
349.583	106.56
349.81	98.56
350.037	89.56
350.265	98.56
350.492	90.56
350.72	103.56
350.947	97.56
351.174	90.56
351.402	116.56
351.629	90.56
351.856	113.56
352.083	117.56
352.311	118.56
352.538	130.56
352.765	123.56
352.992	113.56
353.22	139.56
353.447	108.56
353.674	112.56
353.901	101.56
354.128	88.56
354.355	99.56
354.583	102.56
354.81	91.56
355.037	95.56
355.264	89.56
355.491	97.56
355.718	91.56
355.945	83.56
356.172	97.56
356.399	92.56
356.626	106.56
356.853	98.56
357.08	97.56
357.307	97.56
357.534	90.56
357.761	80.56
357.988	108.56
358.215	97.56
358.441	88.56
358.668	87.56
358.895	88.56
359.122	86.56
359.349	83.56
359.576	94.56
359.802	111.56
360.029	118.56
360.256	123.56
360.483	100.56
360.709	95.56
360.936	85.56
361.163	99.56
361.39	96.56
361.616	94.56
361.843	87.56
362.07	92.56
362.296	105.56
362.523	97.56
362.749	109.56
362.976	101.56
363.203	113.56
363.429	97.56
363.656	95.56
363.882	91.56
364.109	104.56
364.335	91.56
364.562	87.56
364.788	84.56
365.015	104.56
365.241	113.56
365.468	113.56
365.694	117.56
365.92	107.56
366.147	92.56
366.373	113.56
366.599	107.56
366.826	105.56
367.052	88.56
367.278	87.56
367.505	89.56
367.731	93.56
367.957	95.56
368.184	116.56
368.41	99.56
368.636	124.56
368.862	129.56
369.089	109.56
369.315	104.56
369.541	107.56
369.767	97.56
369.993	105.56
370.219	93.56
370.445	91.56
370.672	94.56
370.898	106.56
371.124	89.56
371.35	87.56
371.576	93.56
371.802	99.56
372.028	97.56
372.254	91.56
372.48	79.56
372.706	96.56
372.932	96.56
373.158	81.56
373.384	91.56
373.61	83.56
373.835	82.56
374.061	88.56
374.287	83.56
374.513	82.56
374.739	86.56
374.965	85.56
375.191	90.56
375.416	91.56
375.642	98.56
375.868	87.56
376.094	84.56
376.319	95.56
376.545	85.56
376.771	89.56
376.997	84.56
377.222	86.56
377.448	90.56
377.674	89.56
377.899	101.56
378.125	96.56
378.35	98.56
378.576	94.56
378.802	93.56
379.027	83.56
379.253	103.56
379.478	83.56
379.704	96.56
379.929	88.56
380.155	106.56
380.38	90.56
380.606	88.56
380.831	100.56
381.057	94.56
381.282	97.56
381.507	94.56
381.733	96.56
381.958	100.56
382.184	99.56
382.409	93.56
382.634	91.56
382.86	89.56
383.085	94.56
383.31	117.56
383.535	113.56
383.761	93.56
383.986	104.56
384.211	82.56
384.436	107.56
384.662	102.56
384.887	90.56
385.112	91.56
385.337	103.56
385.562	101.56
385.787	108.56
386.013	113.56
386.238	125.56
386.463	110.56
386.688	124.56
386.913	96.56
387.138	114.56
387.363	105.56
387.588	96.56
387.813	98.56
388.038	119.56
388.263	108.56
388.488	100.56
388.713	105.56
388.938	94.56
389.163	96.56
389.387	106.56
389.612	105.56
389.837	80.56
390.062	95.56
390.287	105.56
390.512	92.56
390.736	91.56
390.961	85.56
391.186	105.56
391.411	93.56
391.636	107.56
391.86	84.56
392.085	95.56
392.31	94.56
392.534	95.56
392.759	76.56
392.984	78.56
393.208	90.56
393.433	95.56
393.658	88.56
393.882	84.56
394.107	90.56
394.331	81.56
394.556	83.56
394.78	89.56
395.005	91.56
395.229	86.56
395.454	84.56
395.678	95.56
395.903	82.56
396.127	94.56
396.352	85.56
396.576	86.56
396.801	90.56
397.025	81.56
397.249	85.56
397.474	101.56
397.698	98.56
397.922	87.56
398.147	77.56
398.371	86.56
398.595	86.56
398.82	90.56
399.044	81.56
399.268	86.56
399.492	95.56
399.717	104.56
399.941	100.56
400.165	94.56
400.389	84.56
400.613	90.56
400.837	96.56
401.062	82.56
401.286	79.56
401.51	94.56
401.734	93.56
401.958	113.56
402.182	131.56
402.406	185.56
402.63	124.56
402.854	100.56
403.078	104.56
403.302	88.56
403.526	78.56
403.75	103.56
403.974	84.56
404.198	101.56
404.422	87.56
404.645	84.56
404.869	95.56
405.093	94.56
405.317	99.56
405.541	104.56
405.765	113.56
405.988	133.56
406.212	207.56
406.436	260.56
406.66	169.56
406.883	111.56
407.107	88.56
407.331	115.56
407.555	103.56
407.778	97.56
408.002	92.56
408.226	82.56
408.449	104.56
408.673	83.56
408.896	92.56
409.12	94.56
409.344	79.56
409.567	103.56
409.791	91.56
410.014	87.56
410.238	107.56
410.461	82.56
410.685	97.56
410.908	94.56
411.132	90.56
411.355	104.56
411.578	87.56
411.802	89.56
412.025	84.56
412.249	86.56
412.472	103.56
412.695	107.56
412.919	92.56
413.142	79.56
413.365	91.56
413.589	104.56
413.812	90.56
414.035	87.56
414.258	97.56
414.482	97.56
414.705	97.56
414.928	93.56
415.151	88.56
415.374	89.56
415.597	95.56
415.821	90.56
416.044	83.56
416.267	82.56
416.49	80.56
416.713	82.56
416.936	84.56
417.159	90.56
417.382	87.56
417.605	78.56
417.828	102.56
418.051	101.56
418.274	92.56
418.497	87.56
418.72	94.56
418.943	90.56
419.166	82.56
419.389	104.56
419.611	98.56
419.834	91.56
420.057	84.56
420.28	83.56
420.503	90.56
420.726	83.56
420.948	94.56
421.171	98.56
421.394	90.56
421.617	92.56
421.839	91.56
422.062	97.56
422.285	102.56
422.507	92.56
422.73	95.56
422.953	93.56
423.175	88.56
423.398	89.56
423.621	88.56
423.843	98.56
424.066	85.56
424.288	90.56
424.511	104.56
424.733	110.56
424.956	121.56
425.178	93.56
425.401	115.56
425.623	110.56
425.846	92.56
426.068	111.56
426.291	95.56
426.513	109.56
426.735	93.56
426.958	90.56
427.18	101.56
427.402	142.56
427.625	183.56
427.847	153.56
428.069	118.56
428.292	80.56
428.514	89.56
428.736	86.56
428.958	88.56
429.181	82.56
429.403	96.56
429.625	81.56
429.847	103.56
430.069	97.56
430.292	87.56
430.514	95.56
430.736	82.56
430.958	100.56
431.18	91.56
431.402	89.56
431.624	95.56
431.846	93.56
432.068	98.56
432.29	85.56
432.512	91.56
432.734	92.56
432.956	101.56
433.178	91.56
433.4	113.56
433.622	101.56
433.844	81.56
434.066	94.56
434.287	89.56
434.509	88.56
434.731	100.56
434.953	94.56
435.175	91.56
435.397	84.56
435.618	94.56
435.84	103.56
436.062	128.56
436.284	121.56
436.505	106.56
436.727	105.56
436.949	102.56
437.17	85.56
437.392	79.56
437.614	108.56
437.835	122.56
438.057	132.56
438.278	123.56
438.5	116.56
438.721	123.56
438.943	89.56
439.165	82.56
439.386	90.56
439.608	99.56
439.829	117.56
440.05	120.56
440.272	154.56
440.493	93.56
440.715	90.56
440.936	84.56
441.158	92.56
441.379	105.56
441.6	99.56
441.822	98.56
442.043	82.56
442.264	114.56
442.486	111.56
442.707	107.56
442.928	100.56
443.149	139.56
443.371	135.56
443.592	103.56
443.813	112.56
444.034	107.56
444.255	91.56
444.476	89.56
444.698	102.56
444.919	92.56
445.14	135.56
445.361	128.56
445.582	112.56
445.803	142.56
446.024	153.56
446.245	129.56
446.466	118.56
446.687	98.56
446.908	105.56
447.129	79.56
447.35	103.56
447.571	108.56
447.792	96.56
448.013	108.56
448.234	106.56
448.455	90.56
448.675	113.56
448.896	119.56
449.117	106.56
449.338	95.56
449.559	133.56
449.779	120.56
450	99.56
450.221	82.56
450.442	78.56
450.662	97.56
450.883	127.56
451.104	133.56
451.324	96.56
451.545	100.56
451.766	86.56
451.986	89.56
452.207	87.56
452.428	98.56
452.648	113.56
452.869	120.56
453.089	116.56
453.31	136.56
453.53	88.56
453.751	97.56
453.971	107.56
454.192	116.56
454.412	93.56
454.633	94.56
454.853	86.56
455.073	79.56
455.294	104.56
455.514	105.56
455.734	86.56
455.955	89.56
456.175	99.56
456.395	100.56
456.616	80.56
456.836	85.56
457.056	81.56
457.276	88.56
457.497	88.56
457.717	92.56
457.937	80.56
458.157	76.56
458.377	99.56
458.598	111.56
458.818	148.56
459.038	175.56
459.258	134.56
459.478	87.56
459.698	96.56
459.918	94.56
460.138	99.56
460.358	99.56
460.578	84.56
460.798	101.56
461.018	99.56
461.238	101.56
461.458	89.56
461.678	88.56
461.898	92.56
462.118	92.56
462.338	87.56
462.558	97.56
462.777	83.56
462.997	89.56
463.217	88.56
463.437	91.56
463.657	91.56
463.876	78.56
464.096	97.56
464.316	94.56
464.536	95.56
464.755	91.56
464.975	107.56
465.195	204.56
465.414	201.56
465.634	117.56
465.854	97.56
466.073	109.56
466.293	75.56
466.512	93.56
466.732	96.56
466.951	100.56
467.171	81.56
467.391	92.56
467.61	106.56
467.829	111.56
468.049	119.56
468.268	130.56
468.488	100.56
468.707	99.56
468.927	101.56
469.146	97.56
469.365	92.56
469.585	95.56
469.804	102.56
470.023	94.56
470.243	91.56
470.462	104.56
470.681	123.56
470.901	98.56
471.12	104.56
471.339	81.56
471.558	97.56
471.777	98.56
471.997	106.56
472.216	129.56
472.435	188.56
472.654	99.56
472.873	100.56
473.092	95.56
473.311	85.56
473.53	89.56
473.749	93.56
473.968	101.56
474.187	102.56
474.406	105.56
474.625	87.56
474.844	86.56
475.063	85.56
475.282	89.56
475.501	95.56
475.72	87.56
475.939	97.56
476.158	83.56
476.377	82.56
476.596	77.56
476.814	87.56
477.033	107.56
477.252	86.56
477.471	84.56
477.69	95.56
477.908	89.56
478.127	97.56
478.346	95.56
478.564	96.56
478.783	118.56
479.002	109.56
479.22	102.56
479.439	109.56
479.658	114.56
479.876	93.56
480.095	84.56
480.313	102.56
480.532	91.56
480.751	90.56
480.969	146.56
481.188	294.56
481.406	213.56
481.624	119.56
481.843	88.56
482.061	76.56
482.28	106.56
482.498	89.56
482.717	83.56
482.935	98.56
483.153	82.56
483.372	81.56
483.59	86.56
483.808	83.56
484.027	89.56
484.245	94.56
484.463	86.56
484.681	99.56
484.9	89.56
485.118	100.56
485.336	97.56
485.554	98.56
485.772	97.56
485.99	97.56
486.209	103.56
486.427	102.56
486.645	104.56
486.863	129.56
487.081	102.56
487.299	98.56
487.517	101.56
487.735	87.56
487.953	104.56
488.171	90.56
488.389	87.56
488.607	79.56
488.825	93.56
489.043	87.56
489.261	74.56
489.479	91.56
489.696	82.56
489.914	78.56
490.132	74.56
490.35	89.56
490.568	94.56
490.786	84.56
491.003	94.56
491.221	101.56
491.439	90.56
491.657	84.56
491.874	75.56
492.092	110.56
492.31	94.56
492.527	90.56
492.745	85.56
492.963	104.56
493.18	101.56
493.398	90.56
493.615	103.56
493.833	103.56
494.05	85.56
494.268	90.56
494.485	81.56
494.703	85.56
494.92	83.56
495.138	98.56
495.355	92.56
495.573	91.56
495.79	94.56
496.008	94.56
496.225	94.56
496.442	88.56
496.66	97.56
496.877	92.56
497.094	99.56
497.312	96.56
497.529	102.56
497.746	94.56
497.963	90.56
498.181	101.56
498.398	93.56
498.615	123.56
498.832	113.56
499.049	99.56
499.267	97.56
499.484	100.56
499.701	101.56
499.918	83.56
500.135	102.56
500.352	89.56
500.569	102.56
500.786	101.56
501.003	99.56
501.22	93.56
501.437	91.56
501.654	87.56
501.871	107.56
502.088	102.56
502.305	86.56
502.522	97.56
502.739	78.56
502.956	98.56
503.172	94.56
503.389	92.56
503.606	113.56
503.823	117.56
504.04	85.56
504.256	84.56
504.473	93.56
504.69	82.56
504.907	94.56
505.123	84.56
505.34	94.56
505.557	89.56
505.773	94.56
505.99	89.56
506.207	92.56
506.423	91.56
506.64	83.56
506.856	96.56
507.073	90.56
507.289	106.56
507.506	107.56
507.722	118.56
507.939	127.56
508.155	105.56
508.372	105.56
508.588	102.56
508.805	101.56
509.021	110.56
509.238	93.56
509.454	106.56
509.67	105.56
509.887	112.56
510.103	145.56
510.319	248.56
510.536	941.56
510.752	3180.56
510.968	874.56
511.184	181.56
511.401	132.56
511.617	101.56
511.833	89.56
512.049	98.56
512.265	88.56
512.481	101.56
512.698	112.56
512.914	104.56
513.13	81.56
513.346	94.56
513.562	112.56
513.778	99.56
513.994	114.56
514.21	120.56
