Data from Circ_2018_H10_HRD10591_00091.txt Node
Date: Wed Jan 03 09:56:20 EST 2024
User: Yrep
Spectrometer: HR+D1059
Trigger mode: 1
Integration Time (sec): 1.000000E-1
Scans to average: 1
Electric dark correction enabled: true
Nonlinearity correction enabled: false
Boxcar width: 0
XAxis mode: Wavelengths
Number of Pixels in Spectrum: 2048
>>>>>Begin Spectral Data<<<<<
223.165	-7.94
223.4	-7.94
223.635	-7.94
223.869	-24.94
224.104	-24.94
224.338	-11.94
224.573	-2.94
224.808	4.06
225.042	-6.94
225.277	-6.94
225.511	-12.94
225.746	12.06
225.98	3.06
226.215	9.06
226.449	9.06
226.683	20.06
226.918	35.06
227.152	7.06
227.387	32.06
227.621	37.06
227.856	37.06
228.09	44.06
228.324	56.06
228.559	59.06
228.793	46.06
229.027	67.06
229.262	71.06
229.496	70.06
229.73	69.06
229.964	82.06
230.199	77.06
230.433	87.06
230.667	78.06
230.901	68.06
231.136	79.06
231.37	81.06
231.604	78.06
231.838	84.06
232.072	82.06
232.306	75.06
232.541	82.06
232.775	83.06
233.009	91.06
233.243	80.06
233.477	87.06
233.711	75.06
233.945	71.06
234.179	77.06
234.413	73.06
234.647	87.06
234.881	80.06
235.115	73.06
235.349	79.06
235.583	81.06
235.817	60.06
236.051	69.06
236.285	92.06
236.519	81.06
236.753	72.06
236.987	88.06
237.221	84.06
237.455	83.06
237.689	67.06
237.922	70.06
238.156	64.06
238.39	74.06
238.624	90.06
238.858	87.06
239.091	87.06
239.325	87.06
239.559	68.06
239.793	76.06
240.027	78.06
240.26	74.06
240.494	65.06
240.728	76.06
240.961	88.06
241.195	70.06
241.429	84.06
241.662	90.06
241.896	87.06
242.13	88.06
242.363	81.06
242.597	84.06
242.83	72.06
243.064	73.06
243.298	88.06
243.531	81.06
243.765	79.06
243.998	83.06
244.232	79.06
244.465	73.06
244.699	88.06
244.932	76.06
245.166	85.06
245.399	72.06
245.633	72.06
245.866	95.06
246.099	83.06
246.333	86.06
246.566	89.06
246.8	74.06
247.033	76.06
247.266	77.06
247.5	82.06
247.733	73.06
247.966	71.06
248.2	82.06
248.433	87.06
248.666	68.06
248.899	76.06
249.133	80.06
249.366	108.06
249.599	92.06
249.832	75.06
250.066	87.06
250.299	75.06
250.532	83.06
250.765	68.06
250.998	91.06
251.231	97.06
251.465	101.06
251.698	88.06
251.931	57.06
252.164	70.06
252.397	72.06
252.63	84.06
252.863	69.06
253.096	72.06
253.329	73.06
253.562	84.06
253.795	80.06
254.028	67.06
254.261	76.06
254.494	78.06
254.727	90.06
254.96	88.06
255.193	78.06
255.426	76.06
255.659	84.06
255.892	91.06
256.124	84.06
256.357	70.06
256.59	79.06
256.823	87.06
257.056	85.06
257.289	87.06
257.521	85.06
257.754	82.06
257.987	76.06
258.22	85.06
258.452	89.06
258.685	72.06
258.918	77.06
259.151	81.06
259.383	67.06
259.616	67.06
259.849	76.06
260.081	88.06
260.314	72.06
260.547	76.06
260.779	94.06
261.012	92.06
261.244	96.06
261.477	93.06
261.71	102.06
261.942	106.06
262.175	125.06
262.407	76.06
262.64	96.06
262.872	91.06
263.105	79.06
263.337	75.06
263.57	87.06
263.802	78.06
264.035	74.06
264.267	93.06
264.499	68.06
264.732	91.06
264.964	71.06
265.197	97.06
265.429	75.06
265.661	90.06
265.894	84.06
266.126	84.06
266.358	87.06
266.591	88.06
266.823	73.06
267.055	73.06
267.287	82.06
267.52	94.06
267.752	91.06
267.984	86.06
268.216	85.06
268.448	85.06
268.681	84.06
268.913	90.06
269.145	76.06
269.377	84.06
269.609	80.06
269.841	82.06
270.073	82.06
270.306	77.06
270.538	79.06
270.77	81.06
271.002	84.06
271.234	86.06
271.466	88.06
271.698	75.06
271.93	81.06
272.162	88.06
272.394	85.06
272.626	74.06
272.858	91.06
273.09	82.06
273.322	104.06
273.553	92.06
273.785	93.06
274.017	77.06
274.249	75.06
274.481	83.06
274.713	82.06
274.945	93.06
275.176	85.06
275.408	83.06
275.64	93.06
275.872	87.06
276.104	89.06
276.335	79.06
276.567	106.06
276.799	106.06
277.031	131.06
277.262	92.06
277.494	91.06
277.726	89.06
277.957	79.06
278.189	91.06
278.421	77.06
278.652	74.06
278.884	76.06
279.115	105.06
279.347	87.06
279.579	80.06
279.81	90.06
280.042	84.06
280.273	96.06
280.505	83.06
280.736	95.06
280.968	95.06
281.199	87.06
281.431	82.06
281.662	90.06
281.894	85.06
282.125	89.06
282.356	129.06
282.588	136.06
282.819	120.06
283.051	83.06
283.282	84.06
283.513	84.06
283.745	79.06
283.976	73.06
284.207	89.06
284.439	78.06
284.67	103.06
284.901	82.06
285.132	82.06
285.364	87.06
285.595	78.06
285.826	94.06
286.057	90.06
286.288	94.06
286.52	93.06
286.751	82.06
286.982	92.06
287.213	83.06
287.444	94.06
287.675	85.06
287.906	109.06
288.138	99.06
288.369	93.06
288.6	103.06
288.831	84.06
289.062	83.06
289.293	89.06
289.524	86.06
289.755	79.06
289.986	92.06
290.217	77.06
290.448	91.06
290.679	98.06
290.91	104.06
291.141	98.06
291.371	87.06
291.602	93.06
291.833	81.06
292.064	81.06
292.295	80.06
292.526	101.06
292.757	87.06
292.987	74.06
293.218	84.06
293.449	76.06
293.68	85.06
293.91	86.06
294.141	87.06
294.372	93.06
294.603	84.06
294.833	95.06
295.064	90.06
295.295	81.06
295.525	106.06
295.756	108.06
295.987	135.06
296.217	135.06
296.448	119.06
296.679	91.06
296.909	85.06
297.14	88.06
297.37	89.06
297.601	86.06
297.831	72.06
298.062	100.06
298.292	87.06
298.523	98.06
298.753	111.06
298.984	80.06
299.214	103.06
299.445	87.06
299.675	92.06
299.905	93.06
300.136	77.06
300.366	84.06
300.597	98.06
300.827	84.06
301.057	100.06
301.288	102.06
301.518	95.06
301.748	95.06
301.979	84.06
302.209	91.06
302.439	89.06
302.669	92.06
302.9	92.06
303.13	101.06
303.36	104.06
303.59	99.06
303.82	99.06
304.051	102.06
304.281	103.06
304.511	95.06
304.741	92.06
304.971	90.06
305.201	94.06
305.431	99.06
305.661	89.06
305.891	87.06
306.121	81.06
306.352	104.06
306.582	107.06
306.812	99.06
307.042	105.06
307.272	96.06
307.502	87.06
307.731	93.06
307.961	96.06
308.191	87.06
308.421	89.06
308.651	96.06
308.881	106.06
309.111	100.06
309.341	90.06
309.571	101.06
309.8	99.06
310.03	98.06
310.26	88.06
310.49	89.06
310.72	103.06
310.949	112.06
311.179	89.06
311.409	104.06
311.639	101.06
311.868	100.06
312.098	93.06
312.328	97.06
312.557	114.06
312.787	117.06
313.017	98.06
313.246	104.06
313.476	87.06
313.706	93.06
313.935	89.06
314.165	96.06
314.394	94.06
314.624	96.06
314.853	81.06
315.083	88.06
315.312	100.06
315.542	104.06
315.771	100.06
316.001	91.06
316.23	83.06
316.46	75.06
316.689	89.06
316.919	85.06
317.148	93.06
317.377	102.06
317.607	116.06
317.836	79.06
318.065	99.06
318.295	97.06
318.524	92.06
318.753	81.06
318.983	90.06
319.212	99.06
319.441	103.06
319.67	100.06
319.9	100.06
320.129	94.06
320.358	102.06
320.587	105.06
320.816	88.06
321.046	107.06
321.275	90.06
321.504	89.06
321.733	96.06
321.962	106.06
322.191	103.06
322.42	99.06
322.649	93.06
322.878	105.06
323.108	123.06
323.337	123.06
323.566	141.06
323.795	159.06
324.024	199.06
324.253	409.06
324.482	898.06
324.71	1725.06
324.939	2265.06
325.168	819.06
325.397	241.06
325.626	154.06
325.855	119.06
326.084	128.06
326.313	138.06
326.542	148.06
326.77	226.06
326.999	459.06
327.228	920.06
327.457	1649.06
327.686	1396.06
327.914	378.06
328.143	216.06
328.372	146.06
328.6	140.06
328.829	139.06
329.058	130.06
329.287	129.06
329.515	99.06
329.744	103.06
329.972	111.06
330.201	135.06
330.43	177.06
330.658	143.06
330.887	159.06
331.115	133.06
331.344	105.06
331.572	109.06
331.801	101.06
332.03	94.06
332.258	109.06
332.486	89.06
332.715	88.06
332.943	107.06
333.172	100.06
333.4	95.06
333.629	105.06
333.857	116.06
334.085	128.06
334.314	142.06
334.542	179.06
334.771	177.06
334.999	109.06
335.227	95.06
335.455	77.06
335.684	100.06
335.912	101.06
336.14	89.06
336.369	89.06
336.597	102.06
336.825	91.06
337.053	95.06
337.281	99.06
337.51	83.06
337.738	94.06
337.966	96.06
338.194	100.06
338.422	87.06
338.65	96.06
338.878	99.06
339.106	79.06
339.334	73.06
339.562	85.06
339.79	97.06
340.018	90.06
340.246	97.06
340.474	94.06
340.702	108.06
340.93	104.06
341.158	89.06
341.386	101.06
341.614	111.06
341.842	96.06
342.07	98.06
342.298	83.06
342.526	94.06
342.754	92.06
342.981	93.06
343.209	91.06
343.437	95.06
343.665	88.06
343.893	86.06
344.12	105.06
344.348	96.06
344.576	96.06
344.804	77.06
345.031	106.06
345.259	115.06
345.487	101.06
345.714	88.06
345.942	94.06
346.17	85.06
346.397	104.06
346.625	97.06
346.853	105.06
347.08	104.06
347.308	93.06
347.535	102.06
347.763	104.06
347.99	100.06
348.218	99.06
348.445	106.06
348.673	99.06
348.9	87.06
349.128	91.06
349.355	87.06
349.583	97.06
349.81	87.06
350.037	116.06
350.265	105.06
350.492	99.06
350.72	103.06
350.947	85.06
351.174	117.06
351.402	106.06
351.629	95.06
351.856	105.06
352.083	113.06
352.311	112.06
352.538	97.06
352.765	118.06
352.992	107.06
353.22	105.06
353.447	105.06
353.674	107.06
353.901	99.06
354.128	99.06
354.355	96.06
354.583	96.06
354.81	101.06
355.037	97.06
355.264	102.06
355.491	98.06
355.718	88.06
355.945	85.06
356.172	93.06
356.399	88.06
356.626	87.06
356.853	98.06
357.08	83.06
357.307	81.06
357.534	82.06
357.761	99.06
357.988	101.06
358.215	99.06
358.441	100.06
358.668	105.06
358.895	96.06
359.122	98.06
359.349	79.06
359.576	87.06
359.802	98.06
360.029	127.06
360.256	118.06
360.483	107.06
360.709	81.06
360.936	95.06
361.163	97.06
361.39	108.06
361.616	109.06
361.843	102.06
362.07	96.06
362.296	104.06
362.523	89.06
362.749	95.06
362.976	80.06
363.203	91.06
363.429	98.06
363.656	92.06
363.882	103.06
364.109	101.06
364.335	81.06
364.562	95.06
364.788	92.06
365.015	94.06
365.241	92.06
365.468	107.06
365.694	107.06
365.92	96.06
366.147	95.06
366.373	82.06
366.599	80.06
366.826	89.06
367.052	95.06
367.278	94.06
367.505	85.06
367.731	85.06
367.957	96.06
368.184	93.06
368.41	100.06
368.636	111.06
368.862	132.06
369.089	123.06
369.315	113.06
369.541	92.06
369.767	100.06
369.993	90.06
370.219	92.06
370.445	94.06
370.672	75.06
370.898	87.06
371.124	82.06
371.35	91.06
371.576	95.06
371.802	91.06
372.028	77.06
372.254	92.06
372.48	83.06
372.706	81.06
372.932	92.06
373.158	94.06
373.384	92.06
373.61	90.06
373.835	104.06
374.061	89.06
374.287	78.06
374.513	74.06
374.739	88.06
374.965	83.06
375.191	97.06
375.416	108.06
375.642	86.06
375.868	92.06
376.094	90.06
376.319	104.06
376.545	88.06
376.771	83.06
376.997	85.06
377.222	98.06
377.448	91.06
377.674	101.06
377.899	97.06
378.125	95.06
378.35	91.06
378.576	85.06
378.802	89.06
379.027	100.06
379.253	83.06
379.478	88.06
379.704	86.06
379.929	88.06
380.155	102.06
380.38	83.06
380.606	94.06
380.831	95.06
381.057	89.06
381.282	114.06
381.507	102.06
381.733	93.06
381.958	103.06
382.184	95.06
382.409	104.06
382.634	97.06
382.86	92.06
383.085	89.06
383.31	104.06
383.535	90.06
383.761	93.06
383.986	92.06
384.211	92.06
384.436	91.06
384.662	108.06
384.887	104.06
385.112	92.06
385.337	102.06
385.562	85.06
385.787	96.06
386.013	108.06
386.238	110.06
386.463	97.06
386.688	103.06
386.913	113.06
387.138	111.06
387.363	100.06
387.588	109.06
387.813	86.06
388.038	97.06
388.263	101.06
388.488	111.06
388.713	95.06
388.938	96.06
389.163	91.06
389.387	93.06
389.612	99.06
389.837	90.06
390.062	81.06
390.287	98.06
390.512	87.06
390.736	94.06
390.961	83.06
391.186	85.06
391.411	95.06
391.636	97.06
391.86	82.06
392.085	73.06
392.31	83.06
392.534	78.06
392.759	80.06
392.984	84.06
393.208	90.06
393.433	86.06
393.658	97.06
393.882	81.06
394.107	90.06
394.331	87.06
394.556	82.06
394.78	91.06
395.005	81.06
395.229	91.06
395.454	83.06
395.678	73.06
395.903	74.06
396.127	90.06
396.352	71.06
396.576	99.06
396.801	78.06
397.025	88.06
397.249	92.06
397.474	77.06
397.698	92.06
397.922	84.06
398.147	93.06
398.371	86.06
398.595	84.06
398.82	79.06
399.044	79.06
399.268	90.06
399.492	83.06
399.717	88.06
399.941	83.06
400.165	94.06
400.389	83.06
400.613	86.06
400.837	84.06
401.062	84.06
401.286	89.06
401.51	87.06
401.734	102.06
401.958	100.06
402.182	112.06
402.406	171.06
402.63	126.06
402.854	90.06
403.078	104.06
403.302	79.06
403.526	79.06
403.75	91.06
403.974	88.06
404.198	83.06
404.422	85.06
404.645	89.06
404.869	101.06
405.093	85.06
405.317	101.06
405.541	100.06
405.765	99.06
405.988	122.06
406.212	211.06
406.436	259.06
406.66	163.06
406.883	113.06
407.107	95.06
407.331	101.06
407.555	103.06
407.778	108.06
408.002	100.06
408.226	90.06
408.449	85.06
408.673	95.06
408.896	98.06
409.12	94.06
409.344	97.06
409.567	89.06
409.791	85.06
410.014	89.06
410.238	84.06
410.461	80.06
410.685	90.06
410.908	111.06
411.132	111.06
411.355	97.06
411.578	94.06
411.802	86.06
412.025	89.06
412.249	97.06
412.472	97.06
412.695	93.06
412.919	98.06
413.142	91.06
413.365	74.06
413.589	95.06
413.812	82.06
414.035	99.06
414.258	95.06
414.482	81.06
414.705	88.06
414.928	97.06
415.151	103.06
415.374	113.06
415.597	91.06
415.821	81.06
416.044	74.06
416.267	84.06
416.49	91.06
416.713	86.06
416.936	96.06
417.159	76.06
417.382	109.06
417.605	95.06
417.828	95.06
418.051	103.06
418.274	90.06
418.497	88.06
418.72	87.06
418.943	98.06
419.166	89.06
419.389	94.06
419.611	88.06
419.834	91.06
420.057	93.06
420.28	80.06
420.503	81.06
420.726	91.06
420.948	73.06
421.171	72.06
421.394	82.06
421.617	98.06
421.839	98.06
422.062	102.06
422.285	97.06
422.507	99.06
422.73	89.06
422.953	83.06
423.175	89.06
423.398	95.06
423.621	100.06
423.843	83.06
424.066	82.06
424.288	90.06
424.511	88.06
424.733	103.06
424.956	116.06
425.178	98.06
425.401	87.06
425.623	102.06
425.846	80.06
426.068	91.06
426.291	79.06
426.513	95.06
426.735	83.06
426.958	101.06
427.18	117.06
427.402	152.06
427.625	182.06
427.847	145.06
428.069	128.06
428.292	83.06
428.514	77.06
428.736	89.06
428.958	86.06
429.181	66.06
429.403	83.06
429.625	83.06
429.847	91.06
430.069	97.06
430.292	96.06
430.514	92.06
430.736	82.06
430.958	88.06
431.18	88.06
431.402	91.06
431.624	83.06
431.846	75.06
432.068	82.06
432.29	84.06
432.512	99.06
432.734	86.06
432.956	86.06
433.178	95.06
433.4	93.06
433.622	85.06
433.844	89.06
434.066	99.06
434.287	90.06
434.509	84.06
434.731	80.06
434.953	82.06
435.175	78.06
435.397	80.06
435.618	84.06
435.84	86.06
436.062	123.06
436.284	106.06
436.505	106.06
436.727	94.06
436.949	80.06
437.17	88.06
437.392	82.06
437.614	114.06
437.835	111.06
438.057	121.06
438.278	98.06
438.5	107.06
438.721	114.06
438.943	95.06
439.165	99.06
439.386	81.06
439.608	96.06
439.829	83.06
440.05	134.06
440.272	145.06
440.493	107.06
440.715	94.06
440.936	100.06
441.158	96.06
441.379	89.06
441.6	93.06
441.822	92.06
442.043	94.06
442.264	108.06
442.486	95.06
442.707	98.06
442.928	102.06
443.149	130.06
443.371	148.06
443.592	105.06
443.813	119.06
444.034	109.06
444.255	86.06
444.476	103.06
444.698	103.06
444.919	100.06
445.14	114.06
445.361	133.06
445.582	120.06
445.803	130.06
446.024	144.06
446.245	133.06
446.466	114.06
446.687	91.06
446.908	94.06
447.129	79.06
447.35	95.06
447.571	88.06
447.792	90.06
448.013	106.06
448.234	105.06
448.455	92.06
448.675	113.06
448.896	122.06
449.117	91.06
449.338	104.06
449.559	134.06
449.779	130.06
450	95.06
450.221	90.06
450.442	91.06
450.662	98.06
450.883	115.06
451.104	124.06
451.324	87.06
451.545	95.06
451.766	97.06
451.986	73.06
452.207	91.06
452.428	87.06
452.648	103.06
452.869	110.06
453.089	116.06
453.31	149.06
453.53	117.06
453.751	94.06
453.971	99.06
454.192	126.06
454.412	105.06
454.633	76.06
454.853	81.06
455.073	101.06
455.294	87.06
455.514	94.06
455.734	92.06
455.955	81.06
456.175	75.06
456.395	84.06
456.616	82.06
456.836	90.06
457.056	85.06
457.276	93.06
457.497	92.06
457.717	68.06
457.937	92.06
458.157	96.06
458.377	90.06
458.598	101.06
458.818	156.06
459.038	181.06
459.258	117.06
459.478	92.06
459.698	92.06
459.918	81.06
460.138	78.06
460.358	82.06
460.578	83.06
460.798	94.06
461.018	102.06
461.238	90.06
461.458	85.06
461.678	87.06
461.898	86.06
462.118	95.06
462.338	90.06
462.558	88.06
462.777	90.06
462.997	84.06
463.217	79.06
463.437	91.06
463.657	74.06
463.876	83.06
464.096	91.06
464.316	86.06
464.536	102.06
464.755	91.06
464.975	116.06
465.195	177.06
465.414	186.06
465.634	102.06
465.854	89.06
466.073	99.06
466.293	92.06
466.512	93.06
466.732	88.06
466.951	81.06
467.171	83.06
467.391	89.06
467.61	110.06
467.829	101.06
468.049	103.06
468.268	117.06
468.488	85.06
468.707	99.06
468.927	86.06
469.146	80.06
469.365	97.06
469.585	97.06
469.804	96.06
470.023	100.06
470.243	99.06
470.462	101.06
470.681	111.06
470.901	89.06
471.12	76.06
471.339	88.06
471.558	77.06
471.777	78.06
471.997	96.06
472.216	145.06
472.435	212.06
472.654	99.06
472.873	84.06
473.092	69.06
473.311	84.06
473.53	91.06
473.749	93.06
473.968	107.06
474.187	107.06
474.406	107.06
474.625	98.06
474.844	90.06
475.063	84.06
475.282	89.06
475.501	85.06
475.72	91.06
475.939	82.06
476.158	99.06
476.377	77.06
476.596	86.06
476.814	90.06
477.033	82.06
477.252	89.06
477.471	104.06
477.69	87.06
477.908	91.06
478.127	99.06
478.346	91.06
478.564	74.06
478.783	100.06
479.002	87.06
479.22	97.06
479.439	103.06
479.658	100.06
479.876	95.06
480.095	96.06
480.313	97.06
480.532	91.06
480.751	105.06
480.969	145.06
481.188	317.06
481.406	224.06
481.624	106.06
481.843	91.06
482.061	90.06
482.28	80.06
482.498	85.06
482.717	91.06
482.935	99.06
483.153	87.06
483.372	81.06
483.59	94.06
483.808	96.06
484.027	100.06
484.245	88.06
484.463	84.06
484.681	97.06
484.9	82.06
485.118	108.06
485.336	91.06
485.554	114.06
485.772	106.06
485.99	105.06
486.209	95.06
486.427	102.06
486.645	113.06
486.863	112.06
487.081	97.06
487.299	104.06
487.517	93.06
487.735	95.06
487.953	106.06
488.171	95.06
488.389	86.06
488.607	96.06
488.825	90.06
489.043	81.06
489.261	84.06
489.479	107.06
489.696	82.06
489.914	88.06
490.132	91.06
490.35	84.06
490.568	91.06
490.786	89.06
491.003	93.06
491.221	95.06
491.439	92.06
491.657	89.06
491.874	98.06
492.092	86.06
492.31	93.06
492.527	97.06
492.745	83.06
492.963	67.06
493.18	93.06
493.398	98.06
493.615	85.06
493.833	91.06
494.05	76.06
494.268	72.06
494.485	85.06
494.703	98.06
494.92	101.06
495.138	99.06
495.355	82.06
495.573	79.06
495.79	79.06
496.008	92.06
496.225	106.06
496.442	83.06
496.66	85.06
496.877	97.06
497.094	85.06
497.312	95.06
497.529	95.06
497.746	100.06
497.963	86.06
498.181	88.06
498.398	88.06
498.615	102.06
498.832	119.06
499.049	96.06
499.267	108.06
499.484	111.06
499.701	98.06
499.918	85.06
500.135	88.06
500.352	99.06
500.569	97.06
500.786	84.06
501.003	95.06
501.22	100.06
501.437	89.06
501.654	110.06
501.871	105.06
502.088	91.06
502.305	91.06
502.522	84.06
502.739	88.06
502.956	83.06
503.172	97.06
503.389	96.06
503.606	96.06
503.823	105.06
504.04	88.06
504.256	101.06
504.473	97.06
504.69	103.06
504.907	96.06
505.123	89.06
505.34	89.06
505.557	85.06
505.773	101.06
505.99	99.06
506.207	85.06
506.423	96.06
506.64	89.06
506.856	89.06
507.073	83.06
507.289	79.06
507.506	98.06
507.722	116.06
507.939	115.06
508.155	106.06
508.372	78.06
508.588	96.06
508.805	96.06
509.021	100.06
509.238	104.06
509.454	95.06
509.67	107.06
509.887	101.06
510.103	142.06
510.319	231.06
510.536	873.06
510.752	2838.06
510.968	801.06
511.184	160.06
511.401	124.06
511.617	118.06
511.833	103.06
512.049	91.06
512.265	89.06
512.481	90.06
512.698	92.06
512.914	93.06
513.13	85.06
513.346	92.06
513.562	96.06
513.778	90.06
513.994	109.06
514.21	111.06
514.426	114.06
514.642	144.06
514.858	136.06
515.074	185.06
515.29	524.06
