Data from Circ_2018_H10_HRD10591_00087.txt Node
Date: Wed Jan 03 09:56:19 EST 2024
User: Yrep
Spectrometer: HR+D1059
Trigger mode: 1
Integration Time (sec): 1.000000E-1
Scans to average: 1
Electric dark correction enabled: true
Nonlinearity correction enabled: false
Boxcar width: 0
XAxis mode: Wavelengths
Number of Pixels in Spectrum: 2048
>>>>>Begin Spectral Data<<<<<
223.165	-9.06
223.4	-9.06
223.635	-9.06
223.869	-11.06
224.104	-23.06
224.338	-12.06
224.573	-14.06
224.808	-2.06
225.042	-6.06
225.277	-1.06
225.511	2.94
225.746	-4.06
225.98	7.94
226.215	-1.06
226.449	16.94
226.683	18.94
226.918	10.94
227.152	25.94
227.387	37.94
227.621	37.94
227.856	56.94
228.09	51.94
228.324	53.94
228.559	60.94
228.793	72.94
229.027	51.94
229.262	63.94
229.496	67.94
229.73	87.94
229.964	82.94
230.199	78.94
230.433	73.94
230.667	84.94
230.901	84.94
231.136	73.94
231.37	75.94
231.604	80.94
231.838	73.94
232.072	83.94
232.306	75.94
232.541	88.94
232.775	80.94
233.009	84.94
233.243	75.94
233.477	79.94
233.711	77.94
233.945	83.94
234.179	75.94
234.413	89.94
234.647	80.94
234.881	83.94
235.115	84.94
235.349	75.94
235.583	66.94
235.817	71.94
236.051	66.94
236.285	65.94
236.519	82.94
236.753	88.94
236.987	83.94
237.221	77.94
237.455	89.94
237.689	75.94
237.922	76.94
238.156	80.94
238.39	76.94
238.624	84.94
238.858	71.94
239.091	81.94
239.325	78.94
239.559	77.94
239.793	84.94
240.027	85.94
240.26	78.94
240.494	72.94
240.728	81.94
240.961	72.94
241.195	76.94
241.429	72.94
241.662	70.94
241.896	79.94
242.13	87.94
242.363	71.94
242.597	84.94
242.83	97.94
243.064	63.94
243.298	67.94
243.531	88.94
243.765	71.94
243.998	87.94
244.232	88.94
244.465	68.94
244.699	72.94
244.932	82.94
245.166	80.94
245.399	81.94
245.633	72.94
245.866	78.94
246.099	75.94
246.333	79.94
246.566	83.94
246.8	77.94
247.033	63.94
247.266	67.94
247.5	79.94
247.733	77.94
247.966	77.94
248.2	91.94
248.433	78.94
248.666	77.94
248.899	87.94
249.133	91.94
249.366	94.94
249.599	100.94
249.832	76.94
250.066	78.94
250.299	72.94
250.532	76.94
250.765	96.94
250.998	88.94
251.231	74.94
251.465	73.94
251.698	92.94
251.931	77.94
252.164	81.94
252.397	74.94
252.63	86.94
252.863	72.94
253.096	85.94
253.329	76.94
253.562	71.94
253.795	72.94
254.028	77.94
254.261	67.94
254.494	61.94
254.727	83.94
254.96	84.94
255.193	79.94
255.426	89.94
255.659	80.94
255.892	85.94
256.124	71.94
256.357	83.94
256.59	74.94
256.823	81.94
257.056	82.94
257.289	87.94
257.521	80.94
257.754	69.94
257.987	85.94
258.22	91.94
258.452	80.94
258.685	88.94
258.918	87.94
259.151	81.94
259.383	79.94
259.616	87.94
259.849	86.94
260.081	90.94
260.314	84.94
260.547	92.94
260.779	74.94
261.012	93.94
261.244	85.94
261.477	103.94
261.71	87.94
261.942	126.94
262.175	119.94
262.407	101.94
262.64	69.94
262.872	82.94
263.105	96.94
263.337	89.94
263.57	82.94
263.802	87.94
264.035	89.94
264.267	75.94
264.499	86.94
264.732	91.94
264.964	88.94
265.197	78.94
265.429	82.94
265.661	75.94
265.894	87.94
266.126	88.94
266.358	81.94
266.591	89.94
266.823	86.94
267.055	85.94
267.287	85.94
267.52	90.94
267.752	76.94
267.984	83.94
268.216	90.94
268.448	76.94
268.681	84.94
268.913	82.94
269.145	66.94
269.377	73.94
269.609	94.94
269.841	92.94
270.073	80.94
270.306	87.94
270.538	78.94
270.77	84.94
271.002	84.94
271.234	81.94
271.466	76.94
271.698	74.94
271.93	98.94
272.162	107.94
272.394	81.94
272.626	77.94
272.858	83.94
273.09	71.94
273.322	79.94
273.553	74.94
273.785	85.94
274.017	97.94
274.249	90.94
274.481	83.94
274.713	93.94
274.945	74.94
275.176	79.94
275.408	82.94
275.64	81.94
275.872	83.94
276.104	91.94
276.335	99.94
276.567	104.94
276.799	117.94
277.031	105.94
277.262	82.94
277.494	85.94
277.726	77.94
277.957	97.94
278.189	77.94
278.421	94.94
278.652	83.94
278.884	85.94
279.115	94.94
279.347	86.94
279.579	88.94
279.81	99.94
280.042	96.94
280.273	104.94
280.505	99.94
280.736	92.94
280.968	89.94
281.199	89.94
281.431	88.94
281.662	86.94
281.894	84.94
282.125	100.94
282.356	137.94
282.588	141.94
282.819	115.94
283.051	88.94
283.282	95.94
283.513	87.94
283.745	66.94
283.976	106.94
284.207	88.94
284.439	85.94
284.67	81.94
284.901	86.94
285.132	81.94
285.364	87.94
285.595	90.94
285.826	97.94
286.057	90.94
286.288	77.94
286.52	82.94
286.751	94.94
286.982	88.94
287.213	84.94
287.444	87.94
287.675	88.94
287.906	90.94
288.138	101.94
288.369	94.94
288.6	89.94
288.831	89.94
289.062	88.94
289.293	87.94
289.524	88.94
289.755	90.94
289.986	80.94
290.217	96.94
290.448	91.94
290.679	108.94
290.91	89.94
291.141	87.94
291.371	83.94
291.602	87.94
291.833	85.94
292.064	92.94
292.295	87.94
292.526	88.94
292.757	89.94
292.987	86.94
293.218	85.94
293.449	81.94
293.68	88.94
293.91	87.94
294.141	89.94
294.372	83.94
294.603	82.94
294.833	91.94
295.064	82.94
295.295	97.94
295.525	78.94
295.756	119.94
295.987	127.94
296.217	148.94
296.448	133.94
296.679	97.94
296.909	93.94
297.14	83.94
297.37	74.94
297.601	90.94
297.831	93.94
298.062	97.94
298.292	88.94
298.523	77.94
298.753	101.94
298.984	84.94
299.214	73.94
299.445	92.94
299.675	92.94
299.905	98.94
300.136	88.94
300.366	86.94
300.597	95.94
300.827	96.94
301.057	95.94
301.288	105.94
301.518	102.94
301.748	81.94
301.979	101.94
302.209	89.94
302.439	88.94
302.669	95.94
302.9	104.94
303.13	96.94
303.36	83.94
303.59	96.94
303.82	115.94
304.051	99.94
304.281	94.94
304.511	76.94
304.741	93.94
304.971	89.94
305.201	92.94
305.431	97.94
305.661	92.94
305.891	97.94
306.121	96.94
306.352	106.94
306.582	103.94
306.812	84.94
307.042	83.94
307.272	111.94
307.502	103.94
307.731	88.94
307.961	88.94
308.191	101.94
308.421	83.94
308.651	76.94
308.881	96.94
309.111	82.94
309.341	97.94
309.571	100.94
309.8	104.94
310.03	93.94
310.26	104.94
310.49	84.94
310.72	100.94
310.949	101.94
311.179	114.94
311.409	91.94
311.639	96.94
311.868	100.94
312.098	96.94
312.328	99.94
312.557	99.94
312.787	109.94
313.017	91.94
313.246	82.94
313.476	98.94
313.706	109.94
313.935	105.94
314.165	103.94
314.394	104.94
314.624	89.94
314.853	93.94
315.083	90.94
315.312	79.94
315.542	79.94
315.771	89.94
316.001	80.94
316.23	87.94
316.46	91.94
316.689	83.94
316.919	93.94
317.148	101.94
317.377	96.94
317.607	95.94
317.836	91.94
318.065	88.94
318.295	79.94
318.524	98.94
318.753	97.94
318.983	95.94
319.212	99.94
319.441	98.94
319.67	91.94
319.9	96.94
320.129	101.94
320.358	88.94
320.587	92.94
320.816	91.94
321.046	97.94
321.275	98.94
321.504	90.94
321.733	87.94
321.962	92.94
322.191	109.94
322.42	104.94
322.649	112.94
322.878	111.94
323.108	118.94
323.337	117.94
323.566	120.94
323.795	160.94
324.024	237.94
324.253	419.94
324.482	857.94
324.71	1682.94
324.939	2197.94
325.168	823.94
325.397	245.94
325.626	142.94
325.855	124.94
326.084	121.94
326.313	136.94
326.542	165.94
326.77	233.94
326.999	452.94
327.228	911.94
327.457	1613.94
327.686	1303.94
327.914	375.94
328.143	211.94
328.372	171.94
328.6	137.94
328.829	122.94
329.058	117.94
329.287	130.94
329.515	117.94
329.744	119.94
329.972	123.94
330.201	139.94
330.43	168.94
330.658	160.94
330.887	144.94
331.115	139.94
331.344	101.94
331.572	107.94
331.801	112.94
332.03	118.94
332.258	106.94
332.486	95.94
332.715	112.94
332.943	87.94
333.172	93.94
333.4	115.94
333.629	106.94
333.857	127.94
334.085	119.94
334.314	143.94
334.542	188.94
334.771	186.94
334.999	112.94
335.227	101.94
335.455	108.94
335.684	96.94
335.912	88.94
336.14	98.94
336.369	94.94
336.597	107.94
336.825	104.94
337.053	95.94
337.281	85.94
337.51	93.94
337.738	99.94
337.966	109.94
338.194	93.94
338.422	90.94
338.65	104.94
338.878	104.94
339.106	92.94
339.334	87.94
339.562	81.94
339.79	94.94
340.018	84.94
340.246	114.94
340.474	93.94
340.702	87.94
340.93	94.94
341.158	93.94
341.386	98.94
341.614	106.94
341.842	92.94
342.07	96.94
342.298	108.94
342.526	83.94
342.754	87.94
342.981	89.94
343.209	96.94
343.437	88.94
343.665	95.94
343.893	91.94
344.12	88.94
344.348	87.94
344.576	95.94
344.804	88.94
345.031	96.94
345.259	93.94
345.487	93.94
345.714	87.94
345.942	88.94
346.17	100.94
346.397	87.94
346.625	92.94
346.853	97.94
347.08	88.94
347.308	95.94
347.535	96.94
347.763	93.94
347.99	95.94
348.218	92.94
348.445	103.94
348.673	92.94
348.9	100.94
349.128	107.94
349.355	88.94
349.583	89.94
349.81	95.94
350.037	85.94
350.265	97.94
350.492	85.94
350.72	98.94
350.947	98.94
351.174	103.94
351.402	122.94
351.629	99.94
351.856	101.94
352.083	104.94
352.311	116.94
352.538	117.94
352.765	106.94
352.992	116.94
353.22	105.94
353.447	89.94
353.674	102.94
353.901	91.94
354.128	96.94
354.355	92.94
354.583	102.94
354.81	91.94
355.037	95.94
355.264	101.94
355.491	77.94
355.718	108.94
355.945	109.94
356.172	100.94
356.399	93.94
356.626	108.94
356.853	80.94
357.08	103.94
357.307	100.94
357.534	99.94
357.761	80.94
357.988	87.94
358.215	107.94
358.441	96.94
358.668	97.94
358.895	92.94
359.122	85.94
359.349	85.94
359.576	89.94
359.802	84.94
360.029	119.94
360.256	123.94
360.483	91.94
360.709	89.94
360.936	104.94
361.163	95.94
361.39	103.94
361.616	105.94
361.843	93.94
362.07	100.94
362.296	92.94
362.523	99.94
362.749	98.94
362.976	96.94
363.203	84.94
363.429	93.94
363.656	105.94
363.882	100.94
364.109	94.94
364.335	98.94
364.562	94.94
364.788	96.94
365.015	105.94
365.241	116.94
365.468	108.94
365.694	120.94
365.92	91.94
366.147	105.94
366.373	104.94
366.599	91.94
366.826	99.94
367.052	93.94
367.278	84.94
367.505	89.94
367.731	103.94
367.957	101.94
368.184	98.94
368.41	98.94
368.636	122.94
368.862	141.94
369.089	109.94
369.315	101.94
369.541	80.94
369.767	107.94
369.993	88.94
370.219	83.94
370.445	87.94
370.672	88.94
370.898	84.94
371.124	93.94
371.35	73.94
371.576	76.94
371.802	92.94
372.028	91.94
372.254	95.94
372.48	84.94
372.706	92.94
372.932	77.94
373.158	80.94
373.384	83.94
373.61	90.94
373.835	88.94
374.061	94.94
374.287	95.94
374.513	84.94
374.739	87.94
374.965	95.94
375.191	97.94
375.416	88.94
375.642	78.94
375.868	95.94
376.094	97.94
376.319	88.94
376.545	76.94
376.771	98.94
376.997	70.94
377.222	76.94
377.448	95.94
377.674	96.94
377.899	73.94
378.125	90.94
378.35	87.94
378.576	78.94
378.802	89.94
379.027	98.94
379.253	81.94
379.478	100.94
379.704	114.94
379.929	75.94
380.155	93.94
380.38	102.94
380.606	98.94
380.831	91.94
381.057	94.94
381.282	92.94
381.507	95.94
381.733	102.94
381.958	96.94
382.184	111.94
382.409	102.94
382.634	96.94
382.86	99.94
383.085	112.94
383.31	99.94
383.535	100.94
383.761	100.94
383.986	102.94
384.211	104.94
384.436	95.94
384.662	104.94
384.887	106.94
385.112	91.94
385.337	101.94
385.562	106.94
385.787	105.94
386.013	119.94
386.238	103.94
386.463	111.94
386.688	115.94
386.913	100.94
387.138	99.94
387.363	102.94
387.588	104.94
387.813	104.94
388.038	115.94
388.263	127.94
388.488	107.94
388.713	95.94
388.938	93.94
389.163	99.94
389.387	80.94
389.612	89.94
389.837	101.94
390.062	93.94
390.287	97.94
390.512	88.94
390.736	83.94
390.961	80.94
391.186	86.94
391.411	90.94
391.636	95.94
391.86	92.94
392.085	82.94
392.31	90.94
392.534	90.94
392.759	94.94
392.984	83.94
393.208	92.94
393.433	74.94
393.658	66.94
393.882	80.94
394.107	80.94
394.331	82.94
394.556	70.94
394.78	93.94
395.005	84.94
395.229	102.94
395.454	91.94
395.678	95.94
395.903	76.94
396.127	94.94
396.352	95.94
396.576	85.94
396.801	92.94
397.025	89.94
397.249	103.94
397.474	84.94
397.698	86.94
397.922	88.94
398.147	84.94
398.371	99.94
398.595	86.94
398.82	86.94
399.044	90.94
399.268	89.94
399.492	88.94
399.717	91.94
399.941	76.94
400.165	93.94
400.389	87.94
400.613	83.94
400.837	81.94
401.062	98.94
401.286	86.94
401.51	78.94
401.734	93.94
401.958	108.94
402.182	132.94
402.406	166.94
402.63	127.94
402.854	89.94
403.078	77.94
403.302	80.94
403.526	95.94
403.75	87.94
403.974	95.94
404.198	81.94
404.422	93.94
404.645	97.94
404.869	99.94
405.093	105.94
405.317	120.94
405.541	92.94
405.765	104.94
405.988	122.94
406.212	183.94
406.436	269.94
406.66	166.94
406.883	120.94
407.107	87.94
407.331	101.94
407.555	118.94
407.778	100.94
408.002	96.94
408.226	95.94
408.449	77.94
408.673	85.94
408.896	103.94
409.12	93.94
409.344	92.94
409.567	77.94
409.791	98.94
410.014	100.94
410.238	96.94
410.461	102.94
410.685	96.94
410.908	97.94
411.132	104.94
411.355	101.94
411.578	87.94
411.802	99.94
412.025	93.94
412.249	84.94
412.472	104.94
412.695	105.94
412.919	89.94
413.142	92.94
413.365	80.94
413.589	95.94
413.812	68.94
414.035	84.94
414.258	78.94
414.482	95.94
414.705	83.94
414.928	92.94
415.151	98.94
415.374	90.94
415.597	92.94
415.821	79.94
416.044	98.94
416.267	90.94
416.49	83.94
416.713	105.94
416.936	99.94
417.159	93.94
417.382	96.94
417.605	80.94
417.828	88.94
418.051	86.94
418.274	87.94
418.497	83.94
418.72	67.94
418.943	92.94
419.166	84.94
419.389	81.94
419.611	95.94
419.834	93.94
420.057	103.94
420.28	92.94
420.503	87.94
420.726	81.94
420.948	81.94
421.171	102.94
421.394	99.94
421.617	101.94
421.839	87.94
422.062	82.94
422.285	104.94
422.507	106.94
422.73	106.94
422.953	104.94
423.175	78.94
423.398	94.94
423.621	87.94
423.843	88.94
424.066	99.94
424.288	91.94
424.511	96.94
424.733	94.94
424.956	96.94
425.178	92.94
425.401	108.94
425.623	108.94
425.846	88.94
426.068	89.94
426.291	102.94
426.513	95.94
426.735	100.94
426.958	87.94
427.18	87.94
427.402	134.94
427.625	182.94
427.847	151.94
428.069	112.94
428.292	87.94
428.514	84.94
428.736	78.94
428.958	80.94
429.181	82.94
429.403	92.94
429.625	84.94
429.847	93.94
430.069	100.94
430.292	97.94
430.514	84.94
430.736	91.94
430.958	90.94
431.18	91.94
431.402	86.94
431.624	86.94
431.846	91.94
432.068	89.94
432.29	70.94
432.512	75.94
432.734	81.94
432.956	87.94
433.178	103.94
433.4	87.94
433.622	96.94
433.844	99.94
434.066	72.94
434.287	87.94
434.509	92.94
434.731	90.94
434.953	96.94
435.175	84.94
435.397	90.94
435.618	90.94
435.84	100.94
436.062	109.94
436.284	123.94
436.505	93.94
436.727	96.94
436.949	97.94
437.17	95.94
437.392	91.94
437.614	100.94
437.835	107.94
438.057	120.94
438.278	109.94
438.5	103.94
438.721	121.94
438.943	100.94
439.165	98.94
439.386	98.94
439.608	93.94
439.829	90.94
440.05	128.94
440.272	127.94
440.493	101.94
440.715	97.94
440.936	76.94
441.158	83.94
441.379	89.94
441.6	103.94
441.822	93.94
442.043	91.94
442.264	103.94
442.486	104.94
442.707	87.94
442.928	103.94
443.149	130.94
443.371	148.94
443.592	100.94
443.813	113.94
444.034	105.94
444.255	91.94
444.476	84.94
444.698	68.94
444.919	90.94
445.14	135.94
445.361	124.94
445.582	132.94
445.803	136.94
446.024	118.94
446.245	145.94
446.466	116.94
446.687	97.94
446.908	81.94
447.129	83.94
447.35	101.94
447.571	80.94
447.792	91.94
448.013	86.94
448.234	108.94
448.455	109.94
448.675	114.94
448.896	126.94
449.117	95.94
449.338	102.94
449.559	124.94
449.779	114.94
450	90.94
450.221	93.94
450.442	94.94
450.662	95.94
450.883	103.94
451.104	115.94
451.324	93.94
451.545	81.94
451.766	82.94
451.986	82.94
452.207	82.94
452.428	92.94
452.648	101.94
452.869	118.94
453.089	117.94
453.31	115.94
453.53	103.94
453.751	83.94
453.971	112.94
454.192	114.94
454.412	93.94
454.633	83.94
454.853	76.94
455.073	78.94
455.294	77.94
455.514	100.94
455.734	90.94
455.955	81.94
456.175	88.94
456.395	74.94
456.616	99.94
456.836	86.94
457.056	75.94
457.276	81.94
457.497	73.94
457.717	100.94
457.937	85.94
458.157	90.94
458.377	90.94
458.598	113.94
458.818	163.94
459.038	174.94
459.258	135.94
459.478	96.94
459.698	95.94
459.918	77.94
460.138	81.94
460.358	90.94
460.578	85.94
460.798	87.94
461.018	83.94
461.238	81.94
461.458	92.94
461.678	77.94
461.898	83.94
462.118	95.94
462.338	92.94
462.558	103.94
462.777	80.94
462.997	75.94
463.217	86.94
463.437	80.94
463.657	87.94
463.876	84.94
464.096	77.94
464.316	91.94
464.536	104.94
464.755	92.94
464.975	98.94
465.195	170.94
465.414	164.94
465.634	90.94
465.854	95.94
466.073	87.94
466.293	99.94
466.512	85.94
466.732	91.94
466.951	81.94
467.171	91.94
467.391	99.94
467.61	92.94
467.829	100.94
468.049	103.94
468.268	113.94
468.488	89.94
468.707	70.94
468.927	83.94
469.146	92.94
469.365	96.94
469.585	92.94
469.804	88.94
470.023	108.94
470.243	101.94
470.462	100.94
470.681	101.94
470.901	95.94
471.12	87.94
471.339	99.94
471.558	83.94
471.777	84.94
471.997	107.94
472.216	139.94
472.435	221.94
472.654	124.94
472.873	92.94
473.092	80.94
473.311	82.94
473.53	73.94
473.749	95.94
473.968	101.94
474.187	103.94
474.406	96.94
474.625	98.94
474.844	92.94
475.063	84.94
475.282	96.94
475.501	93.94
475.72	87.94
475.939	77.94
476.158	94.94
476.377	88.94
476.596	95.94
476.814	91.94
477.033	84.94
477.252	92.94
477.471	85.94
477.69	84.94
477.908	93.94
478.127	90.94
478.346	75.94
478.564	92.94
478.783	102.94
479.002	106.94
479.22	102.94
479.439	101.94
479.658	107.94
479.876	84.94
480.095	69.94
480.313	91.94
480.532	81.94
480.751	111.94
480.969	145.94
481.188	351.94
481.406	227.94
481.624	96.94
481.843	82.94
482.061	81.94
482.28	77.94
482.498	101.94
482.717	87.94
482.935	81.94
483.153	98.94
483.372	98.94
483.59	92.94
483.808	82.94
484.027	98.94
484.245	103.94
484.463	84.94
484.681	91.94
484.9	89.94
485.118	93.94
485.336	83.94
485.554	100.94
485.772	98.94
485.99	106.94
486.209	106.94
486.427	117.94
486.645	111.94
486.863	106.94
487.081	108.94
487.299	92.94
487.517	81.94
487.735	91.94
487.953	92.94
488.171	87.94
488.389	97.94
488.607	107.94
488.825	111.94
489.043	95.94
489.261	96.94
489.479	93.94
489.696	90.94
489.914	85.94
490.132	91.94
490.35	96.94
490.568	88.94
490.786	80.94
491.003	85.94
491.221	91.94
491.439	88.94
491.657	94.94
491.874	88.94
492.092	83.94
492.31	92.94
492.527	91.94
492.745	81.94
492.963	99.94
493.18	88.94
493.398	89.94
493.615	81.94
493.833	97.94
494.05	88.94
494.268	90.94
494.485	85.94
494.703	98.94
494.92	95.94
495.138	79.94
495.355	76.94
495.573	97.94
495.79	94.94
496.008	85.94
496.225	87.94
496.442	87.94
496.66	81.94
496.877	84.94
497.094	87.94
497.312	83.94
497.529	87.94
497.746	95.94
497.963	81.94
498.181	89.94
498.398	93.94
498.615	100.94
498.832	110.94
499.049	79.94
499.267	84.94
499.484	90.94
499.701	90.94
499.918	93.94
500.135	79.94
500.352	95.94
500.569	80.94
500.786	84.94
501.003	97.94
501.22	97.94
501.437	113.94
501.654	103.94
501.871	103.94
502.088	97.94
502.305	95.94
502.522	87.94
502.739	88.94
502.956	76.94
503.172	88.94
503.389	88.94
503.606	103.94
503.823	108.94
504.04	80.94
504.256	100.94
504.473	95.94
504.69	98.94
504.907	99.94
505.123	92.94
505.34	74.94
505.557	91.94
505.773	78.94
505.99	71.94
506.207	100.94
506.423	73.94
506.64	83.94
506.856	82.94
507.073	87.94
507.289	96.94
507.506	92.94
507.722	109.94
507.939	111.94
508.155	90.94
508.372	80.94
508.588	93.94
508.805	100.94
509.021	107.94
509.238	89.94
509.454	99.94
509.67	106.94
509.887	111.94
510.103	144.94
510.319	223.94
510.536	877.94
510.752	2888.94
510.968	838.94
511.184	166.94
511.401	102.94
511.617	95.94
511.833	106.94
512.049	87.94
512.265	99.94
512.481	92.94
512.698	80.94
512.914	88.94
513.13	92.94
513.346	81.94
513.562	85.94
513.778	92.94
513.994	88.94
514.21	116.94
514.426	128.94
514.642	155.94
514.858	135.94
515.074	174.94
515.29	511.94
