Data from Circ_2018_H10_HRD10591_00044.txt Node
Date: Wed Jan 03 09:56:10 EST 2024
User: Yrep
Spectrometer: HR+D1059
Trigger mode: 1
Integration Time (sec): 1.000000E-1
Scans to average: 1
Electric dark correction enabled: true
Nonlinearity correction enabled: false
Boxcar width: 0
XAxis mode: Wavelengths
Number of Pixels in Spectrum: 2048
>>>>>Begin Spectral Data<<<<<
223.165	-21.62
223.4	-21.62
223.635	-21.62
223.869	-6.62
224.104	-21.62
224.338	-11.62
224.573	-11.62
224.808	-14.62
225.042	-4.62
225.277	1.38
225.511	-1.62
225.746	-9.62
225.98	-2.62
226.215	14.38
226.449	11.38
226.683	18.38
226.918	26.38
227.152	34.38
227.387	32.38
227.621	34.38
227.856	36.38
228.09	59.38
228.324	51.38
228.559	48.38
228.793	59.38
229.027	70.38
229.262	60.38
229.496	67.38
229.73	76.38
229.964	81.38
230.199	75.38
230.433	71.38
230.667	90.38
230.901	71.38
231.136	65.38
231.37	69.38
231.604	85.38
231.838	79.38
232.072	64.38
232.306	79.38
232.541	75.38
232.775	80.38
233.009	75.38
233.243	82.38
233.477	86.38
233.711	78.38
233.945	96.38
234.179	107.38
234.413	76.38
234.647	67.38
234.881	69.38
235.115	94.38
235.349	74.38
235.583	70.38
235.817	73.38
236.051	56.38
236.285	80.38
236.519	67.38
236.753	76.38
236.987	68.38
237.221	85.38
237.455	90.38
237.689	75.38
237.922	77.38
238.156	82.38
238.39	76.38
238.624	65.38
238.858	78.38
239.091	82.38
239.325	75.38
239.559	71.38
239.793	71.38
240.027	83.38
240.26	83.38
240.494	77.38
240.728	64.38
240.961	73.38
241.195	81.38
241.429	76.38
241.662	70.38
241.896	66.38
242.13	86.38
242.363	74.38
242.597	71.38
242.83	84.38
243.064	74.38
243.298	78.38
243.531	86.38
243.765	81.38
243.998	84.38
244.232	82.38
244.465	83.38
244.699	51.38
244.932	66.38
245.166	71.38
245.399	66.38
245.633	86.38
245.866	66.38
246.099	63.38
246.333	72.38
246.566	82.38
246.8	72.38
247.033	83.38
247.266	79.38
247.5	75.38
247.733	85.38
247.966	79.38
248.2	76.38
248.433	77.38
248.666	75.38
248.899	80.38
249.133	82.38
249.366	95.38
249.599	91.38
249.832	75.38
250.066	75.38
250.299	82.38
250.532	64.38
250.765	81.38
250.998	77.38
251.231	75.38
251.465	74.38
251.698	84.38
251.931	80.38
252.164	81.38
252.397	86.38
252.63	96.38
252.863	77.38
253.096	76.38
253.329	78.38
253.562	85.38
253.795	79.38
254.028	79.38
254.261	67.38
254.494	71.38
254.727	72.38
254.96	86.38
255.193	76.38
255.426	66.38
255.659	80.38
255.892	80.38
256.124	62.38
256.357	80.38
256.59	75.38
256.823	72.38
257.056	70.38
257.289	75.38
257.521	73.38
257.754	73.38
257.987	85.38
258.22	77.38
258.452	71.38
258.685	84.38
258.918	85.38
259.151	84.38
259.383	79.38
259.616	79.38
259.849	79.38
260.081	73.38
260.314	67.38
260.547	69.38
260.779	79.38
261.012	81.38
261.244	73.38
261.477	86.38
261.71	90.38
261.942	94.38
262.175	125.38
262.407	88.38
262.64	94.38
262.872	83.38
263.105	89.38
263.337	80.38
263.57	77.38
263.802	84.38
264.035	82.38
264.267	70.38
264.499	82.38
264.732	89.38
264.964	85.38
265.197	75.38
265.429	72.38
265.661	73.38
265.894	83.38
266.126	74.38
266.358	73.38
266.591	82.38
266.823	86.38
267.055	82.38
267.287	85.38
267.52	87.38
267.752	76.38
267.984	78.38
268.216	73.38
268.448	97.38
268.681	82.38
268.913	78.38
269.145	86.38
269.377	80.38
269.609	93.38
269.841	71.38
270.073	83.38
270.306	77.38
270.538	71.38
270.77	90.38
271.002	79.38
271.234	90.38
271.466	83.38
271.698	91.38
271.93	96.38
272.162	73.38
272.394	72.38
272.626	86.38
272.858	79.38
273.09	79.38
273.322	81.38
273.553	95.38
273.785	80.38
274.017	73.38
274.249	91.38
274.481	76.38
274.713	70.38
274.945	67.38
275.176	91.38
275.408	97.38
275.64	79.38
275.872	83.38
276.104	65.38
276.335	74.38
276.567	112.38
276.799	108.38
277.031	95.38
277.262	101.38
277.494	79.38
277.726	94.38
277.957	91.38
278.189	88.38
278.421	83.38
278.652	83.38
278.884	76.38
279.115	78.38
279.347	85.38
279.579	80.38
279.81	82.38
280.042	86.38
280.273	87.38
280.505	76.38
280.736	86.38
280.968	91.38
281.199	93.38
281.431	75.38
281.662	104.38
281.894	85.38
282.125	92.38
282.356	123.38
282.588	141.38
282.819	118.38
283.051	80.38
283.282	91.38
283.513	79.38
283.745	75.38
283.976	90.38
284.207	81.38
284.439	89.38
284.67	82.38
284.901	72.38
285.132	75.38
285.364	94.38
285.595	72.38
285.826	74.38
286.057	80.38
286.288	84.38
286.52	82.38
286.751	84.38
286.982	90.38
287.213	88.38
287.444	82.38
287.675	83.38
287.906	78.38
288.138	87.38
288.369	73.38
288.6	87.38
288.831	90.38
289.062	81.38
289.293	88.38
289.524	91.38
289.755	82.38
289.986	79.38
290.217	72.38
290.448	76.38
290.679	86.38
290.91	82.38
291.141	90.38
291.371	81.38
291.602	79.38
291.833	69.38
292.064	82.38
292.295	71.38
292.526	83.38
292.757	85.38
292.987	79.38
293.218	83.38
293.449	98.38
293.68	90.38
293.91	75.38
294.141	73.38
294.372	80.38
294.603	91.38
294.833	75.38
295.064	90.38
295.295	86.38
295.525	91.38
295.756	95.38
295.987	102.38
296.217	132.38
296.448	138.38
296.679	86.38
296.909	94.38
297.14	88.38
297.37	88.38
297.601	89.38
297.831	84.38
298.062	87.38
298.292	97.38
298.523	62.38
298.753	86.38
298.984	96.38
299.214	82.38
299.445	83.38
299.675	100.38
299.905	83.38
300.136	86.38
300.366	80.38
300.597	79.38
300.827	77.38
301.057	98.38
301.288	93.38
301.518	100.38
301.748	88.38
301.979	84.38
302.209	86.38
302.439	91.38
302.669	76.38
302.9	76.38
303.13	87.38
303.36	90.38
303.59	92.38
303.82	102.38
304.051	88.38
304.281	97.38
304.511	86.38
304.741	88.38
304.971	76.38
305.201	94.38
305.431	101.38
305.661	94.38
305.891	90.38
306.121	92.38
306.352	101.38
306.582	104.38
306.812	91.38
307.042	91.38
307.272	92.38
307.502	106.38
307.731	101.38
307.961	98.38
308.191	95.38
308.421	78.38
308.651	82.38
308.881	90.38
309.111	96.38
309.341	86.38
309.571	102.38
309.8	93.38
310.03	94.38
310.26	83.38
310.49	92.38
310.72	98.38
310.949	114.38
311.179	104.38
311.409	92.38
311.639	94.38
311.868	100.38
312.098	81.38
312.328	82.38
312.557	90.38
312.787	111.38
313.017	91.38
313.246	92.38
313.476	88.38
313.706	101.38
313.935	103.38
314.165	98.38
314.394	107.38
314.624	88.38
314.853	94.38
315.083	102.38
315.312	87.38
315.542	97.38
315.771	89.38
316.001	84.38
316.23	99.38
316.46	83.38
316.689	77.38
316.919	83.38
317.148	98.38
317.377	86.38
317.607	91.38
317.836	102.38
318.065	78.38
318.295	106.38
318.524	91.38
318.753	92.38
318.983	91.38
319.212	90.38
319.441	109.38
319.67	103.38
319.9	89.38
320.129	85.38
320.358	90.38
320.587	89.38
320.816	102.38
321.046	96.38
321.275	89.38
321.504	97.38
321.733	102.38
321.962	85.38
322.191	95.38
322.42	96.38
322.649	110.38
322.878	112.38
323.108	105.38
323.337	125.38
323.566	135.38
323.795	159.38
324.024	233.38
324.253	407.38
324.482	827.38
324.71	1750.38
324.939	2244.38
325.168	834.38
325.397	254.38
325.626	140.38
325.855	106.38
326.084	125.38
326.313	130.38
326.542	153.38
326.77	231.38
326.999	461.38
327.228	927.38
327.457	1682.38
327.686	1326.38
327.914	408.38
328.143	203.38
328.372	172.38
328.6	128.38
328.829	132.38
329.058	142.38
329.287	130.38
329.515	111.38
329.744	110.38
329.972	95.38
330.201	114.38
330.43	136.38
330.658	139.38
330.887	157.38
331.115	138.38
331.344	96.38
331.572	99.38
331.801	107.38
332.03	89.38
332.258	104.38
332.486	82.38
332.715	91.38
332.943	94.38
333.172	99.38
333.4	92.38
333.629	113.38
333.857	111.38
334.085	102.38
334.314	110.38
334.542	146.38
334.771	138.38
334.999	113.38
335.227	112.38
335.455	86.38
335.684	96.38
335.912	95.38
336.14	91.38
336.369	98.38
336.597	96.38
336.825	98.38
337.053	88.38
337.281	98.38
337.51	88.38
337.738	81.38
337.966	90.38
338.194	84.38
338.422	84.38
338.65	91.38
338.878	100.38
339.106	91.38
339.334	98.38
339.562	84.38
339.79	95.38
340.018	95.38
340.246	87.38
340.474	80.38
340.702	95.38
340.93	97.38
341.158	91.38
341.386	87.38
341.614	92.38
341.842	95.38
342.07	96.38
342.298	82.38
342.526	91.38
342.754	83.38
342.981	84.38
343.209	88.38
343.437	101.38
343.665	99.38
343.893	97.38
344.12	90.38
344.348	96.38
344.576	92.38
344.804	96.38
345.031	99.38
345.259	93.38
345.487	80.38
345.714	93.38
345.942	87.38
346.17	96.38
346.397	84.38
346.625	90.38
346.853	96.38
347.08	83.38
347.308	91.38
347.535	96.38
347.763	119.38
347.99	98.38
348.218	113.38
348.445	104.38
348.673	104.38
348.9	99.38
349.128	81.38
349.355	77.38
349.583	89.38
349.81	92.38
350.037	93.38
350.265	82.38
350.492	86.38
350.72	88.38
350.947	82.38
351.174	99.38
351.402	107.38
351.629	115.38
351.856	99.38
352.083	110.38
352.311	99.38
352.538	105.38
352.765	118.38
352.992	112.38
353.22	128.38
353.447	115.38
353.674	97.38
353.901	94.38
354.128	92.38
354.355	95.38
354.583	95.38
354.81	91.38
355.037	90.38
355.264	85.38
355.491	83.38
355.718	85.38
355.945	103.38
356.172	102.38
356.399	97.38
356.626	92.38
356.853	81.38
357.08	87.38
357.307	90.38
357.534	89.38
357.761	102.38
357.988	95.38
358.215	90.38
358.441	85.38
358.668	76.38
358.895	105.38
359.122	99.38
359.349	91.38
359.576	95.38
359.802	121.38
360.029	123.38
360.256	116.38
360.483	111.38
360.709	104.38
360.936	102.38
361.163	102.38
361.39	91.38
361.616	94.38
361.843	94.38
362.07	99.38
362.296	85.38
362.523	87.38
362.749	78.38
362.976	88.38
363.203	95.38
363.429	75.38
363.656	87.38
363.882	80.38
364.109	95.38
364.335	106.38
364.562	100.38
364.788	108.38
365.015	89.38
365.241	98.38
365.468	94.38
365.694	111.38
365.92	98.38
366.147	91.38
366.373	73.38
366.599	88.38
366.826	96.38
367.052	81.38
367.278	87.38
367.505	90.38
367.731	103.38
367.957	87.38
368.184	89.38
368.41	122.38
368.636	94.38
368.862	109.38
369.089	100.38
369.315	81.38
369.541	105.38
369.767	81.38
369.993	97.38
370.219	100.38
370.445	75.38
370.672	70.38
370.898	87.38
371.124	95.38
371.35	82.38
371.576	92.38
371.802	83.38
372.028	74.38
372.254	63.38
372.48	86.38
372.706	81.38
372.932	100.38
373.158	73.38
373.384	94.38
373.61	94.38
373.835	97.38
374.061	92.38
374.287	83.38
374.513	86.38
374.739	83.38
374.965	86.38
375.191	87.38
375.416	90.38
375.642	85.38
375.868	90.38
376.094	81.38
376.319	77.38
376.545	90.38
376.771	89.38
376.997	91.38
377.222	91.38
377.448	87.38
377.674	86.38
377.899	111.38
378.125	90.38
378.35	87.38
378.576	99.38
378.802	93.38
379.027	81.38
379.253	95.38
379.478	94.38
379.704	86.38
379.929	99.38
380.155	86.38
380.38	87.38
380.606	87.38
380.831	101.38
381.057	96.38
381.282	84.38
381.507	79.38
381.733	81.38
381.958	75.38
382.184	103.38
382.409	107.38
382.634	112.38
382.86	103.38
383.085	99.38
383.31	97.38
383.535	92.38
383.761	101.38
383.986	94.38
384.211	95.38
384.436	83.38
384.662	99.38
384.887	105.38
385.112	95.38
385.337	103.38
385.562	108.38
385.787	107.38
386.013	107.38
386.238	102.38
386.463	99.38
386.688	115.38
386.913	107.38
387.138	103.38
387.363	103.38
387.588	107.38
387.813	108.38
388.038	108.38
388.263	97.38
388.488	124.38
388.713	90.38
388.938	90.38
389.163	97.38
389.387	94.38
389.612	79.38
389.837	95.38
390.062	74.38
390.287	97.38
390.512	76.38
390.736	98.38
390.961	82.38
391.186	103.38
391.411	106.38
391.636	88.38
391.86	84.38
392.085	88.38
392.31	94.38
392.534	83.38
392.759	90.38
392.984	90.38
393.208	87.38
393.433	104.38
393.658	86.38
393.882	95.38
394.107	92.38
394.331	81.38
394.556	91.38
394.78	88.38
395.005	84.38
395.229	92.38
395.454	92.38
395.678	88.38
395.903	87.38
396.127	82.38
396.352	94.38
396.576	95.38
396.801	91.38
397.025	107.38
397.249	73.38
397.474	86.38
397.698	93.38
397.922	82.38
398.147	99.38
398.371	102.38
398.595	93.38
398.82	83.38
399.044	102.38
399.268	89.38
399.492	94.38
399.717	83.38
399.941	91.38
400.165	110.38
400.389	94.38
400.613	76.38
400.837	89.38
401.062	80.38
401.286	89.38
401.51	91.38
401.734	89.38
401.958	107.38
402.182	151.38
402.406	178.38
402.63	133.38
402.854	94.38
403.078	101.38
403.302	100.38
403.526	81.38
403.75	99.38
403.974	86.38
404.198	92.38
404.422	88.38
404.645	93.38
404.869	98.38
405.093	96.38
405.317	95.38
405.541	103.38
405.765	102.38
405.988	121.38
406.212	166.38
406.436	258.38
406.66	167.38
406.883	105.38
407.107	101.38
407.331	111.38
407.555	112.38
407.778	103.38
408.002	97.38
408.226	95.38
408.449	88.38
408.673	84.38
408.896	94.38
409.12	91.38
409.344	75.38
409.567	80.38
409.791	84.38
410.014	79.38
410.238	98.38
410.461	85.38
410.685	89.38
410.908	90.38
411.132	107.38
411.355	89.38
411.578	80.38
411.802	86.38
412.025	92.38
412.249	103.38
412.472	87.38
412.695	81.38
412.919	96.38
413.142	90.38
413.365	81.38
413.589	83.38
413.812	90.38
414.035	96.38
414.258	93.38
414.482	87.38
414.705	91.38
414.928	77.38
415.151	92.38
415.374	94.38
415.597	98.38
415.821	90.38
416.044	94.38
416.267	86.38
416.49	87.38
416.713	79.38
416.936	89.38
417.159	90.38
417.382	67.38
417.605	85.38
417.828	87.38
418.051	94.38
418.274	87.38
418.497	76.38
418.72	73.38
418.943	74.38
419.166	89.38
419.389	94.38
419.611	90.38
419.834	84.38
420.057	83.38
420.28	66.38
420.503	78.38
420.726	87.38
420.948	83.38
421.171	97.38
421.394	91.38
421.617	100.38
421.839	85.38
422.062	94.38
422.285	96.38
422.507	112.38
422.73	122.38
422.953	90.38
423.175	95.38
423.398	100.38
423.621	103.38
423.843	88.38
424.066	87.38
424.288	99.38
424.511	78.38
424.733	77.38
424.956	103.38
425.178	103.38
425.401	102.38
425.623	102.38
425.846	114.38
426.068	97.38
426.291	91.38
426.513	71.38
426.735	82.38
426.958	94.38
427.18	105.38
427.402	122.38
427.625	174.38
427.847	132.38
428.069	102.38
428.292	101.38
428.514	83.38
428.736	88.38
428.958	97.38
429.181	84.38
429.403	87.38
429.625	84.38
429.847	89.38
430.069	92.38
430.292	95.38
430.514	98.38
430.736	90.38
430.958	91.38
431.18	96.38
431.402	83.38
431.624	79.38
431.846	84.38
432.068	82.38
432.29	88.38
432.512	81.38
432.734	88.38
432.956	88.38
433.178	86.38
433.4	91.38
433.622	93.38
433.844	86.38
434.066	87.38
434.287	105.38
434.509	87.38
434.731	88.38
434.953	91.38
435.175	79.38
435.397	73.38
435.618	82.38
435.84	101.38
436.062	134.38
436.284	106.38
436.505	101.38
436.727	98.38
436.949	88.38
437.17	85.38
437.392	91.38
437.614	96.38
437.835	113.38
438.057	130.38
438.278	104.38
438.5	117.38
438.721	113.38
438.943	90.38
439.165	101.38
439.386	77.38
439.608	78.38
439.829	103.38
440.05	114.38
440.272	149.38
440.493	94.38
440.715	92.38
440.936	96.38
441.158	104.38
441.379	88.38
441.6	103.38
441.822	88.38
442.043	112.38
442.264	102.38
442.486	93.38
442.707	84.38
442.928	101.38
443.149	139.38
443.371	137.38
443.592	115.38
443.813	106.38
444.034	106.38
444.255	89.38
444.476	90.38
444.698	99.38
444.919	85.38
445.14	102.38
445.361	131.38
445.582	113.38
445.803	145.38
446.024	144.38
446.245	130.38
446.466	104.38
446.687	102.38
446.908	91.38
447.129	82.38
447.35	78.38
447.571	89.38
447.792	81.38
448.013	97.38
448.234	97.38
448.455	114.38
448.675	100.38
448.896	123.38
449.117	85.38
449.338	100.38
449.559	124.38
449.779	135.38
450	94.38
450.221	78.38
450.442	78.38
450.662	91.38
450.883	108.38
451.104	111.38
451.324	82.38
451.545	87.38
451.766	83.38
451.986	83.38
452.207	89.38
452.428	96.38
452.648	94.38
452.869	109.38
453.089	125.38
453.31	124.38
453.53	95.38
453.751	92.38
453.971	93.38
454.192	108.38
454.412	91.38
454.633	88.38
454.853	87.38
455.073	72.38
455.294	82.38
455.514	93.38
455.734	94.38
455.955	95.38
456.175	75.38
456.395	100.38
456.616	84.38
456.836	72.38
457.056	81.38
457.276	71.38
457.497	85.38
457.717	90.38
457.937	95.38
458.157	96.38
458.377	94.38
458.598	105.38
458.818	164.38
459.038	158.38
459.258	120.38
459.478	98.38
459.698	77.38
459.918	78.38
460.138	72.38
460.358	82.38
460.578	76.38
460.798	84.38
461.018	98.38
461.238	86.38
461.458	93.38
461.678	82.38
461.898	90.38
462.118	87.38
462.338	86.38
462.558	88.38
462.777	94.38
462.997	94.38
463.217	96.38
463.437	83.38
463.657	92.38
463.876	90.38
464.096	89.38
464.316	106.38
464.536	91.38
464.755	84.38
464.975	105.38
465.195	178.38
465.414	164.38
465.634	95.38
465.854	94.38
466.073	79.38
466.293	91.38
466.512	84.38
466.732	90.38
466.951	72.38
467.171	91.38
467.391	96.38
467.61	94.38
467.829	83.38
468.049	85.38
468.268	97.38
468.488	91.38
468.707	79.38
468.927	78.38
469.146	86.38
469.365	75.38
469.585	85.38
469.804	93.38
470.023	113.38
470.243	91.38
470.462	96.38
470.681	116.38
470.901	83.38
471.12	80.38
471.339	66.38
471.558	87.38
471.777	93.38
471.997	94.38
472.216	112.38
472.435	151.38
472.654	105.38
472.873	90.38
473.092	87.38
473.311	75.38
473.53	85.38
473.749	85.38
473.968	95.38
474.187	107.38
474.406	95.38
474.625	79.38
474.844	78.38
475.063	83.38
475.282	78.38
475.501	83.38
475.72	93.38
475.939	89.38
476.158	96.38
476.377	84.38
476.596	97.38
476.814	89.38
477.033	86.38
477.252	73.38
477.471	88.38
477.69	91.38
477.908	77.38
478.127	97.38
478.346	83.38
478.564	96.38
478.783	94.38
479.002	86.38
479.22	90.38
479.439	91.38
479.658	98.38
479.876	98.38
480.095	94.38
480.313	86.38
480.532	99.38
480.751	87.38
480.969	126.38
481.188	210.38
481.406	160.38
481.624	92.38
481.843	87.38
482.061	83.38
482.28	90.38
482.498	100.38
482.717	85.38
482.935	76.38
483.153	77.38
483.372	88.38
483.59	87.38
483.808	81.38
484.027	100.38
484.245	94.38
484.463	87.38
484.681	95.38
484.9	81.38
485.118	90.38
485.336	89.38
485.554	96.38
485.772	92.38
485.99	93.38
486.209	89.38
486.427	98.38
486.645	113.38
486.863	99.38
487.081	92.38
487.299	99.38
487.517	89.38
487.735	94.38
487.953	82.38
488.171	96.38
488.389	104.38
488.607	103.38
488.825	105.38
489.043	85.38
489.261	83.38
489.479	95.38
489.696	75.38
489.914	84.38
490.132	84.38
490.35	81.38
490.568	82.38
490.786	90.38
491.003	94.38
491.221	80.38
491.439	83.38
491.657	84.38
491.874	70.38
492.092	88.38
492.31	92.38
492.527	86.38
492.745	72.38
492.963	86.38
493.18	81.38
493.398	96.38
493.615	73.38
493.833	86.38
494.05	94.38
494.268	86.38
494.485	90.38
494.703	88.38
494.92	89.38
495.138	99.38
495.355	99.38
495.573	96.38
495.79	89.38
496.008	85.38
496.225	91.38
496.442	94.38
496.66	88.38
496.877	94.38
497.094	85.38
497.312	83.38
497.529	86.38
497.746	85.38
497.963	82.38
498.181	82.38
498.398	87.38
498.615	105.38
498.832	94.38
499.049	87.38
499.267	91.38
499.484	86.38
499.701	82.38
499.918	93.38
500.135	92.38
500.352	90.38
500.569	78.38
500.786	92.38
501.003	91.38
501.22	80.38
501.437	106.38
501.654	100.38
501.871	101.38
502.088	90.38
502.305	92.38
502.522	95.38
502.739	94.38
502.956	91.38
503.172	96.38
503.389	104.38
503.606	103.38
503.823	91.38
504.04	102.38
504.256	76.38
504.473	96.38
504.69	92.38
504.907	99.38
505.123	87.38
505.34	86.38
505.557	88.38
505.773	88.38
505.99	90.38
506.207	86.38
506.423	73.38
506.64	82.38
506.856	88.38
507.073	88.38
507.289	88.38
507.506	103.38
507.722	116.38
507.939	134.38
508.155	100.38
508.372	97.38
508.588	104.38
508.805	87.38
509.021	93.38
509.238	90.38
509.454	98.38
509.67	103.38
509.887	114.38
510.103	134.38
510.319	229.38
510.536	857.38
510.752	2926.38
510.968	829.38
511.184	162.38
511.401	110.38
511.617	99.38
511.833	88.38
512.049	87.38
512.265	83.38
512.481	80.38
512.698	87.38
512.914	88.38
513.13	91.38
513.346	103.38
513.562	104.38
513.778	102.38
513.994	87.38
514.21	105.38
514.426	124.38
514.642	135.38
514.858	121.38
515.074	189.38
515.29	542.38
515.506	1867.38
515.721	674.38
515.937	183.38
516.153	113.38
