Data from Circ_2018_H10_HRD10591_00041.txt Node
Date: Wed Jan 03 09:56:10 EST 2024
User: Yrep
Spectrometer: HR+D1059
Trigger mode: 1
Integration Time (sec): 1.000000E-1
Scans to average: 1
Electric dark correction enabled: true
Nonlinearity correction enabled: false
Boxcar width: 0
XAxis mode: Wavelengths
Number of Pixels in Spectrum: 2048
>>>>>Begin Spectral Data<<<<<
223.165	-19.12
223.4	-19.12
223.635	-19.12
223.869	-14.12
224.104	-19.12
224.338	-9.12
224.573	-6.12
224.808	-11.12
225.042	-23.12
225.277	1.88
225.511	-7.12
225.746	12.88
225.98	20.88
226.215	0.88
226.449	10.88
226.683	18.88
226.918	20.88
227.152	21.88
227.387	44.88
227.621	37.88
227.856	57.88
228.09	47.88
228.324	40.88
228.559	43.88
228.793	164.88
229.027	452.88
229.262	527.88
229.496	628.88
229.73	824.88
229.964	799.88
230.199	568.88
230.433	479.88
230.667	477.88
230.901	467.88
231.136	439.88
231.37	455.88
231.604	444.88
231.838	462.88
232.072	467.88
232.306	460.88
232.541	487.88
232.775	491.88
233.009	476.88
233.243	496.88
233.477	500.88
233.711	487.88
233.945	506.88
234.179	521.88
234.413	510.88
234.647	511.88
234.881	508.88
235.115	543.88
235.349	541.88
235.583	544.88
235.817	595.88
236.051	630.88
236.285	627.88
236.519	628.88
236.753	713.88
236.987	911.88
237.221	1379.88
237.455	1486.88
237.689	897.88
237.922	741.88
238.156	717.88
238.39	676.88
238.624	662.88
238.858	652.88
239.091	660.88
239.325	668.88
239.559	699.88
239.793	724.88
240.027	782.88
240.26	908.88
240.494	985.88
240.728	942.88
240.961	871.88
241.195	806.88
241.429	808.88
241.662	789.88
241.896	803.88
242.13	777.88
242.363	773.88
242.597	791.88
242.83	824.88
243.064	836.88
243.298	830.88
243.531	842.88
243.765	832.88
243.998	847.88
244.232	847.88
244.465	884.88
244.699	918.88
244.932	937.88
245.166	904.88
245.399	915.88
245.633	911.88
245.866	918.88
246.099	945.88
246.333	978.88
246.566	948.88
246.8	983.88
247.033	1020.88
247.266	1060.88
247.5	1132.88
247.733	1176.88
247.966	1150.88
248.2	1150.88
248.433	1169.88
248.666	1218.88
248.899	1370.88
249.133	1483.88
249.366	1436.88
249.599	1364.88
249.832	1222.88
250.066	1244.88
250.299	1342.88
250.532	1539.88
250.765	1688.88
250.998	1769.88
251.231	1667.88
251.465	1509.88
251.698	1433.88
251.931	1421.88
252.164	1414.88
252.397	1416.88
252.63	1453.88
252.863	1542.88
253.096	1668.88
253.329	1683.88
253.562	1637.88
253.795	1582.88
254.028	1545.88
254.261	1646.88
254.494	1857.88
254.727	2139.88
254.96	2255.88
255.193	1979.88
255.426	1795.88
255.659	1735.88
255.892	1868.88
256.124	2037.88
256.357	1922.88
256.59	1678.88
256.823	1609.88
257.056	1592.88
257.289	1532.88
257.521	1583.88
257.754	1572.88
257.987	1571.88
258.22	1513.88
258.452	1522.88
258.685	1579.88
258.918	1593.88
259.151	1636.88
259.383	1696.88
259.616	1713.88
259.849	1802.88
260.081	1929.88
260.314	2125.88
260.547	2006.88
260.779	1860.88
261.012	1769.88
261.244	1697.88
261.477	1712.88
261.71	1765.88
261.942	1798.88
262.175	1856.88
262.407	1747.88
262.64	1704.88
262.872	1695.88
263.105	1703.88
263.337	1688.88
263.57	1697.88
263.802	1716.88
264.035	1692.88
264.267	1707.88
264.499	1714.88
264.732	1699.88
264.964	1722.88
265.197	1742.88
265.429	1726.88
265.661	1734.88
265.894	1771.88
266.126	1774.88
266.358	1771.88
266.591	1825.88
266.823	1935.88
267.055	1938.88
267.287	1912.88
267.52	1875.88
267.752	1850.88
267.984	1908.88
268.216	1931.88
268.448	1927.88
268.681	2034.88
268.913	2144.88
269.145	2366.88
269.377	2373.88
269.609	2310.88
269.841	2260.88
270.073	2392.88
270.306	2667.88
270.538	2828.88
270.77	2653.88
271.002	2510.88
271.234	2504.88
271.466	2604.88
271.698	2724.88
271.93	2830.88
272.162	2765.88
272.394	2721.88
272.626	2535.88
272.858	2356.88
273.09	2336.88
273.322	2303.88
273.553	2260.88
273.785	2273.88
274.017	2270.88
274.249	2256.88
274.481	2319.88
274.713	2337.88
274.945	2347.88
275.176	2377.88
275.408	2303.88
275.64	2325.88
275.872	2320.88
276.104	2345.88
276.335	2393.88
276.567	2446.88
276.799	2675.88
277.031	2870.88
277.262	2935.88
277.494	2841.88
277.726	2631.88
277.957	2593.88
278.189	2503.88
278.421	2445.88
278.652	2450.88
278.884	2437.88
279.115	2438.88
279.347	2405.88
279.579	2396.88
279.81	2373.88
280.042	2432.88
280.273	2475.88
280.505	2433.88
280.736	2515.88
280.968	2476.88
281.199	2491.88
281.431	2528.88
281.662	2514.88
281.894	2494.88
282.125	2621.88
282.356	2767.88
282.588	2881.88
282.819	2789.88
283.051	2581.88
283.282	2561.88
283.513	2597.88
283.745	2670.88
283.976	2665.88
284.207	2686.88
284.439	2675.88
284.67	2656.88
284.901	2682.88
285.132	2684.88
285.364	2661.88
285.595	2672.88
285.826	2709.88
286.057	2734.88
286.288	2726.88
286.52	2773.88
286.751	2729.88
286.982	2718.88
287.213	2769.88
287.444	2809.88
287.675	2863.88
287.906	2952.88
288.138	3024.88
288.369	2952.88
288.6	2940.88
288.831	2895.88
289.062	2913.88
289.293	2896.88
289.524	2841.88
289.755	2896.88
289.986	2850.88
290.217	2835.88
290.448	2876.88
290.679	2817.88
290.91	2825.88
291.141	2861.88
291.371	2848.88
291.602	2870.88
291.833	2878.88
292.064	2866.88
292.295	2824.88
292.526	2839.88
292.757	2867.88
292.987	2875.88
293.218	2835.88
293.449	2909.88
293.68	2924.88
293.91	2927.88
294.141	2897.88
294.372	2868.88
294.603	2871.88
294.833	2949.88
295.064	2915.88
295.295	2982.88
295.525	2972.88
295.756	2995.88
295.987	3127.88
296.217	3262.88
296.448	3235.88
296.679	3058.88
296.909	2991.88
297.14	2987.88
297.37	3083.88
297.601	3081.88
297.831	3069.88
298.062	3128.88
298.292	3150.88
298.523	3149.88
298.753	3182.88
298.984	3133.88
299.214	3157.88
299.445	3164.88
299.675	3187.88
299.905	3235.88
300.136	3223.88
300.366	3212.88
300.597	3239.88
300.827	3368.88
301.057	3441.88
301.288	3460.88
301.518	3373.88
301.748	3452.88
301.979	3518.88
302.209	3422.88
302.439	3477.88
302.669	3395.88
302.9	3361.88
303.13	3325.88
303.36	3464.88
303.59	3413.88
303.82	3525.88
304.051	3475.88
304.281	3402.88
304.511	3262.88
304.741	3386.88
304.971	3264.88
305.201	3364.88
305.431	3361.88
305.661	3368.88
305.891	3366.88
306.121	3347.88
306.352	3336.88
306.582	3387.88
306.812	3343.88
307.042	3339.88
307.272	3376.88
307.502	3414.88
307.731	3374.88
307.961	3354.88
308.191	3394.88
308.421	3341.88
308.651	3396.88
308.881	3361.88
309.111	3395.88
309.341	3413.88
309.571	3543.88
309.8	3573.88
310.03	3773.88
310.26	3760.88
310.49	3700.88
310.72	3825.88
310.949	3941.88
311.179	3883.88
311.409	3764.88
311.639	3722.88
311.868	3772.88
312.098	3804.88
312.328	3886.88
312.557	4093.88
312.787	4130.88
313.017	4028.88
313.246	3858.88
313.476	3877.88
313.706	3879.88
313.935	3950.88
314.165	4107.88
314.394	4041.88
314.624	4061.88
314.853	3980.88
315.083	3873.88
315.312	3780.88
315.542	3855.88
315.771	3740.88
316.001	3760.88
316.23	3758.88
316.46	3762.88
316.689	3819.88
316.919	3861.88
317.148	3899.88
317.377	3862.88
317.607	3810.88
317.836	3785.88
318.065	3721.88
318.295	3741.88
318.524	3769.88
318.753	3682.88
318.983	3775.88
319.212	3775.88
319.441	3846.88
319.67	3912.88
319.9	3788.88
320.129	3767.88
320.358	3808.88
320.587	3852.88
320.816	3903.88
321.046	3942.88
321.275	3931.88
321.504	3969.88
321.733	3964.88
321.962	4052.88
322.191	4161.88
322.42	4246.88
322.649	4348.88
322.878	4357.88
323.108	4544.88
323.337	4751.88
323.566	4910.88
323.795	5338.88
324.024	5959.88
324.253	8102.88
324.482	12217.88
324.71	15593.88
324.939	15593.88
325.168	13918.88
325.397	7116.88
325.626	5584.88
325.855	5101.88
326.084	4941.88
326.313	4991.88
326.542	5229.88
326.77	5945.88
326.999	7685.88
327.228	11343.88
327.457	15062.88
327.686	14427.88
327.914	8067.88
328.143	6402.88
328.372	6188.88
328.6	5803.88
328.829	5631.88
329.058	5807.88
329.287	5734.88
329.515	5328.88
329.744	5255.88
329.972	5408.88
330.201	5786.88
330.43	6225.88
330.658	6277.88
330.887	6464.88
331.115	5821.88
331.344	5301.88
331.572	5126.88
331.801	5342.88
332.03	5267.88
332.258	5130.88
332.486	5199.88
332.715	5269.88
332.943	5386.88
333.172	5623.88
333.4	5761.88
333.629	5878.88
333.857	6071.88
334.085	6300.88
334.314	6608.88
334.542	6959.88
334.771	6703.88
334.999	5963.88
335.227	5602.88
335.455	5434.88
335.684	5248.88
335.912	5294.88
336.14	5123.88
336.369	5080.88
336.597	5167.88
336.825	5100.88
337.053	5018.88
337.281	4904.88
337.51	4908.88
337.738	4820.88
337.966	4795.88
338.194	4900.88
338.422	4728.88
338.65	4736.88
338.878	4700.88
339.106	4629.88
339.334	4637.88
339.562	4585.88
339.79	4542.88
340.018	4574.88
340.246	4552.88
340.474	4527.88
340.702	4559.88
340.93	4542.88
341.158	4482.88
341.386	4510.88
341.614	4591.88
341.842	4522.88
342.07	4460.88
342.298	4409.88
342.526	4367.88
342.754	4379.88
342.981	4418.88
343.209	4542.88
343.437	4684.88
343.665	5020.88
343.893	5285.88
344.12	5268.88
344.348	5074.88
344.576	4881.88
344.804	4795.88
345.031	4781.88
345.259	4734.88
345.487	4541.88
345.714	4512.88
345.942	4346.88
346.17	4328.88
346.397	4333.88
346.625	4303.88
346.853	4265.88
347.08	4279.88
347.308	4339.88
347.535	4438.88
347.763	4476.88
347.99	4388.88
348.218	4432.88
348.445	4519.88
348.673	4405.88
348.9	4288.88
349.128	4219.88
349.355	4161.88
349.583	4135.88
349.81	4182.88
350.037	4130.88
350.265	4172.88
350.492	4157.88
350.72	4184.88
350.947	4195.88
351.174	4351.88
351.402	4370.88
351.629	4317.88
351.856	4290.88
352.083	4428.88
352.311	4405.88
352.538	4426.88
352.765	4398.88
352.992	4350.88
353.22	4221.88
353.447	4214.88
353.674	4152.88
353.901	4085.88
354.128	4040.88
354.355	4039.88
354.583	4072.88
354.81	4056.88
355.037	4065.88
355.264	3995.88
355.491	4022.88
355.718	4028.88
355.945	4075.88
356.172	4008.88
356.399	4075.88
356.626	4043.88
356.853	4097.88
357.08	4032.88
357.307	3988.88
357.534	4017.88
357.761	4085.88
357.988	4087.88
358.215	4088.88
358.441	4077.88
358.668	4112.88
358.895	4146.88
359.122	4207.88
359.349	4203.88
359.576	4445.88
359.802	4623.88
360.029	4834.88
360.256	4854.88
360.483	4621.88
360.709	4411.88
360.936	4292.88
361.163	4344.88
361.39	4369.88
361.616	4395.88
361.843	4285.88
362.07	4310.88
362.296	4403.88
362.523	4299.88
362.749	4346.88
362.976	4292.88
363.203	4221.88
363.429	4164.88
363.656	4148.88
363.882	4162.88
364.109	4128.88
364.335	4125.88
364.562	4165.88
364.788	4164.88
365.015	4116.88
365.241	4108.88
365.468	4162.88
365.694	4268.88
365.92	4188.88
366.147	4172.88
366.373	4181.88
366.599	4139.88
366.826	4115.88
367.052	4066.88
367.278	4144.88
367.505	4177.88
367.731	4132.88
367.957	4182.88
368.184	4204.88
368.41	4245.88
368.636	4297.88
368.862	4359.88
369.089	4276.88
369.315	4291.88
369.541	4281.88
369.767	4227.88
369.993	4261.88
370.219	4322.88
370.445	4296.88
370.672	4308.88
370.898	4339.88
371.124	4381.88
371.35	4415.88
371.576	4418.88
371.802	4338.88
372.028	4303.88
372.254	4448.88
372.48	4455.88
372.706	4506.88
372.932	4539.88
373.158	4552.88
373.384	4460.88
373.61	4448.88
373.835	4444.88
374.061	4504.88
374.287	4556.88
374.513	4547.88
374.739	4720.88
374.965	4878.88
375.191	4796.88
375.416	4732.88
375.642	4644.88
375.868	4603.88
376.094	4557.88
376.319	4447.88
376.545	4477.88
376.771	4407.88
376.997	4404.88
377.222	4416.88
377.448	4381.88
377.674	4418.88
377.899	4344.88
378.125	4345.88
378.35	4341.88
378.576	4344.88
378.802	4351.88
379.027	4376.88
379.253	4368.88
379.478	4352.88
379.704	4318.88
379.929	4410.88
380.155	4383.88
380.38	4299.88
380.606	4406.88
380.831	4407.88
381.057	4375.88
381.282	4439.88
381.507	4458.88
381.733	4427.88
381.958	4475.88
382.184	4516.88
382.409	4556.88
382.634	4615.88
382.86	4624.88
383.085	4687.88
383.31	4780.88
383.535	4889.88
383.761	4856.88
383.986	5028.88
384.211	5040.88
384.436	5105.88
384.662	5180.88
384.887	5258.88
385.112	5223.88
385.337	5305.88
385.562	5332.88
385.787	5303.88
386.013	5547.88
386.238	5498.88
386.463	5469.88
386.688	5458.88
386.913	5250.88
387.138	5259.88
387.363	5268.88
387.588	5254.88
387.813	5237.88
388.038	5228.88
388.263	5261.88
388.488	5363.88
388.713	5290.88
388.938	5237.88
389.163	5223.88
389.387	5280.88
389.612	5111.88
389.837	5124.88
390.062	5225.88
390.287	5205.88
390.512	5168.88
390.736	5201.88
390.961	5316.88
391.186	5453.88
391.411	5600.88
391.636	5728.88
391.86	5803.88
392.085	5933.88
392.31	5772.88
392.534	5657.88
392.759	5605.88
392.984	5530.88
393.208	5449.88
393.433	5499.88
393.658	5432.88
393.882	5449.88
394.107	5507.88
394.331	5544.88
394.556	5499.88
394.78	5576.88
395.005	5612.88
395.229	5717.88
395.454	5794.88
395.678	5942.88
395.903	5914.88
396.127	6006.88
396.352	5816.88
396.576	5616.88
396.801	5541.88
397.025	5603.88
397.249	5815.88
397.474	6003.88
397.698	6013.88
397.922	6103.88
398.147	6226.88
398.371	6301.88
398.595	6438.88
398.82	6705.88
399.044	7237.88
399.268	8033.88
399.492	9118.88
399.717	9710.88
399.941	9556.88
400.165	8845.88
400.389	8185.88
400.613	7499.88
400.837	7016.88
401.062	6856.88
401.286	6639.88
401.51	6647.88
401.734	6592.88
401.958	6757.88
402.182	6859.88
402.406	6976.88
402.63	7092.88
402.854	7124.88
403.078	7280.88
403.302	7351.88
403.526	7497.88
403.75	7539.88
403.974	7697.88
404.198	7627.88
404.422	7706.88
404.645	7664.88
404.869	7657.88
405.093	7971.88
405.317	8162.88
405.541	8212.88
405.765	7627.88
405.988	7469.88
406.212	7688.88
406.436	7893.88
406.66	7941.88
406.883	7938.88
407.107	8518.88
407.331	9084.88
407.555	9526.88
407.778	9239.88
408.002	8513.88
408.226	8135.88
408.449	8070.88
408.673	7881.88
408.896	7937.88
409.12	8037.88
409.344	7707.88
409.567	7373.88
409.791	7341.88
410.014	7175.88
410.238	7085.88
410.461	7176.88
410.685	7236.88
410.908	7414.88
411.132	7482.88
411.355	7486.88
411.578	7176.88
411.802	6948.88
412.025	7003.88
412.249	7220.88
412.472	7403.88
412.695	7522.88
412.919	7181.88
413.142	6818.88
413.365	6694.88
413.589	6682.88
413.812	6539.88
414.035	6427.88
414.258	6479.88
414.482	6546.88
414.705	6628.88
414.928	6603.88
415.151	6556.88
415.374	6527.88
415.597	6435.88
415.821	6357.88
416.044	6401.88
416.267	6445.88
416.49	6401.88
416.713	6303.88
416.936	6407.88
417.159	6465.88
417.382	6502.88
417.605	6565.88
417.828	6654.88
418.051	6756.88
418.274	6708.88
418.497	6523.88
418.72	6639.88
418.943	6564.88
419.166	7145.88
419.389	7435.88
419.611	7328.88
419.834	7144.88
420.057	7111.88
420.28	6988.88
420.503	6837.88
420.726	6783.88
420.948	6975.88
421.171	7239.88
421.394	7134.88
421.617	6689.88
421.839	6672.88
422.062	6783.88
422.285	6917.88
422.507	7649.88
422.73	8107.88
422.953	7546.88
423.175	7137.88
423.398	7135.88
423.621	7218.88
423.843	7430.88
424.066	7350.88
424.288	7216.88
424.511	7528.88
424.733	7990.88
424.956	8396.88
425.178	7928.88
425.401	8045.88
425.623	7917.88
425.846	6916.88
426.068	6777.88
426.291	6673.88
426.513	6650.88
426.735	6770.88
426.958	7295.88
427.18	8092.88
427.402	9181.88
427.625	9471.88
427.847	8189.88
428.069	7359.88
428.292	6789.88
428.514	6257.88
428.736	6140.88
428.958	6161.88
429.181	5865.88
429.403	5931.88
429.625	6104.88
429.847	6423.88
430.069	6995.88
430.292	6529.88
430.514	5921.88
430.736	5903.88
430.958	5914.88
431.18	5734.88
431.402	5741.88
431.624	5815.88
431.846	5841.88
432.068	5933.88
432.29	5956.88
432.512	5797.88
432.734	6050.88
432.956	5851.88
433.178	5915.88
433.4	5833.88
433.622	5845.88
433.844	5937.88
434.066	5899.88
434.287	6036.88
434.509	6255.88
434.731	6426.88
434.953	6622.88
435.175	6604.88
435.397	6856.88
435.618	6767.88
435.84	7163.88
436.062	7906.88
436.284	7869.88
436.505	6688.88
436.727	6393.88
436.949	6039.88
437.17	6000.88
437.392	5921.88
437.614	6195.88
437.835	6604.88
438.057	7560.88
438.278	8194.88
438.5	8065.88
438.721	8776.88
438.943	7774.88
439.165	6536.88
439.386	6375.88
439.608	6438.88
439.829	6560.88
440.05	6960.88
440.272	7376.88
440.493	6711.88
440.715	6358.88
440.936	6279.88
441.158	6342.88
441.379	6460.88
441.6	6839.88
441.822	7074.88
442.043	7465.88
442.264	8159.88
442.486	7909.88
442.707	7077.88
442.928	6867.88
443.149	7202.88
443.371	7392.88
443.592	7883.88
443.813	8848.88
444.034	8841.88
444.255	7687.88
444.476	7534.88
444.698	7690.88
444.919	7752.88
445.14	7555.88
445.361	7473.88
445.582	7604.88
445.803	8204.88
446.024	8904.88
446.245	8510.88
446.466	7566.88
446.687	6688.88
446.908	6303.88
447.129	6001.88
447.35	5844.88
447.571	5796.88
447.792	5720.88
448.013	5793.88
448.234	6067.88
448.455	6799.88
448.675	7888.88
448.896	8344.88
449.117	6923.88
449.338	7118.88
449.559	8369.88
449.779	8548.88
450	6621.88
450.221	5901.88
450.442	5692.88
450.662	5654.88
450.883	5684.88
451.104	5901.88
451.324	5670.88
451.545	5513.88
451.766	5370.88
451.986	5222.88
452.207	5199.88
452.428	5198.88
452.648	5172.88
452.869	5297.88
453.089	5330.88
453.31	5404.88
453.53	5249.88
453.751	5171.88
453.971	5221.88
454.192	5377.88
454.412	5174.88
454.633	5114.88
454.853	5060.88
455.073	5063.88
455.294	5496.88
455.514	6037.88
455.734	5490.88
455.955	4889.88
456.175	4800.88
456.395	4765.88
456.616	4730.88
456.836	4775.88
457.056	4767.88
457.276	4624.88
457.497	4850.88
457.717	4840.88
457.937	4853.88
458.157	5032.88
458.377	5078.88
458.598	5462.88
458.818	6267.88
459.038	7098.88
459.258	6921.88
459.478	6234.88
459.698	5977.88
459.918	6016.88
460.138	6192.88
460.358	6422.88
460.578	6440.88
460.798	6511.88
461.018	6525.88
461.238	6460.88
461.458	6401.88
461.678	6398.88
461.898	6541.88
462.118	6613.88
462.338	6873.88
462.558	7010.88
462.777	7323.88
462.997	7958.88
463.217	8285.88
463.437	8173.88
463.657	7537.88
463.876	7320.88
464.096	7380.88
464.316	7339.88
464.536	7398.88
464.755	7174.88
464.975	7168.88
465.195	7461.88
465.414	7532.88
465.634	6552.88
465.854	6173.88
466.073	5835.88
466.293	5655.88
466.512	5440.88
466.732	5379.88
466.951	5395.88
467.171	5393.88
467.391	5513.88
467.61	5570.88
467.829	5526.88
468.049	5576.88
468.268	5383.88
468.488	5233.88
468.707	5104.88
468.927	5190.88
469.146	5113.88
469.365	5194.88
469.585	5259.88
469.804	5343.88
470.023	5602.88
470.243	5576.88
470.462	5649.88
470.681	5843.88
470.901	5709.88
471.12	5518.88
471.339	5494.88
471.558	5458.88
471.777	5344.88
471.997	5252.88
472.216	5477.88
472.435	5996.88
472.654	5565.88
472.873	5244.88
473.092	5220.88
473.311	5087.88
473.53	5205.88
473.749	5334.88
473.968	5832.88
474.187	6884.88
474.406	6406.88
474.625	5427.88
474.844	5149.88
475.063	5111.88
475.282	5089.88
475.501	5221.88
475.72	5239.88
475.939	5288.88
476.158	5385.88
476.377	5359.88
476.596	5391.88
476.814	5500.88
477.033	5545.88
477.252	5647.88
477.471	5656.88
477.69	5783.88
477.908	5937.88
478.127	6061.88
478.346	6139.88
478.564	6301.88
478.783	6322.88
479.002	6476.88
479.22	6505.88
479.439	6614.88
479.658	6769.88
479.876	6823.88
480.095	7072.88
480.313	7422.88
480.532	7319.88
480.751	7204.88
480.969	7305.88
481.188	8017.88
481.406	7951.88
481.624	6982.88
481.843	6657.88
482.061	6330.88
482.28	6244.88
482.498	6163.88
482.717	6139.88
482.935	6073.88
483.153	5977.88
483.372	6017.88
483.59	6036.88
483.808	6087.88
484.027	5991.88
484.245	6163.88
484.463	6178.88
484.681	6223.88
484.9	6279.88
485.118	6326.88
485.336	6307.88
485.554	6375.88
485.772	6413.88
485.99	6431.88
486.209	6461.88
486.427	6527.88
486.645	6561.88
486.863	6703.88
487.081	6577.88
487.299	6601.88
487.517	6434.88
487.735	6452.88
487.953	6524.88
