Data from Circ_2018_H10_HRD10591_00065.txt Node
Date: Wed Jan 03 09:56:15 EST 2024
User: Yrep
Spectrometer: HR+D1059
Trigger mode: 1
Integration Time (sec): 1.000000E-1
Scans to average: 1
Electric dark correction enabled: true
Nonlinearity correction enabled: false
Boxcar width: 0
XAxis mode: Wavelengths
Number of Pixels in Spectrum: 2048
>>>>>Begin Spectral Data<<<<<
223.165	-24.62
223.4	-24.62
223.635	-24.62
223.869	-17.62
224.104	-13.62
224.338	-7.62
224.573	-28.62
224.808	-5.62
225.042	1.38
225.277	-10.62
225.511	-12.62
225.746	8.38
225.98	14.38
226.215	18.38
226.449	5.38
226.683	15.38
226.918	29.38
227.152	28.38
227.387	52.38
227.621	21.38
227.856	45.38
228.09	54.38
228.324	41.38
228.559	51.38
228.793	59.38
229.027	64.38
229.262	60.38
229.496	78.38
229.73	88.38
229.964	93.38
230.199	73.38
230.433	79.38
230.667	80.38
230.901	81.38
231.136	84.38
231.37	80.38
231.604	75.38
231.838	78.38
232.072	84.38
232.306	73.38
232.541	71.38
232.775	98.38
233.009	82.38
233.243	69.38
233.477	79.38
233.711	93.38
233.945	88.38
234.179	87.38
234.413	71.38
234.647	75.38
234.881	78.38
235.115	98.38
235.349	77.38
235.583	84.38
235.817	78.38
236.051	63.38
236.285	83.38
236.519	64.38
236.753	69.38
236.987	82.38
237.221	95.38
237.455	79.38
237.689	86.38
237.922	87.38
238.156	84.38
238.39	82.38
238.624	68.38
238.858	81.38
239.091	83.38
239.325	84.38
239.559	81.38
239.793	74.38
240.027	85.38
240.26	77.38
240.494	78.38
240.728	77.38
240.961	71.38
241.195	77.38
241.429	70.38
241.662	79.38
241.896	83.38
242.13	64.38
242.363	69.38
242.597	70.38
242.83	86.38
243.064	90.38
243.298	76.38
243.531	73.38
243.765	83.38
243.998	75.38
244.232	88.38
244.465	77.38
244.699	86.38
244.932	71.38
245.166	74.38
245.399	94.38
245.633	75.38
245.866	87.38
246.099	87.38
246.333	86.38
246.566	74.38
246.8	59.38
247.033	73.38
247.266	79.38
247.5	89.38
247.733	97.38
247.966	96.38
248.2	72.38
248.433	74.38
248.666	82.38
248.899	82.38
249.133	76.38
249.366	99.38
249.599	109.38
249.832	101.38
250.066	106.38
250.299	84.38
250.532	77.38
250.765	97.38
250.998	84.38
251.231	77.38
251.465	68.38
251.698	84.38
251.931	94.38
252.164	83.38
252.397	79.38
252.63	85.38
252.863	76.38
253.096	87.38
253.329	89.38
253.562	84.38
253.795	82.38
254.028	73.38
254.261	85.38
254.494	94.38
254.727	78.38
254.96	78.38
255.193	76.38
255.426	87.38
255.659	85.38
255.892	83.38
256.124	82.38
256.357	73.38
256.59	85.38
256.823	88.38
257.056	82.38
257.289	91.38
257.521	73.38
257.754	87.38
257.987	91.38
258.22	76.38
258.452	79.38
258.685	80.38
258.918	92.38
259.151	84.38
259.383	75.38
259.616	80.38
259.849	78.38
260.081	84.38
260.314	78.38
260.547	73.38
260.779	75.38
261.012	77.38
261.244	82.38
261.477	86.38
261.71	85.38
261.942	118.38
262.175	113.38
262.407	90.38
262.64	79.38
262.872	78.38
263.105	94.38
263.337	84.38
263.57	90.38
263.802	103.38
264.035	81.38
264.267	74.38
264.499	89.38
264.732	84.38
264.964	97.38
265.197	85.38
265.429	86.38
265.661	78.38
265.894	77.38
266.126	77.38
266.358	67.38
266.591	87.38
266.823	73.38
267.055	62.38
267.287	101.38
267.52	89.38
267.752	79.38
267.984	75.38
268.216	79.38
268.448	88.38
268.681	71.38
268.913	90.38
269.145	86.38
269.377	87.38
269.609	95.38
269.841	74.38
270.073	71.38
270.306	80.38
270.538	76.38
270.77	87.38
271.002	82.38
271.234	89.38
271.466	100.38
271.698	93.38
271.93	85.38
272.162	83.38
272.394	90.38
272.626	75.38
272.858	90.38
273.09	89.38
273.322	90.38
273.553	91.38
273.785	77.38
274.017	68.38
274.249	89.38
274.481	86.38
274.713	73.38
274.945	89.38
275.176	102.38
275.408	92.38
275.64	104.38
275.872	80.38
276.104	80.38
276.335	93.38
276.567	101.38
276.799	109.38
277.031	97.38
277.262	110.38
277.494	94.38
277.726	96.38
277.957	84.38
278.189	94.38
278.421	80.38
278.652	84.38
278.884	79.38
279.115	85.38
279.347	93.38
279.579	94.38
279.81	81.38
280.042	83.38
280.273	107.38
280.505	97.38
280.736	88.38
280.968	88.38
281.199	85.38
281.431	94.38
281.662	91.38
281.894	97.38
282.125	97.38
282.356	126.38
282.588	139.38
282.819	118.38
283.051	105.38
283.282	81.38
283.513	89.38
283.745	103.38
283.976	82.38
284.207	82.38
284.439	82.38
284.67	92.38
284.901	80.38
285.132	86.38
285.364	82.38
285.595	87.38
285.826	101.38
286.057	86.38
286.288	91.38
286.52	91.38
286.751	83.38
286.982	98.38
287.213	87.38
287.444	92.38
287.675	82.38
287.906	101.38
288.138	98.38
288.369	78.38
288.6	79.38
288.831	84.38
289.062	92.38
289.293	90.38
289.524	87.38
289.755	100.38
289.986	87.38
290.217	93.38
290.448	81.38
290.679	96.38
290.91	87.38
291.141	94.38
291.371	106.38
291.602	84.38
291.833	103.38
292.064	99.38
292.295	104.38
292.526	85.38
292.757	84.38
292.987	94.38
293.218	103.38
293.449	89.38
293.68	86.38
293.91	96.38
294.141	102.38
294.372	89.38
294.603	78.38
294.833	87.38
295.064	79.38
295.295	93.38
295.525	99.38
295.756	97.38
295.987	126.38
296.217	147.38
296.448	131.38
296.679	103.38
296.909	102.38
297.14	91.38
297.37	87.38
297.601	83.38
297.831	81.38
298.062	90.38
298.292	75.38
298.523	98.38
298.753	99.38
298.984	93.38
299.214	97.38
299.445	96.38
299.675	98.38
299.905	98.38
300.136	108.38
300.366	81.38
300.597	101.38
300.827	107.38
301.057	104.38
301.288	117.38
301.518	91.38
301.748	97.38
301.979	102.38
302.209	94.38
302.439	82.38
302.669	98.38
302.9	91.38
303.13	83.38
303.36	104.38
303.59	89.38
303.82	100.38
304.051	91.38
304.281	70.38
304.511	81.38
304.741	85.38
304.971	92.38
305.201	94.38
305.431	94.38
305.661	92.38
305.891	79.38
306.121	103.38
306.352	118.38
306.582	100.38
306.812	95.38
307.042	95.38
307.272	97.38
307.502	98.38
307.731	84.38
307.961	108.38
308.191	108.38
308.421	103.38
308.651	90.38
308.881	97.38
309.111	111.38
309.341	97.38
309.571	102.38
309.8	87.38
310.03	98.38
310.26	102.38
310.49	104.38
310.72	94.38
310.949	107.38
311.179	97.38
311.409	97.38
311.639	85.38
311.868	106.38
312.098	85.38
312.328	107.38
312.557	101.38
312.787	109.38
313.017	117.38
313.246	95.38
313.476	84.38
313.706	106.38
313.935	86.38
314.165	107.38
314.394	104.38
314.624	107.38
314.853	104.38
315.083	97.38
315.312	95.38
315.542	93.38
315.771	94.38
316.001	94.38
316.23	91.38
316.46	91.38
316.689	98.38
316.919	95.38
317.148	88.38
317.377	95.38
317.607	89.38
317.836	89.38
318.065	77.38
318.295	108.38
318.524	89.38
318.753	86.38
318.983	79.38
319.212	96.38
319.441	106.38
319.67	119.38
319.9	110.38
320.129	90.38
320.358	86.38
320.587	99.38
320.816	96.38
321.046	101.38
321.275	98.38
321.504	80.38
321.733	117.38
321.962	97.38
322.191	100.38
322.42	108.38
322.649	121.38
322.878	118.38
323.108	105.38
323.337	119.38
323.566	132.38
323.795	156.38
324.024	210.38
324.253	414.38
324.482	808.38
324.71	1657.38
324.939	2177.38
325.168	818.38
325.397	267.38
325.626	163.38
325.855	140.38
326.084	114.38
326.313	134.38
326.542	144.38
326.77	229.38
326.999	446.38
327.228	901.38
327.457	1576.38
327.686	1301.38
327.914	355.38
328.143	204.38
328.372	155.38
328.6	138.38
328.829	134.38
329.058	122.38
329.287	142.38
329.515	92.38
329.744	110.38
329.972	98.38
330.201	137.38
330.43	163.38
330.658	141.38
330.887	150.38
331.115	141.38
331.344	98.38
331.572	97.38
331.801	108.38
332.03	104.38
332.258	105.38
332.486	97.38
332.715	103.38
332.943	100.38
333.172	92.38
333.4	100.38
333.629	98.38
333.857	108.38
334.085	119.38
334.314	148.38
334.542	154.38
334.771	179.38
334.999	99.38
335.227	101.38
335.455	99.38
335.684	99.38
335.912	98.38
336.14	95.38
336.369	114.38
336.597	103.38
336.825	109.38
337.053	87.38
337.281	89.38
337.51	77.38
337.738	96.38
337.966	90.38
338.194	100.38
338.422	95.38
338.65	108.38
338.878	101.38
339.106	97.38
339.334	85.38
339.562	90.38
339.79	88.38
340.018	100.38
340.246	90.38
340.474	88.38
340.702	90.38
340.93	96.38
341.158	91.38
341.386	102.38
341.614	86.38
341.842	103.38
342.07	91.38
342.298	83.38
342.526	94.38
342.754	89.38
342.981	78.38
343.209	94.38
343.437	102.38
343.665	105.38
343.893	88.38
344.12	100.38
344.348	97.38
344.576	80.38
344.804	85.38
345.031	107.38
345.259	94.38
345.487	89.38
345.714	101.38
345.942	98.38
346.17	89.38
346.397	84.38
346.625	93.38
346.853	110.38
347.08	87.38
347.308	99.38
347.535	95.38
347.763	108.38
347.99	110.38
348.218	98.38
348.445	107.38
348.673	106.38
348.9	104.38
349.128	96.38
349.355	110.38
349.583	100.38
349.81	100.38
350.037	94.38
350.265	99.38
350.492	88.38
350.72	122.38
350.947	98.38
351.174	120.38
351.402	103.38
351.629	98.38
351.856	101.38
352.083	101.38
352.311	124.38
352.538	103.38
352.765	117.38
352.992	121.38
353.22	121.38
353.447	108.38
353.674	98.38
353.901	99.38
354.128	97.38
354.355	108.38
354.583	99.38
354.81	97.38
355.037	99.38
355.264	109.38
355.491	103.38
355.718	94.38
355.945	83.38
356.172	90.38
356.399	100.38
356.626	98.38
356.853	85.38
357.08	105.38
357.307	108.38
357.534	74.38
357.761	90.38
357.988	108.38
358.215	107.38
358.441	107.38
358.668	93.38
358.895	94.38
359.122	95.38
359.349	90.38
359.576	106.38
359.802	88.38
360.029	111.38
360.256	102.38
360.483	100.38
360.709	92.38
360.936	92.38
361.163	91.38
361.39	102.38
361.616	92.38
361.843	93.38
362.07	103.38
362.296	105.38
362.523	106.38
362.749	91.38
362.976	83.38
363.203	94.38
363.429	77.38
363.656	82.38
363.882	76.38
364.109	98.38
364.335	97.38
364.562	89.38
364.788	78.38
365.015	94.38
365.241	108.38
365.468	108.38
365.694	105.38
365.92	120.38
366.147	102.38
366.373	94.38
366.599	85.38
366.826	104.38
367.052	98.38
367.278	85.38
367.505	96.38
367.731	96.38
367.957	105.38
368.184	95.38
368.41	89.38
368.636	105.38
368.862	129.38
369.089	123.38
369.315	92.38
369.541	104.38
369.767	84.38
369.993	100.38
370.219	87.38
370.445	99.38
370.672	77.38
370.898	85.38
371.124	86.38
371.35	77.38
371.576	93.38
371.802	90.38
372.028	89.38
372.254	98.38
372.48	95.38
372.706	82.38
372.932	86.38
373.158	100.38
373.384	97.38
373.61	99.38
373.835	98.38
374.061	97.38
374.287	75.38
374.513	93.38
374.739	104.38
374.965	90.38
375.191	95.38
375.416	89.38
375.642	101.38
375.868	98.38
376.094	106.38
376.319	86.38
376.545	98.38
376.771	95.38
376.997	87.38
377.222	106.38
377.448	91.38
377.674	96.38
377.899	90.38
378.125	83.38
378.35	90.38
378.576	93.38
378.802	89.38
379.027	97.38
379.253	83.38
379.478	102.38
379.704	84.38
379.929	103.38
380.155	93.38
380.38	75.38
380.606	93.38
380.831	101.38
381.057	105.38
381.282	106.38
381.507	105.38
381.733	92.38
381.958	87.38
382.184	94.38
382.409	102.38
382.634	94.38
382.86	106.38
383.085	103.38
383.31	89.38
383.535	108.38
383.761	98.38
383.986	94.38
384.211	100.38
384.436	94.38
384.662	105.38
384.887	113.38
385.112	104.38
385.337	113.38
385.562	107.38
385.787	107.38
386.013	107.38
386.238	116.38
386.463	108.38
386.688	117.38
386.913	97.38
387.138	114.38
387.363	102.38
387.588	100.38
387.813	102.38
388.038	98.38
388.263	115.38
388.488	99.38
388.713	92.38
388.938	106.38
389.163	110.38
389.387	86.38
389.612	110.38
389.837	93.38
390.062	84.38
390.287	87.38
390.512	97.38
390.736	83.38
390.961	86.38
391.186	77.38
391.411	95.38
391.636	89.38
391.86	92.38
392.085	97.38
392.31	95.38
392.534	99.38
392.759	105.38
392.984	90.38
393.208	102.38
393.433	98.38
393.658	82.38
393.882	87.38
394.107	88.38
394.331	78.38
394.556	83.38
394.78	103.38
395.005	87.38
395.229	90.38
395.454	93.38
395.678	90.38
395.903	91.38
396.127	97.38
396.352	82.38
396.576	78.38
396.801	103.38
397.025	93.38
397.249	81.38
397.474	87.38
397.698	74.38
397.922	81.38
398.147	84.38
398.371	96.38
398.595	91.38
398.82	102.38
399.044	89.38
399.268	85.38
399.492	78.38
399.717	89.38
399.941	96.38
400.165	92.38
400.389	83.38
400.613	87.38
400.837	89.38
401.062	89.38
401.286	92.38
401.51	93.38
401.734	95.38
401.958	110.38
402.182	141.38
402.406	172.38
402.63	122.38
402.854	102.38
403.078	88.38
403.302	79.38
403.526	84.38
403.75	82.38
403.974	86.38
404.198	88.38
404.422	101.38
404.645	97.38
404.869	84.38
405.093	92.38
405.317	92.38
405.541	108.38
405.765	103.38
405.988	118.38
406.212	177.38
406.436	263.38
406.66	145.38
406.883	104.38
407.107	98.38
407.331	97.38
407.555	117.38
407.778	105.38
408.002	87.38
408.226	103.38
408.449	77.38
408.673	94.38
408.896	90.38
409.12	94.38
409.344	96.38
409.567	90.38
409.791	94.38
410.014	100.38
410.238	87.38
410.461	86.38
410.685	95.38
410.908	97.38
411.132	112.38
411.355	107.38
411.578	89.38
411.802	95.38
412.025	83.38
412.249	87.38
412.472	98.38
412.695	99.38
412.919	92.38
413.142	92.38
413.365	76.38
413.589	102.38
413.812	100.38
414.035	104.38
414.258	92.38
414.482	79.38
414.705	85.38
414.928	88.38
415.151	109.38
415.374	106.38
415.597	117.38
415.821	89.38
416.044	101.38
416.267	100.38
416.49	81.38
416.713	90.38
416.936	93.38
417.159	97.38
417.382	98.38
417.605	93.38
417.828	100.38
418.051	104.38
418.274	74.38
418.497	87.38
418.72	86.38
418.943	75.38
419.166	100.38
419.389	93.38
419.611	91.38
419.834	80.38
420.057	88.38
420.28	84.38
420.503	81.38
420.726	88.38
420.948	97.38
421.171	95.38
421.394	90.38
421.617	95.38
421.839	93.38
422.062	79.38
422.285	89.38
422.507	90.38
422.73	110.38
422.953	98.38
423.175	85.38
423.398	96.38
423.621	98.38
423.843	73.38
424.066	89.38
424.288	103.38
424.511	88.38
424.733	105.38
424.956	100.38
425.178	92.38
425.401	106.38
425.623	96.38
425.846	101.38
426.068	95.38
426.291	89.38
426.513	94.38
426.735	101.38
426.958	87.38
427.18	120.38
427.402	139.38
427.625	168.38
427.847	127.38
428.069	124.38
428.292	109.38
428.514	90.38
428.736	100.38
428.958	81.38
429.181	82.38
429.403	93.38
429.625	79.38
429.847	103.38
430.069	107.38
430.292	99.38
430.514	93.38
430.736	89.38
430.958	92.38
431.18	74.38
431.402	92.38
431.624	87.38
431.846	86.38
432.068	99.38
432.29	89.38
432.512	91.38
432.734	88.38
432.956	87.38
433.178	98.38
433.4	102.38
433.622	85.38
433.844	89.38
434.066	93.38
434.287	99.38
434.509	86.38
434.731	82.38
434.953	87.38
435.175	94.38
435.397	81.38
435.618	93.38
435.84	103.38
436.062	113.38
436.284	110.38
436.505	111.38
436.727	100.38
436.949	101.38
437.17	99.38
437.392	99.38
437.614	95.38
437.835	100.38
438.057	123.38
438.278	104.38
438.5	101.38
438.721	124.38
438.943	97.38
439.165	103.38
439.386	89.38
439.608	88.38
439.829	90.38
440.05	116.38
440.272	141.38
440.493	120.38
440.715	97.38
440.936	93.38
441.158	89.38
441.379	84.38
441.6	92.38
441.822	86.38
442.043	102.38
442.264	107.38
442.486	102.38
442.707	97.38
442.928	122.38
443.149	137.38
443.371	140.38
443.592	107.38
443.813	103.38
444.034	106.38
444.255	94.38
444.476	83.38
444.698	78.38
444.919	81.38
445.14	127.38
445.361	131.38
445.582	116.38
445.803	134.38
446.024	167.38
446.245	146.38
446.466	109.38
446.687	77.38
446.908	79.38
447.129	99.38
447.35	97.38
447.571	85.38
447.792	74.38
448.013	111.38
448.234	123.38
448.455	103.38
448.675	119.38
448.896	125.38
449.117	106.38
449.338	100.38
449.559	125.38
449.779	129.38
450	86.38
450.221	107.38
450.442	83.38
450.662	94.38
450.883	124.38
451.104	101.38
451.324	117.38
451.545	106.38
451.766	90.38
451.986	83.38
452.207	98.38
452.428	95.38
452.648	112.38
452.869	125.38
453.089	119.38
453.31	114.38
453.53	93.38
453.751	94.38
453.971	108.38
454.192	114.38
454.412	95.38
454.633	75.38
454.853	91.38
455.073	89.38
455.294	98.38
455.514	104.38
455.734	103.38
455.955	95.38
456.175	65.38
456.395	87.38
456.616	85.38
456.836	91.38
457.056	87.38
457.276	82.38
457.497	89.38
457.717	92.38
457.937	78.38
458.157	86.38
458.377	84.38
458.598	106.38
458.818	142.38
459.038	170.38
459.258	116.38
459.478	84.38
459.698	95.38
459.918	81.38
460.138	89.38
460.358	95.38
460.578	79.38
460.798	97.38
461.018	97.38
461.238	94.38
461.458	83.38
461.678	88.38
461.898	77.38
462.118	76.38
462.338	82.38
462.558	75.38
462.777	96.38
462.997	97.38
463.217	93.38
463.437	93.38
463.657	87.38
463.876	77.38
464.096	86.38
464.316	72.38
464.536	103.38
464.755	83.38
464.975	110.38
465.195	184.38
465.414	181.38
465.634	104.38
465.854	89.38
466.073	89.38
466.293	94.38
466.512	83.38
466.732	87.38
466.951	107.38
467.171	88.38
467.391	84.38
467.61	123.38
467.829	99.38
468.049	110.38
468.268	127.38
468.488	95.38
468.707	107.38
468.927	94.38
469.146	80.38
469.365	82.38
469.585	83.38
469.804	101.38
470.023	100.38
470.243	91.38
470.462	104.38
470.681	121.38
470.901	104.38
471.12	98.38
471.339	85.38
471.558	76.38
471.777	91.38
471.997	84.38
472.216	141.38
472.435	193.38
472.654	115.38
472.873	101.38
473.092	86.38
473.311	89.38
473.53	84.38
473.749	83.38
473.968	97.38
474.187	108.38
474.406	107.38
474.625	97.38
474.844	94.38
475.063	90.38
475.282	92.38
475.501	82.38
475.72	101.38
475.939	81.38
476.158	89.38
476.377	98.38
476.596	97.38
476.814	89.38
477.033	91.38
477.252	84.38
477.471	98.38
477.69	80.38
477.908	74.38
478.127	94.38
478.346	89.38
478.564	99.38
478.783	114.38
479.002	95.38
479.22	92.38
479.439	99.38
479.658	107.38
479.876	100.38
480.095	97.38
480.313	98.38
480.532	87.38
480.751	83.38
480.969	134.38
481.188	269.38
481.406	199.38
481.624	109.38
481.843	88.38
482.061	90.38
482.28	99.38
482.498	92.38
482.717	97.38
482.935	93.38
483.153	97.38
483.372	90.38
483.59	83.38
483.808	87.38
484.027	87.38
484.245	94.38
484.463	82.38
484.681	94.38
484.9	99.38
485.118	83.38
485.336	104.38
485.554	107.38
485.772	104.38
485.99	102.38
486.209	97.38
486.427	101.38
486.645	95.38
486.863	109.38
487.081	98.38
487.299	96.38
487.517	100.38
487.735	77.38
487.953	103.38
488.171	92.38
488.389	98.38
488.607	104.38
488.825	101.38
489.043	95.38
489.261	106.38
489.479	83.38
489.696	97.38
489.914	89.38
490.132	95.38
490.35	89.38
490.568	97.38
490.786	99.38
491.003	92.38
491.221	93.38
491.439	107.38
491.657	89.38
491.874	89.38
492.092	87.38
492.31	92.38
492.527	106.38
492.745	93.38
492.963	95.38
493.18	94.38
493.398	98.38
493.615	99.38
493.833	100.38
494.05	89.38
494.268	96.38
494.485	83.38
494.703	100.38
494.92	91.38
495.138	89.38
495.355	90.38
495.573	84.38
495.79	80.38
496.008	97.38
496.225	93.38
496.442	89.38
496.66	97.38
496.877	91.38
497.094	99.38
497.312	92.38
497.529	95.38
497.746	105.38
497.963	81.38
498.181	79.38
498.398	95.38
498.615	104.38
498.832	94.38
499.049	105.38
499.267	101.38
499.484	85.38
499.701	88.38
499.918	85.38
500.135	91.38
500.352	91.38
500.569	82.38
500.786	90.38
501.003	89.38
501.22	91.38
501.437	83.38
501.654	121.38
501.871	104.38
502.088	93.38
502.305	93.38
502.522	94.38
502.739	97.38
502.956	108.38
503.172	93.38
503.389	98.38
503.606	107.38
503.823	99.38
504.04	93.38
504.256	81.38
504.473	84.38
504.69	99.38
504.907	97.38
505.123	94.38
505.34	91.38
505.557	83.38
505.773	95.38
505.99	96.38
506.207	97.38
506.423	77.38
506.64	89.38
506.856	86.38
507.073	90.38
507.289	106.38
507.506	91.38
507.722	122.38
507.939	109.38
508.155	99.38
508.372	99.38
508.588	85.38
508.805	105.38
509.021	77.38
509.238	92.38
509.454	97.38
509.67	100.38
509.887	112.38
510.103	141.38
510.319	219.38
510.536	836.38
510.752	2796.38
510.968	805.38
511.184	171.38
511.401	112.38
511.617	91.38
511.833	94.38
512.049	108.38
512.265	83.38
512.481	99.38
512.698	92.38
512.914	79.38
513.13	90.38
513.346	78.38
513.562	105.38
513.778	97.38
513.994	110.38
514.21	100.38
514.426	121.38
