Data from Circ_2018_H10_HRD10591_00075.txt Node
Date: Wed Jan 03 09:56:17 EST 2024
User: Yrep
Spectrometer: HR+D1059
Trigger mode: 1
Integration Time (sec): 1.000000E-1
Scans to average: 1
Electric dark correction enabled: true
Nonlinearity correction enabled: false
Boxcar width: 0
XAxis mode: Wavelengths
Number of Pixels in Spectrum: 2048
>>>>>Begin Spectral Data<<<<<
223.165	-10.5
223.4	-10.5
223.635	-10.5
223.869	-11.5
224.104	-18.5
224.338	-14.5
224.573	-27.5
224.808	-22.5
225.042	-9.5
225.277	1.5
225.511	-3.5
225.746	10.5
225.98	12.5
226.215	4.5
226.449	4.5
226.683	23.5
226.918	22.5
227.152	38.5
227.387	38.5
227.621	59.5
227.856	57.5
228.09	48.5
228.324	52.5
228.559	53.5
228.793	74.5
229.027	52.5
229.262	65.5
229.496	83.5
229.73	96.5
229.964	111.5
230.199	77.5
230.433	74.5
230.667	90.5
230.901	86.5
231.136	70.5
231.37	80.5
231.604	89.5
231.838	74.5
232.072	68.5
232.306	69.5
232.541	87.5
232.775	77.5
233.009	68.5
233.243	73.5
233.477	76.5
233.711	97.5
233.945	76.5
234.179	78.5
234.413	84.5
234.647	87.5
234.881	80.5
235.115	92.5
235.349	71.5
235.583	91.5
235.817	88.5
236.051	71.5
236.285	71.5
236.519	76.5
236.753	92.5
236.987	106.5
237.221	99.5
237.455	88.5
237.689	70.5
237.922	90.5
238.156	87.5
238.39	81.5
238.624	77.5
238.858	78.5
239.091	69.5
239.325	93.5
239.559	79.5
239.793	80.5
240.027	85.5
240.26	84.5
240.494	77.5
240.728	83.5
240.961	98.5
241.195	79.5
241.429	89.5
241.662	77.5
241.896	90.5
242.13	64.5
242.363	78.5
242.597	85.5
242.83	99.5
243.064	92.5
243.298	80.5
243.531	73.5
243.765	80.5
243.998	93.5
244.232	92.5
244.465	86.5
244.699	84.5
244.932	86.5
245.166	92.5
245.399	91.5
245.633	86.5
245.866	87.5
246.099	79.5
246.333	76.5
246.566	66.5
246.8	81.5
247.033	77.5
247.266	86.5
247.5	79.5
247.733	81.5
247.966	96.5
248.2	83.5
248.433	81.5
248.666	94.5
248.899	78.5
249.133	98.5
249.366	114.5
249.599	108.5
249.832	85.5
250.066	95.5
250.299	88.5
250.532	80.5
250.765	68.5
250.998	75.5
251.231	93.5
251.465	76.5
251.698	87.5
251.931	68.5
252.164	88.5
252.397	75.5
252.63	90.5
252.863	81.5
253.096	76.5
253.329	90.5
253.562	102.5
253.795	93.5
254.028	74.5
254.261	80.5
254.494	86.5
254.727	100.5
254.96	87.5
255.193	79.5
255.426	97.5
255.659	77.5
255.892	91.5
256.124	88.5
256.357	98.5
256.59	92.5
256.823	78.5
257.056	80.5
257.289	87.5
257.521	90.5
257.754	71.5
257.987	79.5
258.22	83.5
258.452	88.5
258.685	88.5
258.918	84.5
259.151	84.5
259.383	94.5
259.616	84.5
259.849	83.5
260.081	88.5
260.314	87.5
260.547	77.5
260.779	82.5
261.012	94.5
261.244	100.5
261.477	100.5
261.71	96.5
261.942	143.5
262.175	156.5
262.407	101.5
262.64	98.5
262.872	93.5
263.105	91.5
263.337	90.5
263.57	95.5
263.802	90.5
264.035	85.5
264.267	92.5
264.499	84.5
264.732	92.5
264.964	94.5
265.197	87.5
265.429	85.5
265.661	80.5
265.894	103.5
266.126	97.5
266.358	94.5
266.591	94.5
266.823	94.5
267.055	97.5
267.287	85.5
267.52	89.5
267.752	89.5
267.984	79.5
268.216	87.5
268.448	94.5
268.681	85.5
268.913	96.5
269.145	92.5
269.377	101.5
269.609	75.5
269.841	94.5
270.073	80.5
270.306	87.5
270.538	90.5
270.77	88.5
271.002	87.5
271.234	72.5
271.466	94.5
271.698	75.5
271.93	80.5
272.162	83.5
272.394	71.5
272.626	90.5
272.858	83.5
273.09	85.5
273.322	78.5
273.553	94.5
273.785	91.5
274.017	82.5
274.249	87.5
274.481	95.5
274.713	79.5
274.945	90.5
275.176	87.5
275.408	95.5
275.64	81.5
275.872	86.5
276.104	93.5
276.335	99.5
276.567	109.5
276.799	135.5
277.031	123.5
277.262	107.5
277.494	100.5
277.726	79.5
277.957	79.5
278.189	97.5
278.421	96.5
278.652	95.5
278.884	89.5
279.115	84.5
279.347	87.5
279.579	98.5
279.81	88.5
280.042	100.5
280.273	95.5
280.505	104.5
280.736	91.5
280.968	89.5
281.199	85.5
281.431	90.5
281.662	90.5
281.894	101.5
282.125	104.5
282.356	125.5
282.588	180.5
282.819	135.5
283.051	93.5
283.282	90.5
283.513	85.5
283.745	98.5
283.976	91.5
284.207	90.5
284.439	99.5
284.67	89.5
284.901	93.5
285.132	93.5
285.364	99.5
285.595	85.5
285.826	91.5
286.057	78.5
286.288	92.5
286.52	76.5
286.751	85.5
286.982	90.5
287.213	79.5
287.444	94.5
287.675	92.5
287.906	91.5
288.138	106.5
288.369	101.5
288.6	91.5
288.831	98.5
289.062	93.5
289.293	88.5
289.524	105.5
289.755	94.5
289.986	79.5
290.217	73.5
290.448	90.5
290.679	90.5
290.91	88.5
291.141	81.5
291.371	93.5
291.602	90.5
291.833	92.5
292.064	96.5
292.295	102.5
292.526	106.5
292.757	84.5
292.987	99.5
293.218	83.5
293.449	91.5
293.68	85.5
293.91	88.5
294.141	95.5
294.372	84.5
294.603	82.5
294.833	85.5
295.064	91.5
295.295	85.5
295.525	98.5
295.756	103.5
295.987	118.5
296.217	167.5
296.448	151.5
296.679	103.5
296.909	106.5
297.14	96.5
297.37	90.5
297.601	93.5
297.831	90.5
298.062	92.5
298.292	111.5
298.523	111.5
298.753	106.5
298.984	80.5
299.214	96.5
299.445	87.5
299.675	103.5
299.905	99.5
300.136	108.5
300.366	104.5
300.597	97.5
300.827	103.5
301.057	104.5
301.288	116.5
301.518	100.5
301.748	102.5
301.979	107.5
302.209	98.5
302.439	103.5
302.669	93.5
302.9	113.5
303.13	86.5
303.36	88.5
303.59	115.5
303.82	126.5
304.051	97.5
304.281	95.5
304.511	98.5
304.741	98.5
304.971	91.5
305.201	100.5
305.431	98.5
305.661	94.5
305.891	102.5
306.121	96.5
306.352	123.5
306.582	120.5
306.812	101.5
307.042	93.5
307.272	99.5
307.502	102.5
307.731	101.5
307.961	93.5
308.191	100.5
308.421	96.5
308.651	82.5
308.881	88.5
309.111	100.5
309.341	114.5
309.571	109.5
309.8	104.5
310.03	120.5
310.26	119.5
310.49	118.5
310.72	105.5
310.949	131.5
311.179	103.5
311.409	116.5
311.639	102.5
311.868	102.5
312.098	115.5
312.328	94.5
312.557	105.5
312.787	133.5
313.017	109.5
313.246	103.5
313.476	97.5
313.706	90.5
313.935	107.5
314.165	111.5
314.394	115.5
314.624	103.5
314.853	111.5
315.083	100.5
315.312	107.5
315.542	96.5
315.771	90.5
316.001	91.5
316.23	90.5
316.46	104.5
316.689	94.5
316.919	92.5
317.148	99.5
317.377	107.5
317.607	99.5
317.836	109.5
318.065	101.5
318.295	100.5
318.524	105.5
318.753	104.5
318.983	98.5
319.212	111.5
319.441	121.5
319.67	120.5
319.9	98.5
320.129	108.5
320.358	96.5
320.587	108.5
320.816	102.5
321.046	115.5
321.275	113.5
321.504	99.5
321.733	103.5
321.962	106.5
322.191	103.5
322.42	125.5
322.649	123.5
322.878	102.5
323.108	135.5
323.337	134.5
323.566	158.5
323.795	168.5
324.024	251.5
324.253	493.5
324.482	1024.5
324.71	2139.5
324.939	2817.5
325.168	1055.5
325.397	298.5
325.626	162.5
325.855	147.5
326.084	142.5
326.313	143.5
326.542	183.5
326.77	277.5
326.999	554.5
327.228	1089.5
327.457	2035.5
327.686	1658.5
327.914	468.5
328.143	242.5
328.372	223.5
328.6	156.5
328.829	141.5
329.058	160.5
329.287	159.5
329.515	131.5
329.744	129.5
329.972	133.5
330.201	183.5
330.43	242.5
330.658	207.5
330.887	201.5
331.115	162.5
331.344	127.5
331.572	122.5
331.801	122.5
332.03	128.5
332.258	106.5
332.486	95.5
332.715	103.5
332.943	95.5
333.172	108.5
333.4	106.5
333.629	121.5
333.857	143.5
334.085	168.5
334.314	180.5
334.542	282.5
334.771	266.5
334.999	141.5
335.227	110.5
335.455	87.5
335.684	112.5
335.912	100.5
336.14	106.5
336.369	114.5
336.597	107.5
336.825	107.5
337.053	101.5
337.281	93.5
337.51	99.5
337.738	108.5
337.966	109.5
338.194	105.5
338.422	111.5
338.65	88.5
338.878	99.5
339.106	97.5
339.334	107.5
339.562	91.5
339.79	101.5
340.018	89.5
340.246	104.5
340.474	108.5
340.702	99.5
340.93	103.5
341.158	94.5
341.386	100.5
341.614	103.5
341.842	109.5
342.07	104.5
342.298	106.5
342.526	90.5
342.754	75.5
342.981	99.5
343.209	101.5
343.437	100.5
343.665	91.5
343.893	102.5
344.12	94.5
344.348	101.5
344.576	93.5
344.804	98.5
345.031	126.5
345.259	121.5
345.487	112.5
345.714	98.5
345.942	92.5
346.17	102.5
346.397	92.5
346.625	100.5
346.853	95.5
347.08	80.5
347.308	118.5
347.535	108.5
347.763	123.5
347.99	106.5
348.218	104.5
348.445	113.5
348.673	98.5
348.9	93.5
349.128	114.5
349.355	92.5
349.583	99.5
349.81	103.5
350.037	110.5
350.265	103.5
350.492	99.5
350.72	102.5
350.947	112.5
351.174	120.5
351.402	121.5
351.629	107.5
351.856	110.5
352.083	138.5
352.311	123.5
352.538	111.5
352.765	134.5
352.992	117.5
353.22	125.5
353.447	98.5
353.674	106.5
353.901	98.5
354.128	110.5
354.355	110.5
354.583	106.5
354.81	96.5
355.037	95.5
355.264	78.5
355.491	98.5
355.718	108.5
355.945	104.5
356.172	88.5
356.399	101.5
356.626	96.5
356.853	89.5
357.08	93.5
357.307	95.5
357.534	105.5
357.761	80.5
357.988	93.5
358.215	82.5
358.441	90.5
358.668	93.5
358.895	95.5
359.122	83.5
359.349	92.5
359.576	100.5
359.802	111.5
360.029	134.5
360.256	135.5
360.483	119.5
360.709	94.5
360.936	92.5
361.163	97.5
361.39	104.5
361.616	104.5
361.843	107.5
362.07	108.5
362.296	103.5
362.523	94.5
362.749	95.5
362.976	101.5
363.203	110.5
363.429	107.5
363.656	100.5
363.882	97.5
364.109	95.5
364.335	107.5
364.562	100.5
364.788	103.5
365.015	106.5
365.241	104.5
365.468	124.5
365.694	132.5
365.92	106.5
366.147	95.5
366.373	89.5
366.599	104.5
366.826	92.5
367.052	99.5
367.278	86.5
367.505	99.5
367.731	98.5
367.957	102.5
368.184	94.5
368.41	117.5
368.636	143.5
368.862	132.5
369.089	125.5
369.315	98.5
369.541	109.5
369.767	102.5
369.993	97.5
370.219	106.5
370.445	90.5
370.672	78.5
370.898	99.5
371.124	96.5
371.35	99.5
371.576	99.5
371.802	80.5
372.028	94.5
372.254	86.5
372.48	102.5
372.706	94.5
372.932	74.5
373.158	96.5
373.384	101.5
373.61	115.5
373.835	91.5
374.061	94.5
374.287	92.5
374.513	113.5
374.739	97.5
374.965	82.5
375.191	98.5
375.416	105.5
375.642	95.5
375.868	99.5
376.094	94.5
376.319	93.5
376.545	93.5
376.771	92.5
376.997	101.5
377.222	101.5
377.448	86.5
377.674	92.5
377.899	84.5
378.125	91.5
378.35	105.5
378.576	94.5
378.802	109.5
379.027	98.5
379.253	101.5
379.478	105.5
379.704	94.5
379.929	100.5
380.155	95.5
380.38	120.5
380.606	107.5
380.831	102.5
381.057	105.5
381.282	94.5
381.507	96.5
381.733	103.5
381.958	89.5
382.184	111.5
382.409	117.5
382.634	102.5
382.86	103.5
383.085	104.5
383.31	89.5
383.535	114.5
383.761	101.5
383.986	93.5
384.211	107.5
384.436	99.5
384.662	92.5
384.887	109.5
385.112	109.5
385.337	111.5
385.562	92.5
385.787	99.5
386.013	135.5
386.238	126.5
386.463	118.5
386.688	110.5
386.913	110.5
387.138	107.5
387.363	114.5
387.588	116.5
387.813	97.5
388.038	100.5
388.263	119.5
388.488	104.5
388.713	107.5
388.938	91.5
389.163	109.5
389.387	88.5
389.612	100.5
389.837	100.5
390.062	86.5
390.287	91.5
390.512	105.5
390.736	82.5
390.961	82.5
391.186	78.5
391.411	93.5
391.636	97.5
391.86	92.5
392.085	92.5
392.31	93.5
392.534	82.5
392.759	91.5
392.984	82.5
393.208	84.5
393.433	88.5
393.658	89.5
393.882	82.5
394.107	91.5
394.331	85.5
394.556	78.5
394.78	106.5
395.005	84.5
395.229	87.5
395.454	100.5
395.678	99.5
395.903	95.5
396.127	94.5
396.352	95.5
396.576	75.5
396.801	91.5
397.025	101.5
397.249	93.5
397.474	97.5
397.698	94.5
397.922	94.5
398.147	94.5
398.371	83.5
398.595	89.5
398.82	91.5
399.044	83.5
399.268	92.5
399.492	101.5
399.717	103.5
399.941	93.5
400.165	101.5
400.389	86.5
400.613	86.5
400.837	88.5
401.062	100.5
401.286	90.5
401.51	95.5
401.734	104.5
401.958	111.5
402.182	161.5
402.406	221.5
402.63	150.5
402.854	107.5
403.078	102.5
403.302	95.5
403.526	75.5
403.75	95.5
403.974	91.5
404.198	93.5
404.422	96.5
404.645	104.5
404.869	98.5
405.093	119.5
405.317	101.5
405.541	128.5
405.765	125.5
405.988	135.5
406.212	222.5
406.436	335.5
406.66	206.5
406.883	120.5
407.107	110.5
407.331	107.5
407.555	126.5
407.778	109.5
408.002	85.5
408.226	108.5
408.449	93.5
408.673	92.5
408.896	97.5
409.12	110.5
409.344	101.5
409.567	102.5
409.791	97.5
410.014	93.5
410.238	90.5
410.461	91.5
410.685	97.5
410.908	99.5
411.132	106.5
411.355	103.5
411.578	98.5
411.802	93.5
412.025	105.5
412.249	94.5
412.472	94.5
412.695	102.5
412.919	96.5
413.142	93.5
413.365	92.5
413.589	81.5
413.812	87.5
414.035	101.5
414.258	86.5
414.482	90.5
414.705	94.5
414.928	103.5
415.151	85.5
415.374	97.5
415.597	92.5
415.821	99.5
416.044	93.5
416.267	87.5
416.49	85.5
416.713	104.5
416.936	74.5
417.159	99.5
417.382	91.5
417.605	84.5
417.828	79.5
418.051	90.5
418.274	87.5
418.497	79.5
418.72	85.5
418.943	88.5
419.166	95.5
419.389	95.5
419.611	110.5
419.834	87.5
420.057	101.5
420.28	85.5
420.503	102.5
420.726	91.5
420.948	81.5
421.171	82.5
421.394	100.5
421.617	86.5
421.839	76.5
422.062	98.5
422.285	84.5
422.507	106.5
422.73	115.5
422.953	96.5
423.175	96.5
423.398	74.5
423.621	89.5
423.843	102.5
424.066	89.5
424.288	80.5
424.511	89.5
424.733	98.5
424.956	104.5
425.178	104.5
425.401	116.5
425.623	114.5
425.846	99.5
426.068	114.5
426.291	100.5
426.513	101.5
426.735	93.5
426.958	87.5
427.18	117.5
427.402	158.5
427.625	233.5
427.847	174.5
428.069	126.5
428.292	103.5
428.514	98.5
428.736	106.5
428.958	98.5
429.181	100.5
429.403	101.5
429.625	90.5
429.847	108.5
430.069	109.5
430.292	94.5
430.514	98.5
430.736	79.5
430.958	77.5
431.18	82.5
431.402	89.5
431.624	88.5
431.846	87.5
432.068	102.5
432.29	81.5
432.512	87.5
432.734	98.5
432.956	104.5
433.178	99.5
433.4	108.5
433.622	85.5
433.844	99.5
434.066	97.5
434.287	91.5
434.509	87.5
434.731	95.5
434.953	87.5
435.175	102.5
435.397	88.5
435.618	109.5
435.84	118.5
436.062	138.5
436.284	141.5
436.505	123.5
436.727	121.5
436.949	86.5
437.17	91.5
437.392	98.5
437.614	110.5
437.835	122.5
438.057	140.5
438.278	135.5
438.5	107.5
438.721	143.5
438.943	104.5
439.165	86.5
439.386	89.5
439.608	107.5
439.829	131.5
440.05	141.5
440.272	180.5
440.493	105.5
440.715	88.5
440.936	100.5
441.158	102.5
441.379	101.5
441.6	101.5
441.822	102.5
442.043	102.5
442.264	115.5
442.486	117.5
442.707	102.5
442.928	118.5
443.149	154.5
443.371	168.5
443.592	128.5
443.813	124.5
444.034	123.5
444.255	99.5
444.476	89.5
444.698	90.5
444.919	115.5
445.14	128.5
445.361	130.5
445.582	137.5
445.803	175.5
446.024	167.5
446.245	167.5
446.466	116.5
446.687	102.5
446.908	92.5
447.129	88.5
447.35	104.5
447.571	99.5
447.792	106.5
448.013	119.5
448.234	106.5
448.455	107.5
448.675	133.5
448.896	127.5
449.117	101.5
449.338	111.5
449.559	157.5
449.779	149.5
450	94.5
450.221	93.5
450.442	94.5
450.662	107.5
450.883	121.5
451.104	130.5
451.324	99.5
451.545	99.5
451.766	91.5
451.986	92.5
452.207	85.5
452.428	94.5
452.648	106.5
452.869	144.5
453.089	139.5
453.31	156.5
453.53	117.5
453.751	97.5
453.971	128.5
454.192	120.5
454.412	98.5
454.633	97.5
454.853	84.5
455.073	92.5
455.294	120.5
455.514	112.5
455.734	97.5
455.955	104.5
456.175	88.5
456.395	91.5
456.616	92.5
456.836	78.5
457.056	72.5
457.276	76.5
457.497	72.5
457.717	100.5
457.937	97.5
458.157	94.5
458.377	88.5
458.598	124.5
458.818	204.5
459.038	231.5
459.258	145.5
459.478	95.5
459.698	95.5
459.918	84.5
460.138	91.5
460.358	89.5
460.578	84.5
460.798	83.5
461.018	91.5
461.238	84.5
461.458	105.5
461.678	84.5
461.898	83.5
462.118	86.5
462.338	82.5
462.558	82.5
462.777	78.5
462.997	86.5
463.217	92.5
463.437	90.5
463.657	95.5
463.876	98.5
464.096	95.5
464.316	97.5
464.536	98.5
464.755	102.5
464.975	128.5
465.195	226.5
465.414	222.5
465.634	100.5
465.854	98.5
466.073	92.5
466.293	91.5
466.512	103.5
466.732	90.5
466.951	98.5
467.171	87.5
467.391	100.5
467.61	119.5
467.829	123.5
468.049	157.5
468.268	157.5
468.488	92.5
468.707	82.5
468.927	90.5
469.146	91.5
469.365	101.5
469.585	86.5
469.804	114.5
470.023	104.5
470.243	103.5
470.462	113.5
470.681	119.5
470.901	97.5
471.12	89.5
471.339	93.5
471.558	91.5
471.777	89.5
471.997	110.5
472.216	179.5
472.435	308.5
472.654	118.5
472.873	100.5
473.092	96.5
473.311	104.5
473.53	89.5
473.749	77.5
473.968	119.5
474.187	123.5
474.406	116.5
474.625	88.5
474.844	98.5
475.063	89.5
475.282	83.5
475.501	98.5
475.72	105.5
475.939	97.5
476.158	83.5
476.377	88.5
476.596	99.5
476.814	95.5
477.033	99.5
477.252	100.5
477.471	95.5
477.69	97.5
477.908	89.5
478.127	86.5
478.346	92.5
478.564	88.5
478.783	121.5
479.002	107.5
479.22	96.5
479.439	110.5
479.658	119.5
479.876	111.5
480.095	98.5
480.313	78.5
480.532	109.5
480.751	94.5
480.969	185.5
481.188	491.5
481.406	341.5
481.624	120.5
481.843	89.5
482.061	99.5
482.28	89.5
482.498	92.5
482.717	109.5
482.935	98.5
483.153	89.5
483.372	94.5
483.59	90.5
483.808	79.5
484.027	92.5
484.245	90.5
484.463	102.5
484.681	92.5
484.9	95.5
485.118	89.5
485.336	102.5
485.554	98.5
485.772	98.5
485.99	107.5
486.209	92.5
486.427	99.5
486.645	114.5
486.863	126.5
487.081	102.5
487.299	111.5
487.517	99.5
487.735	90.5
487.953	95.5
488.171	90.5
488.389	103.5
488.607	92.5
488.825	93.5
489.043	86.5
489.261	90.5
489.479	105.5
489.696	109.5
489.914	89.5
490.132	96.5
490.35	102.5
490.568	86.5
490.786	77.5
491.003	90.5
491.221	92.5
491.439	80.5
491.657	87.5
491.874	84.5
492.092	90.5
492.31	98.5
492.527	85.5
492.745	85.5
492.963	100.5
493.18	93.5
493.398	100.5
493.615	103.5
493.833	108.5
494.05	95.5
494.268	79.5
494.485	78.5
494.703	80.5
494.92	94.5
495.138	85.5
495.355	90.5
495.573	102.5
495.79	91.5
496.008	95.5
496.225	104.5
496.442	85.5
496.66	94.5
496.877	92.5
497.094	92.5
497.312	104.5
497.529	100.5
497.746	92.5
497.963	105.5
498.181	103.5
498.398	100.5
498.615	95.5
498.832	120.5
499.049	92.5
499.267	107.5
499.484	106.5
499.701	98.5
499.918	101.5
500.135	94.5
500.352	103.5
500.569	87.5
500.786	86.5
501.003	87.5
501.22	91.5
501.437	92.5
501.654	99.5
501.871	122.5
502.088	103.5
502.305	109.5
502.522	93.5
502.739	84.5
502.956	94.5
503.172	96.5
503.389	106.5
503.606	132.5
503.823	103.5
504.04	103.5
504.256	82.5
504.473	66.5
504.69	93.5
504.907	103.5
505.123	93.5
505.34	96.5
505.557	102.5
505.773	87.5
505.99	106.5
506.207	90.5
506.423	104.5
506.64	90.5
506.856	103.5
507.073	94.5
507.289	97.5
507.506	114.5
507.722	140.5
507.939	145.5
508.155	99.5
508.372	100.5
508.588	100.5
508.805	96.5
509.021	107.5
509.238	116.5
509.454	96.5
509.67	114.5
509.887	107.5
510.103	169.5
510.319	276.5
510.536	1042.5
510.752	3666.5
510.968	1015.5
511.184	193.5
511.401	130.5
511.617	91.5
511.833	98.5
512.049	92.5
512.265	95.5
512.481	100.5
512.698	100.5
512.914	103.5
513.13	112.5
513.346	105.5
513.562	101.5
513.778	109.5
513.994	99.5
514.21	130.5
514.426	154.5
514.642	173.5
514.858	166.5
515.074	229.5
515.29	745.5
515.506	2618.5
515.721	954.5
515.937	216.5
516.153	145.5
516.369	110.5
516.585	124.5
516.801	94.5
517.016	107.5
517.232	108.5
517.448	108.5
517.664	105.5
517.879	96.5
518.095	100.5
518.311	101.5
518.527	86.5
518.742	91.5
518.958	109.5
519.173	101.5
519.389	93.5
519.605	104.5
519.82	116.5
520.036	122.5
520.251	170.5
520.467	135.5
520.682	114.5
520.898	116.5
521.113	118.5
521.329	180.5
521.544	302.5
521.76	914.5
521.975	4316.5
522.19	2681.5
522.406	525.5
522.621	163.5
522.836	111.5
523.052	109.5
523.267	115.5
523.482	98.5
523.698	116.5
523.913	139.5
524.128	119.5
524.343	108.5
524.559	98.5
524.774	94.5
524.989	103.5
525.204	127.5
525.419	121.5
525.634	104.5
525.849	101.5
526.064	103.5
526.28	91.5
526.495	80.5
526.71	88.5
526.925	85.5
527.14	86.5
527.355	93.5
527.57	109.5
527.785	106.5
527.999	96.5
528.214	95.5
528.429	93.5
528.644	93.5
528.859	100.5
529.074	104.5
529.289	134.5
529.503	256.5
529.718	117.5
529.933	101.5
530.148	103.5
530.363	105.5
530.577	90.5
530.792	83.5
531.007	93.5
531.221	98.5
