Data from Circ_2018_H10_HRD10591_00092.txt Node
Date: Wed Jan 03 09:56:20 EST 2024
User: Yrep
Spectrometer: HR+D1059
Trigger mode: 1
Integration Time (sec): 1.000000E-1
Scans to average: 1
Electric dark correction enabled: true
Nonlinearity correction enabled: false
Boxcar width: 0
XAxis mode: Wavelengths
Number of Pixels in Spectrum: 2048
>>>>>Begin Spectral Data<<<<<
223.165	-2.31
223.4	-2.31
223.635	-2.31
223.869	-25.31
224.104	-22.31
224.338	-21.31
224.573	-25.31
224.808	-23.31
225.042	-1.31
225.277	-11.31
225.511	-12.31
225.746	10.69
225.98	13.69
226.215	1.69
226.449	20.69
226.683	24.69
226.918	24.69
227.152	48.69
227.387	31.69
227.621	44.69
227.856	54.69
228.09	56.69
228.324	39.69
228.559	58.69
228.793	48.69
229.027	69.69
229.262	73.69
229.496	78.69
229.73	88.69
229.964	84.69
230.199	75.69
230.433	68.69
230.667	79.69
230.901	86.69
231.136	70.69
231.37	72.69
231.604	83.69
231.838	68.69
232.072	93.69
232.306	73.69
232.541	83.69
232.775	87.69
233.009	75.69
233.243	94.69
233.477	78.69
233.711	86.69
233.945	76.69
234.179	86.69
234.413	81.69
234.647	81.69
234.881	80.69
235.115	67.69
235.349	73.69
235.583	83.69
235.817	82.69
236.051	83.69
236.285	85.69
236.519	66.69
236.753	98.69
236.987	82.69
237.221	96.69
237.455	84.69
237.689	74.69
237.922	87.69
238.156	77.69
238.39	66.69
238.624	73.69
238.858	61.69
239.091	74.69
239.325	80.69
239.559	100.69
239.793	80.69
240.027	73.69
240.26	83.69
240.494	86.69
240.728	81.69
240.961	80.69
241.195	74.69
241.429	74.69
241.662	57.69
241.896	78.69
242.13	76.69
242.363	69.69
242.597	87.69
242.83	58.69
243.064	79.69
243.298	86.69
243.531	65.69
243.765	74.69
243.998	75.69
244.232	67.69
244.465	99.69
244.699	83.69
244.932	85.69
245.166	80.69
245.399	85.69
245.633	72.69
245.866	83.69
246.099	70.69
246.333	73.69
246.566	87.69
246.8	80.69
247.033	76.69
247.266	86.69
247.5	83.69
247.733	86.69
247.966	89.69
248.2	81.69
248.433	66.69
248.666	82.69
248.899	75.69
249.133	90.69
249.366	90.69
249.599	114.69
249.832	79.69
250.066	75.69
250.299	68.69
250.532	83.69
250.765	79.69
250.998	74.69
251.231	77.69
251.465	80.69
251.698	90.69
251.931	71.69
252.164	78.69
252.397	75.69
252.63	83.69
252.863	81.69
253.096	77.69
253.329	80.69
253.562	84.69
253.795	73.69
254.028	84.69
254.261	81.69
254.494	75.69
254.727	77.69
254.96	74.69
255.193	71.69
255.426	86.69
255.659	76.69
255.892	71.69
256.124	83.69
256.357	87.69
256.59	83.69
256.823	94.69
257.056	73.69
257.289	98.69
257.521	86.69
257.754	84.69
257.987	80.69
258.22	95.69
258.452	82.69
258.685	88.69
258.918	74.69
259.151	81.69
259.383	83.69
259.616	79.69
259.849	79.69
260.081	73.69
260.314	101.69
260.547	86.69
260.779	83.69
261.012	81.69
261.244	94.69
261.477	82.69
261.71	99.69
261.942	121.69
262.175	122.69
262.407	81.69
262.64	76.69
262.872	83.69
263.105	81.69
263.337	92.69
263.57	81.69
263.802	80.69
264.035	74.69
264.267	75.69
264.499	78.69
264.732	73.69
264.964	80.69
265.197	80.69
265.429	91.69
265.661	90.69
265.894	71.69
266.126	78.69
266.358	80.69
266.591	82.69
266.823	85.69
267.055	90.69
267.287	72.69
267.52	75.69
267.752	78.69
267.984	70.69
268.216	83.69
268.448	71.69
268.681	70.69
268.913	74.69
269.145	93.69
269.377	90.69
269.609	79.69
269.841	74.69
270.073	85.69
270.306	92.69
270.538	90.69
270.77	81.69
271.002	90.69
271.234	66.69
271.466	68.69
271.698	97.69
271.93	78.69
272.162	86.69
272.394	83.69
272.626	93.69
272.858	79.69
273.09	89.69
273.322	99.69
273.553	100.69
273.785	81.69
274.017	79.69
274.249	80.69
274.481	82.69
274.713	72.69
274.945	99.69
275.176	83.69
275.408	90.69
275.64	102.69
275.872	84.69
276.104	90.69
276.335	92.69
276.567	114.69
276.799	107.69
277.031	98.69
277.262	113.69
277.494	92.69
277.726	81.69
277.957	82.69
278.189	90.69
278.421	88.69
278.652	81.69
278.884	76.69
279.115	84.69
279.347	78.69
279.579	86.69
279.81	93.69
280.042	88.69
280.273	92.69
280.505	86.69
280.736	89.69
280.968	99.69
281.199	88.69
281.431	98.69
281.662	79.69
281.894	85.69
282.125	99.69
282.356	128.69
282.588	161.69
282.819	123.69
283.051	88.69
283.282	80.69
283.513	90.69
283.745	91.69
283.976	95.69
284.207	81.69
284.439	82.69
284.67	65.69
284.901	75.69
285.132	81.69
285.364	79.69
285.595	78.69
285.826	95.69
286.057	86.69
286.288	81.69
286.52	74.69
286.751	87.69
286.982	90.69
287.213	84.69
287.444	84.69
287.675	91.69
287.906	83.69
288.138	101.69
288.369	79.69
288.6	92.69
288.831	89.69
289.062	87.69
289.293	91.69
289.524	79.69
289.755	76.69
289.986	82.69
290.217	84.69
290.448	82.69
290.679	89.69
290.91	72.69
291.141	77.69
291.371	83.69
291.602	87.69
291.833	87.69
292.064	83.69
292.295	92.69
292.526	89.69
292.757	82.69
292.987	83.69
293.218	93.69
293.449	87.69
293.68	96.69
293.91	83.69
294.141	83.69
294.372	93.69
294.603	80.69
294.833	91.69
295.064	89.69
295.295	81.69
295.525	85.69
295.756	100.69
295.987	122.69
296.217	138.69
296.448	111.69
296.679	99.69
296.909	87.69
297.14	83.69
297.37	100.69
297.601	93.69
297.831	83.69
298.062	100.69
298.292	103.69
298.523	100.69
298.753	89.69
298.984	79.69
299.214	94.69
299.445	91.69
299.675	86.69
299.905	94.69
300.136	101.69
300.366	83.69
300.597	87.69
300.827	91.69
301.057	98.69
301.288	97.69
301.518	97.69
301.748	76.69
301.979	103.69
302.209	87.69
302.439	84.69
302.669	92.69
302.9	91.69
303.13	90.69
303.36	94.69
303.59	104.69
303.82	103.69
304.051	107.69
304.281	90.69
304.511	92.69
304.741	104.69
304.971	76.69
305.201	91.69
305.431	81.69
305.661	83.69
305.891	79.69
306.121	89.69
306.352	93.69
306.582	100.69
306.812	90.69
307.042	97.69
307.272	103.69
307.502	98.69
307.731	102.69
307.961	83.69
308.191	90.69
308.421	87.69
308.651	98.69
308.881	90.69
309.111	93.69
309.341	105.69
309.571	112.69
309.8	104.69
310.03	86.69
310.26	89.69
310.49	88.69
310.72	94.69
310.949	91.69
311.179	110.69
311.409	105.69
311.639	84.69
311.868	86.69
312.098	96.69
312.328	94.69
312.557	99.69
312.787	101.69
313.017	106.69
313.246	91.69
313.476	91.69
313.706	99.69
313.935	97.69
314.165	98.69
314.394	113.69
314.624	95.69
314.853	102.69
315.083	108.69
315.312	89.69
315.542	84.69
315.771	94.69
316.001	85.69
316.23	89.69
316.46	90.69
316.689	76.69
316.919	90.69
317.148	90.69
317.377	111.69
317.607	87.69
317.836	95.69
318.065	101.69
318.295	84.69
318.524	87.69
318.753	101.69
318.983	109.69
319.212	101.69
319.441	114.69
319.67	105.69
319.9	100.69
320.129	97.69
320.358	98.69
320.587	98.69
320.816	97.69
321.046	99.69
321.275	101.69
321.504	89.69
321.733	101.69
321.962	106.69
322.191	104.69
322.42	113.69
322.649	98.69
322.878	109.69
323.108	118.69
323.337	115.69
323.566	125.69
323.795	166.69
324.024	225.69
324.253	437.69
324.482	903.69
324.71	1867.69
324.939	2415.69
325.168	880.69
325.397	256.69
325.626	153.69
325.855	124.69
326.084	134.69
326.313	136.69
326.542	168.69
326.77	231.69
326.999	496.69
327.228	989.69
327.457	1811.69
327.686	1446.69
327.914	398.69
328.143	220.69
328.372	171.69
328.6	142.69
328.829	129.69
329.058	136.69
329.287	130.69
329.515	117.69
329.744	110.69
329.972	124.69
330.201	166.69
330.43	187.69
330.658	150.69
330.887	151.69
331.115	128.69
331.344	99.69
331.572	111.69
331.801	98.69
332.03	103.69
332.258	117.69
332.486	98.69
332.715	92.69
332.943	106.69
333.172	108.69
333.4	102.69
333.629	126.69
333.857	118.69
334.085	152.69
334.314	164.69
334.542	221.69
334.771	190.69
334.999	125.69
335.227	91.69
335.455	95.69
335.684	104.69
335.912	89.69
336.14	99.69
336.369	102.69
336.597	97.69
336.825	82.69
337.053	107.69
337.281	88.69
337.51	79.69
337.738	94.69
337.966	103.69
338.194	98.69
338.422	106.69
338.65	92.69
338.878	91.69
339.106	75.69
339.334	97.69
339.562	94.69
339.79	91.69
340.018	99.69
340.246	96.69
340.474	87.69
340.702	83.69
340.93	91.69
341.158	86.69
341.386	85.69
341.614	91.69
341.842	100.69
342.07	92.69
342.298	87.69
342.526	93.69
342.754	89.69
342.981	83.69
343.209	89.69
343.437	87.69
343.665	90.69
343.893	92.69
344.12	85.69
344.348	96.69
344.576	94.69
344.804	100.69
345.031	85.69
345.259	94.69
345.487	93.69
345.714	88.69
345.942	83.69
346.17	73.69
346.397	104.69
346.625	94.69
346.853	88.69
347.08	88.69
347.308	90.69
347.535	113.69
347.763	92.69
347.99	110.69
348.218	103.69
348.445	114.69
348.673	101.69
348.9	96.69
349.128	94.69
349.355	83.69
349.583	80.69
349.81	97.69
350.037	98.69
350.265	87.69
350.492	92.69
350.72	101.69
350.947	113.69
351.174	114.69
351.402	104.69
351.629	104.69
351.856	110.69
352.083	96.69
352.311	91.69
352.538	100.69
352.765	117.69
352.992	117.69
353.22	116.69
353.447	95.69
353.674	92.69
353.901	101.69
354.128	100.69
354.355	94.69
354.583	110.69
354.81	89.69
355.037	100.69
355.264	95.69
355.491	89.69
355.718	86.69
355.945	97.69
356.172	100.69
356.399	92.69
356.626	99.69
356.853	93.69
357.08	85.69
357.307	87.69
357.534	85.69
357.761	84.69
357.988	101.69
358.215	93.69
358.441	101.69
358.668	95.69
358.895	90.69
359.122	86.69
359.349	82.69
359.576	89.69
359.802	96.69
360.029	130.69
360.256	123.69
360.483	97.69
360.709	93.69
360.936	89.69
361.163	100.69
361.39	99.69
361.616	106.69
361.843	91.69
362.07	89.69
362.296	83.69
362.523	95.69
362.749	93.69
362.976	96.69
363.203	81.69
363.429	83.69
363.656	85.69
363.882	112.69
364.109	91.69
364.335	78.69
364.562	92.69
364.788	93.69
365.015	95.69
365.241	94.69
365.468	111.69
365.694	116.69
365.92	105.69
366.147	86.69
366.373	86.69
366.599	98.69
366.826	91.69
367.052	83.69
367.278	73.69
367.505	100.69
367.731	97.69
367.957	86.69
368.184	79.69
368.41	104.69
368.636	127.69
368.862	118.69
369.089	110.69
369.315	99.69
369.541	114.69
369.767	79.69
369.993	91.69
370.219	94.69
370.445	96.69
370.672	91.69
370.898	83.69
371.124	97.69
371.35	90.69
371.576	87.69
371.802	97.69
372.028	84.69
372.254	86.69
372.48	91.69
372.706	88.69
372.932	81.69
373.158	84.69
373.384	89.69
373.61	94.69
373.835	84.69
374.061	91.69
374.287	88.69
374.513	83.69
374.739	85.69
374.965	86.69
375.191	89.69
375.416	96.69
375.642	86.69
375.868	88.69
376.094	94.69
376.319	85.69
376.545	107.69
376.771	89.69
376.997	99.69
377.222	91.69
377.448	86.69
377.674	80.69
377.899	90.69
378.125	93.69
378.35	97.69
378.576	94.69
378.802	75.69
379.027	84.69
379.253	86.69
379.478	100.69
379.704	79.69
379.929	100.69
380.155	96.69
380.38	83.69
380.606	103.69
380.831	97.69
381.057	88.69
381.282	90.69
381.507	96.69
381.733	106.69
381.958	110.69
382.184	109.69
382.409	87.69
382.634	106.69
382.86	83.69
383.085	84.69
383.31	101.69
383.535	99.69
383.761	85.69
383.986	88.69
384.211	95.69
384.436	91.69
384.662	113.69
384.887	92.69
385.112	87.69
385.337	86.69
385.562	100.69
385.787	101.69
386.013	110.69
386.238	108.69
386.463	103.69
386.688	99.69
386.913	102.69
387.138	96.69
387.363	126.69
387.588	92.69
387.813	86.69
388.038	99.69
388.263	102.69
388.488	112.69
388.713	93.69
388.938	98.69
389.163	89.69
389.387	91.69
389.612	84.69
389.837	87.69
390.062	94.69
390.287	84.69
390.512	97.69
390.736	89.69
390.961	92.69
391.186	106.69
391.411	93.69
391.636	90.69
391.86	92.69
392.085	79.69
392.31	87.69
392.534	80.69
392.759	93.69
392.984	84.69
393.208	75.69
393.433	84.69
393.658	74.69
393.882	75.69
394.107	84.69
394.331	90.69
394.556	79.69
394.78	92.69
395.005	73.69
395.229	68.69
395.454	90.69
395.678	86.69
395.903	86.69
396.127	90.69
396.352	83.69
396.576	88.69
396.801	83.69
397.025	87.69
397.249	97.69
397.474	89.69
397.698	83.69
397.922	82.69
398.147	80.69
398.371	79.69
398.595	83.69
398.82	78.69
399.044	87.69
399.268	85.69
399.492	84.69
399.717	90.69
399.941	90.69
400.165	97.69
400.389	92.69
400.613	93.69
400.837	92.69
401.062	92.69
401.286	94.69
401.51	76.69
401.734	82.69
401.958	100.69
402.182	135.69
402.406	175.69
402.63	136.69
402.854	92.69
403.078	94.69
403.302	86.69
403.526	83.69
403.75	73.69
403.974	87.69
404.198	84.69
404.422	105.69
404.645	89.69
404.869	98.69
405.093	85.69
405.317	103.69
405.541	122.69
405.765	94.69
405.988	121.69
406.212	180.69
406.436	263.69
406.66	164.69
406.883	110.69
407.107	94.69
407.331	91.69
407.555	101.69
407.778	95.69
408.002	96.69
408.226	80.69
408.449	93.69
408.673	98.69
408.896	97.69
409.12	100.69
409.344	86.69
409.567	87.69
409.791	100.69
410.014	94.69
410.238	90.69
410.461	88.69
410.685	84.69
410.908	97.69
411.132	112.69
411.355	101.69
411.578	104.69
411.802	92.69
412.025	83.69
412.249	90.69
412.472	86.69
412.695	110.69
412.919	84.69
413.142	88.69
413.365	89.69
413.589	96.69
413.812	94.69
414.035	86.69
414.258	85.69
414.482	88.69
414.705	94.69
414.928	99.69
415.151	82.69
415.374	81.69
415.597	77.69
415.821	90.69
416.044	91.69
416.267	81.69
416.49	99.69
416.713	73.69
416.936	86.69
417.159	106.69
417.382	85.69
417.605	82.69
417.828	81.69
418.051	91.69
418.274	91.69
418.497	80.69
418.72	73.69
418.943	92.69
419.166	92.69
419.389	97.69
419.611	82.69
419.834	99.69
420.057	89.69
420.28	83.69
420.503	89.69
420.726	89.69
420.948	92.69
421.171	87.69
421.394	92.69
421.617	94.69
421.839	94.69
422.062	95.69
422.285	100.69
422.507	97.69
422.73	104.69
422.953	86.69
423.175	99.69
423.398	88.69
423.621	95.69
423.843	104.69
424.066	80.69
424.288	91.69
424.511	82.69
424.733	102.69
424.956	113.69
425.178	103.69
425.401	99.69
425.623	97.69
425.846	84.69
426.068	85.69
426.291	88.69
426.513	89.69
426.735	82.69
426.958	90.69
427.18	109.69
427.402	145.69
427.625	183.69
427.847	142.69
428.069	124.69
428.292	90.69
428.514	90.69
428.736	88.69
428.958	85.69
429.181	83.69
429.403	76.69
429.625	78.69
429.847	82.69
430.069	107.69
430.292	99.69
430.514	99.69
430.736	83.69
430.958	81.69
431.18	91.69
431.402	76.69
431.624	83.69
431.846	94.69
432.068	86.69
432.29	88.69
432.512	92.69
432.734	81.69
432.956	91.69
433.178	107.69
433.4	95.69
433.622	105.69
433.844	83.69
434.066	91.69
434.287	83.69
434.509	79.69
434.731	90.69
434.953	93.69
435.175	90.69
435.397	97.69
435.618	91.69
435.84	95.69
436.062	121.69
436.284	110.69
436.505	98.69
436.727	101.69
436.949	96.69
437.17	96.69
437.392	82.69
437.614	95.69
437.835	122.69
438.057	117.69
438.278	118.69
438.5	96.69
438.721	126.69
438.943	110.69
439.165	93.69
439.386	94.69
439.608	82.69
439.829	94.69
440.05	133.69
440.272	158.69
440.493	110.69
440.715	88.69
440.936	76.69
441.158	87.69
441.379	95.69
441.6	99.69
441.822	111.69
442.043	97.69
442.264	100.69
442.486	94.69
442.707	95.69
442.928	113.69
443.149	126.69
443.371	144.69
443.592	96.69
443.813	111.69
444.034	117.69
444.255	100.69
444.476	95.69
444.698	90.69
444.919	88.69
445.14	126.69
445.361	131.69
445.582	120.69
445.803	143.69
446.024	159.69
446.245	132.69
446.466	115.69
446.687	90.69
446.908	81.69
447.129	96.69
447.35	90.69
447.571	79.69
447.792	91.69
448.013	115.69
448.234	116.69
448.455	95.69
448.675	105.69
448.896	122.69
449.117	91.69
449.338	105.69
449.559	136.69
449.779	139.69
450	84.69
450.221	90.69
450.442	83.69
450.662	99.69
450.883	98.69
451.104	111.69
451.324	91.69
451.545	93.69
451.766	72.69
451.986	81.69
452.207	83.69
452.428	86.69
452.648	97.69
452.869	110.69
453.089	117.69
453.31	138.69
453.53	88.69
453.751	75.69
453.971	104.69
454.192	122.69
454.412	93.69
454.633	76.69
454.853	86.69
455.073	90.69
455.294	86.69
455.514	91.69
455.734	88.69
455.955	65.69
456.175	82.69
456.395	79.69
456.616	76.69
456.836	80.69
457.056	97.69
457.276	81.69
457.497	82.69
457.717	70.69
457.937	90.69
458.157	81.69
458.377	95.69
458.598	116.69
458.818	163.69
459.038	179.69
459.258	121.69
459.478	75.69
459.698	91.69
459.918	83.69
460.138	95.69
460.358	80.69
460.578	89.69
460.798	81.69
461.018	85.69
461.238	82.69
461.458	88.69
461.678	79.69
461.898	76.69
462.118	88.69
462.338	98.69
462.558	85.69
462.777	88.69
462.997	95.69
463.217	74.69
463.437	85.69
463.657	90.69
463.876	80.69
464.096	89.69
464.316	97.69
464.536	95.69
464.755	100.69
464.975	112.69
465.195	178.69
465.414	184.69
465.634	98.69
465.854	78.69
466.073	83.69
466.293	91.69
466.512	87.69
466.732	94.69
466.951	96.69
467.171	95.69
467.391	95.69
467.61	89.69
467.829	118.69
468.049	124.69
468.268	126.69
468.488	94.69
468.707	84.69
468.927	66.69
469.146	83.69
469.365	84.69
469.585	83.69
469.804	94.69
470.023	89.69
470.243	89.69
470.462	101.69
470.681	106.69
470.901	87.69
471.12	86.69
471.339	83.69
471.558	80.69
471.777	88.69
471.997	105.69
472.216	158.69
472.435	241.69
472.654	118.69
472.873	92.69
473.092	73.69
473.311	82.69
473.53	85.69
473.749	87.69
473.968	97.69
474.187	132.69
474.406	111.69
474.625	93.69
474.844	91.69
475.063	68.69
475.282	71.69
475.501	101.69
475.72	101.69
475.939	103.69
476.158	100.69
476.377	71.69
476.596	108.69
476.814	88.69
477.033	85.69
477.252	111.69
477.471	74.69
477.69	96.69
477.908	77.69
478.127	90.69
478.346	88.69
478.564	84.69
478.783	103.69
479.002	95.69
479.22	101.69
479.439	113.69
479.658	106.69
479.876	93.69
480.095	85.69
480.313	102.69
480.532	82.69
480.751	106.69
480.969	154.69
481.188	366.69
481.406	282.69
481.624	111.69
481.843	97.69
482.061	85.69
482.28	96.69
482.498	90.69
482.717	99.69
482.935	95.69
483.153	93.69
483.372	83.69
483.59	83.69
483.808	78.69
484.027	91.69
484.245	84.69
484.463	84.69
484.681	99.69
484.9	99.69
485.118	106.69
485.336	98.69
485.554	89.69
485.772	103.69
485.99	104.69
486.209	118.69
486.427	98.69
486.645	94.69
486.863	104.69
487.081	115.69
487.299	93.69
487.517	103.69
487.735	91.69
487.953	86.69
488.171	90.69
488.389	99.69
488.607	99.69
488.825	89.69
489.043	106.69
489.261	95.69
489.479	93.69
489.696	98.69
489.914	104.69
490.132	87.69
490.35	97.69
490.568	73.69
490.786	97.69
491.003	82.69
491.221	84.69
491.439	91.69
491.657	96.69
491.874	90.69
492.092	99.69
492.31	84.69
492.527	81.69
492.745	89.69
492.963	82.69
493.18	87.69
493.398	85.69
493.615	98.69
493.833	94.69
494.05	100.69
494.268	89.69
494.485	94.69
494.703	90.69
494.92	88.69
495.138	91.69
495.355	78.69
495.573	93.69
495.79	81.69
496.008	83.69
496.225	97.69
496.442	96.69
496.66	95.69
496.877	96.69
497.094	83.69
497.312	92.69
497.529	83.69
497.746	97.69
497.963	68.69
498.181	106.69
498.398	91.69
498.615	112.69
498.832	116.69
499.049	87.69
499.267	91.69
499.484	88.69
499.701	79.69
499.918	86.69
500.135	94.69
500.352	86.69
500.569	94.69
500.786	88.69
501.003	91.69
501.22	94.69
501.437	86.69
501.654	106.69
501.871	114.69
502.088	98.69
502.305	94.69
502.522	94.69
502.739	92.69
502.956	89.69
503.172	98.69
503.389	98.69
503.606	112.69
503.823	98.69
504.04	93.69
504.256	95.69
504.473	96.69
504.69	69.69
504.907	93.69
505.123	78.69
505.34	95.69
505.557	82.69
505.773	91.69
505.99	79.69
506.207	86.69
506.423	73.69
506.64	91.69
506.856	88.69
507.073	91.69
507.289	87.69
507.506	99.69
507.722	117.69
507.939	128.69
508.155	101.69
508.372	106.69
508.588	103.69
508.805	89.69
509.021	91.69
509.238	99.69
509.454	98.69
509.67	104.69
509.887	112.69
510.103	154.69
510.319	218.69
510.536	889.69
510.752	3007.69
510.968	825.69
511.184	174.69
511.401	118.69
511.617	115.69
511.833	73.69
512.049	95.69
512.265	87.69
512.481	89.69
512.698	90.69
512.914	86.69
513.13	98.69
513.346	99.69
513.562	92.69
513.778	104.69
513.994	107.69
514.21	103.69
514.426	121.69
514.642	166.69
514.858	135.69
515.074	193.69
515.29	548.69
515.506	1940.69
