Data from Circ_2018_H10_HRD10591_00009.txt Node
Date: Wed Jan 03 09:56:03 EST 2024
User: Yrep
Spectrometer: HR+D1059
Trigger mode: 1
Integration Time (sec): 1.000000E-1
Scans to average: 1
Electric dark correction enabled: true
Nonlinearity correction enabled: false
Boxcar width: 0
XAxis mode: Wavelengths
Number of Pixels in Spectrum: 2048
>>>>>Begin Spectral Data<<<<<
223.165	-7.38
223.4	-7.38
223.635	-7.38
223.869	-15.38
224.104	-32.38
224.338	-26.38
224.573	-17.38
224.808	-14.38
225.042	-14.38
225.277	-6.38
225.511	10.62
225.746	10.62
225.98	2.62
226.215	22.62
226.449	4.62
226.683	33.62
226.918	24.62
227.152	24.62
227.387	29.62
227.621	42.62
227.856	50.62
228.09	38.62
228.324	43.62
228.559	51.62
228.793	58.62
229.027	57.62
229.262	55.62
229.496	79.62
229.73	77.62
229.964	95.62
230.199	65.62
230.433	65.62
230.667	78.62
230.901	78.62
231.136	71.62
231.37	60.62
231.604	61.62
231.838	80.62
232.072	92.62
232.306	77.62
232.541	81.62
232.775	92.62
233.009	77.62
233.243	81.62
233.477	72.62
233.711	85.62
233.945	92.62
234.179	66.62
234.413	79.62
234.647	77.62
234.881	74.62
235.115	81.62
235.349	64.62
235.583	83.62
235.817	69.62
236.051	87.62
236.285	88.62
236.519	80.62
236.753	82.62
236.987	91.62
237.221	73.62
237.455	88.62
237.689	82.62
237.922	57.62
238.156	76.62
238.39	78.62
238.624	64.62
238.858	74.62
239.091	83.62
239.325	86.62
239.559	87.62
239.793	83.62
240.027	79.62
240.26	85.62
240.494	81.62
240.728	78.62
240.961	73.62
241.195	83.62
241.429	63.62
241.662	70.62
241.896	74.62
242.13	65.62
242.363	76.62
242.597	68.62
242.83	77.62
243.064	68.62
243.298	84.62
243.531	74.62
243.765	78.62
243.998	78.62
244.232	72.62
244.465	80.62
244.699	77.62
244.932	71.62
245.166	61.62
245.399	84.62
245.633	67.62
245.866	86.62
246.099	62.62
246.333	67.62
246.566	84.62
246.8	75.62
247.033	66.62
247.266	78.62
247.5	67.62
247.733	69.62
247.966	76.62
248.2	73.62
248.433	64.62
248.666	90.62
248.899	80.62
249.133	86.62
249.366	85.62
249.599	110.62
249.832	85.62
250.066	73.62
250.299	74.62
250.532	64.62
250.765	82.62
250.998	73.62
251.231	82.62
251.465	79.62
251.698	66.62
251.931	64.62
252.164	79.62
252.397	76.62
252.63	75.62
252.863	74.62
253.096	86.62
253.329	74.62
253.562	69.62
253.795	84.62
254.028	82.62
254.261	95.62
254.494	73.62
254.727	84.62
254.96	68.62
255.193	83.62
255.426	82.62
255.659	78.62
255.892	82.62
256.124	92.62
256.357	76.62
256.59	76.62
256.823	75.62
257.056	87.62
257.289	77.62
257.521	79.62
257.754	77.62
257.987	72.62
258.22	69.62
258.452	73.62
258.685	80.62
258.918	80.62
259.151	91.62
259.383	75.62
259.616	72.62
259.849	81.62
260.081	86.62
260.314	72.62
260.547	94.62
260.779	81.62
261.012	81.62
261.244	91.62
261.477	75.62
261.71	87.62
261.942	113.62
262.175	122.62
262.407	96.62
262.64	94.62
262.872	89.62
263.105	83.62
263.337	91.62
263.57	86.62
263.802	79.62
264.035	62.62
264.267	90.62
264.499	91.62
264.732	83.62
264.964	70.62
265.197	67.62
265.429	82.62
265.661	83.62
265.894	83.62
266.126	79.62
266.358	85.62
266.591	73.62
266.823	83.62
267.055	76.62
267.287	85.62
267.52	79.62
267.752	88.62
267.984	82.62
268.216	84.62
268.448	75.62
268.681	94.62
268.913	79.62
269.145	85.62
269.377	88.62
269.609	93.62
269.841	90.62
270.073	80.62
270.306	77.62
270.538	86.62
270.77	83.62
271.002	86.62
271.234	84.62
271.466	79.62
271.698	88.62
271.93	76.62
272.162	86.62
272.394	84.62
272.626	85.62
272.858	97.62
273.09	81.62
273.322	99.62
273.553	86.62
273.785	73.62
274.017	76.62
274.249	90.62
274.481	84.62
274.713	74.62
274.945	84.62
275.176	81.62
275.408	94.62
275.64	95.62
275.872	74.62
276.104	87.62
276.335	93.62
276.567	82.62
276.799	126.62
277.031	107.62
277.262	101.62
277.494	89.62
277.726	92.62
277.957	83.62
278.189	75.62
278.421	78.62
278.652	80.62
278.884	73.62
279.115	83.62
279.347	88.62
279.579	95.62
279.81	84.62
280.042	88.62
280.273	79.62
280.505	97.62
280.736	86.62
280.968	72.62
281.199	83.62
281.431	79.62
281.662	85.62
281.894	96.62
282.125	99.62
282.356	112.62
282.588	139.62
282.819	109.62
283.051	89.62
283.282	86.62
283.513	92.62
283.745	101.62
283.976	70.62
284.207	95.62
284.439	88.62
284.67	82.62
284.901	94.62
285.132	92.62
285.364	95.62
285.595	71.62
285.826	83.62
286.057	88.62
286.288	80.62
286.52	88.62
286.751	93.62
286.982	85.62
287.213	78.62
287.444	77.62
287.675	80.62
287.906	84.62
288.138	66.62
288.369	94.62
288.6	90.62
288.831	81.62
289.062	85.62
289.293	86.62
289.524	88.62
289.755	83.62
289.986	80.62
290.217	87.62
290.448	87.62
290.679	97.62
290.91	96.62
291.141	86.62
291.371	89.62
291.602	93.62
291.833	94.62
292.064	85.62
292.295	87.62
292.526	69.62
292.757	80.62
292.987	79.62
293.218	68.62
293.449	83.62
293.68	100.62
293.91	74.62
294.141	84.62
294.372	89.62
294.603	92.62
294.833	92.62
295.064	84.62
295.295	96.62
295.525	87.62
295.756	112.62
295.987	120.62
296.217	135.62
296.448	114.62
296.679	83.62
296.909	66.62
297.14	91.62
297.37	87.62
297.601	93.62
297.831	92.62
298.062	97.62
298.292	94.62
298.523	81.62
298.753	89.62
298.984	71.62
299.214	96.62
299.445	88.62
299.675	91.62
299.905	94.62
300.136	92.62
300.366	86.62
300.597	99.62
300.827	83.62
301.057	101.62
301.288	102.62
301.518	83.62
301.748	101.62
301.979	95.62
302.209	84.62
302.439	85.62
302.669	84.62
302.9	88.62
303.13	90.62
303.36	93.62
303.59	94.62
303.82	118.62
304.051	94.62
304.281	86.62
304.511	91.62
304.741	94.62
304.971	87.62
305.201	94.62
305.431	72.62
305.661	77.62
305.891	92.62
306.121	87.62
306.352	102.62
306.582	101.62
306.812	96.62
307.042	84.62
307.272	91.62
307.502	90.62
307.731	91.62
307.961	96.62
308.191	88.62
308.421	87.62
308.651	93.62
308.881	92.62
309.111	80.62
309.341	97.62
309.571	107.62
309.8	105.62
310.03	111.62
310.26	92.62
310.49	86.62
310.72	99.62
310.949	128.62
311.179	114.62
311.409	93.62
311.639	85.62
311.868	92.62
312.098	94.62
312.328	96.62
312.557	104.62
312.787	114.62
313.017	97.62
313.246	82.62
313.476	88.62
313.706	79.62
313.935	92.62
314.165	100.62
314.394	105.62
314.624	94.62
314.853	96.62
315.083	100.62
315.312	96.62
315.542	81.62
315.771	83.62
316.001	89.62
316.23	79.62
316.46	99.62
316.689	86.62
316.919	106.62
317.148	80.62
317.377	94.62
317.607	91.62
317.836	90.62
318.065	95.62
318.295	84.62
318.524	97.62
318.753	99.62
318.983	100.62
319.212	94.62
319.441	108.62
319.67	114.62
319.9	78.62
320.129	84.62
320.358	94.62
320.587	102.62
320.816	104.62
321.046	105.62
321.275	87.62
321.504	90.62
321.733	96.62
321.962	89.62
322.191	91.62
322.42	105.62
322.649	99.62
322.878	106.62
323.108	114.62
323.337	137.62
323.566	125.62
323.795	161.62
324.024	210.62
324.253	416.62
324.482	851.62
324.71	1701.62
324.939	2205.62
325.168	810.62
325.397	248.62
325.626	140.62
325.855	118.62
326.084	118.62
326.313	117.62
326.542	157.62
326.77	237.62
326.999	460.62
327.228	888.62
327.457	1625.62
327.686	1324.62
327.914	369.62
328.143	184.62
328.372	156.62
328.6	132.62
328.829	124.62
329.058	134.62
329.287	145.62
329.515	121.62
329.744	116.62
329.972	106.62
330.201	114.62
330.43	137.62
330.658	145.62
330.887	160.62
331.115	133.62
331.344	99.62
331.572	103.62
331.801	107.62
332.03	91.62
332.258	94.62
332.486	91.62
332.715	93.62
332.943	101.62
333.172	112.62
333.4	96.62
333.629	112.62
333.857	112.62
334.085	107.62
334.314	111.62
334.542	110.62
334.771	129.62
334.999	98.62
335.227	101.62
335.455	87.62
335.684	104.62
335.912	92.62
336.14	95.62
336.369	92.62
336.597	102.62
336.825	93.62
337.053	86.62
337.281	90.62
337.51	85.62
337.738	98.62
337.966	90.62
338.194	101.62
338.422	91.62
338.65	87.62
338.878	93.62
339.106	87.62
339.334	87.62
339.562	82.62
339.79	85.62
340.018	95.62
340.246	85.62
340.474	92.62
340.702	87.62
340.93	98.62
341.158	78.62
341.386	97.62
341.614	93.62
341.842	90.62
342.07	91.62
342.298	89.62
342.526	77.62
342.754	90.62
342.981	83.62
343.209	85.62
343.437	85.62
343.665	81.62
343.893	84.62
344.12	100.62
344.348	88.62
344.576	85.62
344.804	91.62
345.031	108.62
345.259	96.62
345.487	96.62
345.714	96.62
345.942	83.62
346.17	89.62
346.397	89.62
346.625	89.62
346.853	101.62
347.08	92.62
347.308	97.62
347.535	94.62
347.763	110.62
347.99	106.62
348.218	84.62
348.445	96.62
348.673	105.62
348.9	87.62
349.128	95.62
349.355	92.62
349.583	95.62
349.81	94.62
350.037	91.62
350.265	94.62
350.492	88.62
350.72	94.62
350.947	78.62
351.174	112.62
351.402	116.62
351.629	100.62
351.856	100.62
352.083	102.62
352.311	101.62
352.538	100.62
352.765	128.62
352.992	107.62
353.22	115.62
353.447	102.62
353.674	103.62
353.901	85.62
354.128	94.62
354.355	98.62
354.583	87.62
354.81	112.62
355.037	89.62
355.264	99.62
355.491	102.62
355.718	91.62
355.945	95.62
356.172	85.62
356.399	84.62
356.626	80.62
356.853	74.62
357.08	92.62
357.307	82.62
357.534	93.62
357.761	96.62
357.988	94.62
358.215	103.62
358.441	94.62
358.668	101.62
358.895	81.62
359.122	94.62
359.349	95.62
359.576	88.62
359.802	105.62
360.029	116.62
360.256	117.62
360.483	96.62
360.709	98.62
360.936	97.62
361.163	78.62
361.39	97.62
361.616	82.62
361.843	102.62
362.07	110.62
362.296	88.62
362.523	87.62
362.749	90.62
362.976	77.62
363.203	94.62
363.429	86.62
363.656	93.62
363.882	85.62
364.109	81.62
364.335	85.62
364.562	80.62
364.788	90.62
365.015	101.62
365.241	116.62
365.468	101.62
365.694	113.62
365.92	89.62
366.147	79.62
366.373	72.62
366.599	88.62
366.826	84.62
367.052	89.62
367.278	98.62
367.505	90.62
367.731	90.62
367.957	85.62
368.184	81.62
368.41	88.62
368.636	116.62
368.862	124.62
369.089	97.62
369.315	95.62
369.541	82.62
369.767	91.62
369.993	84.62
370.219	96.62
370.445	100.62
370.672	76.62
370.898	85.62
371.124	87.62
371.35	82.62
371.576	87.62
371.802	89.62
372.028	87.62
372.254	94.62
372.48	74.62
372.706	84.62
372.932	94.62
373.158	82.62
373.384	90.62
373.61	100.62
373.835	89.62
374.061	85.62
374.287	82.62
374.513	87.62
374.739	93.62
374.965	96.62
375.191	85.62
375.416	95.62
375.642	97.62
375.868	93.62
376.094	89.62
376.319	81.62
376.545	83.62
376.771	82.62
376.997	95.62
377.222	100.62
377.448	94.62
377.674	89.62
377.899	91.62
378.125	86.62
378.35	92.62
378.576	88.62
378.802	94.62
379.027	90.62
379.253	99.62
379.478	86.62
379.704	82.62
379.929	97.62
380.155	75.62
380.38	98.62
380.606	90.62
380.831	97.62
381.057	109.62
381.282	98.62
381.507	93.62
381.733	108.62
381.958	99.62
382.184	92.62
382.409	108.62
382.634	98.62
382.86	98.62
383.085	111.62
383.31	112.62
383.535	99.62
383.761	108.62
383.986	94.62
384.211	94.62
384.436	111.62
384.662	105.62
384.887	89.62
385.112	91.62
385.337	105.62
385.562	111.62
385.787	107.62
386.013	95.62
386.238	118.62
386.463	116.62
386.688	118.62
386.913	96.62
387.138	114.62
387.363	105.62
387.588	92.62
387.813	97.62
388.038	105.62
388.263	112.62
388.488	101.62
388.713	84.62
388.938	74.62
389.163	93.62
389.387	97.62
389.612	97.62
389.837	93.62
390.062	89.62
390.287	88.62
390.512	83.62
390.736	96.62
390.961	87.62
391.186	91.62
391.411	84.62
391.636	91.62
391.86	77.62
392.085	70.62
392.31	90.62
392.534	96.62
392.759	90.62
392.984	94.62
393.208	96.62
393.433	94.62
393.658	91.62
393.882	82.62
394.107	69.62
394.331	81.62
394.556	96.62
394.78	85.62
395.005	75.62
395.229	85.62
395.454	85.62
395.678	85.62
395.903	88.62
396.127	89.62
396.352	93.62
396.576	82.62
396.801	81.62
397.025	80.62
397.249	70.62
397.474	88.62
397.698	88.62
397.922	76.62
398.147	77.62
398.371	64.62
398.595	84.62
398.82	86.62
399.044	85.62
399.268	91.62
399.492	97.62
399.717	87.62
399.941	90.62
400.165	83.62
400.389	94.62
400.613	88.62
400.837	81.62
401.062	61.62
401.286	99.62
401.51	83.62
401.734	93.62
401.958	107.62
402.182	126.62
402.406	160.62
402.63	138.62
402.854	88.62
403.078	78.62
403.302	81.62
403.526	81.62
403.75	87.62
403.974	71.62
404.198	86.62
404.422	77.62
404.645	75.62
404.869	84.62
405.093	98.62
405.317	89.62
405.541	93.62
405.765	105.62
405.988	127.62
406.212	182.62
406.436	249.62
406.66	157.62
406.883	99.62
407.107	92.62
407.331	102.62
407.555	87.62
407.778	81.62
408.002	81.62
408.226	75.62
408.449	77.62
408.673	67.62
408.896	79.62
409.12	96.62
409.344	92.62
409.567	77.62
409.791	83.62
410.014	85.62
410.238	82.62
410.461	85.62
410.685	82.62
410.908	101.62
411.132	114.62
411.355	100.62
411.578	91.62
411.802	86.62
412.025	82.62
412.249	88.62
412.472	80.62
412.695	87.62
412.919	92.62
413.142	72.62
413.365	82.62
413.589	78.62
413.812	91.62
414.035	89.62
414.258	100.62
414.482	104.62
414.705	86.62
414.928	85.62
415.151	101.62
415.374	79.62
415.597	69.62
415.821	87.62
416.044	78.62
416.267	81.62
416.49	92.62
416.713	82.62
416.936	86.62
417.159	85.62
417.382	81.62
417.605	84.62
417.828	96.62
418.051	110.62
418.274	81.62
418.497	86.62
418.72	86.62
418.943	88.62
419.166	90.62
419.389	93.62
419.611	94.62
419.834	87.62
420.057	100.62
420.28	69.62
420.503	75.62
420.726	85.62
420.948	79.62
421.171	98.62
421.394	90.62
421.617	93.62
421.839	82.62
422.062	99.62
422.285	101.62
422.507	97.62
422.73	103.62
422.953	95.62
423.175	96.62
423.398	95.62
423.621	87.62
423.843	82.62
424.066	79.62
424.288	85.62
424.511	94.62
424.733	94.62
424.956	102.62
425.178	96.62
425.401	105.62
425.623	96.62
425.846	83.62
426.068	79.62
426.291	103.62
426.513	94.62
426.735	73.62
426.958	85.62
427.18	100.62
427.402	136.62
427.625	166.62
427.847	131.62
428.069	100.62
428.292	85.62
428.514	85.62
428.736	93.62
428.958	78.62
429.181	96.62
429.403	72.62
429.625	87.62
429.847	101.62
430.069	101.62
430.292	88.62
430.514	86.62
430.736	90.62
430.958	103.62
431.18	82.62
431.402	97.62
431.624	86.62
431.846	88.62
432.068	83.62
432.29	86.62
432.512	74.62
432.734	85.62
432.956	99.62
433.178	97.62
433.4	86.62
433.622	92.62
433.844	81.62
434.066	73.62
434.287	96.62
434.509	82.62
434.731	85.62
434.953	85.62
435.175	92.62
435.397	78.62
435.618	85.62
435.84	100.62
436.062	120.62
436.284	113.62
436.505	104.62
436.727	96.62
436.949	91.62
437.17	73.62
437.392	84.62
437.614	87.62
437.835	120.62
438.057	133.62
438.278	114.62
438.5	113.62
438.721	127.62
438.943	101.62
439.165	73.62
439.386	93.62
439.608	94.62
439.829	107.62
440.05	126.62
440.272	138.62
440.493	113.62
440.715	91.62
440.936	81.62
441.158	90.62
441.379	96.62
441.6	99.62
441.822	97.62
442.043	98.62
442.264	84.62
442.486	112.62
442.707	93.62
442.928	97.62
443.149	144.62
443.371	133.62
443.592	109.62
443.813	113.62
444.034	114.62
444.255	93.62
444.476	92.62
444.698	91.62
444.919	86.62
445.14	131.62
445.361	124.62
445.582	118.62
445.803	128.62
446.024	156.62
446.245	125.62
446.466	113.62
446.687	94.62
446.908	86.62
447.129	82.62
447.35	77.62
447.571	99.62
447.792	91.62
448.013	91.62
448.234	120.62
448.455	98.62
448.675	105.62
448.896	113.62
449.117	101.62
449.338	111.62
449.559	136.62
449.779	138.62
450	98.62
450.221	95.62
450.442	87.62
450.662	90.62
450.883	101.62
451.104	105.62
451.324	91.62
451.545	77.62
451.766	90.62
451.986	85.62
452.207	96.62
452.428	79.62
452.648	89.62
452.869	108.62
453.089	102.62
453.31	126.62
453.53	92.62
453.751	85.62
453.971	101.62
454.192	110.62
454.412	104.62
454.633	75.62
454.853	84.62
455.073	80.62
455.294	104.62
455.514	105.62
455.734	94.62
455.955	90.62
456.175	68.62
456.395	89.62
456.616	77.62
456.836	72.62
457.056	83.62
457.276	73.62
457.497	81.62
457.717	98.62
457.937	77.62
458.157	84.62
458.377	70.62
458.598	104.62
458.818	163.62
459.038	180.62
459.258	118.62
459.478	94.62
459.698	96.62
459.918	80.62
460.138	84.62
460.358	92.62
460.578	87.62
460.798	85.62
461.018	94.62
461.238	88.62
461.458	79.62
461.678	88.62
461.898	74.62
462.118	81.62
462.338	84.62
462.558	84.62
462.777	78.62
462.997	77.62
463.217	83.62
463.437	88.62
463.657	86.62
463.876	77.62
464.096	89.62
464.316	85.62
464.536	93.62
464.755	101.62
464.975	121.62
465.195	194.62
465.414	166.62
465.634	81.62
465.854	78.62
466.073	84.62
466.293	85.62
466.512	84.62
466.732	97.62
466.951	86.62
467.171	92.62
467.391	90.62
467.61	101.62
467.829	95.62
468.049	88.62
468.268	97.62
468.488	69.62
468.707	94.62
468.927	89.62
469.146	87.62
469.365	64.62
469.585	88.62
469.804	102.62
470.023	108.62
470.243	82.62
470.462	97.62
470.681	108.62
470.901	93.62
471.12	89.62
471.339	82.62
471.558	94.62
471.777	90.62
471.997	86.62
472.216	94.62
472.435	123.62
472.654	94.62
472.873	88.62
473.092	78.62
473.311	99.62
473.53	87.62
473.749	82.62
473.968	103.62
474.187	94.62
474.406	101.62
474.625	76.62
474.844	72.62
475.063	67.62
475.282	84.62
475.501	89.62
475.72	89.62
475.939	79.62
476.158	75.62
476.377	79.62
476.596	84.62
476.814	91.62
477.033	87.62
477.252	78.62
477.471	70.62
477.69	70.62
477.908	83.62
478.127	89.62
478.346	83.62
478.564	92.62
478.783	100.62
479.002	96.62
479.22	89.62
479.439	86.62
479.658	93.62
479.876	91.62
480.095	82.62
480.313	84.62
480.532	89.62
480.751	86.62
480.969	111.62
481.188	167.62
481.406	131.62
481.624	94.62
481.843	101.62
482.061	78.62
482.28	79.62
482.498	89.62
482.717	81.62
482.935	92.62
483.153	97.62
483.372	98.62
483.59	88.62
483.808	92.62
484.027	87.62
484.245	67.62
484.463	88.62
484.681	81.62
484.9	86.62
485.118	87.62
485.336	96.62
485.554	94.62
485.772	97.62
485.99	97.62
486.209	99.62
486.427	109.62
486.645	122.62
486.863	108.62
487.081	97.62
487.299	98.62
487.517	82.62
487.735	83.62
487.953	87.62
488.171	81.62
488.389	109.62
488.607	99.62
488.825	95.62
489.043	72.62
489.261	80.62
489.479	85.62
489.696	90.62
489.914	85.62
490.132	85.62
490.35	105.62
490.568	86.62
490.786	91.62
491.003	90.62
491.221	110.62
491.439	100.62
491.657	113.62
491.874	88.62
492.092	88.62
492.31	86.62
492.527	93.62
492.745	90.62
492.963	98.62
493.18	75.62
493.398	86.62
493.615	81.62
493.833	88.62
494.05	86.62
494.268	87.62
494.485	79.62
494.703	81.62
494.92	92.62
495.138	89.62
495.355	93.62
495.573	90.62
495.79	89.62
496.008	89.62
496.225	78.62
496.442	90.62
496.66	87.62
496.877	85.62
497.094	92.62
497.312	93.62
497.529	98.62
497.746	101.62
497.963	99.62
498.181	100.62
498.398	97.62
498.615	100.62
498.832	101.62
499.049	89.62
499.267	74.62
499.484	86.62
499.701	80.62
499.918	80.62
500.135	96.62
500.352	91.62
500.569	82.62
500.786	89.62
501.003	78.62
501.22	98.62
501.437	94.62
501.654	101.62
501.871	118.62
502.088	97.62
502.305	83.62
502.522	80.62
502.739	95.62
502.956	77.62
503.172	92.62
503.389	87.62
503.606	104.62
503.823	103.62
504.04	94.62
504.256	87.62
504.473	78.62
504.69	96.62
504.907	100.62
505.123	84.62
505.34	88.62
505.557	106.62
505.773	98.62
505.99	80.62
506.207	79.62
506.423	86.62
506.64	77.62
506.856	86.62
507.073	83.62
507.289	92.62
507.506	87.62
507.722	116.62
507.939	114.62
508.155	98.62
508.372	89.62
508.588	98.62
508.805	92.62
509.021	98.62
509.238	97.62
509.454	99.62
509.67	87.62
509.887	104.62
510.103	121.62
510.319	210.62
510.536	834.62
510.752	2877.62
510.968	797.62
511.184	172.62
511.401	108.62
511.617	104.62
511.833	95.62
512.049	66.62
512.265	89.62
512.481	112.62
512.698	89.62
512.914	93.62
513.13	92.62
513.346	90.62
513.562	84.62
513.778	92.62
513.994	110.62
514.21	99.62
514.426	109.62
514.642	153.62
514.858	134.62
515.074	187.62
515.29	530.62
515.506	1849.62
515.721	678.62
515.937	201.62
516.153	104.62
