Data from Circ_2018_H10_HRD10591_00015.txt Node
Date: Wed Jan 03 09:56:05 EST 2024
User: Yrep
Spectrometer: HR+D1059
Trigger mode: 1
Integration Time (sec): 1.000000E-1
Scans to average: 1
Electric dark correction enabled: true
Nonlinearity correction enabled: false
Boxcar width: 0
XAxis mode: Wavelengths
Number of Pixels in Spectrum: 2048
>>>>>Begin Spectral Data<<<<<
223.165	-25.19
223.4	-25.19
223.635	-25.19
223.869	-10.19
224.104	-21.19
224.338	-15.19
224.573	-19.19
224.808	-12.19
225.042	-5.19
225.277	-6.19
225.511	-7.19
225.746	11.81
225.98	-1.19
226.215	5.81
226.449	23.81
226.683	21.81
226.918	19.81
227.152	39.81
227.387	29.81
227.621	47.81
227.856	41.81
228.09	48.81
228.324	44.81
228.559	28.81
228.793	66.81
229.027	45.81
229.262	70.81
229.496	83.81
229.73	84.81
229.964	86.81
230.199	72.81
230.433	64.81
230.667	86.81
230.901	73.81
231.136	85.81
231.37	68.81
231.604	85.81
231.838	74.81
232.072	80.81
232.306	88.81
232.541	76.81
232.775	68.81
233.009	77.81
233.243	75.81
233.477	80.81
233.711	69.81
233.945	63.81
234.179	88.81
234.413	68.81
234.647	65.81
234.881	74.81
235.115	66.81
235.349	75.81
235.583	68.81
235.817	82.81
236.051	73.81
236.285	70.81
236.519	64.81
236.753	78.81
236.987	72.81
237.221	68.81
237.455	68.81
237.689	55.81
237.922	69.81
238.156	73.81
238.39	71.81
238.624	70.81
238.858	75.81
239.091	81.81
239.325	81.81
239.559	93.81
239.793	71.81
240.027	75.81
240.26	78.81
240.494	55.81
240.728	70.81
240.961	57.81
241.195	68.81
241.429	73.81
241.662	82.81
241.896	69.81
242.13	68.81
242.363	74.81
242.597	78.81
242.83	80.81
243.064	86.81
243.298	72.81
243.531	87.81
243.765	62.81
243.998	72.81
244.232	90.81
244.465	83.81
244.699	85.81
244.932	74.81
245.166	74.81
245.399	92.81
245.633	82.81
245.866	73.81
246.099	81.81
246.333	76.81
246.566	78.81
246.8	68.81
247.033	66.81
247.266	70.81
247.5	79.81
247.733	81.81
247.966	69.81
248.2	88.81
248.433	69.81
248.666	84.81
248.899	85.81
249.133	91.81
249.366	94.81
249.599	89.81
249.832	88.81
250.066	88.81
250.299	78.81
250.532	69.81
250.765	73.81
250.998	77.81
251.231	85.81
251.465	81.81
251.698	88.81
251.931	84.81
252.164	73.81
252.397	73.81
252.63	69.81
252.863	81.81
253.096	80.81
253.329	85.81
253.562	70.81
253.795	95.81
254.028	80.81
254.261	73.81
254.494	74.81
254.727	72.81
254.96	74.81
255.193	81.81
255.426	78.81
255.659	78.81
255.892	73.81
256.124	75.81
256.357	83.81
256.59	98.81
256.823	104.81
257.056	80.81
257.289	70.81
257.521	76.81
257.754	68.81
257.987	78.81
258.22	77.81
258.452	74.81
258.685	69.81
258.918	73.81
259.151	74.81
259.383	77.81
259.616	82.81
259.849	76.81
260.081	97.81
260.314	87.81
260.547	84.81
260.779	67.81
261.012	63.81
261.244	79.81
261.477	79.81
261.71	105.81
261.942	97.81
262.175	111.81
262.407	88.81
262.64	65.81
262.872	81.81
263.105	79.81
263.337	80.81
263.57	84.81
263.802	68.81
264.035	77.81
264.267	81.81
264.499	79.81
264.732	76.81
264.964	68.81
265.197	82.81
265.429	83.81
265.661	86.81
265.894	89.81
266.126	69.81
266.358	84.81
266.591	84.81
266.823	72.81
267.055	77.81
267.287	87.81
267.52	96.81
267.752	80.81
267.984	80.81
268.216	78.81
268.448	73.81
268.681	80.81
268.913	87.81
269.145	79.81
269.377	76.81
269.609	85.81
269.841	68.81
270.073	74.81
270.306	89.81
270.538	80.81
270.77	81.81
271.002	88.81
271.234	79.81
271.466	78.81
271.698	85.81
271.93	95.81
272.162	82.81
272.394	79.81
272.626	84.81
272.858	83.81
273.09	86.81
273.322	102.81
273.553	80.81
273.785	79.81
274.017	87.81
274.249	76.81
274.481	85.81
274.713	91.81
274.945	87.81
275.176	85.81
275.408	89.81
275.64	77.81
275.872	85.81
276.104	90.81
276.335	92.81
276.567	91.81
276.799	102.81
277.031	105.81
277.262	91.81
277.494	87.81
277.726	69.81
277.957	86.81
278.189	79.81
278.421	87.81
278.652	86.81
278.884	92.81
279.115	77.81
279.347	92.81
279.579	80.81
279.81	78.81
280.042	90.81
280.273	100.81
280.505	67.81
280.736	85.81
280.968	88.81
281.199	97.81
281.431	88.81
281.662	88.81
281.894	82.81
282.125	96.81
282.356	120.81
282.588	142.81
282.819	124.81
283.051	95.81
283.282	89.81
283.513	85.81
283.745	89.81
283.976	77.81
284.207	90.81
284.439	87.81
284.67	80.81
284.901	85.81
285.132	83.81
285.364	92.81
285.595	83.81
285.826	72.81
286.057	91.81
286.288	69.81
286.52	74.81
286.751	73.81
286.982	80.81
287.213	85.81
287.444	94.81
287.675	94.81
287.906	82.81
288.138	79.81
288.369	78.81
288.6	90.81
288.831	74.81
289.062	79.81
289.293	86.81
289.524	91.81
289.755	88.81
289.986	81.81
290.217	92.81
290.448	74.81
290.679	79.81
290.91	84.81
291.141	79.81
291.371	89.81
291.602	70.81
291.833	92.81
292.064	85.81
292.295	84.81
292.526	86.81
292.757	79.81
292.987	84.81
293.218	75.81
293.449	90.81
293.68	96.81
293.91	75.81
294.141	80.81
294.372	74.81
294.603	80.81
294.833	84.81
295.064	86.81
295.295	86.81
295.525	97.81
295.756	79.81
295.987	122.81
296.217	140.81
296.448	120.81
296.679	104.81
296.909	94.81
297.14	86.81
297.37	92.81
297.601	72.81
297.831	88.81
298.062	88.81
298.292	77.81
298.523	91.81
298.753	85.81
298.984	86.81
299.214	85.81
299.445	77.81
299.675	93.81
299.905	104.81
300.136	82.81
300.366	80.81
300.597	85.81
300.827	97.81
301.057	94.81
301.288	89.81
301.518	112.81
301.748	85.81
301.979	89.81
302.209	88.81
302.439	92.81
302.669	94.81
302.9	84.81
303.13	88.81
303.36	97.81
303.59	119.81
303.82	95.81
304.051	88.81
304.281	85.81
304.511	94.81
304.741	97.81
304.971	72.81
305.201	81.81
305.431	86.81
305.661	87.81
305.891	96.81
306.121	91.81
306.352	100.81
306.582	100.81
306.812	105.81
307.042	80.81
307.272	87.81
307.502	95.81
307.731	81.81
307.961	87.81
308.191	90.81
308.421	96.81
308.651	93.81
308.881	89.81
309.111	105.81
309.341	85.81
309.571	81.81
309.8	104.81
310.03	81.81
310.26	99.81
310.49	84.81
310.72	86.81
310.949	97.81
311.179	100.81
311.409	75.81
311.639	92.81
311.868	91.81
312.098	101.81
312.328	101.81
312.557	102.81
312.787	109.81
313.017	97.81
313.246	83.81
313.476	84.81
313.706	85.81
313.935	91.81
314.165	80.81
314.394	100.81
314.624	74.81
314.853	97.81
315.083	84.81
315.312	93.81
315.542	79.81
315.771	83.81
316.001	83.81
316.23	102.81
316.46	82.81
316.689	98.81
316.919	96.81
317.148	90.81
317.377	87.81
317.607	95.81
317.836	90.81
318.065	97.81
318.295	100.81
318.524	101.81
318.753	86.81
318.983	85.81
319.212	102.81
319.441	112.81
319.67	100.81
319.9	82.81
320.129	85.81
320.358	80.81
320.587	100.81
320.816	98.81
321.046	103.81
321.275	102.81
321.504	94.81
321.733	84.81
321.962	102.81
322.191	104.81
322.42	114.81
322.649	94.81
322.878	103.81
323.108	111.81
323.337	115.81
323.566	126.81
323.795	143.81
324.024	202.81
324.253	386.81
324.482	801.81
324.71	1610.81
324.939	2092.81
325.168	782.81
325.397	246.81
325.626	140.81
325.855	124.81
326.084	124.81
326.313	124.81
326.542	150.81
326.77	232.81
326.999	447.81
327.228	895.81
327.457	1592.81
327.686	1239.81
327.914	350.81
328.143	172.81
328.372	142.81
328.6	124.81
328.829	128.81
329.058	125.81
329.287	115.81
329.515	98.81
329.744	100.81
329.972	113.81
330.201	102.81
330.43	118.81
330.658	103.81
330.887	133.81
331.115	128.81
331.344	97.81
331.572	76.81
331.801	112.81
332.03	101.81
332.258	89.81
332.486	89.81
332.715	90.81
332.943	89.81
333.172	85.81
333.4	97.81
333.629	95.81
333.857	99.81
334.085	95.81
334.314	88.81
334.542	103.81
334.771	103.81
334.999	107.81
335.227	89.81
335.455	91.81
335.684	95.81
335.912	103.81
336.14	89.81
336.369	100.81
336.597	108.81
336.825	96.81
337.053	93.81
337.281	89.81
337.51	90.81
337.738	85.81
337.966	84.81
338.194	101.81
338.422	99.81
338.65	104.81
338.878	93.81
339.106	85.81
339.334	105.81
339.562	86.81
339.79	88.81
340.018	82.81
340.246	86.81
340.474	102.81
340.702	89.81
340.93	82.81
341.158	85.81
341.386	87.81
341.614	96.81
341.842	93.81
342.07	76.81
342.298	74.81
342.526	93.81
342.754	94.81
342.981	90.81
343.209	82.81
343.437	96.81
343.665	92.81
343.893	93.81
344.12	88.81
344.348	88.81
344.576	85.81
344.804	96.81
345.031	98.81
345.259	93.81
345.487	91.81
345.714	87.81
345.942	109.81
346.17	93.81
346.397	93.81
346.625	96.81
346.853	100.81
347.08	87.81
347.308	105.81
347.535	100.81
347.763	114.81
347.99	112.81
348.218	87.81
348.445	97.81
348.673	89.81
348.9	97.81
349.128	89.81
349.355	89.81
349.583	97.81
349.81	103.81
350.037	91.81
350.265	92.81
350.492	95.81
350.72	88.81
350.947	110.81
351.174	104.81
351.402	94.81
351.629	104.81
351.856	108.81
352.083	89.81
352.311	104.81
352.538	108.81
352.765	97.81
352.992	120.81
353.22	104.81
353.447	101.81
353.674	102.81
353.901	99.81
354.128	84.81
354.355	89.81
354.583	87.81
354.81	92.81
355.037	88.81
355.264	101.81
355.491	96.81
355.718	89.81
355.945	96.81
356.172	94.81
356.399	96.81
356.626	88.81
356.853	77.81
357.08	83.81
357.307	85.81
357.534	91.81
357.761	86.81
357.988	92.81
358.215	98.81
358.441	94.81
358.668	82.81
358.895	90.81
359.122	94.81
359.349	91.81
359.576	84.81
359.802	86.81
360.029	106.81
360.256	110.81
360.483	96.81
360.709	99.81
360.936	89.81
361.163	104.81
361.39	102.81
361.616	85.81
361.843	85.81
362.07	91.81
362.296	94.81
362.523	91.81
362.749	83.81
362.976	85.81
363.203	100.81
363.429	85.81
363.656	90.81
363.882	84.81
364.109	87.81
364.335	96.81
364.562	88.81
364.788	100.81
365.015	90.81
365.241	103.81
365.468	109.81
365.694	93.81
365.92	94.81
366.147	94.81
366.373	97.81
366.599	84.81
366.826	84.81
367.052	78.81
367.278	103.81
367.505	92.81
367.731	89.81
367.957	69.81
368.184	84.81
368.41	90.81
368.636	114.81
368.862	121.81
369.089	110.81
369.315	110.81
369.541	95.81
369.767	99.81
369.993	100.81
370.219	94.81
370.445	104.81
370.672	90.81
370.898	93.81
371.124	88.81
371.35	85.81
371.576	74.81
371.802	80.81
372.028	78.81
372.254	87.81
372.48	78.81
372.706	70.81
372.932	86.81
373.158	87.81
373.384	87.81
373.61	85.81
373.835	90.81
374.061	95.81
374.287	95.81
374.513	98.81
374.739	95.81
374.965	83.81
375.191	95.81
375.416	98.81
375.642	92.81
375.868	97.81
376.094	86.81
376.319	89.81
376.545	76.81
376.771	79.81
376.997	89.81
377.222	87.81
377.448	87.81
377.674	95.81
377.899	89.81
378.125	85.81
378.35	98.81
378.576	86.81
378.802	79.81
379.027	93.81
379.253	97.81
379.478	104.81
379.704	93.81
379.929	80.81
380.155	90.81
380.38	89.81
380.606	87.81
380.831	96.81
381.057	104.81
381.282	87.81
381.507	95.81
381.733	96.81
381.958	100.81
382.184	88.81
382.409	89.81
382.634	113.81
382.86	97.81
383.085	94.81
383.31	100.81
383.535	101.81
383.761	99.81
383.986	95.81
384.211	99.81
384.436	105.81
384.662	99.81
384.887	106.81
385.112	114.81
385.337	107.81
385.562	107.81
385.787	107.81
386.013	91.81
386.238	112.81
386.463	104.81
386.688	99.81
386.913	109.81
387.138	117.81
387.363	102.81
387.588	108.81
387.813	103.81
388.038	106.81
388.263	116.81
388.488	111.81
388.713	81.81
388.938	89.81
389.163	106.81
389.387	99.81
389.612	92.81
389.837	74.81
390.062	79.81
390.287	85.81
390.512	89.81
390.736	88.81
390.961	96.81
391.186	88.81
391.411	81.81
391.636	69.81
391.86	89.81
392.085	78.81
392.31	72.81
392.534	80.81
392.759	81.81
392.984	85.81
393.208	88.81
393.433	74.81
393.658	81.81
393.882	89.81
394.107	86.81
394.331	87.81
394.556	95.81
394.78	94.81
395.005	85.81
395.229	70.81
395.454	95.81
395.678	84.81
395.903	89.81
396.127	109.81
396.352	92.81
396.576	99.81
396.801	80.81
397.025	87.81
397.249	74.81
397.474	93.81
397.698	85.81
397.922	79.81
398.147	90.81
398.371	85.81
398.595	99.81
398.82	87.81
399.044	91.81
399.268	99.81
399.492	83.81
399.717	78.81
399.941	87.81
400.165	92.81
400.389	87.81
400.613	94.81
400.837	88.81
401.062	91.81
401.286	84.81
401.51	81.81
401.734	93.81
401.958	103.81
402.182	123.81
402.406	155.81
402.63	132.81
402.854	98.81
403.078	89.81
403.302	83.81
403.526	94.81
403.75	92.81
403.974	81.81
404.198	81.81
404.422	82.81
404.645	80.81
404.869	84.81
405.093	90.81
405.317	104.81
405.541	93.81
405.765	92.81
405.988	113.81
406.212	186.81
406.436	251.81
406.66	164.81
406.883	109.81
407.107	89.81
407.331	88.81
407.555	100.81
407.778	99.81
408.002	95.81
408.226	80.81
408.449	86.81
408.673	78.81
408.896	84.81
409.12	100.81
409.344	113.81
409.567	108.81
409.791	85.81
410.014	91.81
410.238	93.81
410.461	79.81
410.685	90.81
410.908	93.81
411.132	105.81
411.355	112.81
411.578	87.81
411.802	88.81
412.025	84.81
412.249	100.81
412.472	100.81
412.695	95.81
412.919	94.81
413.142	85.81
413.365	97.81
413.589	92.81
413.812	90.81
414.035	92.81
414.258	84.81
414.482	86.81
414.705	87.81
414.928	88.81
415.151	98.81
415.374	99.81
415.597	94.81
415.821	88.81
416.044	92.81
416.267	91.81
416.49	72.81
416.713	76.81
416.936	91.81
417.159	95.81
417.382	87.81
417.605	84.81
417.828	97.81
418.051	102.81
418.274	88.81
418.497	82.81
418.72	96.81
418.943	101.81
419.166	74.81
419.389	84.81
419.611	94.81
419.834	88.81
420.057	97.81
420.28	96.81
420.503	79.81
420.726	84.81
420.948	81.81
421.171	92.81
421.394	86.81
421.617	93.81
421.839	84.81
422.062	75.81
422.285	87.81
422.507	88.81
422.73	100.81
422.953	87.81
423.175	88.81
423.398	95.81
423.621	78.81
423.843	84.81
424.066	85.81
424.288	92.81
424.511	86.81
424.733	113.81
424.956	97.81
425.178	100.81
425.401	95.81
425.623	86.81
425.846	97.81
426.068	74.81
426.291	85.81
426.513	92.81
426.735	84.81
426.958	87.81
427.18	101.81
427.402	117.81
427.625	157.81
427.847	121.81
428.069	111.81
428.292	85.81
428.514	80.81
428.736	87.81
428.958	83.81
429.181	86.81
429.403	86.81
429.625	86.81
429.847	96.81
430.069	93.81
430.292	83.81
430.514	76.81
430.736	82.81
430.958	90.81
431.18	86.81
431.402	88.81
431.624	88.81
431.846	77.81
432.068	85.81
432.29	93.81
432.512	94.81
432.734	74.81
432.956	85.81
433.178	96.81
433.4	103.81
433.622	80.81
433.844	88.81
434.066	92.81
434.287	88.81
434.509	90.81
434.731	88.81
434.953	83.81
435.175	96.81
435.397	80.81
435.618	74.81
435.84	94.81
436.062	115.81
436.284	102.81
436.505	80.81
436.727	89.81
436.949	91.81
437.17	81.81
437.392	84.81
437.614	78.81
437.835	109.81
438.057	119.81
438.278	102.81
438.5	105.81
438.721	117.81
438.943	109.81
439.165	85.81
439.386	78.81
439.608	76.81
439.829	103.81
440.05	126.81
440.272	160.81
440.493	98.81
440.715	96.81
440.936	86.81
441.158	88.81
441.379	108.81
441.6	90.81
441.822	87.81
442.043	101.81
442.264	101.81
442.486	103.81
442.707	82.81
442.928	93.81
443.149	119.81
443.371	132.81
443.592	108.81
443.813	99.81
444.034	93.81
444.255	96.81
444.476	81.81
444.698	87.81
444.919	68.81
445.14	126.81
445.361	126.81
445.582	114.81
445.803	127.81
446.024	135.81
446.245	135.81
446.466	105.81
446.687	83.81
446.908	82.81
447.129	87.81
447.35	81.81
447.571	102.81
447.792	78.81
448.013	103.81
448.234	112.81
448.455	110.81
448.675	97.81
448.896	119.81
449.117	93.81
449.338	115.81
449.559	120.81
449.779	125.81
450	95.81
450.221	96.81
450.442	85.81
450.662	101.81
450.883	105.81
451.104	104.81
451.324	99.81
451.545	80.81
451.766	88.81
451.986	79.81
452.207	97.81
452.428	83.81
452.648	92.81
452.869	96.81
453.089	122.81
453.31	121.81
453.53	90.81
453.751	105.81
453.971	104.81
454.192	118.81
454.412	94.81
454.633	78.81
454.853	89.81
455.073	85.81
455.294	92.81
455.514	109.81
455.734	82.81
455.955	86.81
456.175	83.81
456.395	88.81
456.616	84.81
456.836	84.81
457.056	79.81
457.276	84.81
457.497	87.81
457.717	87.81
457.937	95.81
458.157	88.81
458.377	85.81
458.598	104.81
458.818	150.81
459.038	160.81
459.258	119.81
459.478	92.81
459.698	73.81
459.918	95.81
460.138	80.81
460.358	84.81
460.578	74.81
460.798	79.81
461.018	93.81
461.238	89.81
461.458	80.81
461.678	81.81
461.898	88.81
462.118	67.81
462.338	82.81
462.558	86.81
462.777	76.81
462.997	85.81
463.217	82.81
463.437	86.81
463.657	82.81
463.876	95.81
464.096	91.81
464.316	84.81
464.536	75.81
464.755	99.81
464.975	108.81
465.195	168.81
465.414	169.81
465.634	87.81
465.854	94.81
466.073	79.81
466.293	86.81
466.512	77.81
466.732	84.81
466.951	73.81
467.171	86.81
467.391	90.81
467.61	105.81
467.829	103.81
468.049	95.81
468.268	86.81
468.488	86.81
468.707	84.81
468.927	83.81
469.146	89.81
469.365	82.81
469.585	78.81
469.804	86.81
470.023	85.81
470.243	87.81
470.462	103.81
470.681	111.81
470.901	83.81
471.12	90.81
471.339	79.81
471.558	89.81
471.777	87.81
471.997	82.81
472.216	91.81
472.435	82.81
472.654	85.81
472.873	95.81
473.092	83.81
473.311	92.81
473.53	100.81
473.749	83.81
473.968	88.81
474.187	99.81
474.406	83.81
474.625	74.81
474.844	86.81
475.063	82.81
475.282	88.81
475.501	84.81
475.72	88.81
475.939	87.81
476.158	77.81
476.377	91.81
476.596	90.81
476.814	102.81
477.033	92.81
477.252	93.81
477.471	91.81
477.69	71.81
477.908	92.81
478.127	79.81
478.346	97.81
478.564	94.81
478.783	88.81
479.002	81.81
479.22	87.81
479.439	101.81
479.658	108.81
479.876	90.81
480.095	102.81
480.313	79.81
480.532	90.81
480.751	100.81
480.969	103.81
481.188	129.81
481.406	110.81
481.624	92.81
481.843	87.81
482.061	76.81
482.28	90.81
482.498	68.81
482.717	83.81
482.935	89.81
483.153	89.81
483.372	85.81
483.59	75.81
483.808	88.81
484.027	92.81
484.245	89.81
484.463	90.81
484.681	88.81
484.9	90.81
485.118	108.81
485.336	93.81
485.554	93.81
485.772	94.81
485.99	108.81
486.209	114.81
486.427	97.81
486.645	116.81
486.863	120.81
487.081	92.81
487.299	97.81
487.517	91.81
487.735	101.81
487.953	93.81
488.171	94.81
488.389	94.81
488.607	103.81
488.825	88.81
489.043	90.81
489.261	84.81
489.479	83.81
489.696	85.81
489.914	92.81
490.132	85.81
490.35	95.81
490.568	89.81
490.786	90.81
491.003	103.81
491.221	93.81
491.439	87.81
491.657	94.81
491.874	78.81
492.092	90.81
492.31	92.81
492.527	68.81
492.745	88.81
492.963	69.81
493.18	98.81
493.398	88.81
493.615	95.81
493.833	88.81
494.05	85.81
494.268	95.81
494.485	88.81
494.703	73.81
494.92	90.81
495.138	93.81
495.355	86.81
495.573	90.81
495.79	79.81
496.008	94.81
496.225	80.81
496.442	75.81
496.66	92.81
496.877	92.81
497.094	96.81
497.312	81.81
497.529	78.81
497.746	82.81
497.963	74.81
498.181	95.81
498.398	97.81
498.615	104.81
498.832	109.81
499.049	91.81
499.267	94.81
499.484	101.81
499.701	90.81
499.918	88.81
500.135	95.81
500.352	96.81
500.569	84.81
500.786	83.81
501.003	94.81
501.22	97.81
501.437	80.81
501.654	91.81
501.871	92.81
502.088	103.81
502.305	90.81
502.522	87.81
502.739	89.81
502.956	97.81
503.172	88.81
503.389	102.81
503.606	117.81
503.823	98.81
504.04	90.81
504.256	96.81
504.473	77.81
504.69	79.81
504.907	91.81
505.123	80.81
505.34	88.81
505.557	90.81
505.773	86.81
505.99	89.81
506.207	84.81
506.423	87.81
506.64	86.81
506.856	90.81
507.073	92.81
507.289	99.81
507.506	95.81
507.722	104.81
507.939	117.81
508.155	90.81
508.372	82.81
508.588	94.81
508.805	100.81
509.021	92.81
509.238	91.81
509.454	98.81
509.67	98.81
509.887	104.81
510.103	138.81
510.319	231.81
510.536	834.81
510.752	2785.81
510.968	783.81
511.184	177.81
511.401	120.81
511.617	105.81
511.833	97.81
512.049	100.81
512.265	86.81
512.481	70.81
512.698	74.81
512.914	81.81
513.13	94.81
513.346	80.81
513.562	98.81
513.778	97.81
513.994	104.81
514.21	88.81
514.426	127.81
514.642	126.81
514.858	126.81
515.074	175.81
515.29	500.81
515.506	1686.81
515.721	623.81
515.937	172.81
516.153	110.81
