Data from Circ_2018_H10_HRD10591_00063.txt Node
Date: Wed Jan 03 09:56:14 EST 2024
User: Yrep
Spectrometer: HR+D1059
Trigger mode: 1
Integration Time (sec): 1.000000E-1
Scans to average: 1
Electric dark correction enabled: true
Nonlinearity correction enabled: false
Boxcar width: 0
XAxis mode: Wavelengths
Number of Pixels in Spectrum: 2048
>>>>>Begin Spectral Data<<<<<
223.165	-17.25
223.4	-17.25
223.635	-17.25
223.869	-35.25
224.104	-21.25
224.338	-4.25
224.573	-12.25
224.808	-16.25
225.042	-5.25
225.277	-13.25
225.511	-4.25
225.746	9.75
225.98	-4.25
226.215	14.75
226.449	18.75
226.683	36.75
226.918	27.75
227.152	25.75
227.387	39.75
227.621	32.75
227.856	42.75
228.09	45.75
228.324	45.75
228.559	59.75
228.793	51.75
229.027	50.75
229.262	72.75
229.496	71.75
229.73	65.75
229.964	80.75
230.199	80.75
230.433	72.75
230.667	66.75
230.901	82.75
231.136	83.75
231.37	80.75
231.604	69.75
231.838	74.75
232.072	65.75
232.306	80.75
232.541	73.75
232.775	89.75
233.009	80.75
233.243	82.75
233.477	78.75
233.711	73.75
233.945	78.75
234.179	74.75
234.413	79.75
234.647	83.75
234.881	77.75
235.115	81.75
235.349	65.75
235.583	74.75
235.817	63.75
236.051	78.75
236.285	84.75
236.519	67.75
236.753	86.75
236.987	67.75
237.221	78.75
237.455	81.75
237.689	74.75
237.922	69.75
238.156	66.75
238.39	64.75
238.624	61.75
238.858	77.75
239.091	77.75
239.325	79.75
239.559	80.75
239.793	79.75
240.027	95.75
240.26	83.75
240.494	79.75
240.728	54.75
240.961	73.75
241.195	78.75
241.429	74.75
241.662	66.75
241.896	83.75
242.13	79.75
242.363	78.75
242.597	75.75
242.83	77.75
243.064	73.75
243.298	69.75
243.531	79.75
243.765	76.75
243.998	67.75
244.232	87.75
244.465	97.75
244.699	89.75
244.932	74.75
245.166	74.75
245.399	74.75
245.633	74.75
245.866	88.75
246.099	76.75
246.333	62.75
246.566	75.75
246.8	70.75
247.033	84.75
247.266	75.75
247.5	68.75
247.733	94.75
247.966	77.75
248.2	72.75
248.433	71.75
248.666	90.75
248.899	75.75
249.133	83.75
249.366	94.75
249.599	88.75
249.832	75.75
250.066	79.75
250.299	75.75
250.532	85.75
250.765	72.75
250.998	75.75
251.231	78.75
251.465	80.75
251.698	87.75
251.931	67.75
252.164	62.75
252.397	82.75
252.63	71.75
252.863	85.75
253.096	86.75
253.329	80.75
253.562	71.75
253.795	90.75
254.028	81.75
254.261	81.75
254.494	92.75
254.727	86.75
254.96	77.75
255.193	86.75
255.426	85.75
255.659	79.75
255.892	71.75
256.124	81.75
256.357	87.75
256.59	77.75
256.823	77.75
257.056	95.75
257.289	79.75
257.521	67.75
257.754	68.75
257.987	76.75
258.22	87.75
258.452	91.75
258.685	86.75
258.918	87.75
259.151	83.75
259.383	83.75
259.616	73.75
259.849	79.75
260.081	82.75
260.314	89.75
260.547	79.75
260.779	86.75
261.012	74.75
261.244	88.75
261.477	91.75
261.71	84.75
261.942	125.75
262.175	126.75
262.407	90.75
262.64	81.75
262.872	82.75
263.105	76.75
263.337	96.75
263.57	70.75
263.802	85.75
264.035	71.75
264.267	80.75
264.499	77.75
264.732	84.75
264.964	85.75
265.197	90.75
265.429	89.75
265.661	78.75
265.894	86.75
266.126	69.75
266.358	79.75
266.591	78.75
266.823	72.75
267.055	86.75
267.287	78.75
267.52	83.75
267.752	86.75
267.984	87.75
268.216	91.75
268.448	81.75
268.681	85.75
268.913	67.75
269.145	81.75
269.377	81.75
269.609	74.75
269.841	90.75
270.073	66.75
270.306	78.75
270.538	82.75
270.77	77.75
271.002	75.75
271.234	90.75
271.466	70.75
271.698	89.75
271.93	94.75
272.162	74.75
272.394	89.75
272.626	82.75
272.858	82.75
273.09	72.75
273.322	83.75
273.553	79.75
273.785	85.75
274.017	87.75
274.249	73.75
274.481	78.75
274.713	74.75
274.945	87.75
275.176	85.75
275.408	98.75
275.64	80.75
275.872	94.75
276.104	89.75
276.335	89.75
276.567	104.75
276.799	122.75
277.031	116.75
277.262	95.75
277.494	91.75
277.726	98.75
277.957	97.75
278.189	66.75
278.421	83.75
278.652	71.75
278.884	67.75
279.115	90.75
279.347	71.75
279.579	85.75
279.81	81.75
280.042	82.75
280.273	92.75
280.505	101.75
280.736	86.75
280.968	91.75
281.199	80.75
281.431	67.75
281.662	80.75
281.894	87.75
282.125	111.75
282.356	114.75
282.588	141.75
282.819	128.75
283.051	78.75
283.282	87.75
283.513	75.75
283.745	81.75
283.976	86.75
284.207	87.75
284.439	85.75
284.67	103.75
284.901	86.75
285.132	79.75
285.364	73.75
285.595	75.75
285.826	86.75
286.057	86.75
286.288	79.75
286.52	82.75
286.751	80.75
286.982	92.75
287.213	90.75
287.444	95.75
287.675	84.75
287.906	76.75
288.138	74.75
288.369	81.75
288.6	98.75
288.831	97.75
289.062	94.75
289.293	81.75
289.524	88.75
289.755	89.75
289.986	76.75
290.217	93.75
290.448	78.75
290.679	92.75
290.91	103.75
291.141	90.75
291.371	79.75
291.602	81.75
291.833	82.75
292.064	98.75
292.295	86.75
292.526	86.75
292.757	107.75
292.987	92.75
293.218	80.75
293.449	90.75
293.68	100.75
293.91	78.75
294.141	82.75
294.372	92.75
294.603	86.75
294.833	80.75
295.064	78.75
295.295	88.75
295.525	87.75
295.756	95.75
295.987	130.75
296.217	155.75
296.448	137.75
296.679	93.75
296.909	88.75
297.14	84.75
297.37	90.75
297.601	88.75
297.831	92.75
298.062	97.75
298.292	87.75
298.523	73.75
298.753	88.75
298.984	90.75
299.214	81.75
299.445	94.75
299.675	94.75
299.905	113.75
300.136	96.75
300.366	75.75
300.597	79.75
300.827	98.75
301.057	89.75
301.288	110.75
301.518	97.75
301.748	85.75
301.979	103.75
302.209	73.75
302.439	96.75
302.669	86.75
302.9	88.75
303.13	87.75
303.36	92.75
303.59	95.75
303.82	100.75
304.051	109.75
304.281	94.75
304.511	77.75
304.741	96.75
304.971	91.75
305.201	85.75
305.431	92.75
305.661	91.75
305.891	87.75
306.121	89.75
306.352	105.75
306.582	109.75
306.812	95.75
307.042	78.75
307.272	89.75
307.502	104.75
307.731	104.75
307.961	72.75
308.191	78.75
308.421	79.75
308.651	80.75
308.881	79.75
309.111	93.75
309.341	93.75
309.571	121.75
309.8	104.75
310.03	103.75
310.26	93.75
310.49	88.75
310.72	96.75
310.949	113.75
311.179	96.75
311.409	85.75
311.639	77.75
311.868	85.75
312.098	96.75
312.328	90.75
312.557	103.75
312.787	98.75
313.017	103.75
313.246	111.75
313.476	93.75
313.706	81.75
313.935	100.75
314.165	102.75
314.394	120.75
314.624	112.75
314.853	112.75
315.083	97.75
315.312	109.75
315.542	82.75
315.771	89.75
316.001	94.75
316.23	68.75
316.46	81.75
316.689	93.75
316.919	83.75
317.148	97.75
317.377	109.75
317.607	89.75
317.836	95.75
318.065	80.75
318.295	96.75
318.524	90.75
318.753	83.75
318.983	88.75
319.212	95.75
319.441	119.75
319.67	113.75
319.9	81.75
320.129	86.75
320.358	101.75
320.587	84.75
320.816	96.75
321.046	103.75
321.275	93.75
321.504	94.75
321.733	86.75
321.962	98.75
322.191	107.75
322.42	104.75
322.649	111.75
322.878	104.75
323.108	113.75
323.337	130.75
323.566	138.75
323.795	144.75
324.024	217.75
324.253	429.75
324.482	886.75
324.71	1842.75
324.939	2419.75
325.168	914.75
325.397	265.75
325.626	154.75
325.855	121.75
326.084	139.75
326.313	138.75
326.542	158.75
326.77	242.75
326.999	503.75
327.228	951.75
327.457	1737.75
327.686	1411.75
327.914	384.75
328.143	216.75
328.372	171.75
328.6	136.75
328.829	130.75
329.058	123.75
329.287	137.75
329.515	121.75
329.744	103.75
329.972	128.75
330.201	155.75
330.43	158.75
330.658	161.75
330.887	163.75
331.115	145.75
331.344	94.75
331.572	99.75
331.801	117.75
332.03	111.75
332.258	93.75
332.486	106.75
332.715	89.75
332.943	102.75
333.172	101.75
333.4	105.75
333.629	109.75
333.857	109.75
334.085	131.75
334.314	160.75
334.542	191.75
334.771	187.75
334.999	115.75
335.227	110.75
335.455	97.75
335.684	96.75
335.912	89.75
336.14	84.75
336.369	109.75
336.597	106.75
336.825	82.75
337.053	91.75
337.281	102.75
337.51	96.75
337.738	98.75
337.966	88.75
338.194	110.75
338.422	95.75
338.65	87.75
338.878	85.75
339.106	95.75
339.334	96.75
339.562	79.75
339.79	95.75
340.018	100.75
340.246	101.75
340.474	100.75
340.702	92.75
340.93	81.75
341.158	101.75
341.386	90.75
341.614	100.75
341.842	99.75
342.07	78.75
342.298	91.75
342.526	90.75
342.754	80.75
342.981	75.75
343.209	101.75
343.437	95.75
343.665	91.75
343.893	89.75
344.12	95.75
344.348	89.75
344.576	95.75
344.804	87.75
345.031	98.75
345.259	111.75
345.487	103.75
345.714	82.75
345.942	89.75
346.17	112.75
346.397	91.75
346.625	91.75
346.853	97.75
347.08	73.75
347.308	97.75
347.535	99.75
347.763	90.75
347.99	97.75
348.218	111.75
348.445	96.75
348.673	101.75
348.9	98.75
349.128	104.75
349.355	95.75
349.583	93.75
349.81	101.75
350.037	87.75
350.265	77.75
350.492	98.75
350.72	97.75
350.947	91.75
351.174	117.75
351.402	120.75
351.629	115.75
351.856	107.75
352.083	92.75
352.311	105.75
352.538	107.75
352.765	115.75
352.992	122.75
353.22	107.75
353.447	117.75
353.674	94.75
353.901	89.75
354.128	93.75
354.355	97.75
354.583	97.75
354.81	90.75
355.037	94.75
355.264	100.75
355.491	96.75
355.718	93.75
355.945	85.75
356.172	93.75
356.399	83.75
356.626	81.75
356.853	96.75
357.08	85.75
357.307	102.75
357.534	87.75
357.761	83.75
357.988	95.75
358.215	85.75
358.441	95.75
358.668	89.75
358.895	94.75
359.122	93.75
359.349	90.75
359.576	102.75
359.802	109.75
360.029	123.75
360.256	116.75
360.483	103.75
360.709	90.75
360.936	102.75
361.163	94.75
361.39	102.75
361.616	95.75
361.843	78.75
362.07	86.75
362.296	96.75
362.523	100.75
362.749	77.75
362.976	99.75
363.203	91.75
363.429	97.75
363.656	98.75
363.882	93.75
364.109	73.75
364.335	74.75
364.562	95.75
364.788	93.75
365.015	91.75
365.241	94.75
365.468	102.75
365.694	112.75
365.92	101.75
366.147	86.75
366.373	98.75
366.599	95.75
366.826	85.75
367.052	82.75
367.278	80.75
367.505	88.75
367.731	95.75
367.957	98.75
368.184	93.75
368.41	99.75
368.636	127.75
368.862	130.75
369.089	121.75
369.315	104.75
369.541	88.75
369.767	102.75
369.993	104.75
370.219	110.75
370.445	94.75
370.672	94.75
370.898	87.75
371.124	76.75
371.35	85.75
371.576	80.75
371.802	94.75
372.028	84.75
372.254	80.75
372.48	77.75
372.706	94.75
372.932	94.75
373.158	79.75
373.384	96.75
373.61	83.75
373.835	102.75
374.061	87.75
374.287	98.75
374.513	93.75
374.739	90.75
374.965	79.75
375.191	100.75
375.416	76.75
375.642	80.75
375.868	97.75
376.094	95.75
376.319	80.75
376.545	89.75
376.771	88.75
376.997	88.75
377.222	90.75
377.448	87.75
377.674	73.75
377.899	98.75
378.125	104.75
378.35	94.75
378.576	94.75
378.802	87.75
379.027	105.75
379.253	91.75
379.478	93.75
379.704	92.75
379.929	99.75
380.155	87.75
380.38	103.75
380.606	97.75
380.831	85.75
381.057	97.75
381.282	90.75
381.507	94.75
381.733	90.75
381.958	99.75
382.184	95.75
382.409	104.75
382.634	107.75
382.86	86.75
383.085	94.75
383.31	109.75
383.535	91.75
383.761	81.75
383.986	93.75
384.211	90.75
384.436	109.75
384.662	100.75
384.887	95.75
385.112	113.75
385.337	103.75
385.562	87.75
385.787	98.75
386.013	115.75
386.238	125.75
386.463	104.75
386.688	107.75
386.913	94.75
387.138	106.75
387.363	103.75
387.588	103.75
387.813	104.75
388.038	101.75
388.263	111.75
388.488	106.75
388.713	76.75
388.938	98.75
389.163	93.75
389.387	100.75
389.612	104.75
389.837	91.75
390.062	85.75
390.287	85.75
390.512	80.75
390.736	96.75
390.961	103.75
391.186	97.75
391.411	111.75
391.636	87.75
391.86	75.75
392.085	93.75
392.31	93.75
392.534	101.75
392.759	91.75
392.984	101.75
393.208	75.75
393.433	91.75
393.658	81.75
393.882	70.75
394.107	86.75
394.331	92.75
394.556	86.75
394.78	91.75
395.005	90.75
395.229	92.75
395.454	84.75
395.678	94.75
395.903	79.75
396.127	79.75
396.352	96.75
396.576	100.75
396.801	90.75
397.025	86.75
397.249	93.75
397.474	89.75
397.698	102.75
397.922	93.75
398.147	84.75
398.371	99.75
398.595	90.75
398.82	91.75
399.044	83.75
399.268	78.75
399.492	95.75
399.717	90.75
399.941	94.75
400.165	86.75
400.389	84.75
400.613	60.75
400.837	82.75
401.062	70.75
401.286	90.75
401.51	94.75
401.734	85.75
401.958	93.75
402.182	135.75
402.406	180.75
402.63	128.75
402.854	100.75
403.078	91.75
403.302	82.75
403.526	85.75
403.75	90.75
403.974	101.75
404.198	91.75
404.422	96.75
404.645	90.75
404.869	93.75
405.093	106.75
405.317	107.75
405.541	96.75
405.765	103.75
405.988	135.75
406.212	205.75
406.436	290.75
406.66	187.75
406.883	115.75
407.107	101.75
407.331	90.75
407.555	91.75
407.778	95.75
408.002	100.75
408.226	96.75
408.449	103.75
408.673	92.75
408.896	81.75
409.12	87.75
409.344	83.75
409.567	92.75
409.791	95.75
410.014	105.75
410.238	91.75
410.461	92.75
410.685	94.75
410.908	102.75
411.132	107.75
411.355	95.75
411.578	105.75
411.802	100.75
412.025	97.75
412.249	94.75
412.472	90.75
412.695	104.75
412.919	91.75
413.142	92.75
413.365	83.75
413.589	93.75
413.812	88.75
414.035	93.75
414.258	88.75
414.482	90.75
414.705	86.75
414.928	81.75
415.151	84.75
415.374	97.75
415.597	86.75
415.821	93.75
416.044	93.75
416.267	95.75
416.49	108.75
416.713	82.75
416.936	92.75
417.159	82.75
417.382	99.75
417.605	98.75
417.828	89.75
418.051	95.75
418.274	100.75
418.497	91.75
418.72	85.75
418.943	77.75
419.166	97.75
419.389	84.75
419.611	83.75
419.834	92.75
420.057	92.75
420.28	86.75
420.503	87.75
420.726	103.75
420.948	82.75
421.171	101.75
421.394	102.75
421.617	102.75
421.839	91.75
422.062	86.75
422.285	84.75
422.507	103.75
422.73	96.75
422.953	97.75
423.175	96.75
423.398	96.75
423.621	89.75
423.843	94.75
424.066	81.75
424.288	89.75
424.511	104.75
424.733	94.75
424.956	108.75
425.178	113.75
425.401	102.75
425.623	102.75
425.846	97.75
426.068	92.75
426.291	96.75
426.513	88.75
426.735	75.75
426.958	97.75
427.18	122.75
427.402	143.75
427.625	181.75
427.847	151.75
428.069	116.75
428.292	96.75
428.514	81.75
428.736	94.75
428.958	81.75
429.181	91.75
429.403	85.75
429.625	89.75
429.847	91.75
430.069	112.75
430.292	98.75
430.514	83.75
430.736	84.75
430.958	83.75
431.18	102.75
431.402	102.75
431.624	89.75
431.846	96.75
432.068	97.75
432.29	89.75
432.512	100.75
432.734	94.75
432.956	86.75
433.178	103.75
433.4	104.75
433.622	106.75
433.844	102.75
434.066	98.75
434.287	108.75
434.509	82.75
434.731	82.75
434.953	87.75
435.175	87.75
435.397	92.75
435.618	89.75
435.84	83.75
436.062	125.75
436.284	127.75
436.505	95.75
436.727	98.75
436.949	102.75
437.17	94.75
437.392	96.75
437.614	100.75
437.835	101.75
438.057	134.75
438.278	121.75
438.5	107.75
438.721	121.75
438.943	101.75
439.165	87.75
439.386	89.75
439.608	94.75
439.829	90.75
440.05	137.75
440.272	137.75
440.493	95.75
440.715	78.75
440.936	85.75
441.158	79.75
441.379	95.75
441.6	86.75
441.822	105.75
442.043	93.75
442.264	107.75
442.486	101.75
442.707	90.75
442.928	111.75
443.149	137.75
443.371	143.75
443.592	129.75
443.813	120.75
444.034	115.75
444.255	99.75
444.476	81.75
444.698	81.75
444.919	91.75
445.14	130.75
445.361	117.75
445.582	119.75
445.803	159.75
446.024	148.75
446.245	139.75
446.466	120.75
446.687	93.75
446.908	105.75
447.129	96.75
447.35	90.75
447.571	91.75
447.792	99.75
448.013	112.75
448.234	103.75
448.455	92.75
448.675	112.75
448.896	114.75
449.117	115.75
449.338	120.75
449.559	127.75
449.779	129.75
450	102.75
450.221	91.75
450.442	85.75
450.662	89.75
450.883	113.75
451.104	118.75
451.324	104.75
451.545	81.75
451.766	85.75
451.986	99.75
452.207	86.75
452.428	92.75
452.648	93.75
452.869	117.75
453.089	114.75
453.31	112.75
453.53	88.75
453.751	89.75
453.971	99.75
454.192	113.75
454.412	97.75
454.633	93.75
454.853	82.75
455.073	90.75
455.294	96.75
455.514	85.75
455.734	85.75
455.955	91.75
456.175	99.75
456.395	83.75
456.616	78.75
456.836	83.75
457.056	90.75
457.276	85.75
457.497	84.75
457.717	77.75
457.937	86.75
458.157	90.75
458.377	100.75
458.598	117.75
458.818	178.75
459.038	165.75
459.258	129.75
459.478	95.75
459.698	86.75
459.918	85.75
460.138	94.75
460.358	87.75
460.578	85.75
460.798	93.75
461.018	81.75
461.238	89.75
461.458	82.75
461.678	74.75
461.898	79.75
462.118	86.75
462.338	74.75
462.558	91.75
462.777	82.75
462.997	78.75
463.217	83.75
463.437	85.75
463.657	88.75
463.876	83.75
464.096	101.75
464.316	96.75
464.536	94.75
464.755	95.75
464.975	112.75
465.195	195.75
465.414	207.75
465.634	106.75
465.854	91.75
466.073	76.75
466.293	81.75
466.512	91.75
466.732	102.75
466.951	88.75
467.171	85.75
467.391	88.75
467.61	102.75
467.829	98.75
468.049	116.75
468.268	131.75
468.488	84.75
468.707	76.75
468.927	80.75
469.146	80.75
469.365	79.75
469.585	83.75
469.804	96.75
470.023	102.75
470.243	86.75
470.462	103.75
470.681	131.75
470.901	88.75
471.12	89.75
471.339	83.75
471.558	71.75
471.777	92.75
471.997	87.75
472.216	148.75
472.435	224.75
472.654	118.75
472.873	94.75
473.092	87.75
473.311	81.75
473.53	102.75
473.749	101.75
473.968	96.75
474.187	92.75
474.406	89.75
474.625	96.75
474.844	90.75
475.063	80.75
475.282	88.75
475.501	82.75
475.72	91.75
475.939	86.75
476.158	90.75
476.377	97.75
476.596	86.75
476.814	84.75
477.033	103.75
477.252	90.75
477.471	88.75
477.69	86.75
477.908	90.75
478.127	84.75
478.346	95.75
478.564	99.75
478.783	106.75
479.002	90.75
479.22	80.75
479.439	108.75
479.658	94.75
479.876	91.75
480.095	103.75
480.313	91.75
480.532	91.75
480.751	100.75
480.969	142.75
481.188	355.75
481.406	256.75
481.624	101.75
481.843	84.75
482.061	89.75
482.28	83.75
482.498	89.75
482.717	82.75
482.935	85.75
483.153	99.75
483.372	78.75
483.59	101.75
483.808	86.75
484.027	90.75
484.245	91.75
484.463	105.75
484.681	103.75
484.9	90.75
485.118	93.75
485.336	96.75
485.554	87.75
485.772	98.75
485.99	92.75
486.209	102.75
486.427	122.75
486.645	114.75
486.863	99.75
487.081	109.75
487.299	92.75
487.517	69.75
487.735	93.75
487.953	82.75
488.171	94.75
488.389	94.75
488.607	88.75
488.825	94.75
489.043	98.75
489.261	77.75
489.479	73.75
489.696	75.75
489.914	99.75
490.132	95.75
490.35	78.75
490.568	78.75
490.786	92.75
491.003	82.75
491.221	90.75
491.439	90.75
491.657	92.75
491.874	99.75
492.092	97.75
492.31	88.75
492.527	83.75
492.745	76.75
492.963	74.75
493.18	90.75
493.398	93.75
493.615	99.75
493.833	95.75
494.05	98.75
494.268	98.75
494.485	100.75
494.703	81.75
494.92	85.75
495.138	88.75
495.355	86.75
495.573	98.75
495.79	83.75
496.008	94.75
496.225	95.75
496.442	93.75
496.66	78.75
496.877	89.75
497.094	89.75
497.312	78.75
497.529	88.75
497.746	87.75
497.963	87.75
498.181	90.75
498.398	86.75
498.615	96.75
498.832	109.75
499.049	85.75
499.267	78.75
499.484	90.75
499.701	83.75
499.918	90.75
500.135	79.75
500.352	72.75
500.569	83.75
500.786	93.75
501.003	98.75
501.22	86.75
501.437	89.75
501.654	96.75
501.871	101.75
502.088	89.75
502.305	95.75
502.522	97.75
502.739	89.75
502.956	84.75
503.172	99.75
503.389	87.75
503.606	109.75
503.823	102.75
504.04	87.75
504.256	86.75
504.473	93.75
504.69	83.75
504.907	88.75
505.123	91.75
505.34	92.75
505.557	83.75
505.773	87.75
505.99	93.75
506.207	95.75
506.423	94.75
506.64	87.75
506.856	96.75
507.073	87.75
507.289	89.75
507.506	92.75
507.722	102.75
507.939	102.75
508.155	85.75
508.372	80.75
508.588	99.75
508.805	88.75
509.021	107.75
509.238	102.75
509.454	91.75
509.67	98.75
509.887	112.75
510.103	148.75
510.319	235.75
510.536	938.75
510.752	3080.75
510.968	860.75
511.184	180.75
511.401	106.75
511.617	96.75
511.833	96.75
512.049	93.75
512.265	102.75
512.481	97.75
512.698	82.75
512.914	85.75
513.13	83.75
513.346	97.75
513.562	89.75
513.778	100.75
513.994	102.75
514.21	110.75
514.426	135.75
514.642	145.75
514.858	136.75
515.074	188.75
515.29	585.75
