Data from Circ_2018_H10_HRD10591_00047.txt Node
Date: Wed Jan 03 09:56:11 EST 2024
User: Yrep
Spectrometer: HR+D1059
Trigger mode: 1
Integration Time (sec): 1.000000E-1
Scans to average: 1
Electric dark correction enabled: true
Nonlinearity correction enabled: false
Boxcar width: 0
XAxis mode: Wavelengths
Number of Pixels in Spectrum: 2048
>>>>>Begin Spectral Data<<<<<
223.165	-7.25
223.4	-7.25
223.635	-7.25
223.869	-16.25
224.104	-14.25
224.338	-18.25
224.573	-13.25
224.808	-25.25
225.042	-10.25
225.277	-20.25
225.511	-6.25
225.746	3.75
225.98	7.75
226.215	17.75
226.449	28.75
226.683	11.75
226.918	36.75
227.152	24.75
227.387	45.75
227.621	31.75
227.856	39.75
228.09	44.75
228.324	52.75
228.559	49.75
228.793	67.75
229.027	64.75
229.262	68.75
229.496	67.75
229.73	85.75
229.964	83.75
230.199	80.75
230.433	82.75
230.667	80.75
230.901	82.75
231.136	60.75
231.37	85.75
231.604	78.75
231.838	83.75
232.072	77.75
232.306	86.75
232.541	85.75
232.775	77.75
233.009	76.75
233.243	86.75
233.477	80.75
233.711	84.75
233.945	78.75
234.179	88.75
234.413	81.75
234.647	85.75
234.881	78.75
235.115	76.75
235.349	72.75
235.583	75.75
235.817	80.75
236.051	74.75
236.285	82.75
236.519	75.75
236.753	84.75
236.987	79.75
237.221	87.75
237.455	92.75
237.689	80.75
237.922	82.75
238.156	78.75
238.39	76.75
238.624	77.75
238.858	85.75
239.091	81.75
239.325	75.75
239.559	71.75
239.793	78.75
240.027	86.75
240.26	65.75
240.494	95.75
240.728	74.75
240.961	79.75
241.195	85.75
241.429	73.75
241.662	63.75
241.896	79.75
242.13	76.75
242.363	80.75
242.597	76.75
242.83	82.75
243.064	83.75
243.298	80.75
243.531	65.75
243.765	75.75
243.998	76.75
244.232	78.75
244.465	92.75
244.699	83.75
244.932	72.75
245.166	72.75
245.399	80.75
245.633	67.75
245.866	74.75
246.099	74.75
246.333	69.75
246.566	70.75
246.8	73.75
247.033	67.75
247.266	80.75
247.5	82.75
247.733	80.75
247.966	83.75
248.2	78.75
248.433	89.75
248.666	71.75
248.899	74.75
249.133	87.75
249.366	95.75
249.599	91.75
249.832	92.75
250.066	77.75
250.299	78.75
250.532	84.75
250.765	77.75
250.998	84.75
251.231	82.75
251.465	77.75
251.698	72.75
251.931	73.75
252.164	85.75
252.397	83.75
252.63	76.75
252.863	72.75
253.096	74.75
253.329	76.75
253.562	73.75
253.795	80.75
254.028	78.75
254.261	80.75
254.494	81.75
254.727	67.75
254.96	73.75
255.193	83.75
255.426	72.75
255.659	70.75
255.892	76.75
256.124	87.75
256.357	75.75
256.59	84.75
256.823	79.75
257.056	93.75
257.289	84.75
257.521	68.75
257.754	80.75
257.987	76.75
258.22	94.75
258.452	87.75
258.685	71.75
258.918	77.75
259.151	83.75
259.383	75.75
259.616	81.75
259.849	87.75
260.081	87.75
260.314	67.75
260.547	94.75
260.779	82.75
261.012	89.75
261.244	69.75
261.477	88.75
261.71	100.75
261.942	130.75
262.175	122.75
262.407	98.75
262.64	73.75
262.872	88.75
263.105	98.75
263.337	77.75
263.57	91.75
263.802	83.75
264.035	73.75
264.267	72.75
264.499	90.75
264.732	75.75
264.964	84.75
265.197	85.75
265.429	90.75
265.661	96.75
265.894	96.75
266.126	69.75
266.358	71.75
266.591	76.75
266.823	80.75
267.055	89.75
267.287	83.75
267.52	92.75
267.752	82.75
267.984	84.75
268.216	77.75
268.448	88.75
268.681	84.75
268.913	78.75
269.145	89.75
269.377	100.75
269.609	71.75
269.841	86.75
270.073	87.75
270.306	86.75
270.538	85.75
270.77	87.75
271.002	60.75
271.234	77.75
271.466	84.75
271.698	83.75
271.93	87.75
272.162	84.75
272.394	87.75
272.626	69.75
272.858	98.75
273.09	85.75
273.322	88.75
273.553	101.75
273.785	84.75
274.017	81.75
274.249	91.75
274.481	88.75
274.713	93.75
274.945	88.75
275.176	74.75
275.408	73.75
275.64	84.75
275.872	84.75
276.104	99.75
276.335	88.75
276.567	93.75
276.799	115.75
277.031	104.75
277.262	83.75
277.494	88.75
277.726	91.75
277.957	99.75
278.189	84.75
278.421	96.75
278.652	82.75
278.884	79.75
279.115	79.75
279.347	82.75
279.579	97.75
279.81	87.75
280.042	94.75
280.273	93.75
280.505	92.75
280.736	81.75
280.968	71.75
281.199	75.75
281.431	79.75
281.662	84.75
281.894	89.75
282.125	98.75
282.356	122.75
282.588	148.75
282.819	114.75
283.051	88.75
283.282	94.75
283.513	93.75
283.745	93.75
283.976	74.75
284.207	80.75
284.439	70.75
284.67	71.75
284.901	77.75
285.132	98.75
285.364	67.75
285.595	84.75
285.826	83.75
286.057	95.75
286.288	89.75
286.52	82.75
286.751	90.75
286.982	92.75
287.213	97.75
287.444	93.75
287.675	83.75
287.906	90.75
288.138	72.75
288.369	92.75
288.6	80.75
288.831	82.75
289.062	84.75
289.293	89.75
289.524	88.75
289.755	81.75
289.986	84.75
290.217	88.75
290.448	95.75
290.679	96.75
290.91	83.75
291.141	95.75
291.371	82.75
291.602	98.75
291.833	90.75
292.064	101.75
292.295	77.75
292.526	84.75
292.757	92.75
292.987	82.75
293.218	78.75
293.449	87.75
293.68	84.75
293.91	94.75
294.141	92.75
294.372	88.75
294.603	89.75
294.833	99.75
295.064	85.75
295.295	87.75
295.525	92.75
295.756	100.75
295.987	107.75
296.217	149.75
296.448	145.75
296.679	92.75
296.909	91.75
297.14	93.75
297.37	82.75
297.601	96.75
297.831	93.75
298.062	74.75
298.292	87.75
298.523	86.75
298.753	95.75
298.984	89.75
299.214	87.75
299.445	83.75
299.675	93.75
299.905	88.75
300.136	92.75
300.366	75.75
300.597	86.75
300.827	98.75
301.057	101.75
301.288	100.75
301.518	107.75
301.748	83.75
301.979	94.75
302.209	91.75
302.439	77.75
302.669	89.75
302.9	81.75
303.13	90.75
303.36	100.75
303.59	106.75
303.82	107.75
304.051	98.75
304.281	100.75
304.511	89.75
304.741	73.75
304.971	85.75
305.201	76.75
305.431	94.75
305.661	86.75
305.891	78.75
306.121	105.75
306.352	92.75
306.582	97.75
306.812	96.75
307.042	84.75
307.272	76.75
307.502	95.75
307.731	90.75
307.961	91.75
308.191	94.75
308.421	95.75
308.651	95.75
308.881	76.75
309.111	100.75
309.341	92.75
309.571	96.75
309.8	90.75
310.03	101.75
310.26	100.75
310.49	109.75
310.72	99.75
310.949	102.75
311.179	100.75
311.409	99.75
311.639	95.75
311.868	103.75
312.098	95.75
312.328	96.75
312.557	99.75
312.787	108.75
313.017	95.75
313.246	112.75
313.476	86.75
313.706	79.75
313.935	102.75
314.165	86.75
314.394	97.75
314.624	102.75
314.853	87.75
315.083	95.75
315.312	97.75
315.542	98.75
315.771	89.75
316.001	90.75
316.23	89.75
316.46	79.75
316.689	105.75
316.919	86.75
317.148	100.75
317.377	94.75
317.607	91.75
317.836	95.75
318.065	85.75
318.295	99.75
318.524	89.75
318.753	100.75
318.983	96.75
319.212	92.75
319.441	103.75
319.67	108.75
319.9	91.75
320.129	93.75
320.358	88.75
320.587	99.75
320.816	108.75
321.046	113.75
321.275	99.75
321.504	103.75
321.733	111.75
321.962	103.75
322.191	106.75
322.42	119.75
322.649	116.75
322.878	120.75
323.108	119.75
323.337	138.75
323.566	119.75
323.795	162.75
324.024	227.75
324.253	440.75
324.482	918.75
324.71	1867.75
324.939	2446.75
325.168	890.75
325.397	271.75
325.626	172.75
325.855	127.75
326.084	126.75
326.313	137.75
326.542	166.75
326.77	246.75
326.999	492.75
327.228	1019.75
327.457	1830.75
327.686	1477.75
327.914	395.75
328.143	218.75
328.372	179.75
328.6	135.75
328.829	119.75
329.058	132.75
329.287	129.75
329.515	116.75
329.744	100.75
329.972	104.75
330.201	122.75
330.43	156.75
330.658	132.75
330.887	155.75
331.115	130.75
331.344	90.75
331.572	114.75
331.801	90.75
332.03	101.75
332.258	109.75
332.486	91.75
332.715	114.75
332.943	106.75
333.172	105.75
333.4	105.75
333.629	103.75
333.857	106.75
334.085	120.75
334.314	114.75
334.542	154.75
334.771	147.75
334.999	113.75
335.227	92.75
335.455	95.75
335.684	92.75
335.912	88.75
336.14	102.75
336.369	104.75
336.597	97.75
336.825	115.75
337.053	91.75
337.281	97.75
337.51	88.75
337.738	93.75
337.966	90.75
338.194	97.75
338.422	89.75
338.65	83.75
338.878	85.75
339.106	91.75
339.334	104.75
339.562	93.75
339.79	85.75
340.018	95.75
340.246	95.75
340.474	91.75
340.702	88.75
340.93	103.75
341.158	90.75
341.386	97.75
341.614	103.75
341.842	89.75
342.07	92.75
342.298	98.75
342.526	102.75
342.754	85.75
342.981	99.75
343.209	91.75
343.437	111.75
343.665	91.75
343.893	84.75
344.12	96.75
344.348	93.75
344.576	89.75
344.804	90.75
345.031	99.75
345.259	112.75
345.487	101.75
345.714	104.75
345.942	88.75
346.17	77.75
346.397	85.75
346.625	96.75
346.853	92.75
347.08	108.75
347.308	105.75
347.535	93.75
347.763	98.75
347.99	104.75
348.218	106.75
348.445	117.75
348.673	103.75
348.9	105.75
349.128	113.75
349.355	92.75
349.583	82.75
349.81	107.75
350.037	99.75
350.265	100.75
350.492	84.75
350.72	99.75
350.947	93.75
351.174	109.75
351.402	128.75
351.629	87.75
351.856	97.75
352.083	108.75
352.311	102.75
352.538	111.75
352.765	116.75
352.992	121.75
353.22	113.75
353.447	112.75
353.674	114.75
353.901	95.75
354.128	92.75
354.355	102.75
354.583	99.75
354.81	95.75
355.037	92.75
355.264	82.75
355.491	91.75
355.718	89.75
355.945	87.75
356.172	100.75
356.399	83.75
356.626	96.75
356.853	88.75
357.08	83.75
357.307	89.75
357.534	84.75
357.761	89.75
357.988	90.75
358.215	87.75
358.441	92.75
358.668	84.75
358.895	89.75
359.122	85.75
359.349	96.75
359.576	99.75
359.802	100.75
360.029	107.75
360.256	123.75
360.483	117.75
360.709	96.75
360.936	85.75
361.163	100.75
361.39	99.75
361.616	93.75
361.843	84.75
362.07	88.75
362.296	96.75
362.523	89.75
362.749	88.75
362.976	99.75
363.203	87.75
363.429	79.75
363.656	76.75
363.882	87.75
364.109	104.75
364.335	96.75
364.562	99.75
364.788	99.75
365.015	105.75
365.241	96.75
365.468	123.75
365.694	104.75
365.92	107.75
366.147	108.75
366.373	97.75
366.599	97.75
366.826	98.75
367.052	86.75
367.278	87.75
367.505	87.75
367.731	93.75
367.957	102.75
368.184	83.75
368.41	102.75
368.636	130.75
368.862	117.75
369.089	125.75
369.315	110.75
369.541	101.75
369.767	95.75
369.993	89.75
370.219	95.75
370.445	96.75
370.672	85.75
370.898	103.75
371.124	73.75
371.35	98.75
371.576	96.75
371.802	89.75
372.028	84.75
372.254	79.75
372.48	89.75
372.706	101.75
372.932	93.75
373.158	90.75
373.384	100.75
373.61	93.75
373.835	88.75
374.061	96.75
374.287	80.75
374.513	91.75
374.739	90.75
374.965	91.75
375.191	88.75
375.416	69.75
375.642	88.75
375.868	90.75
376.094	104.75
376.319	90.75
376.545	92.75
376.771	64.75
376.997	93.75
377.222	83.75
377.448	102.75
377.674	98.75
377.899	89.75
378.125	87.75
378.35	95.75
378.576	82.75
378.802	85.75
379.027	86.75
379.253	85.75
379.478	99.75
379.704	96.75
379.929	84.75
380.155	91.75
380.38	93.75
380.606	100.75
380.831	99.75
381.057	93.75
381.282	97.75
381.507	103.75
381.733	91.75
381.958	110.75
382.184	90.75
382.409	86.75
382.634	101.75
382.86	100.75
383.085	97.75
383.31	84.75
383.535	108.75
383.761	91.75
383.986	109.75
384.211	96.75
384.436	100.75
384.662	99.75
384.887	98.75
385.112	112.75
385.337	110.75
385.562	114.75
385.787	104.75
386.013	105.75
386.238	137.75
386.463	90.75
386.688	114.75
386.913	91.75
387.138	107.75
387.363	106.75
387.588	95.75
387.813	98.75
388.038	118.75
388.263	105.75
388.488	112.75
388.713	96.75
388.938	98.75
389.163	87.75
389.387	92.75
389.612	102.75
389.837	96.75
390.062	95.75
390.287	83.75
390.512	86.75
390.736	92.75
390.961	95.75
391.186	110.75
391.411	97.75
391.636	97.75
391.86	87.75
392.085	80.75
392.31	85.75
392.534	91.75
392.759	80.75
392.984	77.75
393.208	91.75
393.433	68.75
393.658	90.75
393.882	81.75
394.107	76.75
394.331	80.75
394.556	93.75
394.78	81.75
395.005	87.75
395.229	84.75
395.454	93.75
395.678	97.75
395.903	95.75
396.127	92.75
396.352	96.75
396.576	76.75
396.801	87.75
397.025	85.75
397.249	101.75
397.474	87.75
397.698	82.75
397.922	75.75
398.147	92.75
398.371	80.75
398.595	75.75
398.82	96.75
399.044	90.75
399.268	82.75
399.492	93.75
399.717	95.75
399.941	99.75
400.165	100.75
400.389	99.75
400.613	96.75
400.837	84.75
401.062	85.75
401.286	86.75
401.51	75.75
401.734	79.75
401.958	100.75
402.182	142.75
402.406	197.75
402.63	125.75
402.854	101.75
403.078	94.75
403.302	90.75
403.526	96.75
403.75	83.75
403.974	85.75
404.198	96.75
404.422	78.75
404.645	88.75
404.869	99.75
405.093	115.75
405.317	101.75
405.541	109.75
405.765	112.75
405.988	131.75
406.212	185.75
406.436	275.75
406.66	159.75
406.883	119.75
407.107	112.75
407.331	88.75
407.555	105.75
407.778	96.75
408.002	83.75
408.226	96.75
408.449	80.75
408.673	91.75
408.896	90.75
409.12	90.75
409.344	88.75
409.567	88.75
409.791	86.75
410.014	112.75
410.238	99.75
410.461	90.75
410.685	88.75
410.908	103.75
411.132	105.75
411.355	88.75
411.578	91.75
411.802	86.75
412.025	91.75
412.249	88.75
412.472	88.75
412.695	93.75
412.919	84.75
413.142	90.75
413.365	87.75
413.589	85.75
413.812	85.75
414.035	86.75
414.258	90.75
414.482	94.75
414.705	101.75
414.928	89.75
415.151	97.75
415.374	94.75
415.597	102.75
415.821	85.75
416.044	76.75
416.267	78.75
416.49	82.75
416.713	89.75
416.936	92.75
417.159	89.75
417.382	105.75
417.605	89.75
417.828	109.75
418.051	106.75
418.274	87.75
418.497	80.75
418.72	89.75
418.943	84.75
419.166	91.75
419.389	96.75
419.611	87.75
419.834	82.75
420.057	90.75
420.28	80.75
420.503	83.75
420.726	92.75
420.948	94.75
421.171	96.75
421.394	101.75
421.617	98.75
421.839	94.75
422.062	102.75
422.285	86.75
422.507	106.75
422.73	104.75
422.953	100.75
423.175	92.75
423.398	91.75
423.621	91.75
423.843	87.75
424.066	88.75
424.288	83.75
424.511	90.75
424.733	111.75
424.956	117.75
425.178	98.75
425.401	108.75
425.623	100.75
425.846	111.75
426.068	98.75
426.291	98.75
426.513	88.75
426.735	91.75
426.958	85.75
427.18	117.75
427.402	146.75
427.625	205.75
427.847	147.75
428.069	116.75
428.292	92.75
428.514	99.75
428.736	69.75
428.958	60.75
429.181	85.75
429.403	89.75
429.625	85.75
429.847	93.75
430.069	101.75
430.292	100.75
430.514	85.75
430.736	91.75
430.958	91.75
431.18	84.75
431.402	90.75
431.624	86.75
431.846	85.75
432.068	101.75
432.29	75.75
432.512	82.75
432.734	88.75
432.956	103.75
433.178	93.75
433.4	95.75
433.622	95.75
433.844	92.75
434.066	98.75
434.287	92.75
434.509	100.75
434.731	99.75
434.953	104.75
435.175	97.75
435.397	104.75
435.618	96.75
435.84	111.75
436.062	124.75
436.284	104.75
436.505	96.75
436.727	112.75
436.949	85.75
437.17	85.75
437.392	69.75
437.614	100.75
437.835	111.75
438.057	128.75
438.278	121.75
438.5	110.75
438.721	128.75
438.943	97.75
439.165	81.75
439.386	100.75
439.608	89.75
439.829	103.75
440.05	120.75
440.272	152.75
440.493	106.75
440.715	115.75
440.936	96.75
441.158	89.75
441.379	84.75
441.6	101.75
441.822	95.75
442.043	81.75
442.264	115.75
442.486	105.75
442.707	113.75
442.928	107.75
443.149	138.75
443.371	152.75
443.592	107.75
443.813	101.75
444.034	113.75
444.255	113.75
444.476	89.75
444.698	95.75
444.919	91.75
445.14	119.75
445.361	114.75
445.582	99.75
445.803	153.75
446.024	150.75
446.245	151.75
446.466	115.75
446.687	105.75
446.908	76.75
447.129	97.75
447.35	87.75
447.571	89.75
447.792	103.75
448.013	100.75
448.234	110.75
448.455	100.75
448.675	119.75
448.896	128.75
449.117	96.75
449.338	109.75
449.559	128.75
449.779	131.75
450	93.75
450.221	86.75
450.442	98.75
450.662	96.75
450.883	130.75
451.104	115.75
451.324	90.75
451.545	95.75
451.766	94.75
451.986	103.75
452.207	96.75
452.428	66.75
452.648	109.75
452.869	116.75
453.089	107.75
453.31	127.75
453.53	91.75
453.751	87.75
453.971	92.75
454.192	119.75
454.412	97.75
454.633	99.75
454.853	103.75
455.073	92.75
455.294	96.75
455.514	111.75
455.734	96.75
455.955	102.75
456.175	101.75
456.395	73.75
456.616	87.75
456.836	81.75
457.056	98.75
457.276	84.75
457.497	87.75
457.717	84.75
457.937	83.75
458.157	90.75
458.377	86.75
458.598	115.75
458.818	166.75
459.038	183.75
459.258	130.75
459.478	97.75
459.698	92.75
459.918	92.75
460.138	78.75
460.358	96.75
460.578	97.75
460.798	99.75
461.018	88.75
461.238	78.75
461.458	107.75
461.678	84.75
461.898	81.75
462.118	73.75
462.338	84.75
462.558	91.75
462.777	79.75
462.997	86.75
463.217	96.75
463.437	99.75
463.657	76.75
463.876	94.75
464.096	85.75
464.316	86.75
464.536	104.75
464.755	97.75
464.975	123.75
465.195	186.75
465.414	190.75
465.634	103.75
465.854	91.75
466.073	91.75
466.293	91.75
466.512	83.75
466.732	91.75
466.951	83.75
467.171	71.75
467.391	105.75
467.61	101.75
467.829	113.75
468.049	101.75
468.268	105.75
468.488	93.75
468.707	90.75
468.927	97.75
469.146	78.75
469.365	101.75
469.585	92.75
469.804	88.75
470.023	85.75
470.243	104.75
470.462	79.75
470.681	107.75
470.901	97.75
471.12	78.75
471.339	85.75
471.558	81.75
471.777	86.75
471.997	80.75
472.216	132.75
472.435	170.75
472.654	103.75
472.873	94.75
473.092	90.75
473.311	80.75
473.53	80.75
473.749	91.75
473.968	83.75
474.187	106.75
474.406	106.75
474.625	85.75
474.844	96.75
475.063	87.75
475.282	85.75
475.501	91.75
475.72	88.75
475.939	88.75
476.158	99.75
476.377	95.75
476.596	87.75
476.814	95.75
477.033	111.75
477.252	91.75
477.471	80.75
477.69	85.75
477.908	99.75
478.127	93.75
478.346	84.75
478.564	97.75
478.783	110.75
479.002	93.75
479.22	93.75
479.439	97.75
479.658	106.75
479.876	111.75
480.095	92.75
480.313	90.75
480.532	77.75
480.751	95.75
480.969	113.75
481.188	234.75
481.406	173.75
481.624	84.75
481.843	90.75
482.061	81.75
482.28	79.75
482.498	98.75
482.717	75.75
482.935	91.75
483.153	85.75
483.372	98.75
483.59	99.75
483.808	90.75
484.027	86.75
484.245	87.75
484.463	91.75
484.681	94.75
484.9	103.75
485.118	89.75
485.336	90.75
485.554	106.75
485.772	90.75
485.99	95.75
486.209	103.75
486.427	99.75
486.645	118.75
486.863	111.75
487.081	102.75
487.299	100.75
487.517	89.75
487.735	85.75
487.953	81.75
488.171	100.75
488.389	107.75
488.607	106.75
488.825	77.75
489.043	90.75
489.261	83.75
489.479	91.75
489.696	104.75
489.914	93.75
490.132	84.75
490.35	81.75
490.568	84.75
490.786	87.75
491.003	84.75
491.221	92.75
491.439	104.75
491.657	88.75
491.874	99.75
492.092	94.75
492.31	94.75
492.527	117.75
492.745	87.75
492.963	85.75
493.18	94.75
493.398	95.75
493.615	101.75
493.833	105.75
494.05	94.75
494.268	83.75
494.485	90.75
494.703	90.75
494.92	80.75
495.138	74.75
495.355	80.75
495.573	89.75
495.79	87.75
496.008	89.75
496.225	98.75
496.442	88.75
496.66	89.75
496.877	87.75
497.094	89.75
497.312	92.75
497.529	105.75
497.746	83.75
497.963	93.75
498.181	106.75
498.398	86.75
498.615	120.75
498.832	107.75
499.049	85.75
499.267	99.75
499.484	87.75
499.701	71.75
499.918	91.75
500.135	95.75
500.352	86.75
500.569	87.75
500.786	89.75
501.003	86.75
501.22	92.75
501.437	98.75
501.654	103.75
501.871	107.75
502.088	95.75
502.305	93.75
502.522	100.75
502.739	91.75
502.956	97.75
503.172	109.75
503.389	103.75
503.606	106.75
503.823	101.75
504.04	96.75
504.256	81.75
504.473	76.75
504.69	103.75
504.907	90.75
505.123	82.75
505.34	97.75
505.557	84.75
505.773	87.75
505.99	99.75
506.207	95.75
506.423	89.75
506.64	93.75
506.856	96.75
507.073	92.75
507.289	96.75
507.506	95.75
507.722	107.75
507.939	122.75
508.155	90.75
508.372	88.75
508.588	101.75
508.805	102.75
509.021	101.75
509.238	96.75
509.454	101.75
509.67	116.75
509.887	103.75
510.103	139.75
510.319	224.75
510.536	921.75
510.752	3028.75
510.968	839.75
511.184	182.75
511.401	134.75
511.617	106.75
511.833	96.75
512.049	101.75
512.265	101.75
512.481	99.75
512.698	82.75
512.914	84.75
513.13	95.75
513.346	88.75
513.562	96.75
513.778	109.75
513.994	92.75
514.21	110.75
514.426	116.75
514.642	142.75
514.858	141.75
