Data from Circ_2018_H10_HRD10591_00070.txt Node
Date: Wed Jan 03 09:56:16 EST 2024
User: Yrep
Spectrometer: HR+D1059
Trigger mode: 1
Integration Time (sec): 1.000000E-1
Scans to average: 1
Electric dark correction enabled: true
Nonlinearity correction enabled: false
Boxcar width: 0
XAxis mode: Wavelengths
Number of Pixels in Spectrum: 2048
>>>>>Begin Spectral Data<<<<<
223.165	-5.25
223.4	-5.25
223.635	-5.25
223.869	-22.25
224.104	-18.25
224.338	-25.25
224.573	-17.25
224.808	-16.25
225.042	-21.25
225.277	-7.25
225.511	8.75
225.746	11.75
225.98	16.75
226.215	16.75
226.449	7.75
226.683	24.75
226.918	11.75
227.152	34.75
227.387	22.75
227.621	32.75
227.856	34.75
228.09	42.75
228.324	47.75
228.559	67.75
228.793	61.75
229.027	60.75
229.262	64.75
229.496	82.75
229.73	91.75
229.964	79.75
230.199	79.75
230.433	73.75
230.667	69.75
230.901	59.75
231.136	93.75
231.37	72.75
231.604	82.75
231.838	82.75
232.072	74.75
232.306	72.75
232.541	94.75
232.775	75.75
233.009	81.75
233.243	86.75
233.477	83.75
233.711	81.75
233.945	74.75
234.179	80.75
234.413	79.75
234.647	75.75
234.881	79.75
235.115	75.75
235.349	71.75
235.583	73.75
235.817	74.75
236.051	83.75
236.285	79.75
236.519	74.75
236.753	64.75
236.987	80.75
237.221	88.75
237.455	73.75
237.689	84.75
237.922	83.75
238.156	82.75
238.39	75.75
238.624	74.75
238.858	69.75
239.091	84.75
239.325	67.75
239.559	84.75
239.793	91.75
240.027	77.75
240.26	79.75
240.494	95.75
240.728	86.75
240.961	81.75
241.195	59.75
241.429	76.75
241.662	62.75
241.896	68.75
242.13	76.75
242.363	76.75
242.597	86.75
242.83	82.75
243.064	76.75
243.298	75.75
243.531	75.75
243.765	60.75
243.998	76.75
244.232	82.75
244.465	79.75
244.699	89.75
244.932	90.75
245.166	85.75
245.399	67.75
245.633	82.75
245.866	79.75
246.099	78.75
246.333	97.75
246.566	80.75
246.8	85.75
247.033	80.75
247.266	64.75
247.5	79.75
247.733	76.75
247.966	86.75
248.2	75.75
248.433	73.75
248.666	71.75
248.899	70.75
249.133	86.75
249.366	95.75
249.599	91.75
249.832	76.75
250.066	88.75
250.299	70.75
250.532	79.75
250.765	81.75
250.998	73.75
251.231	83.75
251.465	72.75
251.698	81.75
251.931	83.75
252.164	76.75
252.397	69.75
252.63	81.75
252.863	74.75
253.096	84.75
253.329	74.75
253.562	74.75
253.795	75.75
254.028	76.75
254.261	75.75
254.494	79.75
254.727	86.75
254.96	69.75
255.193	73.75
255.426	81.75
255.659	81.75
255.892	76.75
256.124	79.75
256.357	87.75
256.59	82.75
256.823	80.75
257.056	70.75
257.289	82.75
257.521	76.75
257.754	78.75
257.987	66.75
258.22	82.75
258.452	79.75
258.685	78.75
258.918	87.75
259.151	76.75
259.383	80.75
259.616	70.75
259.849	64.75
260.081	85.75
260.314	72.75
260.547	71.75
260.779	86.75
261.012	81.75
261.244	84.75
261.477	90.75
261.71	73.75
261.942	110.75
262.175	134.75
262.407	81.75
262.64	87.75
262.872	102.75
263.105	81.75
263.337	86.75
263.57	83.75
263.802	70.75
264.035	71.75
264.267	77.75
264.499	102.75
264.732	83.75
264.964	79.75
265.197	78.75
265.429	70.75
265.661	76.75
265.894	70.75
266.126	80.75
266.358	79.75
266.591	79.75
266.823	73.75
267.055	87.75
267.287	82.75
267.52	74.75
267.752	63.75
267.984	65.75
268.216	86.75
268.448	78.75
268.681	84.75
268.913	84.75
269.145	97.75
269.377	85.75
269.609	72.75
269.841	80.75
270.073	81.75
270.306	87.75
270.538	89.75
270.77	89.75
271.002	95.75
271.234	89.75
271.466	88.75
271.698	80.75
271.93	87.75
272.162	72.75
272.394	82.75
272.626	77.75
272.858	87.75
273.09	86.75
273.322	76.75
273.553	92.75
273.785	81.75
274.017	77.75
274.249	73.75
274.481	90.75
274.713	80.75
274.945	83.75
275.176	92.75
275.408	94.75
275.64	86.75
275.872	88.75
276.104	95.75
276.335	97.75
276.567	111.75
276.799	112.75
277.031	105.75
277.262	100.75
277.494	95.75
277.726	91.75
277.957	90.75
278.189	88.75
278.421	83.75
278.652	83.75
278.884	80.75
279.115	93.75
279.347	84.75
279.579	90.75
279.81	88.75
280.042	91.75
280.273	99.75
280.505	80.75
280.736	82.75
280.968	90.75
281.199	80.75
281.431	81.75
281.662	89.75
281.894	91.75
282.125	91.75
282.356	132.75
282.588	141.75
282.819	130.75
283.051	89.75
283.282	82.75
283.513	87.75
283.745	107.75
283.976	87.75
284.207	91.75
284.439	88.75
284.67	85.75
284.901	100.75
285.132	78.75
285.364	70.75
285.595	100.75
285.826	100.75
286.057	86.75
286.288	95.75
286.52	82.75
286.751	85.75
286.982	89.75
287.213	72.75
287.444	95.75
287.675	91.75
287.906	93.75
288.138	78.75
288.369	95.75
288.6	82.75
288.831	96.75
289.062	78.75
289.293	77.75
289.524	75.75
289.755	94.75
289.986	77.75
290.217	96.75
290.448	89.75
290.679	83.75
290.91	87.75
291.141	81.75
291.371	97.75
291.602	95.75
291.833	74.75
292.064	83.75
292.295	93.75
292.526	82.75
292.757	103.75
292.987	80.75
293.218	83.75
293.449	84.75
293.68	87.75
293.91	80.75
294.141	101.75
294.372	86.75
294.603	87.75
294.833	92.75
295.064	88.75
295.295	83.75
295.525	100.75
295.756	106.75
295.987	138.75
296.217	164.75
296.448	140.75
296.679	97.75
296.909	104.75
297.14	97.75
297.37	86.75
297.601	94.75
297.831	87.75
298.062	92.75
298.292	76.75
298.523	86.75
298.753	70.75
298.984	87.75
299.214	96.75
299.445	83.75
299.675	100.75
299.905	96.75
300.136	114.75
300.366	101.75
300.597	89.75
300.827	87.75
301.057	101.75
301.288	108.75
301.518	90.75
301.748	84.75
301.979	92.75
302.209	85.75
302.439	84.75
302.669	83.75
302.9	94.75
303.13	87.75
303.36	91.75
303.59	114.75
303.82	114.75
304.051	91.75
304.281	88.75
304.511	87.75
304.741	92.75
304.971	95.75
305.201	84.75
305.431	94.75
305.661	89.75
305.891	78.75
306.121	97.75
306.352	117.75
306.582	112.75
306.812	89.75
307.042	99.75
307.272	92.75
307.502	102.75
307.731	99.75
307.961	91.75
308.191	88.75
308.421	90.75
308.651	90.75
308.881	87.75
309.111	101.75
309.341	93.75
309.571	110.75
309.8	104.75
310.03	97.75
310.26	83.75
310.49	97.75
310.72	91.75
310.949	106.75
311.179	112.75
311.409	83.75
311.639	97.75
311.868	91.75
312.098	79.75
312.328	100.75
312.557	108.75
312.787	110.75
313.017	110.75
313.246	94.75
313.476	89.75
313.706	88.75
313.935	98.75
314.165	98.75
314.394	105.75
314.624	107.75
314.853	96.75
315.083	104.75
315.312	92.75
315.542	75.75
315.771	90.75
316.001	73.75
316.23	106.75
316.46	87.75
316.689	92.75
316.919	88.75
317.148	102.75
317.377	94.75
317.607	89.75
317.836	94.75
318.065	89.75
318.295	96.75
318.524	84.75
318.753	97.75
318.983	102.75
319.212	110.75
319.441	120.75
319.67	114.75
319.9	93.75
320.129	95.75
320.358	95.75
320.587	98.75
320.816	108.75
321.046	125.75
321.275	103.75
321.504	94.75
321.733	97.75
321.962	112.75
322.191	94.75
322.42	117.75
322.649	113.75
322.878	128.75
323.108	136.75
323.337	138.75
323.566	149.75
323.795	166.75
324.024	239.75
324.253	434.75
324.482	958.75
324.71	1927.75
324.939	2594.75
325.168	964.75
325.397	275.75
325.626	146.75
325.855	135.75
326.084	144.75
326.313	129.75
326.542	164.75
326.77	267.75
326.999	512.75
327.228	1052.75
327.457	1910.75
327.686	1544.75
327.914	436.75
328.143	250.75
328.372	191.75
328.6	158.75
328.829	144.75
329.058	154.75
329.287	148.75
329.515	120.75
329.744	119.75
329.972	120.75
330.201	152.75
330.43	216.75
330.658	156.75
330.887	187.75
331.115	152.75
331.344	106.75
331.572	109.75
331.801	124.75
332.03	123.75
332.258	113.75
332.486	103.75
332.715	104.75
332.943	100.75
333.172	103.75
333.4	91.75
333.629	117.75
333.857	118.75
334.085	131.75
334.314	145.75
334.542	214.75
334.771	215.75
334.999	128.75
335.227	109.75
335.455	105.75
335.684	110.75
335.912	111.75
336.14	105.75
336.369	113.75
336.597	117.75
336.825	100.75
337.053	91.75
337.281	86.75
337.51	88.75
337.738	95.75
337.966	92.75
338.194	110.75
338.422	97.75
338.65	114.75
338.878	94.75
339.106	102.75
339.334	89.75
339.562	107.75
339.79	88.75
340.018	95.75
340.246	91.75
340.474	94.75
340.702	96.75
340.93	97.75
341.158	88.75
341.386	95.75
341.614	97.75
341.842	99.75
342.07	89.75
342.298	98.75
342.526	84.75
342.754	93.75
342.981	95.75
343.209	64.75
343.437	87.75
343.665	100.75
343.893	94.75
344.12	102.75
344.348	92.75
344.576	89.75
344.804	80.75
345.031	107.75
345.259	112.75
345.487	102.75
345.714	100.75
345.942	92.75
346.17	90.75
346.397	89.75
346.625	96.75
346.853	96.75
347.08	83.75
347.308	96.75
347.535	103.75
347.763	101.75
347.99	99.75
348.218	106.75
348.445	98.75
348.673	101.75
348.9	95.75
349.128	111.75
349.355	99.75
349.583	108.75
349.81	97.75
350.037	100.75
350.265	84.75
350.492	88.75
350.72	99.75
350.947	122.75
351.174	99.75
351.402	115.75
351.629	103.75
351.856	101.75
352.083	108.75
352.311	112.75
352.538	123.75
352.765	109.75
352.992	107.75
353.22	130.75
353.447	127.75
353.674	101.75
353.901	87.75
354.128	98.75
354.355	99.75
354.583	94.75
354.81	98.75
355.037	122.75
355.264	90.75
355.491	107.75
355.718	91.75
355.945	80.75
356.172	94.75
356.399	85.75
356.626	90.75
356.853	92.75
357.08	90.75
357.307	91.75
357.534	90.75
357.761	96.75
357.988	105.75
358.215	94.75
358.441	83.75
358.668	98.75
358.895	104.75
359.122	107.75
359.349	95.75
359.576	105.75
359.802	98.75
360.029	134.75
360.256	127.75
360.483	102.75
360.709	81.75
360.936	90.75
361.163	81.75
361.39	103.75
361.616	99.75
361.843	106.75
362.07	81.75
362.296	99.75
362.523	97.75
362.749	95.75
362.976	105.75
363.203	100.75
363.429	87.75
363.656	96.75
363.882	98.75
364.109	86.75
364.335	115.75
364.562	87.75
364.788	101.75
365.015	99.75
365.241	111.75
365.468	107.75
365.694	112.75
365.92	91.75
366.147	88.75
366.373	88.75
366.599	87.75
366.826	89.75
367.052	82.75
367.278	93.75
367.505	92.75
367.731	96.75
367.957	90.75
368.184	84.75
368.41	90.75
368.636	126.75
368.862	122.75
369.089	126.75
369.315	82.75
369.541	87.75
369.767	74.75
369.993	97.75
370.219	96.75
370.445	98.75
370.672	105.75
370.898	82.75
371.124	78.75
371.35	87.75
371.576	82.75
371.802	87.75
372.028	82.75
372.254	87.75
372.48	86.75
372.706	69.75
372.932	100.75
373.158	90.75
373.384	87.75
373.61	102.75
373.835	80.75
374.061	92.75
374.287	81.75
374.513	87.75
374.739	93.75
374.965	100.75
375.191	83.75
375.416	98.75
375.642	94.75
375.868	83.75
376.094	100.75
376.319	98.75
376.545	91.75
376.771	90.75
376.997	91.75
377.222	95.75
377.448	86.75
377.674	87.75
377.899	97.75
378.125	89.75
378.35	94.75
378.576	95.75
378.802	80.75
379.027	81.75
379.253	88.75
379.478	87.75
379.704	99.75
379.929	85.75
380.155	95.75
380.38	87.75
380.606	99.75
380.831	115.75
381.057	103.75
381.282	99.75
381.507	89.75
381.733	98.75
381.958	86.75
382.184	91.75
382.409	104.75
382.634	105.75
382.86	100.75
383.085	95.75
383.31	100.75
383.535	104.75
383.761	102.75
383.986	97.75
384.211	116.75
384.436	110.75
384.662	120.75
384.887	98.75
385.112	96.75
385.337	117.75
385.562	113.75
385.787	111.75
386.013	121.75
386.238	137.75
386.463	105.75
386.688	108.75
386.913	112.75
387.138	96.75
387.363	115.75
387.588	112.75
387.813	106.75
388.038	103.75
388.263	110.75
388.488	108.75
388.713	96.75
388.938	95.75
389.163	104.75
389.387	99.75
389.612	86.75
389.837	96.75
390.062	96.75
390.287	93.75
390.512	91.75
390.736	82.75
390.961	92.75
391.186	88.75
391.411	103.75
391.636	91.75
391.86	84.75
392.085	76.75
392.31	81.75
392.534	99.75
392.759	81.75
392.984	86.75
393.208	105.75
393.433	87.75
393.658	89.75
393.882	82.75
394.107	91.75
394.331	81.75
394.556	90.75
394.78	72.75
395.005	72.75
395.229	83.75
395.454	82.75
395.678	97.75
395.903	88.75
396.127	87.75
396.352	86.75
396.576	82.75
396.801	84.75
397.025	89.75
397.249	92.75
397.474	92.75
397.698	87.75
397.922	95.75
398.147	80.75
398.371	91.75
398.595	86.75
398.82	76.75
399.044	83.75
399.268	90.75
399.492	97.75
399.717	84.75
399.941	105.75
400.165	82.75
400.389	98.75
400.613	91.75
400.837	89.75
401.062	90.75
401.286	95.75
401.51	100.75
401.734	93.75
401.958	109.75
402.182	126.75
402.406	187.75
402.63	123.75
402.854	88.75
403.078	80.75
403.302	99.75
403.526	102.75
403.75	98.75
403.974	90.75
404.198	81.75
404.422	88.75
404.645	102.75
404.869	99.75
405.093	111.75
405.317	100.75
405.541	109.75
405.765	102.75
405.988	129.75
406.212	200.75
406.436	288.75
406.66	185.75
406.883	119.75
407.107	102.75
407.331	110.75
407.555	108.75
407.778	118.75
408.002	87.75
408.226	80.75
408.449	86.75
408.673	88.75
408.896	100.75
409.12	88.75
409.344	90.75
409.567	82.75
409.791	82.75
410.014	105.75
410.238	86.75
410.461	90.75
410.685	93.75
410.908	93.75
411.132	107.75
411.355	93.75
411.578	106.75
411.802	91.75
412.025	92.75
412.249	87.75
412.472	95.75
412.695	99.75
412.919	99.75
413.142	87.75
413.365	79.75
413.589	75.75
413.812	100.75
414.035	87.75
414.258	88.75
414.482	90.75
414.705	85.75
414.928	95.75
415.151	84.75
415.374	93.75
415.597	85.75
415.821	98.75
416.044	95.75
416.267	84.75
416.49	89.75
416.713	99.75
416.936	91.75
417.159	95.75
417.382	82.75
417.605	107.75
417.828	90.75
418.051	85.75
418.274	83.75
418.497	91.75
418.72	95.75
418.943	99.75
419.166	95.75
419.389	86.75
419.611	97.75
419.834	82.75
420.057	88.75
420.28	85.75
420.503	84.75
420.726	94.75
420.948	86.75
421.171	97.75
421.394	94.75
421.617	83.75
421.839	71.75
422.062	79.75
422.285	92.75
422.507	116.75
422.73	107.75
422.953	97.75
423.175	99.75
423.398	92.75
423.621	88.75
423.843	85.75
424.066	87.75
424.288	85.75
424.511	97.75
424.733	107.75
424.956	125.75
425.178	94.75
425.401	105.75
425.623	121.75
425.846	106.75
426.068	106.75
426.291	88.75
426.513	87.75
426.735	93.75
426.958	102.75
427.18	103.75
427.402	148.75
427.625	214.75
427.847	186.75
428.069	143.75
428.292	93.75
428.514	89.75
428.736	95.75
428.958	97.75
429.181	85.75
429.403	90.75
429.625	83.75
429.847	86.75
430.069	120.75
430.292	109.75
430.514	84.75
430.736	88.75
430.958	87.75
431.18	92.75
431.402	79.75
431.624	99.75
431.846	89.75
432.068	95.75
432.29	94.75
432.512	95.75
432.734	92.75
432.956	103.75
433.178	91.75
433.4	93.75
433.622	99.75
433.844	94.75
434.066	107.75
434.287	106.75
434.509	94.75
434.731	82.75
434.953	75.75
435.175	89.75
435.397	101.75
435.618	105.75
435.84	111.75
436.062	121.75
436.284	127.75
436.505	109.75
436.727	103.75
436.949	87.75
437.17	91.75
437.392	70.75
437.614	96.75
437.835	128.75
438.057	146.75
438.278	106.75
438.5	102.75
438.721	123.75
438.943	116.75
439.165	96.75
439.386	91.75
439.608	88.75
439.829	98.75
440.05	127.75
440.272	158.75
440.493	101.75
440.715	101.75
440.936	90.75
441.158	103.75
441.379	94.75
441.6	88.75
441.822	103.75
442.043	103.75
442.264	104.75
442.486	108.75
442.707	107.75
442.928	118.75
443.149	146.75
443.371	152.75
443.592	137.75
443.813	128.75
444.034	129.75
444.255	87.75
444.476	82.75
444.698	86.75
444.919	100.75
445.14	136.75
445.361	138.75
445.582	123.75
445.803	163.75
446.024	158.75
446.245	158.75
446.466	129.75
446.687	103.75
446.908	95.75
447.129	78.75
447.35	79.75
447.571	88.75
447.792	100.75
448.013	105.75
448.234	130.75
448.455	121.75
448.675	118.75
448.896	147.75
449.117	113.75
449.338	125.75
449.559	135.75
449.779	139.75
450	99.75
450.221	95.75
450.442	96.75
450.662	86.75
450.883	102.75
451.104	124.75
451.324	116.75
451.545	89.75
451.766	92.75
451.986	98.75
452.207	87.75
452.428	92.75
452.648	108.75
452.869	115.75
453.089	140.75
453.31	134.75
453.53	82.75
453.751	106.75
453.971	119.75
454.192	113.75
454.412	92.75
454.633	71.75
454.853	80.75
455.073	94.75
455.294	91.75
455.514	120.75
455.734	87.75
455.955	86.75
456.175	82.75
456.395	84.75
456.616	96.75
456.836	88.75
457.056	87.75
457.276	84.75
457.497	91.75
457.717	84.75
457.937	90.75
458.157	89.75
458.377	93.75
458.598	121.75
458.818	180.75
459.038	210.75
459.258	144.75
459.478	94.75
459.698	88.75
459.918	87.75
460.138	88.75
460.358	80.75
460.578	92.75
460.798	105.75
461.018	84.75
461.238	75.75
461.458	87.75
461.678	89.75
461.898	82.75
462.118	100.75
462.338	85.75
462.558	95.75
462.777	85.75
462.997	82.75
463.217	68.75
463.437	90.75
463.657	87.75
463.876	87.75
464.096	91.75
464.316	116.75
464.536	101.75
464.755	114.75
464.975	126.75
465.195	209.75
465.414	196.75
465.634	87.75
465.854	88.75
466.073	89.75
466.293	91.75
466.512	98.75
466.732	89.75
466.951	97.75
467.171	96.75
467.391	93.75
467.61	112.75
467.829	101.75
468.049	114.75
468.268	149.75
468.488	78.75
468.707	81.75
468.927	76.75
469.146	75.75
469.365	74.75
469.585	86.75
469.804	84.75
470.023	99.75
470.243	105.75
470.462	111.75
470.681	126.75
470.901	97.75
471.12	87.75
471.339	84.75
471.558	82.75
471.777	85.75
471.997	109.75
472.216	165.75
472.435	247.75
472.654	118.75
472.873	91.75
473.092	103.75
473.311	91.75
473.53	93.75
473.749	99.75
473.968	99.75
474.187	118.75
474.406	102.75
474.625	78.75
474.844	78.75
475.063	96.75
475.282	96.75
475.501	87.75
475.72	88.75
475.939	96.75
476.158	84.75
476.377	85.75
476.596	95.75
476.814	82.75
477.033	104.75
477.252	87.75
477.471	93.75
477.69	86.75
477.908	98.75
478.127	93.75
478.346	88.75
478.564	90.75
478.783	91.75
479.002	96.75
479.22	86.75
479.439	104.75
479.658	115.75
479.876	102.75
480.095	103.75
480.313	114.75
480.532	85.75
480.751	103.75
480.969	166.75
481.188	378.75
481.406	270.75
481.624	111.75
481.843	88.75
482.061	88.75
482.28	98.75
482.498	89.75
482.717	81.75
482.935	85.75
483.153	80.75
483.372	88.75
483.59	94.75
483.808	83.75
484.027	98.75
484.245	99.75
484.463	96.75
484.681	81.75
484.9	94.75
485.118	92.75
485.336	108.75
485.554	98.75
485.772	105.75
485.99	104.75
486.209	112.75
486.427	119.75
486.645	123.75
486.863	130.75
487.081	94.75
487.299	83.75
487.517	103.75
487.735	88.75
487.953	103.75
488.171	106.75
488.389	107.75
488.607	91.75
488.825	97.75
489.043	82.75
489.261	89.75
489.479	97.75
489.696	94.75
489.914	94.75
490.132	91.75
490.35	85.75
490.568	91.75
490.786	81.75
491.003	96.75
491.221	88.75
491.439	78.75
491.657	82.75
491.874	76.75
492.092	88.75
492.31	106.75
492.527	86.75
492.745	88.75
492.963	99.75
493.18	85.75
493.398	97.75
493.615	98.75
493.833	103.75
494.05	96.75
494.268	98.75
494.485	82.75
494.703	82.75
494.92	87.75
495.138	83.75
495.355	96.75
495.573	94.75
495.79	87.75
496.008	97.75
496.225	96.75
496.442	103.75
496.66	90.75
496.877	91.75
497.094	87.75
497.312	73.75
497.529	73.75
497.746	95.75
497.963	95.75
498.181	92.75
498.398	98.75
498.615	103.75
498.832	113.75
499.049	94.75
499.267	83.75
499.484	90.75
499.701	97.75
499.918	91.75
500.135	89.75
500.352	86.75
500.569	90.75
500.786	93.75
501.003	90.75
501.22	93.75
501.437	86.75
501.654	100.75
501.871	122.75
502.088	92.75
502.305	103.75
502.522	89.75
502.739	80.75
502.956	89.75
503.172	101.75
503.389	103.75
503.606	116.75
503.823	103.75
504.04	102.75
504.256	92.75
504.473	87.75
504.69	76.75
504.907	97.75
505.123	86.75
505.34	98.75
505.557	103.75
505.773	95.75
505.99	91.75
506.207	96.75
506.423	98.75
506.64	86.75
506.856	95.75
507.073	91.75
507.289	91.75
507.506	91.75
507.722	127.75
507.939	100.75
508.155	105.75
508.372	97.75
508.588	94.75
508.805	95.75
509.021	97.75
509.238	101.75
509.454	107.75
509.67	101.75
509.887	124.75
510.103	137.75
510.319	234.75
510.536	939.75
510.752	3132.75
510.968	868.75
511.184	194.75
511.401	131.75
511.617	97.75
511.833	102.75
512.049	83.75
512.265	102.75
512.481	105.75
512.698	95.75
512.914	94.75
513.13	99.75
513.346	94.75
513.562	101.75
513.778	106.75
513.994	102.75
514.21	122.75
514.426	130.75
