Data from Circ_2018_H10_HRD10591_00025.txt Node
Date: Wed Jan 03 09:56:07 EST 2024
User: Yrep
Spectrometer: HR+D1059
Trigger mode: 1
Integration Time (sec): 1.000000E-1
Scans to average: 1
Electric dark correction enabled: true
Nonlinearity correction enabled: false
Boxcar width: 0
XAxis mode: Wavelengths
Number of Pixels in Spectrum: 2048
>>>>>Begin Spectral Data<<<<<
223.165	-8.19
223.4	-8.19
223.635	-8.19
223.869	-21.19
224.104	-23.19
224.338	-11.19
224.573	-7.19
224.808	-20.19
225.042	-15.19
225.277	-0.19
225.511	-5.19
225.746	7.81
225.98	13.81
226.215	19.81
226.449	-1.19
226.683	27.81
226.918	19.81
227.152	23.81
227.387	37.81
227.621	43.81
227.856	45.81
228.09	44.81
228.324	52.81
228.559	65.81
228.793	57.81
229.027	66.81
229.262	47.81
229.496	85.81
229.73	99.81
229.964	75.81
230.199	62.81
230.433	72.81
230.667	69.81
230.901	70.81
231.136	80.81
231.37	70.81
231.604	75.81
231.838	79.81
232.072	75.81
232.306	70.81
232.541	89.81
232.775	83.81
233.009	74.81
233.243	85.81
233.477	80.81
233.711	77.81
233.945	74.81
234.179	97.81
234.413	77.81
234.647	82.81
234.881	80.81
235.115	80.81
235.349	87.81
235.583	76.81
235.817	79.81
236.051	81.81
236.285	78.81
236.519	60.81
236.753	74.81
236.987	75.81
237.221	86.81
237.455	95.81
237.689	92.81
237.922	70.81
238.156	76.81
238.39	67.81
238.624	80.81
238.858	84.81
239.091	65.81
239.325	74.81
239.559	82.81
239.793	83.81
240.027	68.81
240.26	77.81
240.494	79.81
240.728	55.81
240.961	74.81
241.195	68.81
241.429	72.81
241.662	77.81
241.896	81.81
242.13	80.81
242.363	73.81
242.597	86.81
242.83	79.81
243.064	94.81
243.298	80.81
243.531	58.81
243.765	77.81
243.998	72.81
244.232	76.81
244.465	82.81
244.699	76.81
244.932	75.81
245.166	78.81
245.399	80.81
245.633	76.81
245.866	70.81
246.099	76.81
246.333	69.81
246.566	84.81
246.8	71.81
247.033	77.81
247.266	67.81
247.5	72.81
247.733	87.81
247.966	74.81
248.2	82.81
248.433	77.81
248.666	69.81
248.899	85.81
249.133	94.81
249.366	92.81
249.599	104.81
249.832	80.81
250.066	82.81
250.299	79.81
250.532	92.81
250.765	81.81
250.998	74.81
251.231	78.81
251.465	71.81
251.698	74.81
251.931	66.81
252.164	86.81
252.397	83.81
252.63	76.81
252.863	80.81
253.096	80.81
253.329	83.81
253.562	76.81
253.795	75.81
254.028	82.81
254.261	76.81
254.494	88.81
254.727	89.81
254.96	79.81
255.193	85.81
255.426	78.81
255.659	63.81
255.892	88.81
256.124	82.81
256.357	84.81
256.59	77.81
256.823	81.81
257.056	94.81
257.289	95.81
257.521	76.81
257.754	74.81
257.987	73.81
258.22	69.81
258.452	81.81
258.685	71.81
258.918	83.81
259.151	84.81
259.383	87.81
259.616	85.81
259.849	71.81
260.081	91.81
260.314	84.81
260.547	83.81
260.779	69.81
261.012	83.81
261.244	95.81
261.477	96.81
261.71	83.81
261.942	111.81
262.175	116.81
262.407	92.81
262.64	77.81
262.872	75.81
263.105	88.81
263.337	79.81
263.57	93.81
263.802	87.81
264.035	82.81
264.267	65.81
264.499	84.81
264.732	76.81
264.964	65.81
265.197	72.81
265.429	99.81
265.661	80.81
265.894	88.81
266.126	96.81
266.358	93.81
266.591	77.81
266.823	100.81
267.055	80.81
267.287	82.81
267.52	89.81
267.752	87.81
267.984	95.81
268.216	82.81
268.448	97.81
268.681	97.81
268.913	73.81
269.145	83.81
269.377	81.81
269.609	83.81
269.841	73.81
270.073	78.81
270.306	99.81
270.538	77.81
270.77	77.81
271.002	70.81
271.234	88.81
271.466	93.81
271.698	75.81
271.93	98.81
272.162	95.81
272.394	89.81
272.626	92.81
272.858	84.81
273.09	82.81
273.322	81.81
273.553	94.81
273.785	99.81
274.017	82.81
274.249	98.81
274.481	81.81
274.713	79.81
274.945	82.81
275.176	69.81
275.408	85.81
275.64	92.81
275.872	82.81
276.104	90.81
276.335	105.81
276.567	95.81
276.799	115.81
277.031	112.81
277.262	85.81
277.494	87.81
277.726	105.81
277.957	79.81
278.189	76.81
278.421	95.81
278.652	101.81
278.884	91.81
279.115	85.81
279.347	81.81
279.579	95.81
279.81	95.81
280.042	82.81
280.273	85.81
280.505	97.81
280.736	75.81
280.968	68.81
281.199	82.81
281.431	87.81
281.662	87.81
281.894	96.81
282.125	92.81
282.356	128.81
282.588	139.81
282.819	116.81
283.051	101.81
283.282	89.81
283.513	89.81
283.745	86.81
283.976	81.81
284.207	93.81
284.439	99.81
284.67	91.81
284.901	73.81
285.132	88.81
285.364	79.81
285.595	87.81
285.826	103.81
286.057	86.81
286.288	99.81
286.52	90.81
286.751	91.81
286.982	89.81
287.213	95.81
287.444	83.81
287.675	95.81
287.906	96.81
288.138	86.81
288.369	101.81
288.6	85.81
288.831	87.81
289.062	86.81
289.293	90.81
289.524	72.81
289.755	91.81
289.986	96.81
290.217	87.81
290.448	86.81
290.679	86.81
290.91	89.81
291.141	100.81
291.371	81.81
291.602	84.81
291.833	102.81
292.064	100.81
292.295	88.81
292.526	102.81
292.757	97.81
292.987	91.81
293.218	90.81
293.449	89.81
293.68	93.81
293.91	93.81
294.141	103.81
294.372	87.81
294.603	100.81
294.833	89.81
295.064	91.81
295.295	98.81
295.525	85.81
295.756	97.81
295.987	129.81
296.217	151.81
296.448	125.81
296.679	88.81
296.909	96.81
297.14	88.81
297.37	88.81
297.601	89.81
297.831	87.81
298.062	91.81
298.292	88.81
298.523	106.81
298.753	84.81
298.984	85.81
299.214	85.81
299.445	95.81
299.675	93.81
299.905	104.81
300.136	77.81
300.366	88.81
300.597	97.81
300.827	79.81
301.057	100.81
301.288	98.81
301.518	103.81
301.748	80.81
301.979	104.81
302.209	97.81
302.439	86.81
302.669	75.81
302.9	88.81
303.13	97.81
303.36	102.81
303.59	101.81
303.82	112.81
304.051	84.81
304.281	93.81
304.511	91.81
304.741	90.81
304.971	83.81
305.201	87.81
305.431	103.81
305.661	87.81
305.891	98.81
306.121	99.81
306.352	98.81
306.582	107.81
306.812	87.81
307.042	94.81
307.272	101.81
307.502	90.81
307.731	82.81
307.961	96.81
308.191	89.81
308.421	84.81
308.651	92.81
308.881	102.81
309.111	89.81
309.341	90.81
309.571	113.81
309.8	98.81
310.03	102.81
310.26	76.81
310.49	104.81
310.72	94.81
310.949	104.81
311.179	91.81
311.409	100.81
311.639	90.81
311.868	106.81
312.098	108.81
312.328	94.81
312.557	108.81
312.787	110.81
313.017	98.81
313.246	91.81
313.476	104.81
313.706	87.81
313.935	97.81
314.165	111.81
314.394	98.81
314.624	114.81
314.853	95.81
315.083	96.81
315.312	97.81
315.542	96.81
315.771	91.81
316.001	86.81
316.23	87.81
316.46	84.81
316.689	82.81
316.919	89.81
317.148	96.81
317.377	102.81
317.607	88.81
317.836	83.81
318.065	93.81
318.295	81.81
318.524	98.81
318.753	102.81
318.983	81.81
319.212	107.81
319.441	103.81
319.67	128.81
319.9	98.81
320.129	89.81
320.358	95.81
320.587	89.81
320.816	87.81
321.046	113.81
321.275	82.81
321.504	80.81
321.733	94.81
321.962	82.81
322.191	100.81
322.42	103.81
322.649	112.81
322.878	111.81
323.108	112.81
323.337	116.81
323.566	141.81
323.795	162.81
324.024	223.81
324.253	426.81
324.482	901.81
324.71	1787.81
324.939	2325.81
325.168	847.81
325.397	263.81
325.626	162.81
325.855	131.81
326.084	132.81
326.313	133.81
326.542	164.81
326.77	232.81
326.999	485.81
327.228	943.81
327.457	1709.81
327.686	1365.81
327.914	384.81
328.143	204.81
328.372	153.81
328.6	121.81
328.829	119.81
329.058	152.81
329.287	135.81
329.515	121.81
329.744	113.81
329.972	110.81
330.201	122.81
330.43	142.81
330.658	158.81
330.887	161.81
331.115	132.81
331.344	87.81
331.572	112.81
331.801	116.81
332.03	101.81
332.258	84.81
332.486	72.81
332.715	100.81
332.943	98.81
333.172	98.81
333.4	98.81
333.629	118.81
333.857	125.81
334.085	121.81
334.314	126.81
334.542	141.81
334.771	133.81
334.999	115.81
335.227	93.81
335.455	92.81
335.684	105.81
335.912	87.81
336.14	103.81
336.369	92.81
336.597	107.81
336.825	98.81
337.053	83.81
337.281	105.81
337.51	84.81
337.738	90.81
337.966	94.81
338.194	100.81
338.422	91.81
338.65	90.81
338.878	91.81
339.106	90.81
339.334	84.81
339.562	91.81
339.79	81.81
340.018	93.81
340.246	89.81
340.474	82.81
340.702	94.81
340.93	95.81
341.158	85.81
341.386	104.81
341.614	103.81
341.842	100.81
342.07	96.81
342.298	103.81
342.526	98.81
342.754	95.81
342.981	88.81
343.209	84.81
343.437	103.81
343.665	91.81
343.893	77.81
344.12	86.81
344.348	91.81
344.576	94.81
344.804	81.81
345.031	92.81
345.259	99.81
345.487	109.81
345.714	87.81
345.942	81.81
346.17	91.81
346.397	97.81
346.625	93.81
346.853	95.81
347.08	98.81
347.308	92.81
347.535	100.81
347.763	96.81
347.99	101.81
348.218	104.81
348.445	98.81
348.673	112.81
348.9	88.81
349.128	93.81
349.355	81.81
349.583	89.81
349.81	87.81
350.037	96.81
350.265	88.81
350.492	83.81
350.72	96.81
350.947	101.81
351.174	131.81
351.402	126.81
351.629	106.81
351.856	96.81
352.083	103.81
352.311	122.81
352.538	115.81
352.765	133.81
352.992	88.81
353.22	106.81
353.447	102.81
353.674	105.81
353.901	106.81
354.128	117.81
354.355	114.81
354.583	95.81
354.81	85.81
355.037	97.81
355.264	88.81
355.491	87.81
355.718	94.81
355.945	85.81
356.172	93.81
356.399	95.81
356.626	113.81
356.853	107.81
357.08	85.81
357.307	93.81
357.534	94.81
357.761	95.81
357.988	92.81
358.215	87.81
358.441	94.81
358.668	95.81
358.895	103.81
359.122	100.81
359.349	85.81
359.576	93.81
359.802	103.81
360.029	113.81
360.256	121.81
360.483	92.81
360.709	99.81
360.936	87.81
361.163	103.81
361.39	95.81
361.616	101.81
361.843	84.81
362.07	99.81
362.296	96.81
362.523	101.81
362.749	93.81
362.976	89.81
363.203	109.81
363.429	89.81
363.656	92.81
363.882	90.81
364.109	87.81
364.335	91.81
364.562	84.81
364.788	92.81
365.015	87.81
365.241	93.81
365.468	111.81
365.694	106.81
365.92	94.81
366.147	93.81
366.373	95.81
366.599	92.81
366.826	101.81
367.052	90.81
367.278	77.81
367.505	77.81
367.731	95.81
367.957	77.81
368.184	93.81
368.41	90.81
368.636	111.81
368.862	133.81
369.089	113.81
369.315	95.81
369.541	103.81
369.767	103.81
369.993	92.81
370.219	97.81
370.445	93.81
370.672	84.81
370.898	89.81
371.124	89.81
371.35	87.81
371.576	91.81
371.802	78.81
372.028	94.81
372.254	95.81
372.48	96.81
372.706	90.81
372.932	106.81
373.158	89.81
373.384	92.81
373.61	104.81
373.835	76.81
374.061	93.81
374.287	96.81
374.513	99.81
374.739	102.81
374.965	97.81
375.191	95.81
375.416	87.81
375.642	90.81
375.868	99.81
376.094	97.81
376.319	90.81
376.545	103.81
376.771	92.81
376.997	86.81
377.222	90.81
377.448	84.81
377.674	94.81
377.899	87.81
378.125	78.81
378.35	95.81
378.576	98.81
378.802	94.81
379.027	85.81
379.253	101.81
379.478	98.81
379.704	104.81
379.929	100.81
380.155	94.81
380.38	99.81
380.606	84.81
380.831	91.81
381.057	93.81
381.282	100.81
381.507	118.81
381.733	92.81
381.958	89.81
382.184	91.81
382.409	92.81
382.634	107.81
382.86	101.81
383.085	120.81
383.31	99.81
383.535	96.81
383.761	100.81
383.986	97.81
384.211	112.81
384.436	91.81
384.662	100.81
384.887	95.81
385.112	96.81
385.337	118.81
385.562	105.81
385.787	88.81
386.013	119.81
386.238	113.81
386.463	110.81
386.688	104.81
386.913	115.81
387.138	111.81
387.363	109.81
387.588	90.81
387.813	107.81
388.038	88.81
388.263	115.81
388.488	102.81
388.713	86.81
388.938	103.81
389.163	90.81
389.387	96.81
389.612	105.81
389.837	91.81
390.062	89.81
390.287	81.81
390.512	86.81
390.736	87.81
390.961	91.81
391.186	83.81
391.411	88.81
391.636	93.81
391.86	85.81
392.085	80.81
392.31	97.81
392.534	99.81
392.759	105.81
392.984	82.81
393.208	86.81
393.433	79.81
393.658	80.81
393.882	81.81
394.107	69.81
394.331	79.81
394.556	90.81
394.78	80.81
395.005	87.81
395.229	84.81
395.454	99.81
395.678	93.81
395.903	82.81
396.127	83.81
396.352	101.81
396.576	88.81
396.801	102.81
397.025	67.81
397.249	84.81
397.474	89.81
397.698	91.81
397.922	90.81
398.147	98.81
398.371	80.81
398.595	82.81
398.82	91.81
399.044	102.81
399.268	94.81
399.492	84.81
399.717	99.81
399.941	98.81
400.165	90.81
400.389	92.81
400.613	88.81
400.837	85.81
401.062	95.81
401.286	89.81
401.51	95.81
401.734	105.81
401.958	94.81
402.182	132.81
402.406	187.81
402.63	127.81
402.854	106.81
403.078	80.81
403.302	90.81
403.526	105.81
403.75	114.81
403.974	83.81
404.198	81.81
404.422	84.81
404.645	104.81
404.869	96.81
405.093	92.81
405.317	87.81
405.541	100.81
405.765	98.81
405.988	121.81
406.212	194.81
406.436	273.81
406.66	167.81
406.883	103.81
407.107	87.81
407.331	83.81
407.555	99.81
407.778	85.81
408.002	91.81
408.226	84.81
408.449	90.81
408.673	86.81
408.896	86.81
409.12	94.81
409.344	95.81
409.567	83.81
409.791	91.81
410.014	90.81
410.238	82.81
410.461	85.81
410.685	99.81
410.908	97.81
411.132	104.81
411.355	92.81
411.578	87.81
411.802	81.81
412.025	91.81
412.249	87.81
412.472	92.81
412.695	109.81
412.919	80.81
413.142	87.81
413.365	88.81
413.589	89.81
413.812	96.81
414.035	79.81
414.258	82.81
414.482	94.81
414.705	98.81
414.928	97.81
415.151	93.81
415.374	119.81
415.597	84.81
415.821	90.81
416.044	75.81
416.267	89.81
416.49	91.81
416.713	80.81
416.936	85.81
417.159	93.81
417.382	104.81
417.605	104.81
417.828	82.81
418.051	91.81
418.274	82.81
418.497	90.81
418.72	88.81
418.943	97.81
419.166	89.81
419.389	91.81
419.611	72.81
419.834	89.81
420.057	100.81
420.28	81.81
420.503	95.81
420.726	96.81
420.948	71.81
421.171	95.81
421.394	89.81
421.617	101.81
421.839	90.81
422.062	91.81
422.285	84.81
422.507	98.81
422.73	105.81
422.953	89.81
423.175	96.81
423.398	97.81
423.621	98.81
423.843	86.81
424.066	93.81
424.288	95.81
424.511	93.81
424.733	89.81
424.956	100.81
425.178	103.81
425.401	98.81
425.623	100.81
425.846	98.81
426.068	107.81
426.291	80.81
426.513	103.81
426.735	97.81
426.958	104.81
427.18	95.81
427.402	146.81
427.625	163.81
427.847	146.81
428.069	113.81
428.292	94.81
428.514	87.81
428.736	92.81
428.958	86.81
429.181	80.81
429.403	88.81
429.625	90.81
429.847	100.81
430.069	116.81
430.292	98.81
430.514	88.81
430.736	85.81
430.958	90.81
431.18	94.81
431.402	93.81
431.624	76.81
431.846	77.81
432.068	87.81
432.29	85.81
432.512	79.81
432.734	83.81
432.956	102.81
433.178	79.81
433.4	117.81
433.622	89.81
433.844	100.81
434.066	98.81
434.287	80.81
434.509	95.81
434.731	85.81
434.953	86.81
435.175	80.81
435.397	90.81
435.618	95.81
435.84	115.81
436.062	125.81
436.284	112.81
436.505	99.81
436.727	116.81
436.949	92.81
437.17	97.81
437.392	94.81
437.614	106.81
437.835	123.81
438.057	137.81
438.278	119.81
438.5	101.81
438.721	118.81
438.943	113.81
439.165	88.81
439.386	100.81
439.608	97.81
439.829	103.81
440.05	113.81
440.272	160.81
440.493	107.81
440.715	89.81
440.936	83.81
441.158	93.81
441.379	87.81
441.6	89.81
441.822	115.81
442.043	81.81
442.264	107.81
442.486	99.81
442.707	96.81
442.928	112.81
443.149	124.81
443.371	145.81
443.592	111.81
443.813	131.81
444.034	101.81
444.255	92.81
444.476	84.81
444.698	96.81
444.919	87.81
445.14	150.81
445.361	117.81
445.582	119.81
445.803	145.81
446.024	148.81
446.245	145.81
446.466	119.81
446.687	86.81
446.908	90.81
447.129	82.81
447.35	88.81
447.571	112.81
447.792	93.81
448.013	99.81
448.234	114.81
448.455	103.81
448.675	103.81
448.896	122.81
449.117	108.81
449.338	97.81
449.559	128.81
449.779	137.81
450	101.81
450.221	88.81
450.442	85.81
450.662	91.81
450.883	111.81
451.104	112.81
451.324	103.81
451.545	85.81
451.766	92.81
451.986	108.81
452.207	86.81
452.428	98.81
452.648	97.81
452.869	114.81
453.089	129.81
453.31	126.81
453.53	90.81
453.751	96.81
453.971	103.81
454.192	124.81
454.412	95.81
454.633	80.81
454.853	89.81
455.073	87.81
455.294	98.81
455.514	94.81
455.734	95.81
455.955	91.81
456.175	72.81
456.395	83.81
456.616	99.81
456.836	90.81
457.056	74.81
457.276	88.81
457.497	86.81
457.717	67.81
457.937	89.81
458.157	88.81
458.377	87.81
458.598	107.81
458.818	178.81
459.038	177.81
459.258	111.81
459.478	87.81
459.698	85.81
459.918	96.81
460.138	99.81
460.358	98.81
460.578	77.81
460.798	86.81
461.018	88.81
461.238	93.81
461.458	85.81
461.678	102.81
461.898	103.81
462.118	97.81
462.338	85.81
462.558	87.81
462.777	89.81
462.997	93.81
463.217	84.81
463.437	87.81
463.657	80.81
463.876	95.81
464.096	79.81
464.316	90.81
464.536	74.81
464.755	91.81
464.975	106.81
465.195	197.81
465.414	175.81
465.634	91.81
465.854	90.81
466.073	98.81
466.293	92.81
466.512	82.81
466.732	90.81
466.951	88.81
467.171	81.81
467.391	98.81
467.61	102.81
467.829	89.81
468.049	96.81
468.268	93.81
468.488	82.81
468.707	84.81
468.927	100.81
469.146	76.81
469.365	89.81
469.585	94.81
469.804	95.81
470.023	104.81
470.243	82.81
470.462	89.81
470.681	115.81
470.901	89.81
471.12	96.81
471.339	85.81
471.558	94.81
471.777	85.81
471.997	82.81
472.216	124.81
472.435	158.81
472.654	82.81
472.873	81.81
473.092	82.81
473.311	72.81
473.53	71.81
473.749	84.81
473.968	83.81
474.187	117.81
474.406	99.81
474.625	85.81
474.844	89.81
475.063	84.81
475.282	98.81
475.501	83.81
475.72	81.81
475.939	100.81
476.158	88.81
476.377	90.81
476.596	81.81
476.814	95.81
477.033	101.81
477.252	100.81
477.471	92.81
477.69	85.81
477.908	77.81
478.127	80.81
478.346	82.81
478.564	104.81
478.783	88.81
479.002	97.81
479.22	97.81
479.439	109.81
479.658	107.81
479.876	94.81
480.095	89.81
480.313	108.81
480.532	90.81
480.751	83.81
480.969	119.81
481.188	183.81
481.406	143.81
481.624	111.81
481.843	95.81
482.061	84.81
482.28	83.81
482.498	104.81
482.717	87.81
482.935	72.81
483.153	93.81
483.372	87.81
483.59	101.81
483.808	87.81
484.027	87.81
484.245	86.81
484.463	97.81
484.681	90.81
484.9	96.81
485.118	81.81
485.336	99.81
485.554	89.81
485.772	88.81
485.99	101.81
486.209	101.81
486.427	100.81
486.645	101.81
486.863	114.81
487.081	102.81
487.299	84.81
487.517	96.81
487.735	91.81
487.953	98.81
488.171	92.81
488.389	94.81
488.607	106.81
488.825	83.81
489.043	93.81
489.261	87.81
489.479	92.81
489.696	85.81
489.914	90.81
490.132	72.81
490.35	87.81
490.568	90.81
490.786	102.81
491.003	80.81
491.221	94.81
491.439	95.81
491.657	84.81
491.874	98.81
492.092	91.81
492.31	100.81
492.527	92.81
492.745	84.81
492.963	89.81
493.18	88.81
493.398	82.81
493.615	91.81
493.833	93.81
494.05	78.81
494.268	88.81
494.485	99.81
494.703	99.81
494.92	92.81
495.138	85.81
495.355	77.81
495.573	104.81
495.79	85.81
496.008	91.81
496.225	77.81
496.442	89.81
496.66	89.81
496.877	100.81
497.094	91.81
497.312	90.81
497.529	92.81
497.746	93.81
497.963	91.81
498.181	75.81
498.398	78.81
498.615	114.81
498.832	112.81
499.049	88.81
499.267	99.81
499.484	95.81
499.701	92.81
499.918	89.81
500.135	78.81
500.352	81.81
500.569	89.81
500.786	96.81
501.003	97.81
501.22	83.81
501.437	80.81
501.654	102.81
501.871	112.81
502.088	91.81
502.305	104.81
502.522	83.81
502.739	86.81
502.956	79.81
503.172	87.81
503.389	106.81
503.606	122.81
503.823	96.81
504.04	85.81
504.256	91.81
504.473	99.81
504.69	83.81
504.907	89.81
505.123	82.81
505.34	104.81
505.557	94.81
505.773	89.81
505.99	83.81
506.207	78.81
506.423	80.81
506.64	85.81
506.856	77.81
507.073	99.81
507.289	96.81
507.506	89.81
507.722	111.81
507.939	125.81
508.155	107.81
508.372	100.81
508.588	90.81
508.805	96.81
509.021	98.81
509.238	118.81
509.454	98.81
509.67	92.81
509.887	127.81
510.103	143.81
510.319	225.81
510.536	917.81
510.752	3155.81
510.968	909.81
511.184	195.81
511.401	114.81
511.617	101.81
511.833	87.81
512.049	97.81
512.265	103.81
512.481	96.81
512.698	90.81
512.914	91.81
513.13	93.81
513.346	104.81
513.562	104.81
513.778	93.81
513.994	101.81
514.21	104.81
514.426	118.81
514.642	156.81
514.858	138.81
515.074	185.81
515.29	603.81
