Data from Circ_2018_H10_HRD10591_00027.txt Node
Date: Wed Jan 03 09:56:07 EST 2024
User: Yrep
Spectrometer: HR+D1059
Trigger mode: 1
Integration Time (sec): 1.000000E-1
Scans to average: 1
Electric dark correction enabled: true
Nonlinearity correction enabled: false
Boxcar width: 0
XAxis mode: Wavelengths
Number of Pixels in Spectrum: 2048
>>>>>Begin Spectral Data<<<<<
223.165	-11.38
223.4	-11.38
223.635	-11.38
223.869	-17.38
224.104	-21.38
224.338	-10.38
224.573	-14.38
224.808	-21.38
225.042	-7.38
225.277	-21.38
225.511	-7.38
225.746	2.62
225.98	14.62
226.215	18.62
226.449	29.62
226.683	20.62
226.918	17.62
227.152	28.62
227.387	38.62
227.621	30.62
227.856	33.62
228.09	39.62
228.324	59.62
228.559	53.62
228.793	53.62
229.027	67.62
229.262	66.62
229.496	79.62
229.73	80.62
229.964	85.62
230.199	84.62
230.433	56.62
230.667	56.62
230.901	73.62
231.136	67.62
231.37	78.62
231.604	76.62
231.838	67.62
232.072	74.62
232.306	84.62
232.541	74.62
232.775	80.62
233.009	87.62
233.243	81.62
233.477	81.62
233.711	93.62
233.945	82.62
234.179	73.62
234.413	65.62
234.647	68.62
234.881	79.62
235.115	69.62
235.349	78.62
235.583	82.62
235.817	69.62
236.051	88.62
236.285	77.62
236.519	89.62
236.753	71.62
236.987	84.62
237.221	71.62
237.455	93.62
237.689	79.62
237.922	83.62
238.156	72.62
238.39	68.62
238.624	79.62
238.858	77.62
239.091	64.62
239.325	78.62
239.559	63.62
239.793	75.62
240.027	71.62
240.26	84.62
240.494	77.62
240.728	79.62
240.961	75.62
241.195	65.62
241.429	81.62
241.662	65.62
241.896	86.62
242.13	69.62
242.363	81.62
242.597	67.62
242.83	64.62
243.064	85.62
243.298	73.62
243.531	67.62
243.765	69.62
243.998	66.62
244.232	77.62
244.465	86.62
244.699	74.62
244.932	61.62
245.166	73.62
245.399	66.62
245.633	81.62
245.866	77.62
246.099	73.62
246.333	68.62
246.566	70.62
246.8	77.62
247.033	93.62
247.266	77.62
247.5	75.62
247.733	71.62
247.966	72.62
248.2	84.62
248.433	76.62
248.666	68.62
248.899	86.62
249.133	99.62
249.366	113.62
249.599	89.62
249.832	76.62
250.066	84.62
250.299	82.62
250.532	86.62
250.765	64.62
250.998	87.62
251.231	57.62
251.465	66.62
251.698	78.62
251.931	70.62
252.164	69.62
252.397	88.62
252.63	93.62
252.863	87.62
253.096	86.62
253.329	79.62
253.562	82.62
253.795	71.62
254.028	77.62
254.261	81.62
254.494	65.62
254.727	67.62
254.96	86.62
255.193	74.62
255.426	86.62
255.659	72.62
255.892	83.62
256.124	92.62
256.357	74.62
256.59	72.62
256.823	74.62
257.056	81.62
257.289	86.62
257.521	73.62
257.754	78.62
257.987	73.62
258.22	74.62
258.452	85.62
258.685	79.62
258.918	81.62
259.151	97.62
259.383	79.62
259.616	78.62
259.849	84.62
260.081	78.62
260.314	73.62
260.547	71.62
260.779	70.62
261.012	68.62
261.244	74.62
261.477	90.62
261.71	93.62
261.942	112.62
262.175	126.62
262.407	88.62
262.64	87.62
262.872	80.62
263.105	71.62
263.337	78.62
263.57	89.62
263.802	85.62
264.035	86.62
264.267	84.62
264.499	76.62
264.732	81.62
264.964	81.62
265.197	80.62
265.429	93.62
265.661	82.62
265.894	84.62
266.126	81.62
266.358	73.62
266.591	93.62
266.823	77.62
267.055	74.62
267.287	87.62
267.52	89.62
267.752	74.62
267.984	81.62
268.216	73.62
268.448	71.62
268.681	88.62
268.913	77.62
269.145	81.62
269.377	84.62
269.609	86.62
269.841	85.62
270.073	69.62
270.306	80.62
270.538	76.62
270.77	77.62
271.002	74.62
271.234	74.62
271.466	74.62
271.698	80.62
271.93	68.62
272.162	84.62
272.394	91.62
272.626	86.62
272.858	80.62
273.09	88.62
273.322	84.62
273.553	87.62
273.785	77.62
274.017	82.62
274.249	74.62
274.481	79.62
274.713	84.62
274.945	83.62
275.176	93.62
275.408	83.62
275.64	89.62
275.872	88.62
276.104	89.62
276.335	83.62
276.567	97.62
276.799	110.62
277.031	95.62
277.262	96.62
277.494	84.62
277.726	55.62
277.957	94.62
278.189	92.62
278.421	82.62
278.652	84.62
278.884	78.62
279.115	85.62
279.347	78.62
279.579	83.62
279.81	85.62
280.042	88.62
280.273	98.62
280.505	79.62
280.736	69.62
280.968	83.62
281.199	82.62
281.431	76.62
281.662	73.62
281.894	87.62
282.125	99.62
282.356	116.62
282.588	156.62
282.819	118.62
283.051	86.62
283.282	91.62
283.513	73.62
283.745	81.62
283.976	79.62
284.207	86.62
284.439	95.62
284.67	78.62
284.901	74.62
285.132	89.62
285.364	76.62
285.595	87.62
285.826	80.62
286.057	94.62
286.288	85.62
286.52	80.62
286.751	91.62
286.982	79.62
287.213	69.62
287.444	73.62
287.675	94.62
287.906	92.62
288.138	89.62
288.369	92.62
288.6	85.62
288.831	73.62
289.062	90.62
289.293	86.62
289.524	92.62
289.755	76.62
289.986	82.62
290.217	81.62
290.448	90.62
290.679	87.62
290.91	85.62
291.141	78.62
291.371	75.62
291.602	97.62
291.833	83.62
292.064	77.62
292.295	83.62
292.526	74.62
292.757	74.62
292.987	81.62
293.218	85.62
293.449	87.62
293.68	94.62
293.91	86.62
294.141	85.62
294.372	81.62
294.603	89.62
294.833	81.62
295.064	88.62
295.295	102.62
295.525	101.62
295.756	110.62
295.987	120.62
296.217	134.62
296.448	144.62
296.679	101.62
296.909	70.62
297.14	89.62
297.37	109.62
297.601	86.62
297.831	81.62
298.062	84.62
298.292	87.62
298.523	79.62
298.753	84.62
298.984	78.62
299.214	78.62
299.445	87.62
299.675	80.62
299.905	94.62
300.136	84.62
300.366	93.62
300.597	83.62
300.827	86.62
301.057	74.62
301.288	102.62
301.518	93.62
301.748	87.62
301.979	94.62
302.209	90.62
302.439	93.62
302.669	88.62
302.9	96.62
303.13	89.62
303.36	92.62
303.59	81.62
303.82	97.62
304.051	84.62
304.281	94.62
304.511	78.62
304.741	92.62
304.971	84.62
305.201	89.62
305.431	92.62
305.661	110.62
305.891	93.62
306.121	84.62
306.352	102.62
306.582	88.62
306.812	79.62
307.042	79.62
307.272	95.62
307.502	88.62
307.731	90.62
307.961	81.62
308.191	91.62
308.421	80.62
308.651	84.62
308.881	84.62
309.111	92.62
309.341	77.62
309.571	96.62
309.8	84.62
310.03	83.62
310.26	102.62
310.49	79.62
310.72	95.62
310.949	112.62
311.179	104.62
311.409	91.62
311.639	96.62
311.868	95.62
312.098	94.62
312.328	86.62
312.557	95.62
312.787	104.62
313.017	98.62
313.246	90.62
313.476	85.62
313.706	89.62
313.935	100.62
314.165	98.62
314.394	102.62
314.624	115.62
314.853	96.62
315.083	89.62
315.312	77.62
315.542	82.62
315.771	87.62
316.001	82.62
316.23	82.62
316.46	81.62
316.689	90.62
316.919	86.62
317.148	80.62
317.377	89.62
317.607	92.62
317.836	88.62
318.065	89.62
318.295	100.62
318.524	88.62
318.753	86.62
318.983	88.62
319.212	96.62
319.441	103.62
319.67	109.62
319.9	87.62
320.129	81.62
320.358	86.62
320.587	97.62
320.816	103.62
321.046	112.62
321.275	111.62
321.504	98.62
321.733	88.62
321.962	90.62
322.191	100.62
322.42	105.62
322.649	115.62
322.878	109.62
323.108	124.62
323.337	123.62
323.566	140.62
323.795	176.62
324.024	240.62
324.253	466.62
324.482	948.62
324.71	1928.62
324.939	2500.62
325.168	931.62
325.397	275.62
325.626	160.62
325.855	130.62
326.084	135.62
326.313	139.62
326.542	149.62
326.77	221.62
326.999	489.62
327.228	1058.62
327.457	1908.62
327.686	1487.62
327.914	421.62
328.143	217.62
328.372	161.62
328.6	148.62
328.829	122.62
329.058	124.62
329.287	154.62
329.515	101.62
329.744	96.62
329.972	104.62
330.201	117.62
330.43	141.62
330.658	138.62
330.887	167.62
331.115	138.62
331.344	92.62
331.572	88.62
331.801	105.62
332.03	110.62
332.258	93.62
332.486	82.62
332.715	84.62
332.943	96.62
333.172	82.62
333.4	86.62
333.629	112.62
333.857	102.62
334.085	112.62
334.314	112.62
334.542	125.62
334.771	116.62
334.999	116.62
335.227	90.62
335.455	85.62
335.684	100.62
335.912	97.62
336.14	100.62
336.369	101.62
336.597	94.62
336.825	95.62
337.053	89.62
337.281	89.62
337.51	81.62
337.738	86.62
337.966	78.62
338.194	80.62
338.422	96.62
338.65	90.62
338.878	103.62
339.106	97.62
339.334	85.62
339.562	76.62
339.79	88.62
340.018	90.62
340.246	84.62
340.474	102.62
340.702	90.62
340.93	84.62
341.158	94.62
341.386	87.62
341.614	81.62
341.842	97.62
342.07	87.62
342.298	99.62
342.526	73.62
342.754	93.62
342.981	68.62
343.209	82.62
343.437	92.62
343.665	82.62
343.893	74.62
344.12	92.62
344.348	83.62
344.576	97.62
344.804	96.62
345.031	84.62
345.259	90.62
345.487	100.62
345.714	98.62
345.942	89.62
346.17	78.62
346.397	97.62
346.625	97.62
346.853	89.62
347.08	99.62
347.308	85.62
347.535	94.62
347.763	99.62
347.99	111.62
348.218	95.62
348.445	100.62
348.673	94.62
348.9	100.62
349.128	104.62
349.355	79.62
349.583	78.62
349.81	93.62
350.037	93.62
350.265	92.62
350.492	92.62
350.72	103.62
350.947	104.62
351.174	120.62
351.402	88.62
351.629	85.62
351.856	96.62
352.083	99.62
352.311	96.62
352.538	117.62
352.765	125.62
352.992	97.62
353.22	112.62
353.447	97.62
353.674	99.62
353.901	93.62
354.128	100.62
354.355	92.62
354.583	83.62
354.81	91.62
355.037	95.62
355.264	89.62
355.491	76.62
355.718	87.62
355.945	78.62
356.172	92.62
356.399	96.62
356.626	87.62
356.853	96.62
357.08	80.62
357.307	89.62
357.534	85.62
357.761	89.62
357.988	97.62
358.215	87.62
358.441	86.62
358.668	86.62
358.895	87.62
359.122	90.62
359.349	80.62
359.576	100.62
359.802	105.62
360.029	102.62
360.256	118.62
360.483	104.62
360.709	78.62
360.936	95.62
361.163	70.62
361.39	94.62
361.616	95.62
361.843	90.62
362.07	88.62
362.296	98.62
362.523	90.62
362.749	90.62
362.976	92.62
363.203	85.62
363.429	99.62
363.656	87.62
363.882	89.62
364.109	86.62
364.335	88.62
364.562	96.62
364.788	107.62
365.015	94.62
365.241	99.62
365.468	109.62
365.694	109.62
365.92	98.62
366.147	99.62
366.373	90.62
366.599	84.62
366.826	84.62
367.052	82.62
367.278	81.62
367.505	79.62
367.731	94.62
367.957	86.62
368.184	97.62
368.41	91.62
368.636	105.62
368.862	133.62
369.089	113.62
369.315	96.62
369.541	84.62
369.767	82.62
369.993	97.62
370.219	94.62
370.445	90.62
370.672	72.62
370.898	94.62
371.124	84.62
371.35	80.62
371.576	78.62
371.802	83.62
372.028	97.62
372.254	95.62
372.48	81.62
372.706	83.62
372.932	73.62
373.158	83.62
373.384	91.62
373.61	82.62
373.835	95.62
374.061	82.62
374.287	89.62
374.513	79.62
374.739	83.62
374.965	102.62
375.191	96.62
375.416	79.62
375.642	92.62
375.868	88.62
376.094	96.62
376.319	81.62
376.545	60.62
376.771	97.62
376.997	87.62
377.222	88.62
377.448	89.62
377.674	86.62
377.899	92.62
378.125	88.62
378.35	96.62
378.576	73.62
378.802	75.62
379.027	97.62
379.253	83.62
379.478	84.62
379.704	80.62
379.929	95.62
380.155	111.62
380.38	95.62
380.606	85.62
380.831	101.62
381.057	86.62
381.282	91.62
381.507	94.62
381.733	98.62
381.958	93.62
382.184	79.62
382.409	102.62
382.634	99.62
382.86	90.62
383.085	105.62
383.31	97.62
383.535	86.62
383.761	81.62
383.986	105.62
384.211	90.62
384.436	74.62
384.662	111.62
384.887	98.62
385.112	99.62
385.337	97.62
385.562	101.62
385.787	102.62
386.013	106.62
386.238	104.62
386.463	112.62
386.688	101.62
386.913	93.62
387.138	113.62
387.363	104.62
387.588	91.62
387.813	92.62
388.038	111.62
388.263	103.62
388.488	102.62
388.713	83.62
388.938	85.62
389.163	77.62
389.387	85.62
389.612	89.62
389.837	85.62
390.062	93.62
390.287	79.62
390.512	85.62
390.736	86.62
390.961	81.62
391.186	87.62
391.411	80.62
391.636	84.62
391.86	82.62
392.085	71.62
392.31	100.62
392.534	81.62
392.759	80.62
392.984	79.62
393.208	75.62
393.433	93.62
393.658	97.62
393.882	89.62
394.107	92.62
394.331	68.62
394.556	76.62
394.78	91.62
395.005	89.62
395.229	93.62
395.454	93.62
395.678	82.62
395.903	85.62
396.127	80.62
396.352	90.62
396.576	87.62
396.801	87.62
397.025	85.62
397.249	82.62
397.474	87.62
397.698	85.62
397.922	83.62
398.147	79.62
398.371	74.62
398.595	82.62
398.82	83.62
399.044	87.62
399.268	86.62
399.492	79.62
399.717	96.62
399.941	87.62
400.165	95.62
400.389	93.62
400.613	63.62
400.837	89.62
401.062	95.62
401.286	84.62
401.51	81.62
401.734	96.62
401.958	98.62
402.182	151.62
402.406	170.62
402.63	126.62
402.854	85.62
403.078	80.62
403.302	92.62
403.526	93.62
403.75	96.62
403.974	97.62
404.198	72.62
404.422	84.62
404.645	83.62
404.869	91.62
405.093	101.62
405.317	99.62
405.541	95.62
405.765	94.62
405.988	121.62
406.212	188.62
406.436	292.62
406.66	182.62
406.883	94.62
407.107	81.62
407.331	94.62
407.555	95.62
407.778	97.62
408.002	85.62
408.226	92.62
408.449	81.62
408.673	86.62
408.896	96.62
409.12	96.62
409.344	84.62
409.567	90.62
409.791	86.62
410.014	97.62
410.238	89.62
410.461	95.62
410.685	82.62
410.908	103.62
411.132	101.62
411.355	93.62
411.578	81.62
411.802	74.62
412.025	88.62
412.249	82.62
412.472	85.62
412.695	95.62
412.919	105.62
413.142	78.62
413.365	83.62
413.589	80.62
413.812	84.62
414.035	81.62
414.258	94.62
414.482	85.62
414.705	82.62
414.928	93.62
415.151	86.62
415.374	84.62
415.597	79.62
415.821	91.62
416.044	88.62
416.267	89.62
416.49	86.62
416.713	94.62
416.936	93.62
417.159	85.62
417.382	102.62
417.605	89.62
417.828	89.62
418.051	97.62
418.274	87.62
418.497	97.62
418.72	60.62
418.943	82.62
419.166	78.62
419.389	95.62
419.611	89.62
419.834	84.62
420.057	77.62
420.28	76.62
420.503	102.62
420.726	71.62
420.948	81.62
421.171	97.62
421.394	94.62
421.617	79.62
421.839	87.62
422.062	86.62
422.285	105.62
422.507	84.62
422.73	92.62
422.953	93.62
423.175	96.62
423.398	110.62
423.621	81.62
423.843	94.62
424.066	85.62
424.288	78.62
424.511	96.62
424.733	104.62
424.956	94.62
425.178	101.62
425.401	92.62
425.623	100.62
425.846	88.62
426.068	95.62
426.291	94.62
426.513	92.62
426.735	87.62
426.958	84.62
427.18	101.62
427.402	136.62
427.625	181.62
427.847	148.62
428.069	112.62
428.292	84.62
428.514	92.62
428.736	80.62
428.958	91.62
429.181	94.62
429.403	85.62
429.625	76.62
429.847	95.62
430.069	93.62
430.292	84.62
430.514	80.62
430.736	97.62
430.958	84.62
431.18	87.62
431.402	93.62
431.624	76.62
431.846	82.62
432.068	85.62
432.29	72.62
432.512	79.62
432.734	74.62
432.956	90.62
433.178	84.62
433.4	97.62
433.622	89.62
433.844	82.62
434.066	88.62
434.287	81.62
434.509	90.62
434.731	91.62
434.953	71.62
435.175	98.62
435.397	102.62
435.618	92.62
435.84	103.62
436.062	125.62
436.284	127.62
436.505	96.62
436.727	93.62
436.949	88.62
437.17	82.62
437.392	89.62
437.614	103.62
437.835	114.62
438.057	131.62
438.278	119.62
438.5	100.62
438.721	122.62
438.943	89.62
439.165	87.62
439.386	80.62
439.608	103.62
439.829	101.62
440.05	116.62
440.272	155.62
440.493	108.62
440.715	86.62
440.936	87.62
441.158	99.62
441.379	80.62
441.6	84.62
441.822	100.62
442.043	97.62
442.264	113.62
442.486	116.62
442.707	94.62
442.928	102.62
443.149	128.62
443.371	133.62
443.592	115.62
443.813	104.62
444.034	117.62
444.255	97.62
444.476	96.62
444.698	84.62
444.919	95.62
445.14	125.62
445.361	120.62
445.582	105.62
445.803	136.62
446.024	162.62
446.245	133.62
446.466	116.62
446.687	94.62
446.908	92.62
447.129	91.62
447.35	97.62
447.571	89.62
447.792	109.62
448.013	124.62
448.234	114.62
448.455	102.62
448.675	110.62
448.896	106.62
449.117	112.62
449.338	97.62
449.559	129.62
449.779	127.62
450	87.62
450.221	84.62
450.442	86.62
450.662	90.62
450.883	112.62
451.104	109.62
451.324	84.62
451.545	84.62
451.766	81.62
451.986	88.62
452.207	88.62
452.428	103.62
452.648	98.62
452.869	127.62
453.089	119.62
453.31	113.62
453.53	95.62
453.751	85.62
453.971	99.62
454.192	113.62
454.412	107.62
454.633	99.62
454.853	76.62
455.073	81.62
455.294	80.62
455.514	87.62
455.734	84.62
455.955	89.62
456.175	87.62
456.395	81.62
456.616	78.62
456.836	79.62
457.056	85.62
457.276	87.62
457.497	81.62
457.717	91.62
457.937	97.62
458.157	91.62
458.377	79.62
458.598	117.62
458.818	181.62
459.038	183.62
459.258	129.62
459.478	84.62
459.698	86.62
459.918	76.62
460.138	91.62
460.358	95.62
460.578	79.62
460.798	71.62
461.018	81.62
461.238	85.62
461.458	82.62
461.678	74.62
461.898	66.62
462.118	80.62
462.338	84.62
462.558	87.62
462.777	74.62
462.997	89.62
463.217	90.62
463.437	98.62
463.657	103.62
463.876	90.62
464.096	79.62
464.316	78.62
464.536	102.62
464.755	95.62
464.975	103.62
465.195	186.62
465.414	187.62
465.634	104.62
465.854	95.62
466.073	77.62
466.293	99.62
466.512	76.62
466.732	85.62
466.951	87.62
467.171	82.62
467.391	101.62
467.61	89.62
467.829	88.62
468.049	105.62
468.268	102.62
468.488	87.62
468.707	84.62
468.927	81.62
469.146	82.62
469.365	105.62
469.585	73.62
469.804	91.62
470.023	97.62
470.243	87.62
470.462	105.62
470.681	104.62
470.901	102.62
471.12	77.62
471.339	89.62
471.558	81.62
471.777	104.62
471.997	95.62
472.216	95.62
472.435	141.62
472.654	92.62
472.873	71.62
473.092	80.62
473.311	71.62
473.53	89.62
473.749	78.62
473.968	83.62
474.187	100.62
474.406	98.62
474.625	86.62
474.844	92.62
475.063	82.62
475.282	82.62
475.501	80.62
475.72	86.62
475.939	93.62
476.158	97.62
476.377	73.62
476.596	90.62
476.814	84.62
477.033	91.62
477.252	88.62
477.471	86.62
477.69	95.62
477.908	101.62
478.127	85.62
478.346	84.62
478.564	77.62
478.783	99.62
479.002	80.62
479.22	77.62
479.439	98.62
479.658	104.62
479.876	90.62
480.095	102.62
480.313	101.62
480.532	87.62
480.751	93.62
480.969	109.62
481.188	178.62
481.406	149.62
481.624	100.62
481.843	85.62
482.061	89.62
482.28	85.62
482.498	95.62
482.717	86.62
482.935	77.62
483.153	89.62
483.372	91.62
483.59	85.62
483.808	95.62
484.027	90.62
484.245	89.62
484.463	90.62
484.681	91.62
484.9	90.62
485.118	83.62
485.336	95.62
485.554	92.62
485.772	74.62
485.99	93.62
486.209	97.62
486.427	92.62
486.645	104.62
486.863	119.62
487.081	99.62
487.299	76.62
487.517	96.62
487.735	84.62
487.953	89.62
488.171	79.62
488.389	91.62
488.607	91.62
488.825	94.62
489.043	89.62
489.261	86.62
489.479	97.62
489.696	86.62
489.914	90.62
490.132	88.62
490.35	85.62
490.568	75.62
490.786	77.62
491.003	94.62
491.221	78.62
491.439	101.62
491.657	97.62
491.874	106.62
492.092	92.62
492.31	91.62
492.527	85.62
492.745	76.62
492.963	82.62
493.18	93.62
493.398	96.62
493.615	88.62
493.833	91.62
494.05	97.62
494.268	86.62
494.485	85.62
494.703	85.62
494.92	87.62
495.138	70.62
495.355	97.62
495.573	91.62
495.79	80.62
496.008	73.62
496.225	103.62
496.442	97.62
496.66	99.62
496.877	81.62
497.094	95.62
497.312	95.62
497.529	83.62
497.746	88.62
497.963	77.62
498.181	91.62
498.398	102.62
498.615	109.62
498.832	111.62
499.049	94.62
499.267	87.62
499.484	90.62
499.701	81.62
499.918	81.62
500.135	86.62
500.352	86.62
500.569	86.62
500.786	85.62
501.003	93.62
501.22	99.62
501.437	97.62
501.654	104.62
501.871	115.62
502.088	81.62
502.305	86.62
502.522	92.62
502.739	85.62
502.956	102.62
503.172	74.62
503.389	93.62
503.606	103.62
503.823	113.62
504.04	94.62
504.256	84.62
504.473	86.62
504.69	78.62
504.907	90.62
505.123	80.62
505.34	77.62
505.557	78.62
505.773	102.62
505.99	91.62
506.207	88.62
506.423	96.62
506.64	89.62
506.856	88.62
507.073	89.62
507.289	94.62
507.506	95.62
507.722	117.62
507.939	100.62
508.155	79.62
508.372	67.62
508.588	87.62
508.805	109.62
509.021	107.62
509.238	100.62
509.454	101.62
509.67	93.62
509.887	132.62
510.103	148.62
510.319	246.62
510.536	952.62
510.752	3246.62
510.968	892.62
511.184	173.62
511.401	106.62
511.617	95.62
511.833	98.62
512.049	97.62
512.265	88.62
512.481	89.62
512.698	80.62
512.914	93.62
513.13	82.62
513.346	85.62
513.562	94.62
513.778	99.62
513.994	109.62
514.21	115.62
514.426	126.62
514.642	158.62
514.858	137.62
515.074	186.62
515.29	575.62
515.506	2083.62
515.721	772.62
515.937	174.62
516.153	116.62
516.369	100.62
