Data from Circ_2018_H10_HRD10591_00022.txt Node
Date: Wed Jan 03 09:56:06 EST 2024
User: Yrep
Spectrometer: HR+D1059
Trigger mode: 1
Integration Time (sec): 1.000000E-1
Scans to average: 1
Electric dark correction enabled: true
Nonlinearity correction enabled: false
Boxcar width: 0
XAxis mode: Wavelengths
Number of Pixels in Spectrum: 2048
>>>>>Begin Spectral Data<<<<<
223.165	-5.81
223.4	-5.81
223.635	-5.81
223.869	-6.81
224.104	-21.81
224.338	-15.81
224.573	-13.81
224.808	-14.81
225.042	-25.81
225.277	-21.81
225.511	-3.81
225.746	13.19
225.98	4.19
226.215	10.19
226.449	28.19
226.683	18.19
226.918	29.19
227.152	27.19
227.387	26.19
227.621	32.19
227.856	53.19
228.09	49.19
228.324	50.19
228.559	68.19
228.793	158.19
229.027	450.19
229.262	547.19
229.496	628.19
229.73	850.19
229.964	806.19
230.199	561.19
230.433	496.19
230.667	475.19
230.901	483.19
231.136	451.19
231.37	465.19
231.604	447.19
231.838	456.19
232.072	452.19
232.306	439.19
232.541	455.19
232.775	480.19
233.009	485.19
233.243	464.19
233.477	490.19
233.711	507.19
233.945	478.19
234.179	513.19
234.413	506.19
234.647	497.19
234.881	515.19
235.115	514.19
235.349	547.19
235.583	548.19
235.817	584.19
236.051	639.19
236.285	610.19
236.519	616.19
236.753	734.19
236.987	935.19
237.221	1383.19
237.455	1499.19
237.689	888.19
237.922	753.19
238.156	744.19
238.39	685.19
238.624	652.19
238.858	655.19
239.091	663.19
239.325	662.19
239.559	679.19
239.793	727.19
240.027	761.19
240.26	909.19
240.494	990.19
240.728	963.19
240.961	951.19
241.195	843.19
241.429	805.19
241.662	785.19
241.896	791.19
242.13	789.19
242.363	761.19
242.597	777.19
242.83	821.19
243.064	835.19
243.298	819.19
243.531	832.19
243.765	847.19
243.998	896.19
244.232	866.19
244.465	906.19
244.699	909.19
244.932	893.19
245.166	874.19
245.399	905.19
245.633	919.19
245.866	915.19
246.099	920.19
246.333	973.19
246.566	994.19
246.8	984.19
247.033	1035.19
247.266	1066.19
247.5	1102.19
247.733	1201.19
247.966	1143.19
248.2	1150.19
248.433	1184.19
248.666	1207.19
248.899	1362.19
249.133	1451.19
249.366	1461.19
249.599	1339.19
249.832	1267.19
250.066	1276.19
250.299	1346.19
250.532	1447.19
250.765	1595.19
250.998	1775.19
251.231	1667.19
251.465	1547.19
251.698	1483.19
251.931	1407.19
252.164	1401.19
252.397	1433.19
252.63	1466.19
252.863	1527.19
253.096	1699.19
253.329	1710.19
253.562	1671.19
253.795	1551.19
254.028	1583.19
254.261	1630.19
254.494	1828.19
254.727	2177.19
254.96	2293.19
255.193	1976.19
255.426	1791.19
255.659	1769.19
255.892	1865.19
256.124	1928.19
256.357	1809.19
256.59	1653.19
256.823	1586.19
257.056	1570.19
257.289	1578.19
257.521	1572.19
257.754	1554.19
257.987	1558.19
258.22	1542.19
258.452	1547.19
258.685	1571.19
258.918	1572.19
259.151	1671.19
259.383	1673.19
259.616	1715.19
259.849	1781.19
260.081	1976.19
260.314	2128.19
260.547	2015.19
260.779	1875.19
261.012	1806.19
261.244	1756.19
261.477	1703.19
261.71	1722.19
261.942	1833.19
262.175	1803.19
262.407	1705.19
262.64	1705.19
262.872	1694.19
263.105	1655.19
263.337	1644.19
263.57	1689.19
263.802	1742.19
264.035	1694.19
264.267	1684.19
264.499	1676.19
264.732	1720.19
264.964	1727.19
265.197	1717.19
265.429	1698.19
265.661	1756.19
265.894	1757.19
266.126	1740.19
266.358	1759.19
266.591	1807.19
266.823	1888.19
267.055	1945.19
267.287	1885.19
267.52	1889.19
267.752	1896.19
267.984	1884.19
268.216	1894.19
268.448	1921.19
268.681	2004.19
268.913	2192.19
269.145	2372.19
269.377	2416.19
269.609	2341.19
269.841	2276.19
270.073	2447.19
270.306	2702.19
270.538	2887.19
270.77	2698.19
271.002	2577.19
271.234	2512.19
271.466	2653.19
271.698	2808.19
271.93	2778.19
272.162	2822.19
272.394	2705.19
272.626	2559.19
272.858	2372.19
273.09	2329.19
273.322	2276.19
273.553	2305.19
273.785	2301.19
274.017	2313.19
274.249	2279.19
274.481	2270.19
274.713	2309.19
274.945	2355.19
275.176	2297.19
275.408	2313.19
275.64	2293.19
275.872	2296.19
276.104	2322.19
276.335	2353.19
276.567	2495.19
276.799	2627.19
277.031	2875.19
277.262	2963.19
277.494	2851.19
277.726	2635.19
277.957	2494.19
278.189	2481.19
278.421	2463.19
278.652	2407.19
278.884	2433.19
279.115	2361.19
279.347	2448.19
279.579	2394.19
279.81	2402.19
280.042	2387.19
280.273	2411.19
280.505	2442.19
280.736	2420.19
280.968	2470.19
281.199	2473.19
281.431	2475.19
281.662	2480.19
281.894	2504.19
282.125	2624.19
282.356	2748.19
282.588	2886.19
282.819	2752.19
283.051	2615.19
283.282	2609.19
283.513	2622.19
283.745	2675.19
283.976	2733.19
284.207	2649.19
284.439	2684.19
284.67	2641.19
284.901	2620.19
285.132	2641.19
285.364	2642.19
285.595	2657.19
285.826	2642.19
286.057	2718.19
286.288	2690.19
286.52	2703.19
286.751	2712.19
286.982	2739.19
287.213	2722.19
287.444	2737.19
287.675	2873.19
287.906	2931.19
288.138	3015.19
288.369	2993.19
288.6	2919.19
288.831	2891.19
289.062	2836.19
289.293	2904.19
289.524	2919.19
289.755	2813.19
289.986	2828.19
290.217	2846.19
290.448	2837.19
290.679	2867.19
290.91	2872.19
291.141	2829.19
291.371	2859.19
291.602	2849.19
291.833	2836.19
292.064	2874.19
292.295	2821.19
292.526	2877.19
292.757	2896.19
292.987	2848.19
293.218	2832.19
293.449	2907.19
293.68	2948.19
293.91	2909.19
294.141	2877.19
294.372	2856.19
294.603	2902.19
294.833	2897.19
295.064	2891.19
295.295	2879.19
295.525	2942.19
295.756	3003.19
295.987	3117.19
296.217	3289.19
296.448	3242.19
296.679	2999.19
296.909	3024.19
297.14	3046.19
297.37	3062.19
297.601	3066.19
297.831	3134.19
298.062	3102.19
298.292	3090.19
298.523	3189.19
298.753	3138.19
298.984	3159.19
299.214	3139.19
299.445	3184.19
299.675	3187.19
299.905	3212.19
300.136	3220.19
300.366	3213.19
300.597	3259.19
300.827	3285.19
301.057	3433.19
301.288	3447.19
301.518	3393.19
301.748	3447.19
301.979	3413.19
302.209	3491.19
302.439	3491.19
302.669	3351.19
302.9	3369.19
303.13	3339.19
303.36	3425.19
303.59	3495.19
303.82	3463.19
304.051	3403.19
304.281	3410.19
304.511	3345.19
304.741	3353.19
304.971	3345.19
305.201	3282.19
305.431	3369.19
305.661	3311.19
305.891	3334.19
306.121	3274.19
306.352	3337.19
306.582	3377.19
306.812	3267.19
307.042	3322.19
307.272	3338.19
307.502	3303.19
307.731	3356.19
307.961	3349.19
308.191	3328.19
308.421	3359.19
308.651	3382.19
308.881	3389.19
309.111	3392.19
309.341	3412.19
309.571	3557.19
309.8	3605.19
310.03	3715.19
310.26	3646.19
310.49	3655.19
310.72	3835.19
310.949	3991.19
311.179	3861.19
311.409	3715.19
311.639	3758.19
311.868	3774.19
312.098	3779.19
312.328	3864.19
312.557	4055.19
312.787	4105.19
313.017	3961.19
313.246	3844.19
313.476	3796.19
313.706	3906.19
313.935	4004.19
314.165	4062.19
314.394	4137.19
314.624	3957.19
314.853	3855.19
315.083	3855.19
315.312	3854.19
315.542	3841.19
315.771	3782.19
316.001	3711.19
316.23	3744.19
316.46	3699.19
316.689	3791.19
316.919	3882.19
317.148	3851.19
317.377	3876.19
317.607	3811.19
317.836	3781.19
318.065	3725.19
318.295	3686.19
318.524	3695.19
318.753	3699.19
318.983	3792.19
319.212	3680.19
319.441	3879.19
319.67	3842.19
319.9	3794.19
320.129	3827.19
320.358	3823.19
320.587	3823.19
320.816	3883.19
321.046	3934.19
321.275	3925.19
321.504	3942.19
321.733	3979.19
321.962	3989.19
322.191	4211.19
322.42	4274.19
322.649	4380.19
322.878	4383.19
323.108	4531.19
323.337	4761.19
323.566	4954.19
323.795	5287.19
324.024	5941.19
324.253	8200.19
324.482	12259.19
324.71	15595.19
324.939	15595.19
325.168	13885.19
325.397	7066.19
325.626	5590.19
325.855	5151.19
326.084	5014.19
326.313	5002.19
326.542	5214.19
326.77	6021.19
326.999	7781.19
327.228	11524.19
327.457	15207.19
327.686	14455.19
327.914	7974.19
328.143	6335.19
328.372	5901.19
328.6	5649.19
328.829	5604.19
329.058	5813.19
329.287	5699.19
329.515	5314.19
329.744	5107.19
329.972	5201.19
330.201	5534.19
330.43	5885.19
330.658	6108.19
330.887	6312.19
331.115	5708.19
331.344	5165.19
331.572	5067.19
331.801	5247.19
332.03	5287.19
332.258	5154.19
332.486	5099.19
332.715	5193.19
332.943	5421.19
333.172	5509.19
333.4	5671.19
333.629	5821.19
333.857	5978.19
334.085	5999.19
334.314	6122.19
334.542	6285.19
334.771	6281.19
334.999	5733.19
335.227	5436.19
335.455	5323.19
335.684	5210.19
335.912	5158.19
336.14	5130.19
336.369	5082.19
336.597	5216.19
336.825	5037.19
337.053	4963.19
337.281	4877.19
337.51	4847.19
337.738	4856.19
337.966	4809.19
338.194	4846.19
338.422	4768.19
338.65	4671.19
338.878	4608.19
339.106	4576.19
339.334	4628.19
339.562	4587.19
339.79	4425.19
340.018	4505.19
340.246	4554.19
340.474	4522.19
340.702	4546.19
340.93	4499.19
341.158	4551.19
341.386	4509.19
341.614	4496.19
341.842	4421.19
342.07	4368.19
342.298	4426.19
342.526	4437.19
342.754	4354.19
342.981	4409.19
343.209	4514.19
343.437	4733.19
343.665	5057.19
343.893	5252.19
344.12	5294.19
344.348	5096.19
344.576	4896.19
344.804	4803.19
345.031	4775.19
345.259	4758.19
345.487	4600.19
345.714	4424.19
345.942	4394.19
346.17	4277.19
346.397	4294.19
346.625	4282.19
346.853	4347.19
347.08	4377.19
347.308	4350.19
347.535	4461.19
347.763	4426.19
347.99	4373.19
348.218	4449.19
348.445	4486.19
348.673	4377.19
348.9	4269.19
349.128	4173.19
349.355	4177.19
349.583	4206.19
349.81	4191.19
350.037	4182.19
350.265	4150.19
350.492	4161.19
350.72	4161.19
350.947	4223.19
351.174	4326.19
351.402	4356.19
351.629	4264.19
351.856	4319.19
352.083	4377.19
352.311	4370.19
352.538	4410.19
352.765	4340.19
352.992	4293.19
353.22	4273.19
353.447	4224.19
353.674	4126.19
353.901	4087.19
354.128	4102.19
354.355	4095.19
354.583	4065.19
354.81	4003.19
355.037	4045.19
355.264	4005.19
355.491	4009.19
355.718	3986.19
355.945	3991.19
356.172	4071.19
356.399	4072.19
356.626	4042.19
356.853	4048.19
357.08	3978.19
357.307	4042.19
357.534	4048.19
357.761	4030.19
357.988	4080.19
358.215	4026.19
358.441	4025.19
358.668	4053.19
358.895	4161.19
359.122	4154.19
359.349	4193.19
359.576	4403.19
359.802	4645.19
360.029	4806.19
360.256	4864.19
360.483	4628.19
360.709	4365.19
360.936	4351.19
361.163	4369.19
361.39	4357.19
361.616	4323.19
361.843	4210.19
362.07	4320.19
362.296	4346.19
362.523	4294.19
362.749	4254.19
362.976	4220.19
363.203	4190.19
363.429	4181.19
363.656	4132.19
363.882	4126.19
364.109	4145.19
364.335	4163.19
364.562	4141.19
364.788	4111.19
365.015	4131.19
365.241	4150.19
365.468	4227.19
365.694	4195.19
365.92	4175.19
366.147	4138.19
366.373	4146.19
366.599	4102.19
366.826	4118.19
367.052	4081.19
367.278	4200.19
367.505	4194.19
367.731	4131.19
367.957	4205.19
368.184	4236.19
368.41	4299.19
368.636	4363.19
368.862	4390.19
369.089	4331.19
369.315	4246.19
369.541	4233.19
369.767	4231.19
369.993	4235.19
370.219	4258.19
370.445	4288.19
370.672	4245.19
370.898	4251.19
371.124	4316.19
371.35	4338.19
371.576	4410.19
371.802	4296.19
372.028	4337.19
372.254	4299.19
372.48	4411.19
372.706	4525.19
372.932	4538.19
373.158	4462.19
373.384	4384.19
373.61	4399.19
373.835	4414.19
374.061	4397.19
374.287	4569.19
374.513	4595.19
374.739	4648.19
374.965	4872.19
375.191	4816.19
375.416	4689.19
375.642	4590.19
375.868	4564.19
376.094	4504.19
376.319	4491.19
376.545	4458.19
376.771	4441.19
376.997	4387.19
377.222	4408.19
377.448	4400.19
377.674	4341.19
377.899	4361.19
378.125	4313.19
378.35	4337.19
378.576	4404.19
378.802	4381.19
379.027	4347.19
379.253	4430.19
379.478	4314.19
379.704	4337.19
379.929	4397.19
380.155	4386.19
380.38	4345.19
380.606	4394.19
380.831	4377.19
381.057	4405.19
381.282	4359.19
381.507	4444.19
381.733	4427.19
381.958	4546.19
382.184	4566.19
382.409	4601.19
382.634	4653.19
382.86	4641.19
383.085	4773.19
383.31	4841.19
383.535	4840.19
383.761	4896.19
383.986	4925.19
384.211	4989.19
384.436	5067.19
384.662	5112.19
384.887	5224.19
385.112	5218.19
385.337	5367.19
385.562	5247.19
385.787	5319.19
386.013	5385.19
386.238	5422.19
386.463	5436.19
386.688	5380.19
386.913	5297.19
387.138	5232.19
387.363	5199.19
387.588	5200.19
387.813	5250.19
388.038	5241.19
388.263	5293.19
388.488	5302.19
388.713	5264.19
388.938	5212.19
389.163	5170.19
389.387	5213.19
389.612	5126.19
389.837	5199.19
390.062	5122.19
390.287	5153.19
390.512	5179.19
390.736	5184.19
390.961	5303.19
391.186	5352.19
391.411	5590.19
391.636	5710.19
391.86	5920.19
392.085	5911.19
392.31	5797.19
392.534	5611.19
392.759	5540.19
392.984	5451.19
393.208	5448.19
393.433	5444.19
393.658	5426.19
393.882	5437.19
394.107	5449.19
394.331	5547.19
394.556	5516.19
394.78	5504.19
395.005	5570.19
395.229	5563.19
395.454	5828.19
395.678	5978.19
395.903	5899.19
396.127	5951.19
396.352	5751.19
396.576	5577.19
396.801	5530.19
397.025	5669.19
397.249	5791.19
397.474	5929.19
397.698	5841.19
397.922	6063.19
398.147	6182.19
398.371	6308.19
398.595	6378.19
398.82	6731.19
399.044	7250.19
399.268	8011.19
399.492	9117.19
399.717	9794.19
399.941	9595.19
400.165	8965.19
400.389	8233.19
400.613	7388.19
400.837	7013.19
401.062	6862.19
401.286	6661.19
401.51	6619.19
401.734	6606.19
401.958	6724.19
402.182	6916.19
402.406	6996.19
402.63	7107.19
402.854	7069.19
403.078	7211.19
403.302	7393.19
403.526	7495.19
403.75	7576.19
403.974	7611.19
404.198	7510.19
404.422	7715.19
404.645	7577.19
404.869	7573.19
405.093	7812.19
405.317	8103.19
405.541	8018.19
405.765	7609.19
405.988	7459.19
406.212	7682.19
406.436	7802.19
406.66	8017.19
406.883	7875.19
407.107	8524.19
407.331	9047.19
407.555	9606.19
407.778	9241.19
408.002	8434.19
408.226	8045.19
408.449	7975.19
408.673	7753.19
408.896	7900.19
409.12	8054.19
409.344	7688.19
409.567	7296.19
409.791	7288.19
410.014	7135.19
410.238	7143.19
410.461	7169.19
410.685	7184.19
410.908	7256.19
411.132	7501.19
411.355	7488.19
411.578	7154.19
411.802	6963.19
412.025	6967.19
412.249	7140.19
412.472	7306.19
412.695	7361.19
412.919	6956.19
413.142	6758.19
413.365	6602.19
413.589	6690.19
413.812	6429.19
414.035	6426.19
414.258	6533.19
414.482	6554.19
414.705	6545.19
414.928	6518.19
415.151	6576.19
415.374	6546.19
415.597	6485.19
415.821	6393.19
416.044	6386.19
416.267	6378.19
416.49	6336.19
416.713	6397.19
416.936	6374.19
417.159	6427.19
417.382	6487.19
417.605	6513.19
417.828	6714.19
418.051	6808.19
418.274	6656.19
418.497	6503.19
418.72	6669.19
418.943	6516.19
419.166	7049.19
419.389	7414.19
419.611	7265.19
419.834	7096.19
420.057	7070.19
420.28	6922.19
420.503	6694.19
420.726	6665.19
420.948	6862.19
421.171	7145.19
421.394	7217.19
421.617	6650.19
421.839	6616.19
422.062	6775.19
422.285	6879.19
422.507	7611.19
422.73	8089.19
422.953	7549.19
423.175	7112.19
423.398	7166.19
423.621	7170.19
423.843	7432.19
424.066	7319.19
424.288	7215.19
424.511	7477.19
424.733	7909.19
424.956	8474.19
425.178	7985.19
425.401	8079.19
425.623	7900.19
425.846	7016.19
426.068	6710.19
426.291	6635.19
426.513	6672.19
426.735	6799.19
426.958	7262.19
427.18	8148.19
427.402	9229.19
427.625	9467.19
427.847	8092.19
428.069	7301.19
428.292	6688.19
428.514	6161.19
428.736	6098.19
428.958	6124.19
429.181	5967.19
429.403	5921.19
429.625	6113.19
429.847	6435.19
430.069	6913.19
430.292	6560.19
430.514	5913.19
430.736	6040.19
430.958	5872.19
431.18	5823.19
431.402	5846.19
431.624	5807.19
431.846	5782.19
432.068	5861.19
432.29	5897.19
432.512	5876.19
432.734	5950.19
432.956	5858.19
433.178	6030.19
433.4	5914.19
433.622	5787.19
433.844	5905.19
434.066	5881.19
434.287	5924.19
434.509	6193.19
434.731	6454.19
434.953	6618.19
435.175	6720.19
435.397	6836.19
435.618	6711.19
435.84	7262.19
436.062	8073.19
436.284	7937.19
436.505	6705.19
436.727	6422.19
436.949	6156.19
437.17	6035.19
437.392	5925.19
437.614	6166.19
437.835	6633.19
438.057	7576.19
438.278	8273.19
438.5	8106.19
438.721	8896.19
438.943	7780.19
439.165	6553.19
439.386	6381.19
439.608	6484.19
439.829	6558.19
440.05	6952.19
440.272	7317.19
440.493	6736.19
440.715	6355.19
440.936	6177.19
441.158	6231.19
441.379	6491.19
441.6	6732.19
441.822	7005.19
442.043	7549.19
442.264	8202.19
442.486	7894.19
442.707	7064.19
442.928	6943.19
443.149	7150.19
443.371	7407.19
443.592	7943.19
443.813	8894.19
444.034	8893.19
444.255	7748.19
444.476	7555.19
444.698	7691.19
444.919	7743.19
445.14	7615.19
445.361	7440.19
445.582	7688.19
445.803	8273.19
446.024	8931.19
446.245	8486.19
446.466	7710.19
446.687	6581.19
446.908	6305.19
447.129	5991.19
447.35	5791.19
447.571	5788.19
447.792	5648.19
448.013	5810.19
448.234	6053.19
448.455	6721.19
448.675	7993.19
448.896	8343.19
449.117	6955.19
449.338	7176.19
449.559	8424.19
449.779	8609.19
450	6630.19
450.221	5852.19
450.442	5664.19
450.662	5625.19
450.883	5693.19
451.104	5879.19
451.324	5725.19
451.545	5529.19
451.766	5349.19
451.986	5210.19
452.207	5191.19
452.428	5125.19
452.648	5227.19
452.869	5289.19
453.089	5350.19
453.31	5382.19
453.53	5187.19
453.751	5222.19
453.971	5175.19
454.192	5429.19
454.412	5141.19
454.633	5130.19
454.853	5013.19
455.073	5108.19
455.294	5479.19
455.514	6116.19
455.734	5507.19
455.955	4918.19
456.175	4838.19
456.395	4798.19
456.616	4713.19
456.836	4777.19
457.056	4758.19
457.276	4670.19
457.497	4791.19
457.717	4864.19
457.937	4961.19
458.157	5006.19
458.377	5101.19
458.598	5454.19
458.818	6219.19
459.038	7072.19
459.258	7018.19
459.478	6122.19
459.698	5902.19
459.918	6039.19
460.138	6251.19
460.358	6432.19
460.578	6461.19
460.798	6562.19
461.018	6518.19
461.238	6399.19
461.458	6403.19
461.678	6385.19
461.898	6551.19
462.118	6500.19
462.338	6910.19
462.558	7038.19
462.777	7364.19
462.997	7881.19
463.217	8299.19
463.437	8049.19
463.657	7504.19
463.876	7312.19
464.096	7390.19
464.316	7362.19
464.536	7366.19
464.755	7190.19
464.975	7170.19
465.195	7397.19
465.414	7482.19
465.634	6447.19
465.854	6108.19
466.073	5839.19
466.293	5570.19
466.512	5468.19
466.732	5398.19
466.951	5353.19
467.171	5308.19
467.391	5406.19
467.61	5503.19
467.829	5555.19
468.049	5412.19
468.268	5225.19
468.488	5125.19
468.707	5114.19
468.927	5120.19
469.146	5108.19
469.365	5196.19
469.585	5306.19
469.804	5400.19
470.023	5571.19
470.243	5565.19
470.462	5686.19
470.681	5871.19
470.901	5728.19
471.12	5456.19
471.339	5389.19
471.558	5457.19
471.777	5345.19
471.997	5193.19
472.216	5333.19
472.435	5613.19
472.654	5344.19
472.873	5170.19
473.092	5129.19
473.311	5055.19
473.53	5210.19
473.749	5293.19
473.968	5839.19
474.187	6825.19
474.406	6411.19
474.625	5488.19
474.844	5172.19
475.063	5223.19
475.282	5107.19
475.501	5188.19
475.72	5249.19
475.939	5271.19
476.158	5325.19
476.377	5334.19
476.596	5250.19
476.814	5521.19
477.033	5521.19
477.252	5656.19
477.471	5683.19
477.69	5759.19
477.908	5953.19
478.127	6036.19
478.346	6089.19
478.564	6281.19
478.783	6262.19
479.002	6490.19
479.22	6434.19
479.439	6648.19
479.658	6759.19
479.876	6845.19
480.095	7005.19
480.313	7390.19
480.532	7230.19
480.751	7087.19
480.969	7185.19
481.188	7589.19
481.406	7467.19
481.624	6831.19
481.843	6499.19
482.061	6288.19
482.28	6209.19
482.498	6014.19
482.717	6050.19
482.935	6061.19
483.153	6018.19
483.372	6069.19
483.59	6024.19
483.808	5952.19
484.027	6029.19
484.245	6087.19
484.463	6145.19
484.681	6171.19
484.9	6190.19
485.118	6240.19
485.336	6281.19
485.554	6325.19
485.772	6418.19
485.99	6400.19
486.209	6446.19
486.427	6435.19
486.645	6529.19
486.863	6597.19
487.081	6599.19
487.299	6561.19
487.517	6425.19
487.735	6442.19
487.953	6417.19
