Data from Circ_2018_H10_HRD10591_00077.txt Node
Date: Wed Jan 03 09:56:17 EST 2024
User: Yrep
Spectrometer: HR+D1059
Trigger mode: 1
Integration Time (sec): 1.000000E-1
Scans to average: 1
Electric dark correction enabled: true
Nonlinearity correction enabled: false
Boxcar width: 0
XAxis mode: Wavelengths
Number of Pixels in Spectrum: 2048
>>>>>Begin Spectral Data<<<<<
223.165	-15.38
223.4	-15.38
223.635	-15.38
223.869	-21.38
224.104	-21.38
224.338	-18.38
224.573	-15.38
224.808	-5.38
225.042	-12.38
225.277	-16.38
225.511	16.62
225.746	8.62
225.98	-5.38
226.215	16.62
226.449	9.62
226.683	14.62
226.918	28.62
227.152	36.62
227.387	25.62
227.621	37.62
227.856	33.62
228.09	36.62
228.324	53.62
228.559	45.62
228.793	58.62
229.027	47.62
229.262	49.62
229.496	66.62
229.73	81.62
229.964	85.62
230.199	76.62
230.433	70.62
230.667	76.62
230.901	77.62
231.136	77.62
231.37	70.62
231.604	75.62
231.838	84.62
232.072	69.62
232.306	64.62
232.541	75.62
232.775	87.62
233.009	65.62
233.243	67.62
233.477	70.62
233.711	69.62
233.945	79.62
234.179	82.62
234.413	69.62
234.647	82.62
234.881	78.62
235.115	73.62
235.349	82.62
235.583	79.62
235.817	78.62
236.051	78.62
236.285	89.62
236.519	74.62
236.753	74.62
236.987	92.62
237.221	82.62
237.455	95.62
237.689	81.62
237.922	76.62
238.156	81.62
238.39	76.62
238.624	75.62
238.858	67.62
239.091	63.62
239.325	73.62
239.559	78.62
239.793	76.62
240.027	72.62
240.26	65.62
240.494	73.62
240.728	67.62
240.961	85.62
241.195	75.62
241.429	83.62
241.662	80.62
241.896	77.62
242.13	74.62
242.363	75.62
242.597	76.62
242.83	75.62
243.064	71.62
243.298	71.62
243.531	61.62
243.765	66.62
243.998	74.62
244.232	71.62
244.465	76.62
244.699	84.62
244.932	80.62
245.166	72.62
245.399	72.62
245.633	99.62
245.866	78.62
246.099	71.62
246.333	89.62
246.566	79.62
246.8	63.62
247.033	80.62
247.266	63.62
247.5	65.62
247.733	85.62
247.966	80.62
248.2	73.62
248.433	68.62
248.666	83.62
248.899	80.62
249.133	84.62
249.366	97.62
249.599	101.62
249.832	81.62
250.066	70.62
250.299	74.62
250.532	81.62
250.765	83.62
250.998	90.62
251.231	72.62
251.465	81.62
251.698	71.62
251.931	73.62
252.164	77.62
252.397	96.62
252.63	84.62
252.863	80.62
253.096	89.62
253.329	88.62
253.562	76.62
253.795	79.62
254.028	76.62
254.261	97.62
254.494	78.62
254.727	81.62
254.96	91.62
255.193	81.62
255.426	83.62
255.659	86.62
255.892	84.62
256.124	95.62
256.357	88.62
256.59	96.62
256.823	71.62
257.056	70.62
257.289	76.62
257.521	70.62
257.754	72.62
257.987	73.62
258.22	79.62
258.452	78.62
258.685	76.62
258.918	86.62
259.151	66.62
259.383	81.62
259.616	76.62
259.849	91.62
260.081	72.62
260.314	73.62
260.547	73.62
260.779	78.62
261.012	84.62
261.244	87.62
261.477	78.62
261.71	90.62
261.942	122.62
262.175	134.62
262.407	96.62
262.64	76.62
262.872	73.62
263.105	69.62
263.337	80.62
263.57	84.62
263.802	83.62
264.035	86.62
264.267	77.62
264.499	80.62
264.732	82.62
264.964	74.62
265.197	83.62
265.429	66.62
265.661	74.62
265.894	77.62
266.126	80.62
266.358	67.62
266.591	78.62
266.823	80.62
267.055	82.62
267.287	84.62
267.52	68.62
267.752	80.62
267.984	77.62
268.216	85.62
268.448	84.62
268.681	81.62
268.913	66.62
269.145	80.62
269.377	73.62
269.609	73.62
269.841	88.62
270.073	78.62
270.306	85.62
270.538	78.62
270.77	91.62
271.002	75.62
271.234	82.62
271.466	97.62
271.698	77.62
271.93	85.62
272.162	78.62
272.394	91.62
272.626	83.62
272.858	93.62
273.09	83.62
273.322	84.62
273.553	84.62
273.785	84.62
274.017	80.62
274.249	64.62
274.481	68.62
274.713	83.62
274.945	73.62
275.176	85.62
275.408	87.62
275.64	87.62
275.872	77.62
276.104	80.62
276.335	91.62
276.567	103.62
276.799	117.62
277.031	103.62
277.262	83.62
277.494	81.62
277.726	87.62
277.957	80.62
278.189	84.62
278.421	90.62
278.652	85.62
278.884	99.62
279.115	101.62
279.347	78.62
279.579	79.62
279.81	80.62
280.042	84.62
280.273	87.62
280.505	76.62
280.736	88.62
280.968	81.62
281.199	94.62
281.431	93.62
281.662	86.62
281.894	76.62
282.125	100.62
282.356	116.62
282.588	164.62
282.819	110.62
283.051	86.62
283.282	79.62
283.513	72.62
283.745	74.62
283.976	74.62
284.207	83.62
284.439	82.62
284.67	69.62
284.901	92.62
285.132	95.62
285.364	97.62
285.595	77.62
285.826	81.62
286.057	94.62
286.288	99.62
286.52	91.62
286.751	81.62
286.982	80.62
287.213	87.62
287.444	89.62
287.675	80.62
287.906	84.62
288.138	78.62
288.369	93.62
288.6	75.62
288.831	94.62
289.062	89.62
289.293	74.62
289.524	80.62
289.755	81.62
289.986	81.62
290.217	94.62
290.448	76.62
290.679	77.62
290.91	94.62
291.141	74.62
291.371	93.62
291.602	97.62
291.833	69.62
292.064	66.62
292.295	82.62
292.526	90.62
292.757	86.62
292.987	88.62
293.218	78.62
293.449	86.62
293.68	94.62
293.91	81.62
294.141	62.62
294.372	85.62
294.603	93.62
294.833	73.62
295.064	90.62
295.295	78.62
295.525	87.62
295.756	99.62
295.987	110.62
296.217	160.62
296.448	118.62
296.679	94.62
296.909	85.62
297.14	99.62
297.37	89.62
297.601	77.62
297.831	97.62
298.062	86.62
298.292	75.62
298.523	86.62
298.753	87.62
298.984	81.62
299.214	82.62
299.445	90.62
299.675	96.62
299.905	95.62
300.136	90.62
300.366	88.62
300.597	89.62
300.827	92.62
301.057	97.62
301.288	114.62
301.518	89.62
301.748	93.62
301.979	94.62
302.209	97.62
302.439	86.62
302.669	85.62
302.9	92.62
303.13	94.62
303.36	96.62
303.59	101.62
303.82	121.62
304.051	106.62
304.281	89.62
304.511	89.62
304.741	91.62
304.971	86.62
305.201	93.62
305.431	86.62
305.661	97.62
305.891	85.62
306.121	85.62
306.352	99.62
306.582	101.62
306.812	93.62
307.042	93.62
307.272	91.62
307.502	83.62
307.731	109.62
307.961	97.62
308.191	88.62
308.421	81.62
308.651	85.62
308.881	78.62
309.111	95.62
309.341	90.62
309.571	95.62
309.8	96.62
310.03	92.62
310.26	97.62
310.49	86.62
310.72	109.62
310.949	105.62
311.179	103.62
311.409	81.62
311.639	89.62
311.868	102.62
312.098	96.62
312.328	102.62
312.557	112.62
312.787	121.62
313.017	110.62
313.246	86.62
313.476	83.62
313.706	95.62
313.935	91.62
314.165	105.62
314.394	87.62
314.624	99.62
314.853	93.62
315.083	99.62
315.312	101.62
315.542	89.62
315.771	88.62
316.001	99.62
316.23	94.62
316.46	86.62
316.689	79.62
316.919	95.62
317.148	112.62
317.377	103.62
317.607	109.62
317.836	73.62
318.065	84.62
318.295	81.62
318.524	100.62
318.753	78.62
318.983	97.62
319.212	97.62
319.441	112.62
319.67	116.62
319.9	93.62
320.129	86.62
320.358	94.62
320.587	85.62
320.816	108.62
321.046	99.62
321.275	101.62
321.504	88.62
321.733	96.62
321.962	118.62
322.191	98.62
322.42	117.62
322.649	128.62
322.878	122.62
323.108	119.62
323.337	116.62
323.566	138.62
323.795	174.62
324.024	218.62
324.253	457.62
324.482	970.62
324.71	2025.62
324.939	2642.62
325.168	964.62
325.397	257.62
325.626	153.62
325.855	132.62
326.084	120.62
326.313	145.62
326.542	164.62
326.77	257.62
326.999	505.62
327.228	1056.62
327.457	1936.62
327.686	1567.62
327.914	451.62
328.143	230.62
328.372	196.62
328.6	134.62
328.829	132.62
329.058	146.62
329.287	160.62
329.515	132.62
329.744	102.62
329.972	118.62
330.201	134.62
330.43	172.62
330.658	153.62
330.887	167.62
331.115	126.62
331.344	117.62
331.572	98.62
331.801	100.62
332.03	110.62
332.258	91.62
332.486	106.62
332.715	101.62
332.943	108.62
333.172	87.62
333.4	102.62
333.629	108.62
333.857	130.62
334.085	128.62
334.314	142.62
334.542	206.62
334.771	204.62
334.999	115.62
335.227	96.62
335.455	107.62
335.684	112.62
335.912	105.62
336.14	94.62
336.369	82.62
336.597	100.62
336.825	97.62
337.053	82.62
337.281	103.62
337.51	81.62
337.738	89.62
337.966	105.62
338.194	95.62
338.422	89.62
338.65	92.62
338.878	100.62
339.106	91.62
339.334	106.62
339.562	85.62
339.79	84.62
340.018	88.62
340.246	101.62
340.474	88.62
340.702	94.62
340.93	102.62
341.158	106.62
341.386	90.62
341.614	104.62
341.842	87.62
342.07	74.62
342.298	97.62
342.526	90.62
342.754	76.62
342.981	97.62
343.209	78.62
343.437	97.62
343.665	87.62
343.893	94.62
344.12	86.62
344.348	84.62
344.576	99.62
344.804	88.62
345.031	94.62
345.259	102.62
345.487	84.62
345.714	96.62
345.942	86.62
346.17	80.62
346.397	84.62
346.625	91.62
346.853	84.62
347.08	97.62
347.308	93.62
347.535	105.62
347.763	100.62
347.99	100.62
348.218	79.62
348.445	106.62
348.673	106.62
348.9	108.62
349.128	110.62
349.355	87.62
349.583	71.62
349.81	83.62
350.037	96.62
350.265	80.62
350.492	87.62
350.72	106.62
350.947	114.62
351.174	111.62
351.402	111.62
351.629	106.62
351.856	93.62
352.083	97.62
352.311	105.62
352.538	106.62
352.765	120.62
352.992	130.62
353.22	115.62
353.447	120.62
353.674	98.62
353.901	87.62
354.128	97.62
354.355	90.62
354.583	98.62
354.81	105.62
355.037	87.62
355.264	67.62
355.491	93.62
355.718	100.62
355.945	93.62
356.172	93.62
356.399	90.62
356.626	94.62
356.853	85.62
357.08	80.62
357.307	92.62
357.534	93.62
357.761	96.62
357.988	87.62
358.215	75.62
358.441	90.62
358.668	82.62
358.895	85.62
359.122	93.62
359.349	81.62
359.576	89.62
359.802	98.62
360.029	124.62
360.256	111.62
360.483	116.62
360.709	109.62
360.936	95.62
361.163	102.62
361.39	97.62
361.616	86.62
361.843	85.62
362.07	97.62
362.296	95.62
362.523	101.62
362.749	98.62
362.976	84.62
363.203	88.62
363.429	70.62
363.656	92.62
363.882	88.62
364.109	94.62
364.335	91.62
364.562	86.62
364.788	90.62
365.015	85.62
365.241	98.62
365.468	120.62
365.694	113.62
365.92	88.62
366.147	97.62
366.373	74.62
366.599	89.62
366.826	84.62
367.052	95.62
367.278	93.62
367.505	100.62
367.731	72.62
367.957	82.62
368.184	102.62
368.41	104.62
368.636	118.62
368.862	129.62
369.089	100.62
369.315	86.62
369.541	102.62
369.767	104.62
369.993	98.62
370.219	81.62
370.445	87.62
370.672	93.62
370.898	84.62
371.124	82.62
371.35	94.62
371.576	85.62
371.802	85.62
372.028	79.62
372.254	91.62
372.48	82.62
372.706	86.62
372.932	77.62
373.158	99.62
373.384	91.62
373.61	85.62
373.835	79.62
374.061	82.62
374.287	81.62
374.513	91.62
374.739	89.62
374.965	89.62
375.191	94.62
375.416	80.62
375.642	76.62
375.868	85.62
376.094	100.62
376.319	87.62
376.545	97.62
376.771	88.62
376.997	103.62
377.222	103.62
377.448	79.62
377.674	93.62
377.899	94.62
378.125	86.62
378.35	88.62
378.576	86.62
378.802	91.62
379.027	82.62
379.253	80.62
379.478	93.62
379.704	75.62
379.929	85.62
380.155	103.62
380.38	78.62
380.606	93.62
380.831	90.62
381.057	94.62
381.282	96.62
381.507	108.62
381.733	90.62
381.958	84.62
382.184	104.62
382.409	100.62
382.634	97.62
382.86	89.62
383.085	103.62
383.31	94.62
383.535	97.62
383.761	84.62
383.986	74.62
384.211	86.62
384.436	84.62
384.662	88.62
384.887	95.62
385.112	110.62
385.337	96.62
385.562	86.62
385.787	101.62
386.013	120.62
386.238	118.62
386.463	102.62
386.688	99.62
386.913	96.62
387.138	111.62
387.363	111.62
387.588	109.62
387.813	96.62
388.038	84.62
388.263	103.62
388.488	88.62
388.713	101.62
388.938	100.62
389.163	82.62
389.387	105.62
389.612	84.62
389.837	91.62
390.062	80.62
390.287	86.62
390.512	89.62
390.736	73.62
390.961	77.62
391.186	99.62
391.411	89.62
391.636	96.62
391.86	102.62
392.085	103.62
392.31	94.62
392.534	79.62
392.759	83.62
392.984	91.62
393.208	88.62
393.433	75.62
393.658	94.62
393.882	81.62
394.107	78.62
394.331	81.62
394.556	94.62
394.78	101.62
395.005	101.62
395.229	88.62
395.454	95.62
395.678	79.62
395.903	98.62
396.127	94.62
396.352	85.62
396.576	76.62
396.801	81.62
397.025	85.62
397.249	84.62
397.474	96.62
397.698	92.62
397.922	98.62
398.147	80.62
398.371	73.62
398.595	83.62
398.82	96.62
399.044	82.62
399.268	94.62
399.492	85.62
399.717	87.62
399.941	86.62
400.165	88.62
400.389	93.62
400.613	73.62
400.837	85.62
401.062	96.62
401.286	92.62
401.51	96.62
401.734	97.62
401.958	99.62
402.182	132.62
402.406	180.62
402.63	128.62
402.854	92.62
403.078	95.62
403.302	85.62
403.526	82.62
403.75	76.62
403.974	73.62
404.198	80.62
404.422	82.62
404.645	88.62
404.869	100.62
405.093	85.62
405.317	102.62
405.541	106.62
405.765	104.62
405.988	126.62
406.212	190.62
406.436	266.62
406.66	173.62
406.883	100.62
407.107	104.62
407.331	101.62
407.555	93.62
407.778	105.62
408.002	98.62
408.226	77.62
408.449	74.62
408.673	83.62
408.896	92.62
409.12	87.62
409.344	88.62
409.567	87.62
409.791	94.62
410.014	91.62
410.238	96.62
410.461	84.62
410.685	104.62
410.908	95.62
411.132	106.62
411.355	95.62
411.578	83.62
411.802	90.62
412.025	105.62
412.249	103.62
412.472	87.62
412.695	100.62
412.919	105.62
413.142	93.62
413.365	82.62
413.589	86.62
413.812	87.62
414.035	89.62
414.258	89.62
414.482	82.62
414.705	90.62
414.928	92.62
415.151	83.62
415.374	96.62
415.597	95.62
415.821	71.62
416.044	87.62
416.267	85.62
416.49	71.62
416.713	79.62
416.936	90.62
417.159	84.62
417.382	78.62
417.605	87.62
417.828	89.62
418.051	92.62
418.274	81.62
418.497	81.62
418.72	71.62
418.943	89.62
419.166	91.62
419.389	83.62
419.611	81.62
419.834	90.62
420.057	78.62
420.28	88.62
420.503	70.62
420.726	92.62
420.948	91.62
421.171	89.62
421.394	93.62
421.617	84.62
421.839	102.62
422.062	100.62
422.285	77.62
422.507	83.62
422.73	102.62
422.953	83.62
423.175	87.62
423.398	84.62
423.621	92.62
423.843	72.62
424.066	76.62
424.288	93.62
424.511	78.62
424.733	108.62
424.956	102.62
425.178	96.62
425.401	111.62
425.623	108.62
425.846	90.62
426.068	94.62
426.291	90.62
426.513	94.62
426.735	85.62
426.958	101.62
427.18	111.62
427.402	136.62
427.625	200.62
427.847	169.62
428.069	126.62
428.292	101.62
428.514	72.62
428.736	77.62
428.958	71.62
429.181	80.62
429.403	82.62
429.625	80.62
429.847	97.62
430.069	109.62
430.292	91.62
430.514	79.62
430.736	67.62
430.958	86.62
431.18	83.62
431.402	79.62
431.624	102.62
431.846	81.62
432.068	71.62
432.29	89.62
432.512	86.62
432.734	76.62
432.956	89.62
433.178	88.62
433.4	102.62
433.622	88.62
433.844	94.62
434.066	72.62
434.287	70.62
434.509	85.62
434.731	87.62
434.953	73.62
435.175	87.62
435.397	94.62
435.618	93.62
435.84	93.62
436.062	116.62
436.284	133.62
436.505	101.62
436.727	104.62
436.949	89.62
437.17	102.62
437.392	87.62
437.614	98.62
437.835	126.62
438.057	126.62
438.278	121.62
438.5	113.62
438.721	124.62
438.943	109.62
439.165	96.62
439.386	75.62
439.608	92.62
439.829	95.62
440.05	130.62
440.272	151.62
440.493	95.62
440.715	70.62
440.936	94.62
441.158	84.62
441.379	85.62
441.6	101.62
441.822	105.62
442.043	89.62
442.264	106.62
442.486	108.62
442.707	87.62
442.928	120.62
443.149	144.62
443.371	148.62
443.592	97.62
443.813	109.62
444.034	120.62
444.255	89.62
444.476	84.62
444.698	88.62
444.919	85.62
445.14	129.62
445.361	129.62
445.582	122.62
445.803	157.62
446.024	159.62
446.245	151.62
446.466	126.62
446.687	85.62
446.908	90.62
447.129	86.62
447.35	88.62
447.571	89.62
447.792	111.62
448.013	97.62
448.234	89.62
448.455	110.62
448.675	112.62
448.896	134.62
449.117	111.62
449.338	103.62
449.559	137.62
449.779	135.62
450	104.62
450.221	86.62
450.442	81.62
450.662	87.62
450.883	119.62
451.104	106.62
451.324	106.62
451.545	96.62
451.766	85.62
451.986	76.62
452.207	90.62
452.428	89.62
452.648	94.62
452.869	112.62
453.089	102.62
453.31	136.62
453.53	103.62
453.751	89.62
453.971	111.62
454.192	105.62
454.412	98.62
454.633	89.62
454.853	95.62
455.073	92.62
455.294	92.62
455.514	89.62
455.734	107.62
455.955	74.62
456.175	92.62
456.395	81.62
456.616	82.62
456.836	92.62
457.056	79.62
457.276	59.62
457.497	81.62
457.717	80.62
457.937	74.62
458.157	89.62
458.377	89.62
458.598	107.62
458.818	172.62
459.038	178.62
459.258	133.62
459.478	101.62
459.698	89.62
459.918	73.62
460.138	89.62
460.358	86.62
460.578	93.62
460.798	87.62
461.018	83.62
461.238	91.62
461.458	93.62
461.678	89.62
461.898	93.62
462.118	83.62
462.338	81.62
462.558	77.62
462.777	86.62
462.997	80.62
463.217	80.62
463.437	83.62
463.657	88.62
463.876	89.62
464.096	89.62
464.316	98.62
464.536	89.62
464.755	104.62
464.975	105.62
465.195	192.62
465.414	193.62
465.634	101.62
465.854	85.62
466.073	77.62
466.293	82.62
466.512	93.62
466.732	76.62
466.951	78.62
467.171	77.62
467.391	96.62
467.61	103.62
467.829	93.62
468.049	105.62
468.268	141.62
468.488	87.62
468.707	79.62
468.927	79.62
469.146	98.62
469.365	82.62
469.585	92.62
469.804	108.62
470.023	99.62
470.243	93.62
470.462	97.62
470.681	123.62
470.901	92.62
471.12	79.62
471.339	74.62
471.558	80.62
471.777	102.62
471.997	95.62
472.216	156.62
472.435	227.62
472.654	106.62
472.873	86.62
473.092	93.62
473.311	80.62
473.53	86.62
473.749	77.62
473.968	86.62
474.187	95.62
474.406	110.62
474.625	93.62
474.844	71.62
475.063	84.62
475.282	58.62
475.501	78.62
475.72	92.62
475.939	79.62
476.158	87.62
476.377	84.62
476.596	82.62
476.814	95.62
477.033	80.62
477.252	86.62
477.471	91.62
477.69	69.62
477.908	97.62
478.127	91.62
478.346	82.62
478.564	85.62
478.783	88.62
479.002	91.62
479.22	93.62
479.439	95.62
479.658	110.62
479.876	101.62
480.095	84.62
480.313	102.62
480.532	102.62
480.751	108.62
480.969	159.62
481.188	350.62
481.406	249.62
481.624	93.62
481.843	75.62
482.061	89.62
482.28	88.62
482.498	89.62
482.717	88.62
482.935	85.62
483.153	88.62
483.372	98.62
483.59	86.62
483.808	86.62
484.027	82.62
484.245	88.62
484.463	97.62
484.681	96.62
484.9	78.62
485.118	88.62
485.336	96.62
485.554	92.62
485.772	95.62
485.99	94.62
486.209	107.62
486.427	86.62
486.645	107.62
486.863	124.62
487.081	113.62
487.299	100.62
487.517	99.62
487.735	89.62
487.953	86.62
488.171	74.62
488.389	94.62
488.607	95.62
488.825	72.62
489.043	83.62
489.261	79.62
489.479	103.62
489.696	87.62
489.914	73.62
490.132	91.62
490.35	98.62
490.568	63.62
490.786	81.62
491.003	71.62
491.221	93.62
491.439	74.62
491.657	97.62
491.874	80.62
492.092	72.62
492.31	92.62
492.527	81.62
492.745	97.62
492.963	80.62
493.18	88.62
493.398	89.62
493.615	87.62
493.833	99.62
494.05	86.62
494.268	93.62
494.485	78.62
494.703	82.62
494.92	81.62
495.138	78.62
495.355	90.62
495.573	85.62
495.79	97.62
496.008	84.62
496.225	83.62
496.442	92.62
496.66	82.62
496.877	91.62
497.094	100.62
497.312	80.62
497.529	87.62
497.746	87.62
497.963	95.62
498.181	98.62
498.398	84.62
498.615	108.62
498.832	121.62
499.049	89.62
499.267	96.62
499.484	90.62
499.701	80.62
499.918	97.62
500.135	88.62
500.352	70.62
500.569	88.62
500.786	95.62
501.003	90.62
501.22	89.62
501.437	92.62
501.654	105.62
501.871	97.62
502.088	83.62
502.305	90.62
502.522	82.62
502.739	84.62
502.956	86.62
503.172	90.62
503.389	102.62
503.606	108.62
503.823	80.62
504.04	77.62
504.256	83.62
504.473	82.62
504.69	75.62
504.907	104.62
505.123	97.62
505.34	91.62
505.557	78.62
505.773	95.62
505.99	77.62
506.207	97.62
506.423	92.62
506.64	94.62
506.856	94.62
507.073	83.62
507.289	88.62
507.506	95.62
507.722	104.62
507.939	108.62
508.155	108.62
508.372	90.62
508.588	81.62
508.805	103.62
509.021	93.62
509.238	80.62
509.454	94.62
509.67	97.62
509.887	98.62
510.103	124.62
510.319	240.62
510.536	909.62
510.752	3023.62
510.968	880.62
511.184	173.62
511.401	98.62
511.617	99.62
511.833	92.62
512.049	90.62
512.265	96.62
512.481	92.62
512.698	85.62
512.914	88.62
513.13	85.62
513.346	102.62
513.562	108.62
513.778	83.62
513.994	93.62
514.21	101.62
514.426	129.62
514.642	158.62
514.858	136.62
515.074	184.62
515.29	559.62
515.506	2009.62
