Data from Circ_2018_H10_HRD10591_00069.txt Node
Date: Wed Jan 03 09:56:15 EST 2024
User: Yrep
Spectrometer: HR+D1059
Trigger mode: 1
Integration Time (sec): 1.000000E-1
Scans to average: 1
Electric dark correction enabled: true
Nonlinearity correction enabled: false
Boxcar width: 0
XAxis mode: Wavelengths
Number of Pixels in Spectrum: 2048
>>>>>Begin Spectral Data<<<<<
223.165	-13.5
223.4	-13.5
223.635	-13.5
223.869	-24.5
224.104	-13.5
224.338	-8.5
224.573	-6.5
224.808	-15.5
225.042	4.5
225.277	-0.5
225.511	-11.5
225.746	4.5
225.98	-3.5
226.215	0.5
226.449	18.5
226.683	20.5
226.918	23.5
227.152	25.5
227.387	39.5
227.621	30.5
227.856	39.5
228.09	51.5
228.324	38.5
228.559	62.5
228.793	58.5
229.027	64.5
229.262	67.5
229.496	54.5
229.73	84.5
229.964	91.5
230.199	74.5
230.433	71.5
230.667	74.5
230.901	67.5
231.136	72.5
231.37	80.5
231.604	82.5
231.838	84.5
232.072	70.5
232.306	81.5
232.541	90.5
232.775	78.5
233.009	71.5
233.243	55.5
233.477	67.5
233.711	83.5
233.945	87.5
234.179	84.5
234.413	71.5
234.647	82.5
234.881	85.5
235.115	77.5
235.349	90.5
235.583	82.5
235.817	70.5
236.051	64.5
236.285	73.5
236.519	88.5
236.753	89.5
236.987	81.5
237.221	89.5
237.455	86.5
237.689	84.5
237.922	74.5
238.156	77.5
238.39	89.5
238.624	78.5
238.858	64.5
239.091	85.5
239.325	71.5
239.559	93.5
239.793	77.5
240.027	68.5
240.26	82.5
240.494	79.5
240.728	87.5
240.961	76.5
241.195	77.5
241.429	75.5
241.662	78.5
241.896	72.5
242.13	80.5
242.363	77.5
242.597	75.5
242.83	73.5
243.064	79.5
243.298	83.5
243.531	76.5
243.765	75.5
243.998	85.5
244.232	76.5
244.465	89.5
244.699	78.5
244.932	62.5
245.166	71.5
245.399	67.5
245.633	80.5
245.866	85.5
246.099	83.5
246.333	72.5
246.566	82.5
246.8	86.5
247.033	81.5
247.266	75.5
247.5	77.5
247.733	58.5
247.966	95.5
248.2	90.5
248.433	77.5
248.666	71.5
248.899	87.5
249.133	71.5
249.366	110.5
249.599	97.5
249.832	82.5
250.066	81.5
250.299	73.5
250.532	69.5
250.765	82.5
250.998	87.5
251.231	81.5
251.465	83.5
251.698	79.5
251.931	73.5
252.164	75.5
252.397	83.5
252.63	83.5
252.863	81.5
253.096	78.5
253.329	81.5
253.562	86.5
253.795	84.5
254.028	85.5
254.261	85.5
254.494	75.5
254.727	75.5
254.96	86.5
255.193	86.5
255.426	72.5
255.659	84.5
255.892	98.5
256.124	83.5
256.357	94.5
256.59	86.5
256.823	90.5
257.056	81.5
257.289	77.5
257.521	82.5
257.754	80.5
257.987	84.5
258.22	89.5
258.452	85.5
258.685	92.5
258.918	84.5
259.151	74.5
259.383	76.5
259.616	87.5
259.849	85.5
260.081	84.5
260.314	87.5
260.547	94.5
260.779	81.5
261.012	84.5
261.244	95.5
261.477	96.5
261.71	97.5
261.942	124.5
262.175	112.5
262.407	102.5
262.64	85.5
262.872	91.5
263.105	83.5
263.337	90.5
263.57	77.5
263.802	84.5
264.035	77.5
264.267	73.5
264.499	85.5
264.732	80.5
264.964	89.5
265.197	80.5
265.429	73.5
265.661	77.5
265.894	84.5
266.126	67.5
266.358	87.5
266.591	85.5
266.823	97.5
267.055	84.5
267.287	85.5
267.52	90.5
267.752	84.5
267.984	95.5
268.216	81.5
268.448	90.5
268.681	82.5
268.913	82.5
269.145	79.5
269.377	90.5
269.609	75.5
269.841	69.5
270.073	79.5
270.306	88.5
270.538	99.5
270.77	89.5
271.002	89.5
271.234	93.5
271.466	98.5
271.698	96.5
271.93	90.5
272.162	89.5
272.394	89.5
272.626	83.5
272.858	81.5
273.09	95.5
273.322	83.5
273.553	65.5
273.785	81.5
274.017	87.5
274.249	75.5
274.481	99.5
274.713	94.5
274.945	89.5
275.176	94.5
275.408	79.5
275.64	92.5
275.872	85.5
276.104	91.5
276.335	81.5
276.567	120.5
276.799	103.5
277.031	104.5
277.262	84.5
277.494	69.5
277.726	74.5
277.957	95.5
278.189	78.5
278.421	84.5
278.652	85.5
278.884	81.5
279.115	68.5
279.347	88.5
279.579	91.5
279.81	86.5
280.042	88.5
280.273	96.5
280.505	86.5
280.736	87.5
280.968	101.5
281.199	83.5
281.431	77.5
281.662	75.5
281.894	87.5
282.125	102.5
282.356	117.5
282.588	151.5
282.819	116.5
283.051	99.5
283.282	85.5
283.513	80.5
283.745	94.5
283.976	82.5
284.207	84.5
284.439	85.5
284.67	82.5
284.901	90.5
285.132	79.5
285.364	84.5
285.595	84.5
285.826	86.5
286.057	93.5
286.288	88.5
286.52	80.5
286.751	74.5
286.982	77.5
287.213	89.5
287.444	92.5
287.675	77.5
287.906	84.5
288.138	88.5
288.369	105.5
288.6	85.5
288.831	96.5
289.062	84.5
289.293	100.5
289.524	77.5
289.755	72.5
289.986	85.5
290.217	90.5
290.448	90.5
290.679	81.5
290.91	89.5
291.141	95.5
291.371	88.5
291.602	88.5
291.833	83.5
292.064	84.5
292.295	69.5
292.526	83.5
292.757	84.5
292.987	104.5
293.218	88.5
293.449	88.5
293.68	85.5
293.91	76.5
294.141	84.5
294.372	88.5
294.603	85.5
294.833	87.5
295.064	99.5
295.295	93.5
295.525	95.5
295.756	93.5
295.987	120.5
296.217	146.5
296.448	123.5
296.679	102.5
296.909	97.5
297.14	98.5
297.37	86.5
297.601	87.5
297.831	91.5
298.062	91.5
298.292	91.5
298.523	90.5
298.753	96.5
298.984	86.5
299.214	84.5
299.445	109.5
299.675	84.5
299.905	95.5
300.136	92.5
300.366	84.5
300.597	82.5
300.827	105.5
301.057	101.5
301.288	87.5
301.518	87.5
301.748	86.5
301.979	114.5
302.209	100.5
302.439	96.5
302.669	105.5
302.9	98.5
303.13	76.5
303.36	92.5
303.59	103.5
303.82	102.5
304.051	96.5
304.281	92.5
304.511	81.5
304.741	83.5
304.971	81.5
305.201	98.5
305.431	90.5
305.661	81.5
305.891	91.5
306.121	95.5
306.352	114.5
306.582	100.5
306.812	89.5
307.042	96.5
307.272	86.5
307.502	101.5
307.731	81.5
307.961	99.5
308.191	75.5
308.421	89.5
308.651	98.5
308.881	79.5
309.111	90.5
309.341	91.5
309.571	84.5
309.8	99.5
310.03	96.5
310.26	103.5
310.49	104.5
310.72	99.5
310.949	98.5
311.179	97.5
311.409	84.5
311.639	97.5
311.868	103.5
312.098	103.5
312.328	109.5
312.557	113.5
312.787	113.5
313.017	92.5
313.246	93.5
313.476	105.5
313.706	89.5
313.935	99.5
314.165	105.5
314.394	102.5
314.624	106.5
314.853	102.5
315.083	89.5
315.312	104.5
315.542	97.5
315.771	86.5
316.001	88.5
316.23	95.5
316.46	93.5
316.689	85.5
316.919	91.5
317.148	81.5
317.377	100.5
317.607	98.5
317.836	113.5
318.065	90.5
318.295	97.5
318.524	88.5
318.753	97.5
318.983	80.5
319.212	112.5
319.441	109.5
319.67	113.5
319.9	96.5
320.129	86.5
320.358	101.5
320.587	108.5
320.816	94.5
321.046	92.5
321.275	92.5
321.504	91.5
321.733	112.5
321.962	106.5
322.191	114.5
322.42	97.5
322.649	113.5
322.878	107.5
323.108	101.5
323.337	114.5
323.566	119.5
323.795	147.5
324.024	209.5
324.253	402.5
324.482	831.5
324.71	1632.5
324.939	2162.5
325.168	778.5
325.397	230.5
325.626	148.5
325.855	123.5
326.084	129.5
326.313	128.5
326.542	143.5
326.77	223.5
326.999	453.5
327.228	913.5
327.457	1592.5
327.686	1271.5
327.914	348.5
328.143	197.5
328.372	175.5
328.6	142.5
328.829	116.5
329.058	147.5
329.287	126.5
329.515	116.5
329.744	113.5
329.972	117.5
330.201	126.5
330.43	162.5
330.658	143.5
330.887	154.5
331.115	132.5
331.344	103.5
331.572	100.5
331.801	112.5
332.03	100.5
332.258	105.5
332.486	96.5
332.715	89.5
332.943	87.5
333.172	94.5
333.4	104.5
333.629	99.5
333.857	107.5
334.085	104.5
334.314	110.5
334.542	165.5
334.771	155.5
334.999	121.5
335.227	93.5
335.455	105.5
335.684	95.5
335.912	89.5
336.14	93.5
336.369	92.5
336.597	97.5
336.825	98.5
337.053	95.5
337.281	101.5
337.51	96.5
337.738	105.5
337.966	104.5
338.194	89.5
338.422	101.5
338.65	102.5
338.878	82.5
339.106	89.5
339.334	92.5
339.562	81.5
339.79	78.5
340.018	82.5
340.246	103.5
340.474	87.5
340.702	86.5
340.93	87.5
341.158	89.5
341.386	102.5
341.614	101.5
341.842	98.5
342.07	103.5
342.298	108.5
342.526	82.5
342.754	88.5
342.981	74.5
343.209	92.5
343.437	93.5
343.665	88.5
343.893	100.5
344.12	96.5
344.348	85.5
344.576	96.5
344.804	90.5
345.031	94.5
345.259	104.5
345.487	82.5
345.714	68.5
345.942	96.5
346.17	80.5
346.397	87.5
346.625	96.5
346.853	90.5
347.08	91.5
347.308	113.5
347.535	105.5
347.763	113.5
347.99	104.5
348.218	116.5
348.445	101.5
348.673	86.5
348.9	83.5
349.128	113.5
349.355	84.5
349.583	90.5
349.81	89.5
350.037	79.5
350.265	95.5
350.492	105.5
350.72	86.5
350.947	89.5
351.174	100.5
351.402	111.5
351.629	110.5
351.856	92.5
352.083	88.5
352.311	106.5
352.538	107.5
352.765	112.5
352.992	108.5
353.22	101.5
353.447	100.5
353.674	100.5
353.901	97.5
354.128	85.5
354.355	95.5
354.583	82.5
354.81	96.5
355.037	114.5
355.264	100.5
355.491	92.5
355.718	89.5
355.945	94.5
356.172	82.5
356.399	97.5
356.626	78.5
356.853	95.5
357.08	105.5
357.307	90.5
357.534	92.5
357.761	89.5
357.988	91.5
358.215	98.5
358.441	91.5
358.668	98.5
358.895	99.5
359.122	95.5
359.349	98.5
359.576	86.5
359.802	95.5
360.029	102.5
360.256	101.5
360.483	96.5
360.709	90.5
360.936	94.5
361.163	75.5
361.39	113.5
361.616	100.5
361.843	102.5
362.07	90.5
362.296	112.5
362.523	86.5
362.749	84.5
362.976	101.5
363.203	85.5
363.429	99.5
363.656	87.5
363.882	87.5
364.109	83.5
364.335	83.5
364.562	88.5
364.788	79.5
365.015	90.5
365.241	96.5
365.468	105.5
365.694	114.5
365.92	107.5
366.147	99.5
366.373	101.5
366.599	96.5
366.826	89.5
367.052	100.5
367.278	93.5
367.505	84.5
367.731	90.5
367.957	85.5
368.184	108.5
368.41	112.5
368.636	108.5
368.862	124.5
369.089	109.5
369.315	97.5
369.541	82.5
369.767	93.5
369.993	96.5
370.219	90.5
370.445	94.5
370.672	88.5
370.898	85.5
371.124	93.5
371.35	84.5
371.576	87.5
371.802	89.5
372.028	85.5
372.254	114.5
372.48	94.5
372.706	93.5
372.932	83.5
373.158	89.5
373.384	87.5
373.61	77.5
373.835	87.5
374.061	92.5
374.287	80.5
374.513	94.5
374.739	85.5
374.965	96.5
375.191	90.5
375.416	95.5
375.642	89.5
375.868	83.5
376.094	81.5
376.319	96.5
376.545	76.5
376.771	101.5
376.997	107.5
377.222	103.5
377.448	113.5
377.674	79.5
377.899	93.5
378.125	99.5
378.35	94.5
378.576	96.5
378.802	95.5
379.027	82.5
379.253	96.5
379.478	97.5
379.704	81.5
379.929	94.5
380.155	93.5
380.38	107.5
380.606	90.5
380.831	91.5
381.057	105.5
381.282	85.5
381.507	112.5
381.733	103.5
381.958	103.5
382.184	111.5
382.409	119.5
382.634	93.5
382.86	89.5
383.085	91.5
383.31	92.5
383.535	102.5
383.761	90.5
383.986	95.5
384.211	105.5
384.436	93.5
384.662	98.5
384.887	101.5
385.112	110.5
385.337	100.5
385.562	101.5
385.787	103.5
386.013	109.5
386.238	124.5
386.463	116.5
386.688	117.5
386.913	100.5
387.138	114.5
387.363	107.5
387.588	94.5
387.813	96.5
388.038	99.5
388.263	108.5
388.488	125.5
388.713	106.5
388.938	100.5
389.163	92.5
389.387	90.5
389.612	90.5
389.837	91.5
390.062	88.5
390.287	77.5
390.512	86.5
390.736	99.5
390.961	94.5
391.186	86.5
391.411	96.5
391.636	93.5
391.86	81.5
392.085	91.5
392.31	86.5
392.534	97.5
392.759	87.5
392.984	80.5
393.208	84.5
393.433	85.5
393.658	97.5
393.882	70.5
394.107	93.5
394.331	84.5
394.556	92.5
394.78	81.5
395.005	91.5
395.229	84.5
395.454	82.5
395.678	86.5
395.903	86.5
396.127	89.5
396.352	98.5
396.576	92.5
396.801	74.5
397.025	95.5
397.249	82.5
397.474	96.5
397.698	82.5
397.922	95.5
398.147	81.5
398.371	100.5
398.595	72.5
398.82	91.5
399.044	92.5
399.268	85.5
399.492	90.5
399.717	92.5
399.941	84.5
400.165	95.5
400.389	92.5
400.613	79.5
400.837	101.5
401.062	84.5
401.286	92.5
401.51	88.5
401.734	89.5
401.958	87.5
402.182	129.5
402.406	162.5
402.63	127.5
402.854	98.5
403.078	83.5
403.302	77.5
403.526	95.5
403.75	84.5
403.974	87.5
404.198	94.5
404.422	89.5
404.645	90.5
404.869	88.5
405.093	94.5
405.317	95.5
405.541	103.5
405.765	89.5
405.988	127.5
406.212	179.5
406.436	256.5
406.66	165.5
406.883	106.5
407.107	107.5
407.331	105.5
407.555	102.5
407.778	106.5
408.002	90.5
408.226	93.5
408.449	67.5
408.673	85.5
408.896	79.5
409.12	96.5
409.344	98.5
409.567	88.5
409.791	76.5
410.014	98.5
410.238	88.5
410.461	84.5
410.685	98.5
410.908	96.5
411.132	84.5
411.355	108.5
411.578	88.5
411.802	85.5
412.025	85.5
412.249	86.5
412.472	93.5
412.695	99.5
412.919	92.5
413.142	110.5
413.365	97.5
413.589	93.5
413.812	100.5
414.035	103.5
414.258	85.5
414.482	91.5
414.705	81.5
414.928	96.5
415.151	84.5
415.374	82.5
415.597	93.5
415.821	76.5
416.044	107.5
416.267	86.5
416.49	74.5
416.713	83.5
416.936	98.5
417.159	85.5
417.382	104.5
417.605	93.5
417.828	83.5
418.051	94.5
418.274	88.5
418.497	93.5
418.72	88.5
418.943	95.5
419.166	96.5
419.389	90.5
419.611	87.5
419.834	84.5
420.057	85.5
420.28	98.5
420.503	92.5
420.726	84.5
420.948	92.5
421.171	96.5
421.394	79.5
421.617	86.5
421.839	94.5
422.062	99.5
422.285	92.5
422.507	101.5
422.73	103.5
422.953	95.5
423.175	106.5
423.398	93.5
423.621	95.5
423.843	95.5
424.066	88.5
424.288	94.5
424.511	98.5
424.733	92.5
424.956	101.5
425.178	89.5
425.401	102.5
425.623	105.5
425.846	91.5
426.068	87.5
426.291	101.5
426.513	96.5
426.735	96.5
426.958	94.5
427.18	111.5
427.402	136.5
427.625	172.5
427.847	135.5
428.069	115.5
428.292	98.5
428.514	87.5
428.736	87.5
428.958	90.5
429.181	89.5
429.403	75.5
429.625	95.5
429.847	95.5
430.069	97.5
430.292	93.5
430.514	76.5
430.736	84.5
430.958	88.5
431.18	85.5
431.402	95.5
431.624	96.5
431.846	87.5
432.068	82.5
432.29	84.5
432.512	94.5
432.734	86.5
432.956	81.5
433.178	102.5
433.4	91.5
433.622	88.5
433.844	88.5
434.066	83.5
434.287	91.5
434.509	90.5
434.731	66.5
434.953	82.5
435.175	83.5
435.397	86.5
435.618	94.5
435.84	84.5
436.062	120.5
436.284	115.5
436.505	83.5
436.727	86.5
436.949	97.5
437.17	96.5
437.392	80.5
437.614	92.5
437.835	104.5
438.057	130.5
438.278	105.5
438.5	95.5
438.721	120.5
438.943	97.5
439.165	93.5
439.386	107.5
439.608	91.5
439.829	77.5
440.05	114.5
440.272	162.5
440.493	105.5
440.715	103.5
440.936	89.5
441.158	83.5
441.379	79.5
441.6	84.5
441.822	85.5
442.043	102.5
442.264	113.5
442.486	100.5
442.707	93.5
442.928	118.5
443.149	152.5
443.371	146.5
443.592	113.5
443.813	108.5
444.034	100.5
444.255	99.5
444.476	89.5
444.698	88.5
444.919	80.5
445.14	127.5
445.361	135.5
445.582	123.5
445.803	131.5
446.024	144.5
446.245	122.5
446.466	98.5
446.687	87.5
446.908	85.5
447.129	97.5
447.35	94.5
447.571	87.5
447.792	89.5
448.013	81.5
448.234	108.5
448.455	96.5
448.675	114.5
448.896	120.5
449.117	103.5
449.338	92.5
449.559	132.5
449.779	145.5
450	93.5
450.221	91.5
450.442	103.5
450.662	89.5
450.883	120.5
451.104	104.5
451.324	96.5
451.545	102.5
451.766	88.5
451.986	81.5
452.207	87.5
452.428	101.5
452.648	107.5
452.869	104.5
453.089	115.5
453.31	117.5
453.53	88.5
453.751	102.5
453.971	89.5
454.192	105.5
454.412	96.5
454.633	77.5
454.853	71.5
455.073	87.5
455.294	93.5
455.514	98.5
455.734	93.5
455.955	81.5
456.175	77.5
456.395	80.5
456.616	89.5
456.836	79.5
457.056	107.5
457.276	81.5
457.497	100.5
457.717	94.5
457.937	95.5
458.157	69.5
458.377	91.5
458.598	110.5
458.818	183.5
459.038	184.5
459.258	107.5
459.478	92.5
459.698	91.5
459.918	82.5
460.138	84.5
460.358	85.5
460.578	96.5
460.798	103.5
461.018	85.5
461.238	89.5
461.458	77.5
461.678	77.5
461.898	93.5
462.118	88.5
462.338	92.5
462.558	92.5
462.777	100.5
462.997	91.5
463.217	80.5
463.437	95.5
463.657	76.5
463.876	93.5
464.096	89.5
464.316	91.5
464.536	96.5
464.755	98.5
464.975	123.5
465.195	175.5
465.414	172.5
465.634	93.5
465.854	89.5
466.073	92.5
466.293	85.5
466.512	92.5
466.732	76.5
466.951	96.5
467.171	87.5
467.391	98.5
467.61	108.5
467.829	104.5
468.049	116.5
468.268	103.5
468.488	88.5
468.707	93.5
468.927	105.5
469.146	85.5
469.365	84.5
469.585	99.5
469.804	97.5
470.023	90.5
470.243	114.5
470.462	103.5
470.681	108.5
470.901	87.5
471.12	74.5
471.339	92.5
471.558	97.5
471.777	94.5
471.997	85.5
472.216	116.5
472.435	180.5
472.654	108.5
472.873	89.5
473.092	84.5
473.311	85.5
473.53	74.5
473.749	90.5
473.968	95.5
474.187	99.5
474.406	104.5
474.625	85.5
474.844	91.5
475.063	92.5
475.282	101.5
475.501	88.5
475.72	91.5
475.939	84.5
476.158	110.5
476.377	84.5
476.596	77.5
476.814	89.5
477.033	79.5
477.252	85.5
477.471	106.5
477.69	83.5
477.908	95.5
478.127	90.5
478.346	83.5
478.564	90.5
478.783	87.5
479.002	92.5
479.22	103.5
479.439	96.5
479.658	95.5
479.876	87.5
480.095	91.5
480.313	93.5
480.532	94.5
480.751	100.5
480.969	140.5
481.188	252.5
481.406	191.5
481.624	108.5
481.843	94.5
482.061	79.5
482.28	100.5
482.498	88.5
482.717	95.5
482.935	95.5
483.153	88.5
483.372	97.5
483.59	91.5
483.808	98.5
484.027	86.5
484.245	96.5
484.463	79.5
484.681	94.5
484.9	94.5
485.118	97.5
485.336	100.5
485.554	92.5
485.772	84.5
485.99	123.5
486.209	95.5
486.427	102.5
486.645	106.5
486.863	119.5
487.081	97.5
487.299	92.5
487.517	93.5
487.735	98.5
487.953	94.5
488.171	90.5
488.389	83.5
488.607	101.5
488.825	111.5
489.043	96.5
489.261	91.5
489.479	82.5
489.696	99.5
489.914	92.5
490.132	92.5
490.35	92.5
490.568	95.5
490.786	108.5
491.003	90.5
491.221	86.5
491.439	87.5
491.657	88.5
491.874	93.5
492.092	92.5
492.31	95.5
492.527	76.5
492.745	93.5
492.963	94.5
493.18	93.5
493.398	104.5
493.615	100.5
493.833	94.5
494.05	88.5
494.268	92.5
494.485	89.5
494.703	91.5
494.92	78.5
495.138	82.5
495.355	90.5
495.573	93.5
495.79	97.5
496.008	91.5
496.225	91.5
496.442	91.5
496.66	98.5
496.877	82.5
497.094	91.5
497.312	90.5
497.529	87.5
497.746	77.5
497.963	88.5
498.181	84.5
498.398	103.5
498.615	107.5
498.832	124.5
499.049	99.5
499.267	83.5
499.484	90.5
499.701	84.5
499.918	104.5
500.135	86.5
500.352	89.5
500.569	85.5
500.786	87.5
501.003	86.5
501.22	91.5
501.437	100.5
501.654	80.5
501.871	100.5
502.088	92.5
502.305	96.5
502.522	94.5
502.739	83.5
502.956	85.5
503.172	90.5
503.389	95.5
503.606	105.5
503.823	107.5
504.04	92.5
504.256	91.5
504.473	83.5
504.69	84.5
504.907	94.5
505.123	87.5
505.34	103.5
505.557	80.5
505.773	90.5
505.99	88.5
506.207	97.5
506.423	77.5
506.64	86.5
506.856	87.5
507.073	85.5
507.289	97.5
507.506	104.5
507.722	114.5
507.939	108.5
508.155	95.5
508.372	94.5
508.588	97.5
508.805	112.5
509.021	94.5
509.238	88.5
509.454	94.5
509.67	95.5
509.887	100.5
510.103	133.5
510.319	217.5
510.536	847.5
510.752	2803.5
510.968	810.5
511.184	170.5
511.401	129.5
511.617	101.5
511.833	96.5
512.049	101.5
512.265	70.5
512.481	81.5
512.698	84.5
512.914	112.5
513.13	87.5
513.346	92.5
513.562	105.5
513.778	99.5
513.994	99.5
514.21	96.5
514.426	111.5
514.642	139.5
514.858	122.5
515.074	176.5
515.29	519.5
515.506	1820.5
515.721	689.5
515.937	180.5
516.153	114.5
516.369	106.5
516.585	98.5
516.801	94.5
517.016	99.5
517.232	89.5
517.448	98.5
517.664	86.5
517.879	98.5
518.095	99.5
518.311	83.5
518.527	98.5
518.742	104.5
518.958	87.5
519.173	102.5
519.389	95.5
519.605	93.5
519.82	108.5
520.036	105.5
520.251	124.5
520.467	112.5
520.682	102.5
520.898	113.5
521.113	114.5
521.329	139.5
521.544	226.5
521.76	647.5
521.975	2935.5
522.19	1830.5
522.406	387.5
522.621	127.5
522.836	109.5
523.052	92.5
523.267	98.5
523.482	96.5
523.698	113.5
523.913	129.5
524.128	110.5
524.343	83.5
524.559	99.5
524.774	99.5
524.989	106.5
525.204	112.5
525.419	99.5
525.634	88.5
525.849	83.5
526.064	89.5
526.28	88.5
526.495	77.5
526.71	96.5
526.925	80.5
527.14	84.5
527.355	90.5
527.57	99.5
527.785	94.5
527.999	104.5
528.214	101.5
528.429	89.5
528.644	91.5
528.859	99.5
529.074	100.5
529.289	137.5
529.503	194.5
529.718	112.5
529.933	115.5
530.148	82.5
530.363	87.5
530.577	87.5
530.792	83.5
531.007	90.5
531.221	86.5
531.436	80.5
531.651	92.5
531.865	91.5
532.08	89.5
532.295	92.5
532.509	92.5
532.724	82.5
532.938	104.5
533.153	108.5
533.367	100.5
533.582	86.5
533.796	84.5
534.011	97.5
534.225	95.5
534.44	83.5
534.654	94.5
534.868	93.5
