Data from Circ_2018_H10_HRD10591_00011.txt Node
Date: Wed Jan 03 09:56:04 EST 2024
User: Yrep
Spectrometer: HR+D1059
Trigger mode: 1
Integration Time (sec): 1.000000E-1
Scans to average: 1
Electric dark correction enabled: true
Nonlinearity correction enabled: false
Boxcar width: 0
XAxis mode: Wavelengths
Number of Pixels in Spectrum: 2048
>>>>>Begin Spectral Data<<<<<
223.165	-5.31
223.4	-5.31
223.635	-5.31
223.869	-25.31
224.104	-8.31
224.338	-4.31
224.573	-21.31
224.808	-1.31
225.042	-21.31
225.277	-0.31
225.511	-10.31
225.746	4.69
225.98	7.69
226.215	1.69
226.449	14.69
226.683	16.69
226.918	29.69
227.152	22.69
227.387	40.69
227.621	37.69
227.856	37.69
228.09	41.69
228.324	58.69
228.559	65.69
228.793	66.69
229.027	54.69
229.262	70.69
229.496	78.69
229.73	92.69
229.964	87.69
230.199	78.69
230.433	62.69
230.667	91.69
230.901	76.69
231.136	74.69
231.37	68.69
231.604	76.69
231.838	75.69
232.072	86.69
232.306	92.69
232.541	70.69
232.775	84.69
233.009	87.69
233.243	81.69
233.477	82.69
233.711	77.69
233.945	86.69
234.179	88.69
234.413	90.69
234.647	83.69
234.881	87.69
235.115	84.69
235.349	87.69
235.583	74.69
235.817	68.69
236.051	70.69
236.285	85.69
236.519	81.69
236.753	75.69
236.987	80.69
237.221	71.69
237.455	92.69
237.689	84.69
237.922	91.69
238.156	98.69
238.39	74.69
238.624	76.69
238.858	90.69
239.091	79.69
239.325	78.69
239.559	87.69
239.793	77.69
240.027	99.69
240.26	82.69
240.494	81.69
240.728	79.69
240.961	91.69
241.195	78.69
241.429	73.69
241.662	73.69
241.896	78.69
242.13	77.69
242.363	79.69
242.597	70.69
242.83	86.69
243.064	68.69
243.298	92.69
243.531	73.69
243.765	83.69
243.998	79.69
244.232	93.69
244.465	97.69
244.699	91.69
244.932	76.69
245.166	87.69
245.399	88.69
245.633	74.69
245.866	77.69
246.099	89.69
246.333	77.69
246.566	78.69
246.8	81.69
247.033	81.69
247.266	94.69
247.5	91.69
247.733	83.69
247.966	96.69
248.2	95.69
248.433	75.69
248.666	79.69
248.899	79.69
249.133	92.69
249.366	91.69
249.599	98.69
249.832	84.69
250.066	96.69
250.299	86.69
250.532	83.69
250.765	81.69
250.998	88.69
251.231	78.69
251.465	83.69
251.698	83.69
251.931	95.69
252.164	65.69
252.397	82.69
252.63	72.69
252.863	83.69
253.096	72.69
253.329	77.69
253.562	83.69
253.795	83.69
254.028	85.69
254.261	70.69
254.494	75.69
254.727	77.69
254.96	81.69
255.193	75.69
255.426	87.69
255.659	86.69
255.892	82.69
256.124	89.69
256.357	82.69
256.59	87.69
256.823	73.69
257.056	78.69
257.289	88.69
257.521	76.69
257.754	71.69
257.987	96.69
258.22	93.69
258.452	91.69
258.685	78.69
258.918	89.69
259.151	84.69
259.383	85.69
259.616	73.69
259.849	96.69
260.081	91.69
260.314	91.69
260.547	75.69
260.779	74.69
261.012	89.69
261.244	74.69
261.477	101.69
261.71	107.69
261.942	120.69
262.175	131.69
262.407	66.69
262.64	91.69
262.872	97.69
263.105	69.69
263.337	90.69
263.57	97.69
263.802	85.69
264.035	77.69
264.267	89.69
264.499	80.69
264.732	83.69
264.964	82.69
265.197	81.69
265.429	87.69
265.661	78.69
265.894	88.69
266.126	92.69
266.358	79.69
266.591	81.69
266.823	94.69
267.055	81.69
267.287	88.69
267.52	77.69
267.752	84.69
267.984	76.69
268.216	82.69
268.448	82.69
268.681	90.69
268.913	72.69
269.145	81.69
269.377	86.69
269.609	86.69
269.841	85.69
270.073	91.69
270.306	87.69
270.538	85.69
270.77	76.69
271.002	73.69
271.234	91.69
271.466	103.69
271.698	93.69
271.93	84.69
272.162	79.69
272.394	86.69
272.626	79.69
272.858	75.69
273.09	82.69
273.322	82.69
273.553	84.69
273.785	89.69
274.017	96.69
274.249	92.69
274.481	101.69
274.713	85.69
274.945	90.69
275.176	86.69
275.408	90.69
275.64	76.69
275.872	79.69
276.104	76.69
276.335	86.69
276.567	101.69
276.799	114.69
277.031	105.69
277.262	101.69
277.494	100.69
277.726	91.69
277.957	80.69
278.189	90.69
278.421	86.69
278.652	90.69
278.884	89.69
279.115	81.69
279.347	93.69
279.579	93.69
279.81	78.69
280.042	89.69
280.273	85.69
280.505	83.69
280.736	86.69
280.968	97.69
281.199	79.69
281.431	78.69
281.662	86.69
281.894	94.69
282.125	94.69
282.356	122.69
282.588	142.69
282.819	119.69
283.051	92.69
283.282	89.69
283.513	105.69
283.745	106.69
283.976	92.69
284.207	73.69
284.439	86.69
284.67	95.69
284.901	86.69
285.132	90.69
285.364	83.69
285.595	84.69
285.826	86.69
286.057	85.69
286.288	90.69
286.52	88.69
286.751	87.69
286.982	96.69
287.213	90.69
287.444	101.69
287.675	90.69
287.906	100.69
288.138	98.69
288.369	78.69
288.6	83.69
288.831	76.69
289.062	88.69
289.293	74.69
289.524	94.69
289.755	94.69
289.986	76.69
290.217	91.69
290.448	87.69
290.679	90.69
290.91	92.69
291.141	108.69
291.371	84.69
291.602	93.69
291.833	87.69
292.064	78.69
292.295	90.69
292.526	76.69
292.757	86.69
292.987	102.69
293.218	89.69
293.449	95.69
293.68	81.69
293.91	84.69
294.141	103.69
294.372	94.69
294.603	89.69
294.833	78.69
295.064	84.69
295.295	88.69
295.525	86.69
295.756	91.69
295.987	119.69
296.217	136.69
296.448	121.69
296.679	84.69
296.909	78.69
297.14	82.69
297.37	94.69
297.601	101.69
297.831	90.69
298.062	97.69
298.292	77.69
298.523	85.69
298.753	90.69
298.984	98.69
299.214	87.69
299.445	104.69
299.675	92.69
299.905	89.69
300.136	96.69
300.366	98.69
300.597	92.69
300.827	94.69
301.057	108.69
301.288	99.69
301.518	101.69
301.748	99.69
301.979	98.69
302.209	106.69
302.439	92.69
302.669	86.69
302.9	82.69
303.13	103.69
303.36	99.69
303.59	103.69
303.82	114.69
304.051	97.69
304.281	86.69
304.511	78.69
304.741	95.69
304.971	95.69
305.201	94.69
305.431	90.69
305.661	83.69
305.891	81.69
306.121	79.69
306.352	102.69
306.582	113.69
306.812	88.69
307.042	77.69
307.272	94.69
307.502	111.69
307.731	82.69
307.961	86.69
308.191	77.69
308.421	95.69
308.651	116.69
308.881	99.69
309.111	106.69
309.341	109.69
309.571	97.69
309.8	102.69
310.03	96.69
310.26	88.69
310.49	102.69
310.72	118.69
310.949	108.69
311.179	94.69
311.409	99.69
311.639	98.69
311.868	103.69
312.098	103.69
312.328	89.69
312.557	100.69
312.787	94.69
313.017	99.69
313.246	92.69
313.476	94.69
313.706	79.69
313.935	92.69
314.165	89.69
314.394	101.69
314.624	93.69
314.853	81.69
315.083	100.69
315.312	94.69
315.542	89.69
315.771	103.69
316.001	90.69
316.23	97.69
316.46	89.69
316.689	92.69
316.919	102.69
317.148	98.69
317.377	95.69
317.607	91.69
317.836	91.69
318.065	85.69
318.295	81.69
318.524	93.69
318.753	104.69
318.983	98.69
319.212	101.69
319.441	122.69
319.67	93.69
319.9	97.69
320.129	87.69
320.358	94.69
320.587	89.69
320.816	96.69
321.046	104.69
321.275	97.69
321.504	89.69
321.733	77.69
321.962	93.69
322.191	114.69
322.42	109.69
322.649	103.69
322.878	107.69
323.108	100.69
323.337	130.69
323.566	135.69
323.795	152.69
324.024	215.69
324.253	397.69
324.482	793.69
324.71	1584.69
324.939	2062.69
325.168	796.69
325.397	235.69
325.626	139.69
325.855	117.69
326.084	122.69
326.313	153.69
326.542	156.69
326.77	233.69
326.999	419.69
327.228	849.69
327.457	1547.69
327.686	1254.69
327.914	359.69
328.143	172.69
328.372	167.69
328.6	144.69
328.829	118.69
329.058	133.69
329.287	127.69
329.515	79.69
329.744	107.69
329.972	108.69
330.201	105.69
330.43	131.69
330.658	128.69
330.887	136.69
331.115	116.69
331.344	96.69
331.572	97.69
331.801	109.69
332.03	111.69
332.258	101.69
332.486	98.69
332.715	94.69
332.943	93.69
333.172	110.69
333.4	85.69
333.629	99.69
333.857	100.69
334.085	124.69
334.314	107.69
334.542	121.69
334.771	105.69
334.999	98.69
335.227	102.69
335.455	110.69
335.684	101.69
335.912	94.69
336.14	89.69
336.369	104.69
336.597	86.69
336.825	106.69
337.053	88.69
337.281	100.69
337.51	101.69
337.738	82.69
337.966	85.69
338.194	98.69
338.422	97.69
338.65	105.69
338.878	99.69
339.106	96.69
339.334	81.69
339.562	85.69
339.79	86.69
340.018	96.69
340.246	82.69
340.474	87.69
340.702	94.69
340.93	85.69
341.158	87.69
341.386	86.69
341.614	92.69
341.842	96.69
342.07	89.69
342.298	89.69
342.526	91.69
342.754	93.69
342.981	83.69
343.209	93.69
343.437	93.69
343.665	93.69
343.893	84.69
344.12	89.69
344.348	93.69
344.576	92.69
344.804	96.69
345.031	106.69
345.259	92.69
345.487	99.69
345.714	103.69
345.942	91.69
346.17	98.69
346.397	101.69
346.625	96.69
346.853	97.69
347.08	100.69
347.308	94.69
347.535	101.69
347.763	98.69
347.99	105.69
348.218	102.69
348.445	130.69
348.673	106.69
348.9	94.69
349.128	83.69
349.355	83.69
349.583	92.69
349.81	91.69
350.037	87.69
350.265	93.69
350.492	106.69
350.72	109.69
350.947	110.69
351.174	119.69
351.402	107.69
351.629	94.69
351.856	88.69
352.083	93.69
352.311	110.69
352.538	109.69
352.765	115.69
352.992	108.69
353.22	114.69
353.447	101.69
353.674	98.69
353.901	108.69
354.128	100.69
354.355	103.69
354.583	89.69
354.81	91.69
355.037	107.69
355.264	82.69
355.491	92.69
355.718	109.69
355.945	101.69
356.172	81.69
356.399	88.69
356.626	102.69
356.853	96.69
357.08	92.69
357.307	100.69
357.534	92.69
357.761	94.69
357.988	93.69
358.215	109.69
358.441	98.69
358.668	81.69
358.895	92.69
359.122	95.69
359.349	93.69
359.576	93.69
359.802	104.69
360.029	113.69
360.256	113.69
360.483	110.69
360.709	90.69
360.936	90.69
361.163	99.69
361.39	105.69
361.616	86.69
361.843	91.69
362.07	88.69
362.296	99.69
362.523	99.69
362.749	95.69
362.976	86.69
363.203	90.69
363.429	96.69
363.656	119.69
363.882	97.69
364.109	90.69
364.335	102.69
364.562	86.69
364.788	97.69
365.015	98.69
365.241	122.69
365.468	106.69
365.694	113.69
365.92	105.69
366.147	86.69
366.373	89.69
366.599	93.69
366.826	87.69
367.052	101.69
367.278	78.69
367.505	91.69
367.731	96.69
367.957	100.69
368.184	91.69
368.41	101.69
368.636	113.69
368.862	107.69
369.089	110.69
369.315	99.69
369.541	97.69
369.767	99.69
369.993	94.69
370.219	79.69
370.445	87.69
370.672	90.69
370.898	87.69
371.124	93.69
371.35	93.69
371.576	90.69
371.802	98.69
372.028	95.69
372.254	95.69
372.48	107.69
372.706	95.69
372.932	87.69
373.158	82.69
373.384	89.69
373.61	82.69
373.835	103.69
374.061	98.69
374.287	84.69
374.513	90.69
374.739	76.69
374.965	87.69
375.191	90.69
375.416	99.69
375.642	92.69
375.868	81.69
376.094	82.69
376.319	84.69
376.545	107.69
376.771	90.69
376.997	97.69
377.222	97.69
377.448	101.69
377.674	82.69
377.899	91.69
378.125	93.69
378.35	107.69
378.576	105.69
378.802	92.69
379.027	95.69
379.253	96.69
379.478	103.69
379.704	103.69
379.929	80.69
380.155	93.69
380.38	94.69
380.606	86.69
380.831	99.69
381.057	103.69
381.282	100.69
381.507	94.69
381.733	90.69
381.958	111.69
382.184	99.69
382.409	94.69
382.634	113.69
382.86	114.69
383.085	101.69
383.31	92.69
383.535	111.69
383.761	109.69
383.986	83.69
384.211	93.69
384.436	100.69
384.662	92.69
384.887	106.69
385.112	92.69
385.337	117.69
385.562	94.69
385.787	113.69
386.013	108.69
386.238	123.69
386.463	110.69
386.688	112.69
386.913	95.69
387.138	109.69
387.363	99.69
387.588	110.69
387.813	113.69
388.038	95.69
388.263	95.69
388.488	102.69
388.713	92.69
388.938	93.69
389.163	98.69
389.387	100.69
389.612	103.69
389.837	94.69
390.062	104.69
390.287	91.69
390.512	95.69
390.736	95.69
390.961	91.69
391.186	102.69
391.411	88.69
391.636	98.69
391.86	90.69
392.085	92.69
392.31	90.69
392.534	86.69
392.759	89.69
392.984	88.69
393.208	99.69
393.433	94.69
393.658	90.69
393.882	84.69
394.107	84.69
394.331	90.69
394.556	78.69
394.78	106.69
395.005	86.69
395.229	95.69
395.454	90.69
395.678	86.69
395.903	83.69
396.127	89.69
396.352	93.69
396.576	99.69
396.801	91.69
397.025	86.69
397.249	82.69
397.474	76.69
397.698	86.69
397.922	73.69
398.147	89.69
398.371	94.69
398.595	98.69
398.82	92.69
399.044	102.69
399.268	90.69
399.492	84.69
399.717	92.69
399.941	79.69
400.165	120.69
400.389	90.69
400.613	100.69
400.837	100.69
401.062	90.69
401.286	100.69
401.51	89.69
401.734	85.69
401.958	89.69
402.182	122.69
402.406	163.69
402.63	125.69
402.854	114.69
403.078	101.69
403.302	87.69
403.526	101.69
403.75	96.69
403.974	83.69
404.198	101.69
404.422	92.69
404.645	97.69
404.869	82.69
405.093	91.69
405.317	102.69
405.541	110.69
405.765	84.69
405.988	117.69
406.212	184.69
406.436	243.69
406.66	131.69
406.883	105.69
407.107	91.69
407.331	102.69
407.555	105.69
407.778	109.69
408.002	98.69
408.226	92.69
408.449	79.69
408.673	90.69
408.896	108.69
409.12	90.69
409.344	82.69
409.567	79.69
409.791	91.69
410.014	103.69
410.238	86.69
410.461	99.69
410.685	102.69
410.908	73.69
411.132	91.69
411.355	106.69
411.578	95.69
411.802	74.69
412.025	97.69
412.249	84.69
412.472	110.69
412.695	93.69
412.919	94.69
413.142	82.69
413.365	87.69
413.589	93.69
413.812	94.69
414.035	89.69
414.258	91.69
414.482	85.69
414.705	101.69
414.928	78.69
415.151	98.69
415.374	92.69
415.597	93.69
415.821	78.69
416.044	88.69
416.267	99.69
416.49	89.69
416.713	99.69
416.936	96.69
417.159	94.69
417.382	94.69
417.605	97.69
417.828	89.69
418.051	95.69
418.274	91.69
418.497	83.69
418.72	79.69
418.943	93.69
419.166	92.69
419.389	99.69
419.611	95.69
419.834	87.69
420.057	88.69
420.28	88.69
420.503	86.69
420.726	88.69
420.948	93.69
421.171	99.69
421.394	90.69
421.617	96.69
421.839	104.69
422.062	79.69
422.285	106.69
422.507	106.69
422.73	99.69
422.953	78.69
423.175	101.69
423.398	87.69
423.621	100.69
423.843	84.69
424.066	69.69
424.288	87.69
424.511	95.69
424.733	108.69
424.956	108.69
425.178	118.69
425.401	112.69
425.623	91.69
425.846	114.69
426.068	91.69
426.291	87.69
426.513	79.69
426.735	93.69
426.958	89.69
427.18	112.69
427.402	133.69
427.625	158.69
427.847	151.69
428.069	94.69
428.292	97.69
428.514	82.69
428.736	96.69
428.958	79.69
429.181	90.69
429.403	83.69
429.625	85.69
429.847	91.69
430.069	97.69
430.292	88.69
430.514	89.69
430.736	75.69
430.958	94.69
431.18	89.69
431.402	91.69
431.624	97.69
431.846	74.69
432.068	81.69
432.29	90.69
432.512	103.69
432.734	84.69
432.956	96.69
433.178	106.69
433.4	99.69
433.622	95.69
433.844	82.69
434.066	90.69
434.287	98.69
434.509	97.69
434.731	91.69
434.953	83.69
435.175	81.69
435.397	97.69
435.618	94.69
435.84	94.69
436.062	124.69
436.284	112.69
436.505	99.69
436.727	109.69
436.949	102.69
437.17	101.69
437.392	96.69
437.614	98.69
437.835	109.69
438.057	124.69
438.278	108.69
438.5	109.69
438.721	122.69
438.943	90.69
439.165	92.69
439.386	93.69
439.608	89.69
439.829	97.69
440.05	123.69
440.272	142.69
440.493	97.69
440.715	97.69
440.936	100.69
441.158	88.69
441.379	79.69
441.6	93.69
441.822	100.69
442.043	106.69
442.264	117.69
442.486	97.69
442.707	95.69
442.928	108.69
443.149	100.69
443.371	132.69
443.592	120.69
443.813	94.69
444.034	117.69
444.255	89.69
444.476	75.69
444.698	87.69
444.919	78.69
445.14	120.69
445.361	133.69
445.582	116.69
445.803	139.69
446.024	132.69
446.245	142.69
446.466	120.69
446.687	88.69
446.908	91.69
447.129	86.69
447.35	92.69
447.571	92.69
447.792	98.69
448.013	94.69
448.234	114.69
448.455	93.69
448.675	99.69
448.896	111.69
449.117	115.69
449.338	100.69
449.559	124.69
449.779	122.69
450	97.69
450.221	82.69
450.442	101.69
450.662	93.69
450.883	92.69
451.104	127.69
451.324	99.69
451.545	94.69
451.766	96.69
451.986	91.69
452.207	93.69
452.428	90.69
452.648	98.69
452.869	114.69
453.089	122.69
453.31	104.69
453.53	92.69
453.751	99.69
453.971	110.69
454.192	104.69
454.412	99.69
454.633	90.69
454.853	95.69
455.073	88.69
455.294	88.69
455.514	104.69
455.734	98.69
455.955	103.69
456.175	79.69
456.395	92.69
456.616	95.69
456.836	73.69
457.056	92.69
457.276	98.69
457.497	94.69
457.717	93.69
457.937	91.69
458.157	90.69
458.377	89.69
458.598	108.69
458.818	144.69
459.038	146.69
459.258	118.69
459.478	87.69
459.698	108.69
459.918	99.69
460.138	94.69
460.358	90.69
460.578	101.69
460.798	92.69
461.018	86.69
461.238	97.69
461.458	86.69
461.678	84.69
461.898	81.69
462.118	91.69
462.338	86.69
462.558	84.69
462.777	82.69
462.997	83.69
463.217	89.69
463.437	78.69
463.657	82.69
463.876	88.69
464.096	110.69
464.316	109.69
464.536	97.69
464.755	110.69
464.975	99.69
465.195	158.69
465.414	159.69
465.634	94.69
465.854	90.69
466.073	105.69
466.293	85.69
466.512	97.69
466.732	97.69
466.951	95.69
467.171	89.69
467.391	89.69
467.61	106.69
467.829	98.69
468.049	81.69
468.268	108.69
468.488	91.69
468.707	94.69
468.927	83.69
469.146	95.69
469.365	73.69
469.585	98.69
469.804	102.69
470.023	103.69
470.243	94.69
470.462	98.69
470.681	108.69
470.901	104.69
471.12	90.69
471.339	76.69
471.558	78.69
471.777	92.69
471.997	86.69
472.216	101.69
472.435	120.69
472.654	91.69
472.873	86.69
473.092	94.69
473.311	90.69
473.53	86.69
473.749	82.69
473.968	91.69
474.187	108.69
474.406	100.69
474.625	99.69
474.844	103.69
475.063	98.69
475.282	85.69
475.501	84.69
475.72	102.69
475.939	93.69
476.158	99.69
476.377	88.69
476.596	90.69
476.814	88.69
477.033	88.69
477.252	75.69
477.471	83.69
477.69	81.69
477.908	82.69
478.127	85.69
478.346	81.69
478.564	84.69
478.783	107.69
479.002	95.69
479.22	89.69
479.439	109.69
479.658	104.69
479.876	100.69
480.095	90.69
480.313	96.69
480.532	97.69
480.751	92.69
480.969	102.69
481.188	128.69
481.406	110.69
481.624	86.69
481.843	94.69
482.061	97.69
482.28	81.69
482.498	96.69
482.717	89.69
482.935	94.69
483.153	91.69
483.372	93.69
483.59	83.69
483.808	97.69
484.027	99.69
484.245	81.69
484.463	78.69
484.681	90.69
484.9	105.69
485.118	98.69
485.336	92.69
485.554	93.69
485.772	92.69
485.99	100.69
486.209	89.69
486.427	99.69
486.645	116.69
486.863	135.69
487.081	109.69
487.299	97.69
487.517	112.69
487.735	93.69
487.953	94.69
488.171	96.69
488.389	101.69
488.607	104.69
488.825	102.69
489.043	90.69
489.261	90.69
489.479	90.69
489.696	93.69
489.914	87.69
490.132	91.69
490.35	93.69
490.568	105.69
490.786	101.69
491.003	95.69
491.221	100.69
491.439	93.69
491.657	85.69
491.874	80.69
492.092	94.69
492.31	97.69
492.527	95.69
492.745	95.69
492.963	99.69
493.18	86.69
493.398	106.69
493.615	96.69
493.833	97.69
494.05	93.69
494.268	90.69
494.485	104.69
494.703	94.69
494.92	91.69
495.138	97.69
495.355	90.69
495.573	98.69
495.79	90.69
496.008	91.69
496.225	82.69
496.442	86.69
496.66	103.69
496.877	104.69
497.094	92.69
497.312	83.69
497.529	94.69
497.746	94.69
497.963	91.69
498.181	87.69
498.398	91.69
498.615	116.69
498.832	123.69
499.049	90.69
499.267	98.69
499.484	97.69
499.701	92.69
499.918	94.69
500.135	92.69
500.352	87.69
500.569	116.69
500.786	83.69
501.003	89.69
501.22	74.69
501.437	95.69
501.654	94.69
501.871	102.69
502.088	100.69
502.305	92.69
502.522	89.69
502.739	81.69
502.956	86.69
503.172	95.69
503.389	86.69
503.606	123.69
503.823	106.69
504.04	101.69
504.256	89.69
504.473	98.69
504.69	99.69
504.907	101.69
505.123	88.69
505.34	95.69
505.557	101.69
505.773	97.69
505.99	87.69
506.207	102.69
506.423	77.69
506.64	98.69
506.856	97.69
507.073	78.69
507.289	97.69
507.506	99.69
507.722	102.69
507.939	116.69
508.155	105.69
508.372	105.69
508.588	92.69
508.805	118.69
509.021	104.69
509.238	109.69
509.454	104.69
509.67	118.69
509.887	130.69
510.103	130.69
510.319	213.69
510.536	747.69
510.752	2467.69
510.968	729.69
511.184	164.69
511.401	123.69
511.617	97.69
511.833	82.69
512.049	94.69
512.265	98.69
512.481	92.69
512.698	113.69
512.914	85.69
513.13	90.69
513.346	104.69
513.562	89.69
513.778	100.69
513.994	102.69
514.21	97.69
514.426	128.69
514.642	154.69
514.858	136.69
515.074	169.69
