Data from Circ_2018_H10_HRD10591_00084.txt Node
Date: Wed Jan 03 09:56:18 EST 2024
User: Yrep
Spectrometer: HR+D1059
Trigger mode: 1
Integration Time (sec): 1.000000E-1
Scans to average: 1
Electric dark correction enabled: true
Nonlinearity correction enabled: false
Boxcar width: 0
XAxis mode: Wavelengths
Number of Pixels in Spectrum: 2048
>>>>>Begin Spectral Data<<<<<
223.165	-19.88
223.4	-19.88
223.635	-19.88
223.869	-1.88
224.104	-18.88
224.338	-11.88
224.573	-29.88
224.808	-6.88
225.042	-7.88
225.277	-4.88
225.511	-1.88
225.746	4.12
225.98	2.12
226.215	7.12
226.449	24.12
226.683	7.12
226.918	31.12
227.152	28.12
227.387	23.12
227.621	23.12
227.856	39.12
228.09	31.12
228.324	56.12
228.559	47.12
228.793	61.12
229.027	71.12
229.262	78.12
229.496	67.12
229.73	84.12
229.964	77.12
230.199	74.12
230.433	60.12
230.667	76.12
230.901	66.12
231.136	61.12
231.37	70.12
231.604	70.12
231.838	78.12
232.072	84.12
232.306	84.12
232.541	97.12
232.775	67.12
233.009	72.12
233.243	70.12
233.477	75.12
233.711	78.12
233.945	64.12
234.179	81.12
234.413	67.12
234.647	63.12
234.881	68.12
235.115	68.12
235.349	67.12
235.583	75.12
235.817	91.12
236.051	77.12
236.285	68.12
236.519	65.12
236.753	67.12
236.987	67.12
237.221	67.12
237.455	73.12
237.689	77.12
237.922	73.12
238.156	67.12
238.39	65.12
238.624	79.12
238.858	84.12
239.091	88.12
239.325	77.12
239.559	73.12
239.793	75.12
240.027	77.12
240.26	74.12
240.494	76.12
240.728	77.12
240.961	67.12
241.195	81.12
241.429	92.12
241.662	75.12
241.896	84.12
242.13	73.12
242.363	64.12
242.597	70.12
242.83	73.12
243.064	68.12
243.298	73.12
243.531	64.12
243.765	75.12
243.998	72.12
244.232	69.12
244.465	80.12
244.699	79.12
244.932	73.12
245.166	82.12
245.399	67.12
245.633	81.12
245.866	84.12
246.099	82.12
246.333	84.12
246.566	98.12
246.8	74.12
247.033	75.12
247.266	72.12
247.5	65.12
247.733	79.12
247.966	89.12
248.2	75.12
248.433	73.12
248.666	70.12
248.899	79.12
249.133	75.12
249.366	98.12
249.599	88.12
249.832	73.12
250.066	82.12
250.299	78.12
250.532	67.12
250.765	65.12
250.998	80.12
251.231	73.12
251.465	87.12
251.698	77.12
251.931	84.12
252.164	78.12
252.397	72.12
252.63	59.12
252.863	67.12
253.096	88.12
253.329	80.12
253.562	79.12
253.795	85.12
254.028	88.12
254.261	81.12
254.494	63.12
254.727	80.12
254.96	85.12
255.193	75.12
255.426	83.12
255.659	76.12
255.892	79.12
256.124	70.12
256.357	81.12
256.59	90.12
256.823	79.12
257.056	67.12
257.289	78.12
257.521	81.12
257.754	61.12
257.987	82.12
258.22	87.12
258.452	65.12
258.685	79.12
258.918	71.12
259.151	70.12
259.383	79.12
259.616	78.12
259.849	71.12
260.081	63.12
260.314	84.12
260.547	83.12
260.779	83.12
261.012	82.12
261.244	83.12
261.477	84.12
261.71	88.12
261.942	107.12
262.175	119.12
262.407	86.12
262.64	83.12
262.872	64.12
263.105	82.12
263.337	80.12
263.57	74.12
263.802	64.12
264.035	81.12
264.267	66.12
264.499	84.12
264.732	73.12
264.964	68.12
265.197	86.12
265.429	75.12
265.661	83.12
265.894	79.12
266.126	79.12
266.358	65.12
266.591	69.12
266.823	66.12
267.055	80.12
267.287	83.12
267.52	77.12
267.752	72.12
267.984	72.12
268.216	77.12
268.448	73.12
268.681	85.12
268.913	80.12
269.145	76.12
269.377	73.12
269.609	91.12
269.841	76.12
270.073	86.12
270.306	80.12
270.538	70.12
270.77	75.12
271.002	85.12
271.234	80.12
271.466	92.12
271.698	83.12
271.93	78.12
272.162	88.12
272.394	99.12
272.626	77.12
272.858	85.12
273.09	80.12
273.322	77.12
273.553	94.12
273.785	88.12
274.017	87.12
274.249	81.12
274.481	87.12
274.713	74.12
274.945	78.12
275.176	81.12
275.408	74.12
275.64	72.12
275.872	85.12
276.104	91.12
276.335	82.12
276.567	92.12
276.799	105.12
277.031	90.12
277.262	80.12
277.494	84.12
277.726	94.12
277.957	78.12
278.189	86.12
278.421	80.12
278.652	64.12
278.884	67.12
279.115	68.12
279.347	79.12
279.579	75.12
279.81	82.12
280.042	73.12
280.273	73.12
280.505	86.12
280.736	83.12
280.968	82.12
281.199	96.12
281.431	93.12
281.662	89.12
281.894	92.12
282.125	99.12
282.356	105.12
282.588	153.12
282.819	111.12
283.051	79.12
283.282	86.12
283.513	89.12
283.745	94.12
283.976	80.12
284.207	85.12
284.439	82.12
284.67	91.12
284.901	85.12
285.132	76.12
285.364	73.12
285.595	79.12
285.826	97.12
286.057	88.12
286.288	79.12
286.52	78.12
286.751	78.12
286.982	72.12
287.213	68.12
287.444	76.12
287.675	78.12
287.906	87.12
288.138	87.12
288.369	87.12
288.6	83.12
288.831	79.12
289.062	91.12
289.293	79.12
289.524	89.12
289.755	76.12
289.986	64.12
290.217	85.12
290.448	91.12
290.679	80.12
290.91	83.12
291.141	65.12
291.371	82.12
291.602	95.12
291.833	91.12
292.064	83.12
292.295	80.12
292.526	77.12
292.757	75.12
292.987	69.12
293.218	81.12
293.449	81.12
293.68	78.12
293.91	80.12
294.141	77.12
294.372	89.12
294.603	92.12
294.833	77.12
295.064	76.12
295.295	84.12
295.525	71.12
295.756	87.12
295.987	114.12
296.217	134.12
296.448	134.12
296.679	95.12
296.909	91.12
297.14	92.12
297.37	83.12
297.601	91.12
297.831	82.12
298.062	104.12
298.292	92.12
298.523	85.12
298.753	92.12
298.984	80.12
299.214	76.12
299.445	88.12
299.675	87.12
299.905	84.12
300.136	85.12
300.366	88.12
300.597	89.12
300.827	99.12
301.057	81.12
301.288	100.12
301.518	97.12
301.748	97.12
301.979	93.12
302.209	84.12
302.439	99.12
302.669	78.12
302.9	77.12
303.13	86.12
303.36	87.12
303.59	98.12
303.82	99.12
304.051	98.12
304.281	99.12
304.511	105.12
304.741	79.12
304.971	84.12
305.201	81.12
305.431	84.12
305.661	90.12
305.891	93.12
306.121	87.12
306.352	95.12
306.582	97.12
306.812	89.12
307.042	79.12
307.272	86.12
307.502	96.12
307.731	84.12
307.961	85.12
308.191	94.12
308.421	87.12
308.651	92.12
308.881	100.12
309.111	77.12
309.341	91.12
309.571	101.12
309.8	105.12
310.03	91.12
310.26	104.12
310.49	95.12
310.72	97.12
310.949	103.12
311.179	93.12
311.409	90.12
311.639	77.12
311.868	84.12
312.098	92.12
312.328	91.12
312.557	86.12
312.787	110.12
313.017	107.12
313.246	86.12
313.476	92.12
313.706	84.12
313.935	91.12
314.165	88.12
314.394	89.12
314.624	95.12
314.853	101.12
315.083	87.12
315.312	89.12
315.542	95.12
315.771	94.12
316.001	81.12
316.23	91.12
316.46	95.12
316.689	83.12
316.919	68.12
317.148	95.12
317.377	102.12
317.607	91.12
317.836	100.12
318.065	92.12
318.295	90.12
318.524	97.12
318.753	82.12
318.983	87.12
319.212	88.12
319.441	91.12
319.67	98.12
319.9	92.12
320.129	92.12
320.358	85.12
320.587	101.12
320.816	102.12
321.046	90.12
321.275	86.12
321.504	83.12
321.733	95.12
321.962	99.12
322.191	91.12
322.42	93.12
322.649	115.12
322.878	115.12
323.108	110.12
323.337	116.12
323.566	128.12
323.795	147.12
324.024	193.12
324.253	383.12
324.482	776.12
324.71	1531.12
324.939	2049.12
325.168	781.12
325.397	252.12
325.626	144.12
325.855	125.12
326.084	116.12
326.313	129.12
326.542	145.12
326.77	193.12
326.999	397.12
327.228	859.12
327.457	1517.12
327.686	1245.12
327.914	351.12
328.143	199.12
328.372	156.12
328.6	117.12
328.829	118.12
329.058	143.12
329.287	133.12
329.515	98.12
329.744	97.12
329.972	109.12
330.201	127.12
330.43	167.12
330.658	135.12
330.887	138.12
331.115	114.12
331.344	96.12
331.572	86.12
331.801	98.12
332.03	90.12
332.258	93.12
332.486	74.12
332.715	95.12
332.943	93.12
333.172	109.12
333.4	95.12
333.629	107.12
333.857	113.12
334.085	107.12
334.314	127.12
334.542	152.12
334.771	164.12
334.999	133.12
335.227	95.12
335.455	104.12
335.684	93.12
335.912	91.12
336.14	107.12
336.369	89.12
336.597	85.12
336.825	104.12
337.053	87.12
337.281	93.12
337.51	101.12
337.738	91.12
337.966	84.12
338.194	84.12
338.422	81.12
338.65	103.12
338.878	100.12
339.106	88.12
339.334	87.12
339.562	93.12
339.79	83.12
340.018	77.12
340.246	86.12
340.474	65.12
340.702	80.12
340.93	96.12
341.158	87.12
341.386	103.12
341.614	90.12
341.842	88.12
342.07	77.12
342.298	91.12
342.526	92.12
342.754	93.12
342.981	85.12
343.209	87.12
343.437	83.12
343.665	86.12
343.893	81.12
344.12	87.12
344.348	84.12
344.576	92.12
344.804	91.12
345.031	84.12
345.259	97.12
345.487	86.12
345.714	94.12
345.942	88.12
346.17	102.12
346.397	92.12
346.625	102.12
346.853	88.12
347.08	84.12
347.308	92.12
347.535	84.12
347.763	83.12
347.99	89.12
348.218	87.12
348.445	107.12
348.673	102.12
348.9	94.12
349.128	97.12
349.355	80.12
349.583	83.12
349.81	97.12
350.037	79.12
350.265	91.12
350.492	97.12
350.72	84.12
350.947	86.12
351.174	96.12
351.402	110.12
351.629	89.12
351.856	95.12
352.083	103.12
352.311	100.12
352.538	97.12
352.765	93.12
352.992	120.12
353.22	123.12
353.447	104.12
353.674	98.12
353.901	104.12
354.128	83.12
354.355	101.12
354.583	87.12
354.81	91.12
355.037	94.12
355.264	95.12
355.491	83.12
355.718	85.12
355.945	85.12
356.172	79.12
356.399	82.12
356.626	79.12
356.853	99.12
357.08	100.12
357.307	81.12
357.534	73.12
357.761	83.12
357.988	87.12
358.215	77.12
358.441	76.12
358.668	87.12
358.895	92.12
359.122	82.12
359.349	105.12
359.576	80.12
359.802	96.12
360.029	113.12
360.256	100.12
360.483	87.12
360.709	84.12
360.936	89.12
361.163	104.12
361.39	100.12
361.616	96.12
361.843	73.12
362.07	90.12
362.296	73.12
362.523	93.12
362.749	77.12
362.976	91.12
363.203	88.12
363.429	90.12
363.656	105.12
363.882	87.12
364.109	92.12
364.335	91.12
364.562	84.12
364.788	86.12
365.015	103.12
365.241	95.12
365.468	98.12
365.694	106.12
365.92	96.12
366.147	84.12
366.373	87.12
366.599	83.12
366.826	86.12
367.052	83.12
367.278	84.12
367.505	73.12
367.731	92.12
367.957	90.12
368.184	80.12
368.41	99.12
368.636	96.12
368.862	130.12
369.089	106.12
369.315	97.12
369.541	79.12
369.767	92.12
369.993	83.12
370.219	78.12
370.445	93.12
370.672	97.12
370.898	88.12
371.124	86.12
371.35	78.12
371.576	69.12
371.802	87.12
372.028	84.12
372.254	89.12
372.48	81.12
372.706	83.12
372.932	76.12
373.158	101.12
373.384	96.12
373.61	107.12
373.835	91.12
374.061	85.12
374.287	86.12
374.513	96.12
374.739	104.12
374.965	91.12
375.191	101.12
375.416	89.12
375.642	87.12
375.868	78.12
376.094	78.12
376.319	81.12
376.545	89.12
376.771	85.12
376.997	81.12
377.222	82.12
377.448	93.12
377.674	93.12
377.899	72.12
378.125	75.12
378.35	80.12
378.576	84.12
378.802	83.12
379.027	85.12
379.253	87.12
379.478	95.12
379.704	71.12
379.929	84.12
380.155	91.12
380.38	85.12
380.606	97.12
380.831	87.12
381.057	86.12
381.282	87.12
381.507	103.12
381.733	99.12
381.958	99.12
382.184	108.12
382.409	85.12
382.634	79.12
382.86	92.12
383.085	79.12
383.31	99.12
383.535	100.12
383.761	87.12
383.986	94.12
384.211	95.12
384.436	107.12
384.662	102.12
384.887	94.12
385.112	91.12
385.337	97.12
385.562	91.12
385.787	115.12
386.013	110.12
386.238	102.12
386.463	107.12
386.688	108.12
386.913	93.12
387.138	86.12
387.363	107.12
387.588	77.12
387.813	103.12
388.038	92.12
388.263	112.12
388.488	90.12
388.713	88.12
388.938	79.12
389.163	95.12
389.387	102.12
389.612	81.12
389.837	73.12
390.062	101.12
390.287	93.12
390.512	84.12
390.736	93.12
390.961	96.12
391.186	83.12
391.411	95.12
391.636	87.12
391.86	86.12
392.085	95.12
392.31	73.12
392.534	83.12
392.759	90.12
392.984	82.12
393.208	80.12
393.433	85.12
393.658	69.12
393.882	91.12
394.107	81.12
394.331	91.12
394.556	80.12
394.78	79.12
395.005	87.12
395.229	79.12
395.454	86.12
395.678	87.12
395.903	91.12
396.127	86.12
396.352	92.12
396.576	89.12
396.801	84.12
397.025	88.12
397.249	86.12
397.474	87.12
397.698	80.12
397.922	71.12
398.147	79.12
398.371	82.12
398.595	81.12
398.82	91.12
399.044	75.12
399.268	96.12
399.492	80.12
399.717	84.12
399.941	77.12
400.165	91.12
400.389	102.12
400.613	88.12
400.837	59.12
401.062	84.12
401.286	89.12
401.51	77.12
401.734	85.12
401.958	99.12
402.182	131.12
402.406	150.12
402.63	121.12
402.854	93.12
403.078	79.12
403.302	80.12
403.526	86.12
403.75	83.12
403.974	73.12
404.198	86.12
404.422	91.12
404.645	85.12
404.869	81.12
405.093	90.12
405.317	83.12
405.541	96.12
405.765	94.12
405.988	112.12
406.212	195.12
406.436	253.12
406.66	161.12
406.883	109.12
407.107	96.12
407.331	110.12
407.555	75.12
407.778	84.12
408.002	75.12
408.226	86.12
408.449	93.12
408.673	93.12
408.896	87.12
409.12	84.12
409.344	99.12
409.567	77.12
409.791	77.12
410.014	94.12
410.238	88.12
410.461	92.12
410.685	93.12
410.908	107.12
411.132	92.12
411.355	85.12
411.578	71.12
411.802	78.12
412.025	81.12
412.249	79.12
412.472	73.12
412.695	99.12
412.919	77.12
413.142	78.12
413.365	71.12
413.589	89.12
413.812	81.12
414.035	85.12
414.258	86.12
414.482	81.12
414.705	97.12
414.928	98.12
415.151	97.12
415.374	101.12
415.597	88.12
415.821	80.12
416.044	94.12
416.267	87.12
416.49	77.12
416.713	89.12
416.936	79.12
417.159	91.12
417.382	83.12
417.605	91.12
417.828	99.12
418.051	77.12
418.274	97.12
418.497	80.12
418.72	86.12
418.943	77.12
419.166	86.12
419.389	89.12
419.611	92.12
419.834	87.12
420.057	76.12
420.28	82.12
420.503	81.12
420.726	77.12
420.948	87.12
421.171	92.12
421.394	95.12
421.617	77.12
421.839	80.12
422.062	84.12
422.285	79.12
422.507	96.12
422.73	99.12
422.953	80.12
423.175	78.12
423.398	83.12
423.621	74.12
423.843	71.12
424.066	80.12
424.288	80.12
424.511	83.12
424.733	104.12
424.956	107.12
425.178	88.12
425.401	94.12
425.623	94.12
425.846	103.12
426.068	93.12
426.291	73.12
426.513	77.12
426.735	78.12
426.958	77.12
427.18	93.12
427.402	119.12
427.625	165.12
427.847	126.12
428.069	109.12
428.292	82.12
428.514	76.12
428.736	78.12
428.958	77.12
429.181	79.12
429.403	79.12
429.625	77.12
429.847	88.12
430.069	83.12
430.292	86.12
430.514	84.12
430.736	94.12
430.958	85.12
431.18	93.12
431.402	80.12
431.624	70.12
431.846	90.12
432.068	83.12
432.29	79.12
432.512	87.12
432.734	89.12
432.956	95.12
433.178	81.12
433.4	80.12
433.622	89.12
433.844	81.12
434.066	70.12
434.287	89.12
434.509	89.12
434.731	92.12
434.953	94.12
435.175	73.12
435.397	81.12
435.618	93.12
435.84	95.12
436.062	122.12
436.284	109.12
436.505	93.12
436.727	81.12
436.949	77.12
437.17	86.12
437.392	82.12
437.614	91.12
437.835	108.12
438.057	111.12
438.278	97.12
438.5	94.12
438.721	107.12
438.943	92.12
439.165	89.12
439.386	84.12
439.608	101.12
439.829	70.12
440.05	120.12
440.272	146.12
440.493	80.12
440.715	81.12
440.936	92.12
441.158	83.12
441.379	86.12
441.6	88.12
441.822	81.12
442.043	85.12
442.264	87.12
442.486	97.12
442.707	98.12
442.928	95.12
443.149	113.12
443.371	127.12
443.592	110.12
443.813	99.12
444.034	104.12
444.255	87.12
444.476	70.12
444.698	77.12
444.919	80.12
445.14	129.12
445.361	109.12
445.582	118.12
445.803	108.12
446.024	123.12
446.245	129.12
446.466	96.12
446.687	88.12
446.908	87.12
447.129	79.12
447.35	84.12
447.571	88.12
447.792	79.12
448.013	92.12
448.234	92.12
448.455	89.12
448.675	98.12
448.896	109.12
449.117	88.12
449.338	91.12
449.559	130.12
449.779	117.12
450	103.12
450.221	91.12
450.442	80.12
450.662	97.12
450.883	95.12
451.104	125.12
451.324	96.12
451.545	79.12
451.766	69.12
451.986	77.12
452.207	84.12
452.428	85.12
452.648	82.12
452.869	118.12
453.089	110.12
453.31	107.12
453.53	88.12
453.751	93.12
453.971	101.12
454.192	95.12
454.412	81.12
454.633	84.12
454.853	73.12
455.073	72.12
455.294	105.12
455.514	97.12
455.734	87.12
455.955	76.12
456.175	71.12
456.395	84.12
456.616	90.12
456.836	77.12
457.056	83.12
457.276	60.12
457.497	80.12
457.717	79.12
457.937	83.12
458.157	75.12
458.377	85.12
458.598	112.12
458.818	142.12
459.038	151.12
459.258	113.12
459.478	93.12
459.698	86.12
459.918	84.12
460.138	91.12
460.358	96.12
460.578	72.12
460.798	88.12
461.018	82.12
461.238	78.12
461.458	90.12
461.678	87.12
461.898	76.12
462.118	84.12
462.338	76.12
462.558	85.12
462.777	70.12
462.997	73.12
463.217	85.12
463.437	96.12
463.657	91.12
463.876	75.12
464.096	86.12
464.316	77.12
464.536	88.12
464.755	102.12
464.975	105.12
465.195	192.12
465.414	164.12
465.634	99.12
465.854	76.12
466.073	77.12
466.293	77.12
466.512	86.12
466.732	67.12
466.951	82.12
467.171	82.12
467.391	100.12
467.61	112.12
467.829	87.12
468.049	114.12
468.268	119.12
468.488	78.12
468.707	91.12
468.927	64.12
469.146	100.12
469.365	87.12
469.585	79.12
469.804	101.12
470.023	100.12
470.243	76.12
470.462	87.12
470.681	119.12
470.901	100.12
471.12	86.12
471.339	76.12
471.558	76.12
471.777	74.12
471.997	86.12
472.216	128.12
472.435	193.12
472.654	102.12
472.873	92.12
473.092	92.12
473.311	67.12
473.53	84.12
473.749	64.12
473.968	84.12
474.187	97.12
474.406	87.12
474.625	96.12
474.844	91.12
475.063	71.12
475.282	89.12
475.501	92.12
475.72	89.12
475.939	65.12
476.158	89.12
476.377	89.12
476.596	89.12
476.814	103.12
477.033	87.12
477.252	73.12
477.471	88.12
477.69	90.12
477.908	87.12
478.127	89.12
478.346	90.12
478.564	91.12
478.783	97.12
479.002	99.12
479.22	79.12
479.439	86.12
479.658	96.12
479.876	94.12
480.095	96.12
480.313	89.12
480.532	99.12
480.751	102.12
480.969	141.12
481.188	278.12
481.406	194.12
481.624	96.12
481.843	87.12
482.061	77.12
482.28	81.12
482.498	73.12
482.717	84.12
482.935	100.12
483.153	71.12
483.372	101.12
483.59	80.12
483.808	87.12
484.027	79.12
484.245	89.12
484.463	93.12
484.681	97.12
484.9	86.12
485.118	87.12
485.336	84.12
485.554	81.12
485.772	96.12
485.99	91.12
486.209	104.12
486.427	101.12
486.645	109.12
486.863	102.12
487.081	95.12
487.299	81.12
487.517	96.12
487.735	93.12
487.953	83.12
488.171	93.12
488.389	88.12
488.607	97.12
488.825	95.12
489.043	81.12
489.261	93.12
489.479	81.12
489.696	94.12
489.914	79.12
490.132	95.12
490.35	79.12
490.568	86.12
490.786	89.12
491.003	75.12
491.221	94.12
491.439	91.12
491.657	90.12
491.874	74.12
492.092	87.12
492.31	92.12
492.527	79.12
492.745	88.12
492.963	88.12
493.18	87.12
493.398	96.12
493.615	88.12
493.833	89.12
494.05	81.12
494.268	88.12
494.485	72.12
494.703	80.12
494.92	88.12
495.138	72.12
495.355	83.12
495.573	82.12
495.79	83.12
496.008	89.12
496.225	84.12
496.442	92.12
496.66	92.12
496.877	93.12
497.094	81.12
497.312	80.12
497.529	87.12
497.746	84.12
497.963	93.12
498.181	93.12
498.398	85.12
498.615	93.12
498.832	103.12
499.049	81.12
499.267	85.12
499.484	94.12
499.701	89.12
499.918	97.12
500.135	83.12
500.352	85.12
500.569	75.12
500.786	89.12
501.003	80.12
501.22	84.12
501.437	80.12
501.654	84.12
501.871	123.12
502.088	107.12
502.305	88.12
502.522	87.12
502.739	87.12
502.956	102.12
503.172	75.12
503.389	97.12
503.606	110.12
503.823	84.12
504.04	90.12
504.256	71.12
504.473	90.12
504.69	89.12
504.907	97.12
505.123	77.12
505.34	95.12
505.557	88.12
505.773	89.12
505.99	81.12
506.207	94.12
506.423	83.12
506.64	77.12
506.856	85.12
507.073	79.12
507.289	107.12
507.506	100.12
507.722	107.12
507.939	114.12
508.155	94.12
508.372	92.12
508.588	94.12
508.805	92.12
509.021	103.12
509.238	88.12
509.454	99.12
509.67	98.12
509.887	114.12
510.103	123.12
510.319	243.12
510.536	866.12
510.752	2800.12
510.968	794.12
511.184	167.12
511.401	111.12
511.617	101.12
511.833	89.12
512.049	84.12
512.265	89.12
512.481	84.12
512.698	77.12
512.914	86.12
513.13	81.12
513.346	90.12
513.562	102.12
513.778	101.12
513.994	86.12
514.21	96.12
514.426	107.12
514.642	126.12
514.858	117.12
515.074	161.12
515.29	496.12
515.506	1741.12
515.721	631.12
515.937	154.12
516.153	106.12
516.369	88.12
516.585	87.12
516.801	73.12
517.016	83.12
