Data from Circ_2018_H10_HRD10591_00010.txt Node
Date: Wed Jan 03 09:56:04 EST 2024
User: Yrep
Spectrometer: HR+D1059
Trigger mode: 1
Integration Time (sec): 1.000000E-1
Scans to average: 1
Electric dark correction enabled: true
Nonlinearity correction enabled: false
Boxcar width: 0
XAxis mode: Wavelengths
Number of Pixels in Spectrum: 2048
>>>>>Begin Spectral Data<<<<<
223.165	-14.94
223.4	-14.94
223.635	-14.94
223.869	-25.94
224.104	-16.94
224.338	-20.94
224.573	-5.94
224.808	-22.94
225.042	-4.94
225.277	-6.94
225.511	-10.94
225.746	12.06
225.98	3.06
226.215	17.06
226.449	9.06
226.683	26.06
226.918	23.06
227.152	40.06
227.387	39.06
227.621	46.06
227.856	52.06
228.09	39.06
228.324	38.06
228.559	54.06
228.793	58.06
229.027	56.06
229.262	66.06
229.496	75.06
229.73	98.06
229.964	76.06
230.199	73.06
230.433	77.06
230.667	81.06
230.901	79.06
231.136	80.06
231.37	80.06
231.604	73.06
231.838	84.06
232.072	77.06
232.306	63.06
232.541	80.06
232.775	93.06
233.009	83.06
233.243	69.06
233.477	83.06
233.711	68.06
233.945	88.06
234.179	76.06
234.413	84.06
234.647	85.06
234.881	60.06
235.115	81.06
235.349	81.06
235.583	72.06
235.817	72.06
236.051	85.06
236.285	84.06
236.519	68.06
236.753	78.06
236.987	85.06
237.221	81.06
237.455	90.06
237.689	71.06
237.922	78.06
238.156	82.06
238.39	74.06
238.624	77.06
238.858	77.06
239.091	74.06
239.325	75.06
239.559	83.06
239.793	87.06
240.027	79.06
240.26	91.06
240.494	73.06
240.728	74.06
240.961	75.06
241.195	78.06
241.429	55.06
241.662	65.06
241.896	87.06
242.13	82.06
242.363	76.06
242.597	79.06
242.83	63.06
243.064	66.06
243.298	79.06
243.531	78.06
243.765	85.06
243.998	78.06
244.232	76.06
244.465	94.06
244.699	76.06
244.932	79.06
245.166	91.06
245.399	80.06
245.633	75.06
245.866	74.06
246.099	91.06
246.333	81.06
246.566	80.06
246.8	88.06
247.033	72.06
247.266	88.06
247.5	83.06
247.733	93.06
247.966	73.06
248.2	73.06
248.433	81.06
248.666	90.06
248.899	70.06
249.133	76.06
249.366	86.06
249.599	97.06
249.832	96.06
250.066	83.06
250.299	85.06
250.532	87.06
250.765	72.06
250.998	85.06
251.231	81.06
251.465	80.06
251.698	72.06
251.931	91.06
252.164	88.06
252.397	85.06
252.63	81.06
252.863	76.06
253.096	89.06
253.329	72.06
253.562	79.06
253.795	97.06
254.028	85.06
254.261	90.06
254.494	77.06
254.727	68.06
254.96	87.06
255.193	68.06
255.426	79.06
255.659	84.06
255.892	94.06
256.124	84.06
256.357	83.06
256.59	81.06
256.823	77.06
257.056	83.06
257.289	85.06
257.521	83.06
257.754	74.06
257.987	73.06
258.22	79.06
258.452	72.06
258.685	88.06
258.918	75.06
259.151	95.06
259.383	85.06
259.616	79.06
259.849	94.06
260.081	91.06
260.314	85.06
260.547	73.06
260.779	63.06
261.012	91.06
261.244	95.06
261.477	77.06
261.71	96.06
261.942	127.06
262.175	123.06
262.407	93.06
262.64	96.06
262.872	83.06
263.105	85.06
263.337	88.06
263.57	79.06
263.802	85.06
264.035	86.06
264.267	89.06
264.499	85.06
264.732	83.06
264.964	93.06
265.197	87.06
265.429	88.06
265.661	84.06
265.894	88.06
266.126	78.06
266.358	80.06
266.591	83.06
266.823	86.06
267.055	79.06
267.287	76.06
267.52	84.06
267.752	95.06
267.984	90.06
268.216	97.06
268.448	89.06
268.681	74.06
268.913	101.06
269.145	73.06
269.377	82.06
269.609	85.06
269.841	94.06
270.073	92.06
270.306	97.06
270.538	82.06
270.77	73.06
271.002	89.06
271.234	90.06
271.466	95.06
271.698	91.06
271.93	93.06
272.162	91.06
272.394	77.06
272.626	82.06
272.858	87.06
273.09	85.06
273.322	83.06
273.553	69.06
273.785	74.06
274.017	90.06
274.249	91.06
274.481	92.06
274.713	96.06
274.945	83.06
275.176	81.06
275.408	81.06
275.64	94.06
275.872	81.06
276.104	88.06
276.335	92.06
276.567	103.06
276.799	127.06
277.031	90.06
277.262	87.06
277.494	92.06
277.726	86.06
277.957	80.06
278.189	77.06
278.421	81.06
278.652	87.06
278.884	98.06
279.115	92.06
279.347	76.06
279.579	92.06
279.81	86.06
280.042	101.06
280.273	95.06
280.505	91.06
280.736	74.06
280.968	86.06
281.199	80.06
281.431	73.06
281.662	82.06
281.894	83.06
282.125	106.06
282.356	118.06
282.588	148.06
282.819	113.06
283.051	108.06
283.282	87.06
283.513	82.06
283.745	86.06
283.976	76.06
284.207	94.06
284.439	96.06
284.67	99.06
284.901	75.06
285.132	82.06
285.364	87.06
285.595	91.06
285.826	74.06
286.057	90.06
286.288	89.06
286.52	91.06
286.751	85.06
286.982	84.06
287.213	88.06
287.444	78.06
287.675	96.06
287.906	106.06
288.138	98.06
288.369	92.06
288.6	93.06
288.831	109.06
289.062	86.06
289.293	94.06
289.524	80.06
289.755	92.06
289.986	93.06
290.217	88.06
290.448	90.06
290.679	87.06
290.91	84.06
291.141	84.06
291.371	94.06
291.602	92.06
291.833	94.06
292.064	95.06
292.295	77.06
292.526	98.06
292.757	89.06
292.987	95.06
293.218	101.06
293.449	84.06
293.68	81.06
293.91	86.06
294.141	81.06
294.372	77.06
294.603	83.06
294.833	86.06
295.064	93.06
295.295	85.06
295.525	73.06
295.756	104.06
295.987	118.06
296.217	138.06
296.448	138.06
296.679	88.06
296.909	89.06
297.14	99.06
297.37	92.06
297.601	96.06
297.831	91.06
298.062	78.06
298.292	80.06
298.523	85.06
298.753	79.06
298.984	81.06
299.214	90.06
299.445	108.06
299.675	85.06
299.905	80.06
300.136	103.06
300.366	92.06
300.597	80.06
300.827	91.06
301.057	107.06
301.288	107.06
301.518	90.06
301.748	93.06
301.979	89.06
302.209	101.06
302.439	93.06
302.669	78.06
302.9	101.06
303.13	90.06
303.36	97.06
303.59	101.06
303.82	112.06
304.051	81.06
304.281	77.06
304.511	91.06
304.741	82.06
304.971	90.06
305.201	78.06
305.431	86.06
305.661	84.06
305.891	92.06
306.121	93.06
306.352	87.06
306.582	117.06
306.812	90.06
307.042	79.06
307.272	95.06
307.502	95.06
307.731	101.06
307.961	77.06
308.191	92.06
308.421	86.06
308.651	97.06
308.881	113.06
309.111	94.06
309.341	105.06
309.571	107.06
309.8	87.06
310.03	101.06
310.26	87.06
310.49	83.06
310.72	93.06
310.949	106.06
311.179	89.06
311.409	98.06
311.639	96.06
311.868	93.06
312.098	98.06
312.328	104.06
312.557	98.06
312.787	110.06
313.017	111.06
313.246	93.06
313.476	97.06
313.706	97.06
313.935	88.06
314.165	99.06
314.394	111.06
314.624	95.06
314.853	108.06
315.083	100.06
315.312	99.06
315.542	98.06
315.771	84.06
316.001	92.06
316.23	76.06
316.46	109.06
316.689	87.06
316.919	82.06
317.148	104.06
317.377	91.06
317.607	87.06
317.836	100.06
318.065	95.06
318.295	82.06
318.524	90.06
318.753	101.06
318.983	88.06
319.212	104.06
319.441	116.06
319.67	101.06
319.9	86.06
320.129	81.06
320.358	97.06
320.587	87.06
320.816	100.06
321.046	100.06
321.275	113.06
321.504	95.06
321.733	95.06
321.962	87.06
322.191	106.06
322.42	93.06
322.649	114.06
322.878	112.06
323.108	121.06
323.337	119.06
323.566	139.06
323.795	159.06
324.024	243.06
324.253	421.06
324.482	902.06
324.71	1822.06
324.939	2367.06
325.168	883.06
325.397	263.06
325.626	159.06
325.855	144.06
326.084	121.06
326.313	135.06
326.542	169.06
326.77	250.06
326.999	477.06
327.228	974.06
327.457	1731.06
327.686	1407.06
327.914	383.06
328.143	210.06
328.372	166.06
328.6	129.06
328.829	111.06
329.058	141.06
329.287	138.06
329.515	114.06
329.744	109.06
329.972	109.06
330.201	116.06
330.43	132.06
330.658	131.06
330.887	148.06
331.115	142.06
331.344	104.06
331.572	106.06
331.801	108.06
332.03	121.06
332.258	103.06
332.486	102.06
332.715	86.06
332.943	89.06
333.172	101.06
333.4	113.06
333.629	111.06
333.857	111.06
334.085	113.06
334.314	108.06
334.542	129.06
334.771	115.06
334.999	112.06
335.227	86.06
335.455	100.06
335.684	89.06
335.912	89.06
336.14	107.06
336.369	93.06
336.597	95.06
336.825	100.06
337.053	94.06
337.281	85.06
337.51	98.06
337.738	91.06
337.966	84.06
338.194	90.06
338.422	112.06
338.65	90.06
338.878	91.06
339.106	93.06
339.334	98.06
339.562	86.06
339.79	78.06
340.018	83.06
340.246	86.06
340.474	84.06
340.702	100.06
340.93	97.06
341.158	106.06
341.386	90.06
341.614	99.06
341.842	93.06
342.07	84.06
342.298	83.06
342.526	87.06
342.754	93.06
342.981	95.06
343.209	79.06
343.437	103.06
343.665	88.06
343.893	88.06
344.12	97.06
344.348	83.06
344.576	88.06
344.804	102.06
345.031	102.06
345.259	93.06
345.487	91.06
345.714	96.06
345.942	96.06
346.17	88.06
346.397	97.06
346.625	106.06
346.853	102.06
347.08	77.06
347.308	98.06
347.535	103.06
347.763	105.06
347.99	92.06
348.218	95.06
348.445	108.06
348.673	102.06
348.9	104.06
349.128	93.06
349.355	89.06
349.583	75.06
349.81	83.06
350.037	88.06
350.265	93.06
350.492	90.06
350.72	91.06
350.947	93.06
351.174	109.06
351.402	105.06
351.629	111.06
351.856	108.06
352.083	113.06
352.311	104.06
352.538	107.06
352.765	116.06
352.992	113.06
353.22	106.06
353.447	105.06
353.674	87.06
353.901	87.06
354.128	94.06
354.355	88.06
354.583	107.06
354.81	95.06
355.037	113.06
355.264	82.06
355.491	94.06
355.718	89.06
355.945	87.06
356.172	105.06
356.399	112.06
356.626	102.06
356.853	91.06
357.08	68.06
357.307	81.06
357.534	90.06
357.761	96.06
357.988	100.06
358.215	106.06
358.441	94.06
358.668	100.06
358.895	93.06
359.122	92.06
359.349	93.06
359.576	102.06
359.802	106.06
360.029	111.06
360.256	115.06
360.483	100.06
360.709	93.06
360.936	82.06
361.163	81.06
361.39	92.06
361.616	108.06
361.843	96.06
362.07	116.06
362.296	108.06
362.523	82.06
362.749	90.06
362.976	91.06
363.203	88.06
363.429	95.06
363.656	83.06
363.882	89.06
364.109	97.06
364.335	95.06
364.562	96.06
364.788	77.06
365.015	101.06
365.241	99.06
365.468	104.06
365.694	104.06
365.92	102.06
366.147	91.06
366.373	92.06
366.599	78.06
366.826	90.06
367.052	86.06
367.278	87.06
367.505	87.06
367.731	87.06
367.957	103.06
368.184	90.06
368.41	118.06
368.636	114.06
368.862	127.06
369.089	125.06
369.315	90.06
369.541	89.06
369.767	91.06
369.993	81.06
370.219	94.06
370.445	83.06
370.672	88.06
370.898	82.06
371.124	78.06
371.35	88.06
371.576	89.06
371.802	94.06
372.028	80.06
372.254	87.06
372.48	86.06
372.706	81.06
372.932	86.06
373.158	83.06
373.384	87.06
373.61	87.06
373.835	83.06
374.061	104.06
374.287	100.06
374.513	96.06
374.739	82.06
374.965	97.06
375.191	97.06
375.416	91.06
375.642	108.06
375.868	95.06
376.094	96.06
376.319	82.06
376.545	85.06
376.771	81.06
376.997	95.06
377.222	96.06
377.448	92.06
377.674	91.06
377.899	94.06
378.125	87.06
378.35	91.06
378.576	97.06
378.802	84.06
379.027	105.06
379.253	89.06
379.478	89.06
379.704	96.06
379.929	102.06
380.155	89.06
380.38	99.06
380.606	81.06
380.831	95.06
381.057	109.06
381.282	88.06
381.507	90.06
381.733	106.06
381.958	94.06
382.184	83.06
382.409	93.06
382.634	112.06
382.86	111.06
383.085	98.06
383.31	106.06
383.535	101.06
383.761	105.06
383.986	114.06
384.211	103.06
384.436	104.06
384.662	99.06
384.887	109.06
385.112	121.06
385.337	116.06
385.562	108.06
385.787	115.06
386.013	118.06
386.238	123.06
386.463	114.06
386.688	117.06
386.913	93.06
387.138	107.06
387.363	99.06
387.588	96.06
387.813	113.06
388.038	115.06
388.263	107.06
388.488	119.06
388.713	97.06
388.938	92.06
389.163	90.06
389.387	101.06
389.612	92.06
389.837	88.06
390.062	90.06
390.287	92.06
390.512	92.06
390.736	87.06
390.961	81.06
391.186	100.06
391.411	92.06
391.636	89.06
391.86	84.06
392.085	84.06
392.31	100.06
392.534	94.06
392.759	99.06
392.984	108.06
393.208	131.06
393.433	172.06
393.658	139.06
393.882	79.06
394.107	88.06
394.331	92.06
394.556	80.06
394.78	90.06
395.005	84.06
395.229	82.06
395.454	95.06
395.678	88.06
395.903	83.06
396.127	79.06
396.352	89.06
396.576	100.06
396.801	130.06
397.025	121.06
397.249	83.06
397.474	95.06
397.698	89.06
397.922	89.06
398.147	90.06
398.371	75.06
398.595	72.06
398.82	77.06
399.044	100.06
399.268	79.06
399.492	76.06
399.717	89.06
399.941	84.06
400.165	95.06
400.389	102.06
400.613	89.06
400.837	96.06
401.062	93.06
401.286	95.06
401.51	93.06
401.734	94.06
401.958	106.06
402.182	144.06
402.406	191.06
402.63	148.06
402.854	95.06
403.078	95.06
403.302	86.06
403.526	86.06
403.75	88.06
403.974	89.06
404.198	84.06
404.422	108.06
404.645	81.06
404.869	102.06
405.093	103.06
405.317	103.06
405.541	103.06
405.765	112.06
405.988	123.06
406.212	215.06
406.436	272.06
406.66	168.06
406.883	105.06
407.107	89.06
407.331	101.06
407.555	91.06
407.778	90.06
408.002	88.06
408.226	82.06
408.449	84.06
408.673	90.06
408.896	96.06
409.12	94.06
409.344	100.06
409.567	101.06
409.791	91.06
410.014	89.06
410.238	85.06
410.461	87.06
410.685	97.06
410.908	97.06
411.132	93.06
411.355	95.06
411.578	92.06
411.802	85.06
412.025	92.06
412.249	84.06
412.472	86.06
412.695	107.06
412.919	90.06
413.142	94.06
413.365	95.06
413.589	91.06
413.812	76.06
414.035	93.06
414.258	87.06
414.482	91.06
414.705	89.06
414.928	87.06
415.151	94.06
415.374	93.06
415.597	82.06
415.821	84.06
416.044	91.06
416.267	85.06
416.49	75.06
416.713	89.06
416.936	91.06
417.159	82.06
417.382	87.06
417.605	91.06
417.828	99.06
418.051	105.06
418.274	78.06
418.497	88.06
418.72	86.06
418.943	89.06
419.166	95.06
419.389	83.06
419.611	96.06
419.834	87.06
420.057	98.06
420.28	93.06
420.503	94.06
420.726	85.06
420.948	80.06
421.171	83.06
421.394	90.06
421.617	84.06
421.839	98.06
422.062	86.06
422.285	89.06
422.507	101.06
422.73	112.06
422.953	92.06
423.175	91.06
423.398	75.06
423.621	85.06
423.843	106.06
424.066	86.06
424.288	97.06
424.511	95.06
424.733	83.06
424.956	96.06
425.178	108.06
425.401	104.06
425.623	86.06
425.846	89.06
426.068	85.06
426.291	80.06
426.513	76.06
426.735	84.06
426.958	89.06
427.18	101.06
427.402	139.06
427.625	204.06
427.847	139.06
428.069	114.06
428.292	93.06
428.514	88.06
428.736	91.06
428.958	101.06
429.181	76.06
429.403	89.06
429.625	81.06
429.847	96.06
430.069	102.06
430.292	83.06
430.514	88.06
430.736	80.06
430.958	71.06
431.18	90.06
431.402	95.06
431.624	69.06
431.846	82.06
432.068	88.06
432.29	86.06
432.512	88.06
432.734	90.06
432.956	80.06
433.178	97.06
433.4	89.06
433.622	96.06
433.844	104.06
434.066	86.06
434.287	85.06
434.509	89.06
434.731	91.06
434.953	89.06
435.175	85.06
435.397	95.06
435.618	76.06
435.84	95.06
436.062	124.06
436.284	129.06
436.505	104.06
436.727	91.06
436.949	101.06
437.17	94.06
437.392	91.06
437.614	90.06
437.835	117.06
438.057	121.06
438.278	105.06
438.5	107.06
438.721	122.06
438.943	117.06
439.165	90.06
439.386	81.06
439.608	91.06
439.829	106.06
440.05	122.06
440.272	140.06
440.493	102.06
440.715	88.06
440.936	101.06
441.158	88.06
441.379	91.06
441.6	101.06
441.822	100.06
442.043	99.06
442.264	97.06
442.486	99.06
442.707	100.06
442.928	117.06
443.149	153.06
443.371	152.06
443.592	115.06
443.813	108.06
444.034	106.06
444.255	100.06
444.476	77.06
444.698	98.06
444.919	97.06
445.14	129.06
445.361	97.06
445.582	114.06
445.803	147.06
446.024	140.06
446.245	139.06
446.466	112.06
446.687	90.06
446.908	89.06
447.129	90.06
447.35	87.06
447.571	92.06
447.792	113.06
448.013	103.06
448.234	111.06
448.455	96.06
448.675	129.06
448.896	117.06
449.117	104.06
449.338	89.06
449.559	130.06
449.779	135.06
450	92.06
450.221	91.06
450.442	93.06
450.662	81.06
450.883	116.06
451.104	130.06
451.324	87.06
451.545	95.06
451.766	82.06
451.986	82.06
452.207	82.06
452.428	92.06
452.648	100.06
452.869	112.06
453.089	109.06
453.31	125.06
453.53	91.06
453.751	88.06
453.971	107.06
454.192	122.06
454.412	90.06
454.633	79.06
454.853	73.06
455.073	87.06
455.294	96.06
455.514	97.06
455.734	86.06
455.955	102.06
456.175	72.06
456.395	92.06
456.616	80.06
456.836	97.06
457.056	103.06
457.276	96.06
457.497	79.06
457.717	86.06
457.937	85.06
458.157	75.06
458.377	100.06
458.598	106.06
458.818	154.06
459.038	190.06
459.258	129.06
459.478	104.06
459.698	82.06
459.918	87.06
460.138	78.06
460.358	81.06
460.578	87.06
460.798	91.06
461.018	90.06
461.238	89.06
461.458	78.06
461.678	78.06
461.898	90.06
462.118	84.06
462.338	96.06
462.558	91.06
462.777	85.06
462.997	77.06
463.217	85.06
463.437	67.06
463.657	93.06
463.876	96.06
464.096	87.06
464.316	90.06
464.536	82.06
464.755	102.06
464.975	117.06
465.195	190.06
465.414	185.06
465.634	97.06
465.854	90.06
466.073	97.06
466.293	90.06
466.512	75.06
466.732	91.06
466.951	78.06
467.171	96.06
467.391	89.06
467.61	115.06
467.829	115.06
468.049	107.06
468.268	85.06
468.488	95.06
468.707	83.06
468.927	89.06
469.146	96.06
469.365	77.06
469.585	85.06
469.804	100.06
470.023	113.06
470.243	97.06
470.462	94.06
470.681	114.06
470.901	95.06
471.12	89.06
471.339	84.06
471.558	76.06
471.777	86.06
471.997	79.06
472.216	108.06
472.435	125.06
472.654	97.06
472.873	97.06
473.092	83.06
473.311	83.06
473.53	75.06
473.749	74.06
473.968	94.06
474.187	116.06
474.406	88.06
474.625	96.06
474.844	91.06
475.063	80.06
475.282	93.06
475.501	83.06
475.72	89.06
475.939	78.06
476.158	70.06
476.377	83.06
476.596	79.06
476.814	102.06
477.033	100.06
477.252	107.06
477.471	90.06
477.69	93.06
477.908	96.06
478.127	87.06
478.346	82.06
478.564	90.06
478.783	91.06
479.002	97.06
479.22	86.06
479.439	99.06
479.658	110.06
479.876	105.06
480.095	90.06
480.313	84.06
480.532	82.06
480.751	90.06
480.969	113.06
481.188	175.06
481.406	151.06
481.624	99.06
481.843	105.06
482.061	90.06
482.28	84.06
482.498	87.06
482.717	88.06
482.935	86.06
483.153	71.06
483.372	84.06
483.59	75.06
483.808	86.06
484.027	89.06
484.245	96.06
484.463	92.06
484.681	88.06
484.9	95.06
485.118	91.06
485.336	103.06
485.554	93.06
485.772	103.06
485.99	98.06
486.209	107.06
486.427	103.06
486.645	102.06
486.863	119.06
487.081	95.06
487.299	90.06
487.517	78.06
487.735	100.06
487.953	105.06
488.171	92.06
488.389	96.06
488.607	93.06
488.825	89.06
489.043	95.06
489.261	103.06
489.479	89.06
489.696	89.06
489.914	83.06
490.132	87.06
490.35	107.06
490.568	82.06
490.786	98.06
491.003	87.06
491.221	97.06
491.439	83.06
491.657	92.06
491.874	94.06
492.092	81.06
492.31	84.06
492.527	63.06
492.745	89.06
492.963	84.06
493.18	88.06
493.398	93.06
493.615	89.06
493.833	93.06
494.05	97.06
494.268	91.06
494.485	93.06
494.703	77.06
494.92	91.06
495.138	83.06
495.355	86.06
495.573	84.06
495.79	102.06
496.008	90.06
496.225	89.06
496.442	76.06
496.66	79.06
496.877	97.06
497.094	82.06
497.312	87.06
497.529	85.06
497.746	83.06
497.963	72.06
498.181	103.06
498.398	89.06
498.615	103.06
498.832	106.06
499.049	98.06
499.267	92.06
499.484	90.06
499.701	92.06
499.918	91.06
500.135	95.06
500.352	91.06
500.569	90.06
500.786	90.06
501.003	92.06
501.22	85.06
501.437	107.06
501.654	98.06
501.871	108.06
502.088	83.06
502.305	89.06
502.522	90.06
502.739	87.06
502.956	96.06
503.172	91.06
503.389	88.06
503.606	118.06
503.823	96.06
504.04	91.06
504.256	92.06
504.473	83.06
504.69	86.06
504.907	94.06
505.123	90.06
505.34	78.06
505.557	90.06
505.773	91.06
505.99	88.06
506.207	91.06
506.423	87.06
506.64	85.06
506.856	99.06
507.073	97.06
507.289	96.06
507.506	104.06
507.722	123.06
507.939	121.06
508.155	91.06
508.372	87.06
508.588	96.06
508.805	107.06
509.021	101.06
509.238	96.06
509.454	99.06
509.67	107.06
509.887	105.06
510.103	135.06
510.319	243.06
510.536	949.06
510.752	3195.06
510.968	888.06
511.184	180.06
511.401	115.06
511.617	92.06
511.833	79.06
512.049	106.06
512.265	96.06
512.481	85.06
512.698	90.06
512.914	99.06
513.13	77.06
513.346	90.06
513.562	96.06
513.778	99.06
513.994	114.06
514.21	113.06
514.426	124.06
514.642	140.06
514.858	133.06
515.074	194.06
