Data from Circ_2018_H10_HRD10591_00093.txt Node
Date: Wed Jan 03 09:56:20 EST 2024
User: Yrep
Spectrometer: HR+D1059
Trigger mode: 1
Integration Time (sec): 1.000000E-1
Scans to average: 1
Electric dark correction enabled: true
Nonlinearity correction enabled: false
Boxcar width: 0
XAxis mode: Wavelengths
Number of Pixels in Spectrum: 2048
>>>>>Begin Spectral Data<<<<<
223.165	-7.25
223.4	-7.25
223.635	-7.25
223.869	-22.25
224.104	-27.25
224.338	-9.25
224.573	-14.25
224.808	-14.25
225.042	-13.25
225.277	-3.25
225.511	-4.25
225.746	-1.25
225.98	17.75
226.215	6.75
226.449	6.75
226.683	9.75
226.918	27.75
227.152	47.75
227.387	26.75
227.621	38.75
227.856	38.75
228.09	38.75
228.324	41.75
228.559	54.75
228.793	53.75
229.027	59.75
229.262	86.75
229.496	84.75
229.73	76.75
229.964	73.75
230.199	66.75
230.433	64.75
230.667	60.75
230.901	72.75
231.136	56.75
231.37	65.75
231.604	65.75
231.838	84.75
232.072	70.75
232.306	68.75
232.541	74.75
232.775	66.75
233.009	78.75
233.243	72.75
233.477	73.75
233.711	84.75
233.945	74.75
234.179	90.75
234.413	63.75
234.647	70.75
234.881	72.75
235.115	70.75
235.349	75.75
235.583	71.75
235.817	77.75
236.051	78.75
236.285	65.75
236.519	65.75
236.753	63.75
236.987	71.75
237.221	65.75
237.455	73.75
237.689	73.75
237.922	65.75
238.156	59.75
238.39	74.75
238.624	70.75
238.858	78.75
239.091	61.75
239.325	66.75
239.559	78.75
239.793	72.75
240.027	83.75
240.26	64.75
240.494	82.75
240.728	61.75
240.961	57.75
241.195	78.75
241.429	81.75
241.662	63.75
241.896	83.75
242.13	88.75
242.363	78.75
242.597	77.75
242.83	78.75
243.064	68.75
243.298	75.75
243.531	73.75
243.765	63.75
243.998	79.75
244.232	86.75
244.465	77.75
244.699	87.75
244.932	70.75
245.166	77.75
245.399	73.75
245.633	83.75
245.866	79.75
246.099	79.75
246.333	89.75
246.566	79.75
246.8	76.75
247.033	75.75
247.266	68.75
247.5	85.75
247.733	70.75
247.966	82.75
248.2	53.75
248.433	58.75
248.666	73.75
248.899	81.75
249.133	94.75
249.366	103.75
249.599	111.75
249.832	82.75
250.066	80.75
250.299	85.75
250.532	71.75
250.765	81.75
250.998	70.75
251.231	72.75
251.465	80.75
251.698	79.75
251.931	73.75
252.164	82.75
252.397	77.75
252.63	69.75
252.863	84.75
253.096	88.75
253.329	80.75
253.562	69.75
253.795	80.75
254.028	73.75
254.261	78.75
254.494	71.75
254.727	78.75
254.96	87.75
255.193	69.75
255.426	85.75
255.659	85.75
255.892	70.75
256.124	84.75
256.357	83.75
256.59	87.75
256.823	69.75
257.056	74.75
257.289	87.75
257.521	83.75
257.754	82.75
257.987	84.75
258.22	83.75
258.452	78.75
258.685	73.75
258.918	69.75
259.151	73.75
259.383	69.75
259.616	64.75
259.849	76.75
260.081	77.75
260.314	73.75
260.547	78.75
260.779	76.75
261.012	91.75
261.244	77.75
261.477	90.75
261.71	95.75
261.942	117.75
262.175	129.75
262.407	87.75
262.64	87.75
262.872	87.75
263.105	78.75
263.337	84.75
263.57	90.75
263.802	76.75
264.035	65.75
264.267	83.75
264.499	84.75
264.732	77.75
264.964	82.75
265.197	91.75
265.429	80.75
265.661	79.75
265.894	87.75
266.126	81.75
266.358	84.75
266.591	83.75
266.823	74.75
267.055	80.75
267.287	89.75
267.52	82.75
267.752	78.75
267.984	81.75
268.216	86.75
268.448	88.75
268.681	86.75
268.913	94.75
269.145	80.75
269.377	94.75
269.609	83.75
269.841	79.75
270.073	80.75
270.306	69.75
270.538	70.75
270.77	64.75
271.002	70.75
271.234	90.75
271.466	73.75
271.698	77.75
271.93	84.75
272.162	75.75
272.394	82.75
272.626	76.75
272.858	102.75
273.09	80.75
273.322	84.75
273.553	83.75
273.785	73.75
274.017	85.75
274.249	88.75
274.481	82.75
274.713	82.75
274.945	74.75
275.176	84.75
275.408	83.75
275.64	89.75
275.872	89.75
276.104	89.75
276.335	99.75
276.567	89.75
276.799	116.75
277.031	107.75
277.262	97.75
277.494	79.75
277.726	74.75
277.957	92.75
278.189	75.75
278.421	68.75
278.652	73.75
278.884	84.75
279.115	82.75
279.347	82.75
279.579	88.75
279.81	91.75
280.042	83.75
280.273	80.75
280.505	83.75
280.736	83.75
280.968	83.75
281.199	74.75
281.431	89.75
281.662	80.75
281.894	94.75
282.125	104.75
282.356	127.75
282.588	147.75
282.819	133.75
283.051	96.75
283.282	74.75
283.513	82.75
283.745	88.75
283.976	79.75
284.207	79.75
284.439	77.75
284.67	83.75
284.901	91.75
285.132	81.75
285.364	74.75
285.595	78.75
285.826	76.75
286.057	86.75
286.288	78.75
286.52	87.75
286.751	78.75
286.982	88.75
287.213	88.75
287.444	77.75
287.675	84.75
287.906	95.75
288.138	98.75
288.369	94.75
288.6	100.75
288.831	95.75
289.062	87.75
289.293	73.75
289.524	81.75
289.755	97.75
289.986	74.75
290.217	90.75
290.448	81.75
290.679	70.75
290.91	93.75
291.141	91.75
291.371	83.75
291.602	90.75
291.833	87.75
292.064	75.75
292.295	94.75
292.526	80.75
292.757	88.75
292.987	94.75
293.218	95.75
293.449	86.75
293.68	87.75
293.91	81.75
294.141	78.75
294.372	93.75
294.603	89.75
294.833	89.75
295.064	77.75
295.295	87.75
295.525	82.75
295.756	93.75
295.987	117.75
296.217	144.75
296.448	132.75
296.679	100.75
296.909	79.75
297.14	88.75
297.37	86.75
297.601	89.75
297.831	97.75
298.062	83.75
298.292	83.75
298.523	88.75
298.753	84.75
298.984	90.75
299.214	104.75
299.445	95.75
299.675	82.75
299.905	93.75
300.136	82.75
300.366	82.75
300.597	83.75
300.827	91.75
301.057	97.75
301.288	105.75
301.518	91.75
301.748	94.75
301.979	102.75
302.209	85.75
302.439	90.75
302.669	79.75
302.9	90.75
303.13	86.75
303.36	90.75
303.59	99.75
303.82	98.75
304.051	90.75
304.281	87.75
304.511	84.75
304.741	100.75
304.971	88.75
305.201	89.75
305.431	85.75
305.661	93.75
305.891	87.75
306.121	95.75
306.352	106.75
306.582	102.75
306.812	89.75
307.042	82.75
307.272	86.75
307.502	95.75
307.731	102.75
307.961	109.75
308.191	75.75
308.421	88.75
308.651	82.75
308.881	83.75
309.111	85.75
309.341	79.75
309.571	102.75
309.8	92.75
310.03	90.75
310.26	93.75
310.49	100.75
310.72	93.75
310.949	86.75
311.179	101.75
311.409	83.75
311.639	81.75
311.868	78.75
312.098	78.75
312.328	92.75
312.557	101.75
312.787	98.75
313.017	98.75
313.246	86.75
313.476	94.75
313.706	79.75
313.935	87.75
314.165	91.75
314.394	89.75
314.624	98.75
314.853	101.75
315.083	97.75
315.312	87.75
315.542	93.75
315.771	79.75
316.001	98.75
316.23	81.75
316.46	94.75
316.689	102.75
316.919	81.75
317.148	96.75
317.377	104.75
317.607	99.75
317.836	90.75
318.065	75.75
318.295	106.75
318.524	99.75
318.753	89.75
318.983	90.75
319.212	99.75
319.441	105.75
319.67	96.75
319.9	75.75
320.129	102.75
320.358	102.75
320.587	103.75
320.816	99.75
321.046	95.75
321.275	96.75
321.504	101.75
321.733	93.75
321.962	94.75
322.191	85.75
322.42	117.75
322.649	112.75
322.878	126.75
323.108	125.75
323.337	122.75
323.566	131.75
323.795	153.75
324.024	226.75
324.253	421.75
324.482	860.75
324.71	1684.75
324.939	2250.75
325.168	828.75
325.397	245.75
325.626	142.75
325.855	132.75
326.084	124.75
326.313	131.75
326.542	147.75
326.77	230.75
326.999	443.75
327.228	893.75
327.457	1659.75
327.686	1329.75
327.914	379.75
328.143	215.75
328.372	154.75
328.6	137.75
328.829	114.75
329.058	141.75
329.287	131.75
329.515	119.75
329.744	103.75
329.972	130.75
330.201	131.75
330.43	166.75
330.658	157.75
330.887	144.75
331.115	145.75
331.344	112.75
331.572	101.75
331.801	101.75
332.03	93.75
332.258	101.75
332.486	92.75
332.715	89.75
332.943	92.75
333.172	89.75
333.4	108.75
333.629	98.75
333.857	120.75
334.085	133.75
334.314	141.75
334.542	163.75
334.771	184.75
334.999	92.75
335.227	91.75
335.455	101.75
335.684	100.75
335.912	87.75
336.14	101.75
336.369	100.75
336.597	90.75
336.825	114.75
337.053	89.75
337.281	91.75
337.51	94.75
337.738	81.75
337.966	88.75
338.194	84.75
338.422	87.75
338.65	90.75
338.878	82.75
339.106	72.75
339.334	96.75
339.562	105.75
339.79	86.75
340.018	87.75
340.246	86.75
340.474	91.75
340.702	106.75
340.93	81.75
341.158	78.75
341.386	95.75
341.614	89.75
341.842	91.75
342.07	88.75
342.298	99.75
342.526	98.75
342.754	83.75
342.981	85.75
343.209	89.75
343.437	97.75
343.665	89.75
343.893	93.75
344.12	91.75
344.348	77.75
344.576	85.75
344.804	86.75
345.031	77.75
345.259	108.75
345.487	84.75
345.714	95.75
345.942	101.75
346.17	100.75
346.397	95.75
346.625	97.75
346.853	85.75
347.08	95.75
347.308	97.75
347.535	120.75
347.763	93.75
347.99	89.75
348.218	86.75
348.445	115.75
348.673	111.75
348.9	86.75
349.128	81.75
349.355	91.75
349.583	85.75
349.81	98.75
350.037	96.75
350.265	98.75
350.492	83.75
350.72	78.75
350.947	109.75
351.174	119.75
351.402	100.75
351.629	107.75
351.856	97.75
352.083	114.75
352.311	107.75
352.538	110.75
352.765	121.75
352.992	107.75
353.22	106.75
353.447	98.75
353.674	88.75
353.901	97.75
354.128	90.75
354.355	88.75
354.583	85.75
354.81	90.75
355.037	93.75
355.264	89.75
355.491	93.75
355.718	90.75
355.945	101.75
356.172	97.75
356.399	97.75
356.626	104.75
356.853	104.75
357.08	97.75
357.307	86.75
357.534	84.75
357.761	96.75
357.988	89.75
358.215	89.75
358.441	78.75
358.668	82.75
358.895	101.75
359.122	101.75
359.349	78.75
359.576	99.75
359.802	107.75
360.029	118.75
360.256	118.75
360.483	104.75
360.709	94.75
360.936	86.75
361.163	104.75
361.39	88.75
361.616	96.75
361.843	75.75
362.07	91.75
362.296	96.75
362.523	86.75
362.749	96.75
362.976	82.75
363.203	85.75
363.429	99.75
363.656	89.75
363.882	88.75
364.109	82.75
364.335	90.75
364.562	85.75
364.788	89.75
365.015	96.75
365.241	89.75
365.468	106.75
365.694	109.75
365.92	86.75
366.147	82.75
366.373	81.75
366.599	79.75
366.826	81.75
367.052	85.75
367.278	93.75
367.505	96.75
367.731	91.75
367.957	73.75
368.184	95.75
368.41	90.75
368.636	121.75
368.862	121.75
369.089	120.75
369.315	89.75
369.541	87.75
369.767	96.75
369.993	85.75
370.219	85.75
370.445	79.75
370.672	88.75
370.898	86.75
371.124	83.75
371.35	83.75
371.576	97.75
371.802	88.75
372.028	82.75
372.254	89.75
372.48	89.75
372.706	73.75
372.932	82.75
373.158	88.75
373.384	104.75
373.61	94.75
373.835	88.75
374.061	74.75
374.287	85.75
374.513	85.75
374.739	81.75
374.965	85.75
375.191	85.75
375.416	84.75
375.642	100.75
375.868	78.75
376.094	82.75
376.319	90.75
376.545	90.75
376.771	90.75
376.997	95.75
377.222	101.75
377.448	99.75
377.674	92.75
377.899	93.75
378.125	100.75
378.35	81.75
378.576	92.75
378.802	98.75
379.027	94.75
379.253	96.75
379.478	81.75
379.704	79.75
379.929	81.75
380.155	90.75
380.38	80.75
380.606	89.75
380.831	89.75
381.057	96.75
381.282	81.75
381.507	90.75
381.733	84.75
381.958	90.75
382.184	95.75
382.409	92.75
382.634	91.75
382.86	95.75
383.085	95.75
383.31	90.75
383.535	97.75
383.761	96.75
383.986	98.75
384.211	86.75
384.436	98.75
384.662	104.75
384.887	91.75
385.112	95.75
385.337	90.75
385.562	97.75
385.787	104.75
386.013	112.75
386.238	113.75
386.463	109.75
386.688	106.75
386.913	101.75
387.138	104.75
387.363	90.75
387.588	102.75
387.813	95.75
388.038	97.75
388.263	105.75
388.488	109.75
388.713	91.75
388.938	87.75
389.163	98.75
389.387	104.75
389.612	105.75
389.837	96.75
390.062	80.75
390.287	84.75
390.512	92.75
390.736	81.75
390.961	89.75
391.186	90.75
391.411	103.75
391.636	94.75
391.86	85.75
392.085	96.75
392.31	94.75
392.534	88.75
392.759	80.75
392.984	76.75
393.208	87.75
393.433	97.75
393.658	87.75
393.882	85.75
394.107	72.75
394.331	89.75
394.556	79.75
394.78	94.75
395.005	61.75
395.229	84.75
395.454	88.75
395.678	88.75
395.903	95.75
396.127	91.75
396.352	76.75
396.576	88.75
396.801	84.75
397.025	76.75
397.249	84.75
397.474	86.75
397.698	71.75
397.922	87.75
398.147	85.75
398.371	90.75
398.595	82.75
398.82	88.75
399.044	82.75
399.268	90.75
399.492	78.75
399.717	76.75
399.941	82.75
400.165	92.75
400.389	90.75
400.613	82.75
400.837	88.75
401.062	84.75
401.286	84.75
401.51	80.75
401.734	97.75
401.958	95.75
402.182	119.75
402.406	170.75
402.63	114.75
402.854	87.75
403.078	84.75
403.302	90.75
403.526	89.75
403.75	89.75
403.974	85.75
404.198	91.75
404.422	84.75
404.645	70.75
404.869	82.75
405.093	85.75
405.317	89.75
405.541	105.75
405.765	97.75
405.988	132.75
406.212	183.75
406.436	257.75
406.66	143.75
406.883	98.75
407.107	93.75
407.331	106.75
407.555	105.75
407.778	98.75
408.002	100.75
408.226	98.75
408.449	93.75
408.673	78.75
408.896	89.75
409.12	81.75
409.344	85.75
409.567	97.75
409.791	95.75
410.014	103.75
410.238	92.75
410.461	88.75
410.685	99.75
410.908	105.75
411.132	98.75
411.355	89.75
411.578	64.75
411.802	74.75
412.025	92.75
412.249	89.75
412.472	83.75
412.695	101.75
412.919	77.75
413.142	76.75
413.365	91.75
413.589	88.75
413.812	82.75
414.035	97.75
414.258	86.75
414.482	76.75
414.705	100.75
414.928	95.75
415.151	90.75
415.374	104.75
415.597	82.75
415.821	87.75
416.044	85.75
416.267	81.75
416.49	100.75
416.713	86.75
416.936	83.75
417.159	84.75
417.382	89.75
417.605	71.75
417.828	93.75
418.051	90.75
418.274	87.75
418.497	87.75
418.72	82.75
418.943	93.75
419.166	82.75
419.389	103.75
419.611	94.75
419.834	77.75
420.057	93.75
420.28	94.75
420.503	90.75
420.726	87.75
420.948	81.75
421.171	87.75
421.394	99.75
421.617	91.75
421.839	92.75
422.062	94.75
422.285	80.75
422.507	91.75
422.73	90.75
422.953	97.75
423.175	86.75
423.398	97.75
423.621	99.75
423.843	77.75
424.066	87.75
424.288	78.75
424.511	91.75
424.733	89.75
424.956	107.75
425.178	102.75
425.401	88.75
425.623	96.75
425.846	97.75
426.068	92.75
426.291	96.75
426.513	86.75
426.735	82.75
426.958	85.75
427.18	109.75
427.402	133.75
427.625	192.75
427.847	138.75
428.069	109.75
428.292	104.75
428.514	93.75
428.736	88.75
428.958	81.75
429.181	82.75
429.403	75.75
429.625	86.75
429.847	78.75
430.069	108.75
430.292	93.75
430.514	80.75
430.736	84.75
430.958	88.75
431.18	90.75
431.402	74.75
431.624	70.75
431.846	80.75
432.068	92.75
432.29	90.75
432.512	85.75
432.734	80.75
432.956	98.75
433.178	85.75
433.4	96.75
433.622	72.75
433.844	98.75
434.066	96.75
434.287	90.75
434.509	97.75
434.731	74.75
434.953	95.75
435.175	79.75
435.397	90.75
435.618	88.75
435.84	91.75
436.062	113.75
436.284	110.75
436.505	100.75
436.727	98.75
436.949	89.75
437.17	69.75
437.392	81.75
437.614	94.75
437.835	110.75
438.057	130.75
438.278	105.75
438.5	100.75
438.721	112.75
438.943	101.75
439.165	92.75
439.386	90.75
439.608	95.75
439.829	93.75
440.05	113.75
440.272	138.75
440.493	104.75
440.715	90.75
440.936	79.75
441.158	82.75
441.379	92.75
441.6	79.75
441.822	98.75
442.043	95.75
442.264	97.75
442.486	110.75
442.707	101.75
442.928	98.75
443.149	145.75
443.371	102.75
443.592	129.75
443.813	102.75
444.034	118.75
444.255	107.75
444.476	81.75
444.698	94.75
444.919	72.75
445.14	127.75
445.361	113.75
445.582	106.75
445.803	134.75
446.024	137.75
446.245	119.75
446.466	120.75
446.687	93.75
446.908	80.75
447.129	93.75
447.35	86.75
447.571	100.75
447.792	86.75
448.013	109.75
448.234	112.75
448.455	95.75
448.675	113.75
448.896	119.75
449.117	110.75
449.338	102.75
449.559	129.75
449.779	125.75
450	88.75
450.221	90.75
450.442	74.75
450.662	96.75
450.883	99.75
451.104	99.75
451.324	105.75
451.545	89.75
451.766	80.75
451.986	84.75
452.207	88.75
452.428	96.75
452.648	91.75
452.869	104.75
453.089	129.75
453.31	110.75
453.53	101.75
453.751	91.75
453.971	100.75
454.192	115.75
454.412	85.75
454.633	84.75
454.853	89.75
455.073	84.75
455.294	93.75
455.514	100.75
455.734	93.75
455.955	78.75
456.175	82.75
456.395	89.75
456.616	93.75
456.836	75.75
457.056	85.75
457.276	69.75
457.497	71.75
457.717	97.75
457.937	84.75
458.157	81.75
458.377	90.75
458.598	112.75
458.818	141.75
459.038	157.75
459.258	114.75
459.478	85.75
459.698	85.75
459.918	85.75
460.138	83.75
460.358	86.75
460.578	73.75
460.798	86.75
461.018	95.75
461.238	85.75
461.458	81.75
461.678	81.75
461.898	87.75
462.118	88.75
462.338	84.75
462.558	82.75
462.777	101.75
462.997	89.75
463.217	94.75
463.437	86.75
463.657	93.75
463.876	72.75
464.096	69.75
464.316	106.75
464.536	86.75
464.755	80.75
464.975	109.75
465.195	183.75
465.414	175.75
465.634	84.75
465.854	98.75
466.073	85.75
466.293	90.75
466.512	88.75
466.732	84.75
466.951	87.75
467.171	87.75
467.391	84.75
467.61	91.75
467.829	98.75
468.049	108.75
468.268	106.75
468.488	102.75
468.707	75.75
468.927	80.75
469.146	85.75
469.365	81.75
469.585	83.75
469.804	89.75
470.023	102.75
470.243	82.75
470.462	93.75
470.681	120.75
470.901	94.75
471.12	83.75
471.339	99.75
471.558	101.75
471.777	94.75
471.997	96.75
472.216	140.75
472.435	202.75
472.654	129.75
472.873	71.75
473.092	94.75
473.311	78.75
473.53	101.75
473.749	84.75
473.968	83.75
474.187	107.75
474.406	84.75
474.625	90.75
474.844	90.75
475.063	93.75
475.282	87.75
475.501	86.75
475.72	73.75
475.939	86.75
476.158	88.75
476.377	96.75
476.596	72.75
476.814	94.75
477.033	82.75
477.252	78.75
477.471	72.75
477.69	96.75
477.908	113.75
478.127	103.75
478.346	75.75
478.564	84.75
478.783	93.75
479.002	93.75
479.22	79.75
479.439	108.75
479.658	84.75
479.876	90.75
480.095	106.75
480.313	103.75
480.532	90.75
480.751	97.75
480.969	144.75
481.188	318.75
481.406	237.75
481.624	106.75
481.843	88.75
482.061	97.75
482.28	97.75
482.498	76.75
482.717	83.75
482.935	102.75
483.153	79.75
483.372	87.75
483.59	78.75
483.808	89.75
484.027	91.75
484.245	82.75
484.463	85.75
484.681	103.75
484.9	90.75
485.118	81.75
485.336	82.75
485.554	93.75
485.772	104.75
485.99	96.75
486.209	95.75
486.427	97.75
486.645	94.75
486.863	107.75
487.081	90.75
487.299	104.75
487.517	95.75
487.735	102.75
487.953	89.75
488.171	93.75
488.389	89.75
488.607	94.75
488.825	93.75
489.043	70.75
489.261	82.75
489.479	89.75
489.696	74.75
489.914	90.75
490.132	105.75
490.35	101.75
490.568	95.75
490.786	86.75
491.003	83.75
491.221	75.75
491.439	87.75
491.657	77.75
491.874	95.75
492.092	93.75
492.31	88.75
492.527	93.75
492.745	91.75
492.963	83.75
493.18	82.75
493.398	75.75
493.615	77.75
493.833	94.75
494.05	87.75
494.268	89.75
494.485	83.75
494.703	89.75
494.92	97.75
495.138	83.75
495.355	83.75
495.573	93.75
495.79	88.75
496.008	88.75
496.225	92.75
496.442	90.75
496.66	93.75
496.877	100.75
497.094	86.75
497.312	79.75
497.529	84.75
497.746	89.75
497.963	85.75
498.181	93.75
498.398	85.75
498.615	110.75
498.832	84.75
499.049	78.75
499.267	77.75
499.484	81.75
499.701	79.75
499.918	95.75
500.135	85.75
500.352	83.75
500.569	76.75
500.786	93.75
501.003	83.75
501.22	97.75
501.437	98.75
501.654	96.75
501.871	102.75
502.088	104.75
502.305	74.75
502.522	80.75
502.739	81.75
502.956	80.75
503.172	82.75
503.389	100.75
503.606	113.75
503.823	77.75
504.04	105.75
504.256	93.75
504.473	81.75
504.69	86.75
504.907	89.75
505.123	93.75
505.34	70.75
505.557	92.75
505.773	82.75
505.99	87.75
506.207	97.75
506.423	81.75
506.64	88.75
506.856	88.75
507.073	89.75
507.289	93.75
507.506	91.75
507.722	107.75
507.939	114.75
508.155	89.75
508.372	85.75
508.588	106.75
508.805	97.75
509.021	96.75
509.238	94.75
509.454	84.75
509.67	101.75
509.887	97.75
510.103	120.75
510.319	243.75
510.536	887.75
510.752	2905.75
510.968	813.75
511.184	175.75
511.401	114.75
511.617	101.75
511.833	93.75
512.049	96.75
512.265	98.75
512.481	84.75
512.698	97.75
512.914	79.75
513.13	74.75
513.346	83.75
513.562	95.75
513.778	96.75
513.994	90.75
514.21	90.75
514.426	130.75
514.642	155.75
514.858	130.75
515.074	200.75
515.29	531.75
515.506	1865.75
515.721	687.75
515.937	177.75
516.153	109.75
