Data from Circ_2018_H10_HRD10591_00008.txt Node
Date: Wed Jan 03 09:56:03 EST 2024
User: Yrep
Spectrometer: HR+D1059
Trigger mode: 1
Integration Time (sec): 1.000000E-1
Scans to average: 1
Electric dark correction enabled: true
Nonlinearity correction enabled: false
Boxcar width: 0
XAxis mode: Wavelengths
Number of Pixels in Spectrum: 2048
>>>>>Begin Spectral Data<<<<<
223.165	-19.44
223.4	-19.44
223.635	-19.44
223.869	-23.44
224.104	-9.44
224.338	-22.44
224.573	-23.44
224.808	-12.44
225.042	-17.44
225.277	-5.44
225.511	-6.44
225.746	9.56
225.98	24.56
226.215	0.56
226.449	19.56
226.683	22.56
226.918	24.56
227.152	38.56
227.387	36.56
227.621	34.56
227.856	32.56
228.09	52.56
228.324	42.56
228.559	49.56
228.793	66.56
229.027	64.56
229.262	71.56
229.496	70.56
229.73	88.56
229.964	90.56
230.199	67.56
230.433	66.56
230.667	72.56
230.901	88.56
231.136	70.56
231.37	74.56
231.604	71.56
231.838	73.56
232.072	70.56
232.306	79.56
232.541	78.56
232.775	72.56
233.009	77.56
233.243	88.56
233.477	85.56
233.711	93.56
233.945	88.56
234.179	84.56
234.413	82.56
234.647	86.56
234.881	77.56
235.115	86.56
235.349	80.56
235.583	74.56
235.817	73.56
236.051	78.56
236.285	78.56
236.519	84.56
236.753	82.56
236.987	84.56
237.221	91.56
237.455	87.56
237.689	86.56
237.922	78.56
238.156	75.56
238.39	82.56
238.624	72.56
238.858	90.56
239.091	66.56
239.325	75.56
239.559	77.56
239.793	76.56
240.027	80.56
240.26	94.56
240.494	80.56
240.728	83.56
240.961	93.56
241.195	85.56
241.429	81.56
241.662	78.56
241.896	71.56
242.13	83.56
242.363	76.56
242.597	84.56
242.83	70.56
243.064	87.56
243.298	68.56
243.531	84.56
243.765	90.56
243.998	74.56
244.232	63.56
244.465	82.56
244.699	81.56
244.932	73.56
245.166	92.56
245.399	66.56
245.633	70.56
245.866	65.56
246.099	88.56
246.333	67.56
246.566	60.56
246.8	78.56
247.033	76.56
247.266	75.56
247.5	66.56
247.733	81.56
247.966	70.56
248.2	86.56
248.433	75.56
248.666	75.56
248.899	78.56
249.133	89.56
249.366	90.56
249.599	97.56
249.832	79.56
250.066	79.56
250.299	75.56
250.532	72.56
250.765	78.56
250.998	72.56
251.231	70.56
251.465	80.56
251.698	65.56
251.931	73.56
252.164	84.56
252.397	72.56
252.63	81.56
252.863	94.56
253.096	91.56
253.329	80.56
253.562	72.56
253.795	67.56
254.028	85.56
254.261	77.56
254.494	78.56
254.727	82.56
254.96	89.56
255.193	90.56
255.426	91.56
255.659	72.56
255.892	87.56
256.124	82.56
256.357	77.56
256.59	88.56
256.823	83.56
257.056	74.56
257.289	88.56
257.521	77.56
257.754	84.56
257.987	88.56
258.22	85.56
258.452	73.56
258.685	88.56
258.918	89.56
259.151	75.56
259.383	86.56
259.616	90.56
259.849	90.56
260.081	69.56
260.314	86.56
260.547	65.56
260.779	96.56
261.012	81.56
261.244	101.56
261.477	105.56
261.71	98.56
261.942	124.56
262.175	131.56
262.407	99.56
262.64	94.56
262.872	86.56
263.105	89.56
263.337	83.56
263.57	82.56
263.802	89.56
264.035	84.56
264.267	75.56
264.499	99.56
264.732	87.56
264.964	76.56
265.197	88.56
265.429	77.56
265.661	71.56
265.894	72.56
266.126	82.56
266.358	88.56
266.591	64.56
266.823	81.56
267.055	80.56
267.287	73.56
267.52	81.56
267.752	74.56
267.984	88.56
268.216	77.56
268.448	81.56
268.681	77.56
268.913	80.56
269.145	80.56
269.377	85.56
269.609	75.56
269.841	81.56
270.073	89.56
270.306	76.56
270.538	96.56
270.77	85.56
271.002	74.56
271.234	87.56
271.466	80.56
271.698	92.56
271.93	81.56
272.162	92.56
272.394	90.56
272.626	82.56
272.858	76.56
273.09	83.56
273.322	98.56
273.553	82.56
273.785	92.56
274.017	88.56
274.249	73.56
274.481	81.56
274.713	74.56
274.945	91.56
275.176	91.56
275.408	99.56
275.64	91.56
275.872	72.56
276.104	88.56
276.335	88.56
276.567	105.56
276.799	120.56
277.031	117.56
277.262	100.56
277.494	87.56
277.726	86.56
277.957	81.56
278.189	92.56
278.421	88.56
278.652	97.56
278.884	82.56
279.115	96.56
279.347	74.56
279.579	80.56
279.81	95.56
280.042	81.56
280.273	82.56
280.505	80.56
280.736	84.56
280.968	91.56
281.199	90.56
281.431	72.56
281.662	81.56
281.894	92.56
282.125	110.56
282.356	132.56
282.588	179.56
282.819	123.56
283.051	89.56
283.282	71.56
283.513	95.56
283.745	81.56
283.976	78.56
284.207	83.56
284.439	98.56
284.67	76.56
284.901	86.56
285.132	96.56
285.364	89.56
285.595	91.56
285.826	89.56
286.057	99.56
286.288	89.56
286.52	89.56
286.751	75.56
286.982	81.56
287.213	83.56
287.444	79.56
287.675	94.56
287.906	95.56
288.138	93.56
288.369	96.56
288.6	94.56
288.831	89.56
289.062	88.56
289.293	86.56
289.524	95.56
289.755	91.56
289.986	70.56
290.217	94.56
290.448	62.56
290.679	90.56
290.91	71.56
291.141	92.56
291.371	73.56
291.602	88.56
291.833	87.56
292.064	83.56
292.295	74.56
292.526	92.56
292.757	89.56
292.987	73.56
293.218	91.56
293.449	99.56
293.68	86.56
293.91	82.56
294.141	98.56
294.372	91.56
294.603	84.56
294.833	91.56
295.064	92.56
295.295	89.56
295.525	89.56
295.756	103.56
295.987	133.56
296.217	160.56
296.448	129.56
296.679	98.56
296.909	78.56
297.14	94.56
297.37	101.56
297.601	87.56
297.831	100.56
298.062	86.56
298.292	82.56
298.523	86.56
298.753	87.56
298.984	79.56
299.214	76.56
299.445	85.56
299.675	102.56
299.905	95.56
300.136	94.56
300.366	83.56
300.597	94.56
300.827	106.56
301.057	104.56
301.288	97.56
301.518	117.56
301.748	86.56
301.979	103.56
302.209	91.56
302.439	93.56
302.669	88.56
302.9	89.56
303.13	87.56
303.36	91.56
303.59	105.56
303.82	108.56
304.051	101.56
304.281	84.56
304.511	85.56
304.741	81.56
304.971	90.56
305.201	93.56
305.431	91.56
305.661	83.56
305.891	93.56
306.121	90.56
306.352	112.56
306.582	106.56
306.812	84.56
307.042	93.56
307.272	73.56
307.502	90.56
307.731	82.56
307.961	91.56
308.191	92.56
308.421	85.56
308.651	96.56
308.881	104.56
309.111	90.56
309.341	95.56
309.571	107.56
309.8	106.56
310.03	103.56
310.26	104.56
310.49	94.56
310.72	107.56
310.949	132.56
311.179	100.56
311.409	94.56
311.639	88.56
311.868	98.56
312.098	98.56
312.328	110.56
312.557	116.56
312.787	100.56
313.017	95.56
313.246	97.56
313.476	84.56
313.706	100.56
313.935	105.56
314.165	103.56
314.394	117.56
314.624	89.56
314.853	98.56
315.083	98.56
315.312	98.56
315.542	96.56
315.771	89.56
316.001	103.56
316.23	89.56
316.46	97.56
316.689	104.56
316.919	97.56
317.148	105.56
317.377	102.56
317.607	96.56
317.836	99.56
318.065	99.56
318.295	89.56
318.524	86.56
318.753	85.56
318.983	107.56
319.212	97.56
319.441	124.56
319.67	119.56
319.9	79.56
320.129	94.56
320.358	94.56
320.587	114.56
320.816	120.56
321.046	97.56
321.275	88.56
321.504	94.56
321.733	96.56
321.962	95.56
322.191	95.56
322.42	118.56
322.649	118.56
322.878	133.56
323.108	133.56
323.337	144.56
323.566	149.56
323.795	165.56
324.024	249.56
324.253	517.56
324.482	1073.56
324.71	2144.56
324.939	2792.56
325.168	994.56
325.397	300.56
325.626	157.56
325.855	148.56
326.084	134.56
326.313	162.56
326.542	189.56
326.77	263.56
326.999	546.56
327.228	1123.56
327.457	2036.56
327.686	1598.56
327.914	444.56
328.143	244.56
328.372	181.56
328.6	153.56
328.829	137.56
329.058	151.56
329.287	146.56
329.515	120.56
329.744	102.56
329.972	119.56
330.201	129.56
330.43	159.56
330.658	156.56
330.887	182.56
331.115	146.56
331.344	104.56
331.572	113.56
331.801	104.56
332.03	105.56
332.258	94.56
332.486	99.56
332.715	108.56
332.943	104.56
333.172	86.56
333.4	101.56
333.629	133.56
333.857	128.56
334.085	124.56
334.314	124.56
334.542	157.56
334.771	146.56
334.999	113.56
335.227	82.56
335.455	94.56
335.684	97.56
335.912	103.56
336.14	94.56
336.369	95.56
336.597	106.56
336.825	104.56
337.053	95.56
337.281	110.56
337.51	99.56
337.738	94.56
337.966	93.56
338.194	95.56
338.422	103.56
338.65	95.56
338.878	98.56
339.106	98.56
339.334	98.56
339.562	82.56
339.79	88.56
340.018	85.56
340.246	92.56
340.474	106.56
340.702	98.56
340.93	103.56
341.158	92.56
341.386	96.56
341.614	110.56
341.842	85.56
342.07	96.56
342.298	99.56
342.526	106.56
342.754	91.56
342.981	84.56
343.209	87.56
343.437	100.56
343.665	78.56
343.893	79.56
344.12	86.56
344.348	83.56
344.576	81.56
344.804	89.56
345.031	99.56
345.259	102.56
345.487	102.56
345.714	81.56
345.942	99.56
346.17	95.56
346.397	92.56
346.625	94.56
346.853	95.56
347.08	83.56
347.308	83.56
347.535	95.56
347.763	107.56
347.99	92.56
348.218	111.56
348.445	113.56
348.673	99.56
348.9	91.56
349.128	95.56
349.355	87.56
349.583	103.56
349.81	88.56
350.037	105.56
350.265	98.56
350.492	83.56
350.72	93.56
350.947	109.56
351.174	102.56
351.402	124.56
351.629	87.56
351.856	111.56
352.083	114.56
352.311	127.56
352.538	115.56
352.765	132.56
352.992	106.56
353.22	112.56
353.447	107.56
353.674	100.56
353.901	101.56
354.128	102.56
354.355	96.56
354.583	95.56
354.81	99.56
355.037	91.56
355.264	83.56
355.491	99.56
355.718	108.56
355.945	93.56
356.172	96.56
356.399	89.56
356.626	83.56
356.853	90.56
357.08	88.56
357.307	97.56
357.534	88.56
357.761	106.56
357.988	99.56
358.215	106.56
358.441	75.56
358.668	84.56
358.895	93.56
359.122	97.56
359.349	100.56
359.576	108.56
359.802	117.56
360.029	132.56
360.256	131.56
360.483	125.56
360.709	99.56
360.936	92.56
361.163	100.56
361.39	101.56
361.616	106.56
361.843	97.56
362.07	91.56
362.296	98.56
362.523	101.56
362.749	80.56
362.976	75.56
363.203	99.56
363.429	82.56
363.656	100.56
363.882	77.56
364.109	87.56
364.335	90.56
364.562	96.56
364.788	86.56
365.015	99.56
365.241	99.56
365.468	105.56
365.694	129.56
365.92	97.56
366.147	95.56
366.373	98.56
366.599	97.56
366.826	89.56
367.052	77.56
367.278	81.56
367.505	75.56
367.731	107.56
367.957	99.56
368.184	98.56
368.41	110.56
368.636	123.56
368.862	132.56
369.089	128.56
369.315	107.56
369.541	96.56
369.767	84.56
369.993	90.56
370.219	73.56
370.445	78.56
370.672	74.56
370.898	67.56
371.124	92.56
371.35	91.56
371.576	91.56
371.802	83.56
372.028	93.56
372.254	93.56
372.48	92.56
372.706	86.56
372.932	89.56
373.158	65.56
373.384	97.56
373.61	96.56
373.835	89.56
374.061	92.56
374.287	87.56
374.513	93.56
374.739	94.56
374.965	96.56
375.191	78.56
375.416	95.56
375.642	76.56
375.868	86.56
376.094	85.56
376.319	75.56
376.545	95.56
376.771	95.56
376.997	96.56
377.222	102.56
377.448	93.56
377.674	82.56
377.899	89.56
378.125	91.56
378.35	85.56
378.576	76.56
378.802	93.56
379.027	98.56
379.253	98.56
379.478	95.56
379.704	102.56
379.929	102.56
380.155	97.56
380.38	91.56
380.606	94.56
380.831	105.56
381.057	107.56
381.282	90.56
381.507	89.56
381.733	90.56
381.958	93.56
382.184	87.56
382.409	104.56
382.634	90.56
382.86	107.56
383.085	117.56
383.31	106.56
383.535	103.56
383.761	97.56
383.986	98.56
384.211	90.56
384.436	103.56
384.662	111.56
384.887	100.56
385.112	103.56
385.337	105.56
385.562	111.56
385.787	99.56
386.013	108.56
386.238	131.56
386.463	113.56
386.688	118.56
386.913	104.56
387.138	100.56
387.363	100.56
387.588	97.56
387.813	88.56
388.038	105.56
388.263	111.56
388.488	109.56
388.713	98.56
388.938	85.56
389.163	93.56
389.387	105.56
389.612	100.56
389.837	91.56
390.062	85.56
390.287	92.56
390.512	97.56
390.736	110.56
390.961	91.56
391.186	86.56
391.411	100.56
391.636	94.56
391.86	91.56
392.085	78.56
392.31	84.56
392.534	89.56
392.759	95.56
392.984	96.56
393.208	84.56
393.433	96.56
393.658	96.56
393.882	90.56
394.107	82.56
394.331	84.56
394.556	83.56
394.78	86.56
395.005	84.56
395.229	95.56
395.454	101.56
395.678	91.56
395.903	73.56
396.127	91.56
396.352	87.56
396.576	81.56
396.801	99.56
397.025	84.56
397.249	79.56
397.474	98.56
397.698	95.56
397.922	85.56
398.147	90.56
398.371	72.56
398.595	88.56
398.82	87.56
399.044	89.56
399.268	88.56
399.492	81.56
399.717	93.56
399.941	87.56
400.165	95.56
400.389	82.56
400.613	75.56
400.837	81.56
401.062	90.56
401.286	95.56
401.51	91.56
401.734	90.56
401.958	106.56
402.182	150.56
402.406	209.56
402.63	135.56
402.854	83.56
403.078	91.56
403.302	90.56
403.526	90.56
403.75	88.56
403.974	76.56
404.198	101.56
404.422	92.56
404.645	89.56
404.869	78.56
405.093	96.56
405.317	102.56
405.541	115.56
405.765	109.56
405.988	122.56
406.212	219.56
406.436	324.56
406.66	185.56
406.883	117.56
407.107	103.56
407.331	108.56
407.555	123.56
407.778	112.56
408.002	86.56
408.226	78.56
408.449	91.56
408.673	98.56
408.896	85.56
409.12	88.56
409.344	89.56
409.567	94.56
409.791	81.56
410.014	88.56
410.238	88.56
410.461	85.56
410.685	92.56
410.908	102.56
411.132	108.56
411.355	108.56
411.578	91.56
411.802	86.56
412.025	85.56
412.249	76.56
412.472	95.56
412.695	104.56
412.919	83.56
413.142	78.56
413.365	89.56
413.589	94.56
413.812	68.56
414.035	102.56
414.258	83.56
414.482	96.56
414.705	93.56
414.928	90.56
415.151	79.56
415.374	99.56
415.597	75.56
415.821	98.56
416.044	72.56
416.267	89.56
416.49	86.56
416.713	78.56
416.936	92.56
417.159	97.56
417.382	75.56
417.605	101.56
417.828	93.56
418.051	85.56
418.274	91.56
418.497	92.56
418.72	92.56
418.943	83.56
419.166	86.56
419.389	85.56
419.611	96.56
419.834	84.56
420.057	83.56
420.28	89.56
420.503	83.56
420.726	88.56
420.948	94.56
421.171	96.56
421.394	85.56
421.617	84.56
421.839	98.56
422.062	94.56
422.285	92.56
422.507	94.56
422.73	101.56
422.953	92.56
423.175	94.56
423.398	95.56
423.621	85.56
423.843	97.56
424.066	94.56
424.288	88.56
424.511	91.56
424.733	104.56
424.956	112.56
425.178	99.56
425.401	100.56
425.623	108.56
425.846	85.56
426.068	84.56
426.291	93.56
426.513	94.56
426.735	88.56
426.958	88.56
427.18	110.56
427.402	158.56
427.625	204.56
427.847	161.56
428.069	127.56
428.292	97.56
428.514	86.56
428.736	90.56
428.958	87.56
429.181	85.56
429.403	87.56
429.625	76.56
429.847	94.56
430.069	103.56
430.292	97.56
430.514	98.56
430.736	83.56
430.958	80.56
431.18	90.56
431.402	95.56
431.624	85.56
431.846	98.56
432.068	85.56
432.29	83.56
432.512	85.56
432.734	88.56
432.956	89.56
433.178	102.56
433.4	92.56
433.622	94.56
433.844	97.56
434.066	93.56
434.287	95.56
434.509	89.56
434.731	98.56
434.953	79.56
435.175	92.56
435.397	94.56
435.618	97.56
435.84	113.56
436.062	132.56
436.284	123.56
436.505	105.56
436.727	96.56
436.949	94.56
437.17	91.56
437.392	88.56
437.614	111.56
437.835	129.56
438.057	135.56
438.278	112.56
438.5	125.56
438.721	119.56
438.943	114.56
439.165	81.56
439.386	76.56
439.608	80.56
439.829	104.56
440.05	131.56
440.272	160.56
440.493	96.56
440.715	82.56
440.936	103.56
441.158	98.56
441.379	90.56
441.6	103.56
441.822	93.56
442.043	108.56
442.264	114.56
442.486	99.56
442.707	94.56
442.928	110.56
443.149	153.56
443.371	158.56
443.592	132.56
443.813	103.56
444.034	133.56
444.255	96.56
444.476	84.56
444.698	91.56
444.919	99.56
445.14	149.56
445.361	137.56
445.582	134.56
445.803	160.56
446.024	159.56
446.245	152.56
446.466	103.56
446.687	91.56
446.908	92.56
447.129	83.56
447.35	90.56
447.571	94.56
447.792	99.56
448.013	94.56
448.234	111.56
448.455	103.56
448.675	102.56
448.896	130.56
449.117	99.56
449.338	98.56
449.559	117.56
449.779	130.56
450	103.56
450.221	89.56
450.442	85.56
450.662	110.56
450.883	108.56
451.104	126.56
451.324	95.56
451.545	105.56
451.766	78.56
451.986	73.56
452.207	95.56
452.428	100.56
452.648	89.56
452.869	130.56
453.089	135.56
453.31	139.56
453.53	88.56
453.751	87.56
453.971	98.56
454.192	126.56
454.412	95.56
454.633	73.56
454.853	73.56
455.073	88.56
455.294	105.56
455.514	82.56
455.734	94.56
455.955	75.56
456.175	76.56
456.395	83.56
456.616	93.56
456.836	100.56
457.056	89.56
457.276	74.56
457.497	65.56
457.717	89.56
457.937	86.56
458.157	81.56
458.377	96.56
458.598	138.56
458.818	206.56
459.038	210.56
459.258	134.56
459.478	85.56
459.698	85.56
459.918	79.56
460.138	78.56
460.358	87.56
460.578	97.56
460.798	90.56
461.018	80.56
461.238	87.56
461.458	95.56
461.678	77.56
461.898	82.56
462.118	75.56
462.338	90.56
462.558	80.56
462.777	80.56
462.997	92.56
463.217	79.56
463.437	102.56
463.657	95.56
463.876	95.56
464.096	77.56
464.316	90.56
464.536	110.56
464.755	112.56
464.975	112.56
465.195	212.56
465.414	226.56
465.634	112.56
465.854	83.56
466.073	85.56
466.293	96.56
466.512	91.56
466.732	97.56
466.951	85.56
467.171	82.56
467.391	87.56
467.61	110.56
467.829	107.56
468.049	104.56
468.268	103.56
468.488	84.56
468.707	99.56
468.927	92.56
469.146	71.56
469.365	87.56
469.585	92.56
469.804	104.56
470.023	112.56
470.243	103.56
470.462	100.56
470.681	133.56
470.901	97.56
471.12	84.56
471.339	95.56
471.558	81.56
471.777	81.56
471.997	89.56
472.216	115.56
472.435	154.56
472.654	91.56
472.873	82.56
473.092	83.56
473.311	94.56
473.53	91.56
473.749	82.56
473.968	102.56
474.187	123.56
474.406	97.56
474.625	86.56
474.844	85.56
475.063	69.56
475.282	69.56
475.501	91.56
475.72	86.56
475.939	81.56
476.158	87.56
476.377	81.56
476.596	86.56
476.814	91.56
477.033	88.56
477.252	92.56
477.471	85.56
477.69	103.56
477.908	90.56
478.127	89.56
478.346	97.56
478.564	95.56
478.783	100.56
479.002	101.56
479.22	100.56
479.439	103.56
479.658	100.56
479.876	100.56
480.095	85.56
480.313	93.56
480.532	82.56
480.751	104.56
480.969	110.56
481.188	216.56
481.406	180.56
481.624	95.56
481.843	97.56
482.061	85.56
482.28	86.56
482.498	77.56
482.717	88.56
482.935	89.56
483.153	85.56
483.372	93.56
483.59	101.56
483.808	80.56
484.027	77.56
484.245	82.56
484.463	99.56
484.681	109.56
484.9	99.56
485.118	96.56
485.336	88.56
485.554	104.56
485.772	112.56
485.99	110.56
486.209	103.56
486.427	102.56
486.645	107.56
486.863	119.56
487.081	97.56
487.299	90.56
487.517	107.56
487.735	98.56
487.953	78.56
488.171	86.56
488.389	78.56
488.607	101.56
488.825	83.56
489.043	86.56
489.261	89.56
489.479	82.56
489.696	94.56
489.914	88.56
490.132	76.56
490.35	76.56
490.568	95.56
490.786	97.56
491.003	88.56
491.221	84.56
491.439	86.56
491.657	88.56
491.874	100.56
492.092	96.56
492.31	94.56
492.527	86.56
492.745	85.56
492.963	103.56
493.18	98.56
493.398	90.56
493.615	87.56
493.833	93.56
494.05	93.56
494.268	88.56
494.485	71.56
494.703	88.56
494.92	82.56
495.138	85.56
495.355	90.56
495.573	107.56
495.79	87.56
496.008	93.56
496.225	95.56
496.442	84.56
496.66	85.56
496.877	96.56
497.094	89.56
497.312	91.56
497.529	92.56
497.746	92.56
497.963	92.56
498.181	97.56
498.398	109.56
498.615	97.56
498.832	113.56
499.049	88.56
499.267	90.56
499.484	79.56
499.701	81.56
499.918	81.56
500.135	89.56
500.352	91.56
500.569	88.56
500.786	87.56
501.003	97.56
501.22	97.56
501.437	93.56
501.654	103.56
501.871	122.56
502.088	91.56
502.305	92.56
502.522	85.56
502.739	85.56
502.956	98.56
503.172	107.56
503.389	100.56
503.606	125.56
503.823	103.56
504.04	92.56
504.256	81.56
504.473	81.56
504.69	84.56
504.907	94.56
505.123	94.56
505.34	79.56
505.557	89.56
505.773	87.56
505.99	76.56
506.207	94.56
506.423	92.56
506.64	74.56
506.856	94.56
507.073	92.56
507.289	99.56
507.506	100.56
507.722	127.56
507.939	122.56
508.155	101.56
508.372	96.56
508.588	84.56
508.805	93.56
509.021	107.56
509.238	103.56
509.454	109.56
509.67	107.56
509.887	122.56
510.103	161.56
510.319	252.56
510.536	1047.56
510.752	3506.56
510.968	952.56
511.184	181.56
511.401	122.56
511.617	101.56
511.833	88.56
512.049	84.56
512.265	108.56
512.481	102.56
512.698	98.56
512.914	96.56
513.13	90.56
513.346	89.56
513.562	97.56
513.778	86.56
513.994	80.56
514.21	118.56
514.426	140.56
514.642	160.56
514.858	158.56
515.074	220.56
