Data from Circ_2018_H10_HRD10591_00072.txt Node
Date: Wed Jan 03 09:56:16 EST 2024
User: Yrep
Spectrometer: HR+D1059
Trigger mode: 1
Integration Time (sec): 1.000000E-1
Scans to average: 1
Electric dark correction enabled: true
Nonlinearity correction enabled: false
Boxcar width: 0
XAxis mode: Wavelengths
Number of Pixels in Spectrum: 2048
>>>>>Begin Spectral Data<<<<<
223.165	-20.62
223.4	-20.62
223.635	-20.62
223.869	-20.62
224.104	-15.62
224.338	-13.62
224.573	-15.62
224.808	-12.62
225.042	-7.62
225.277	-12.62
225.511	12.38
225.746	14.38
225.98	-7.62
226.215	12.38
226.449	13.38
226.683	25.38
226.918	16.38
227.152	32.38
227.387	32.38
227.621	40.38
227.856	30.38
228.09	39.38
228.324	41.38
228.559	44.38
228.793	44.38
229.027	69.38
229.262	51.38
229.496	66.38
229.73	78.38
229.964	75.38
230.199	72.38
230.433	62.38
230.667	69.38
230.901	75.38
231.136	61.38
231.37	74.38
231.604	78.38
231.838	64.38
232.072	53.38
232.306	65.38
232.541	65.38
232.775	69.38
233.009	85.38
233.243	75.38
233.477	85.38
233.711	86.38
233.945	71.38
234.179	70.38
234.413	78.38
234.647	59.38
234.881	61.38
235.115	76.38
235.349	64.38
235.583	79.38
235.817	66.38
236.051	73.38
236.285	77.38
236.519	84.38
236.753	74.38
236.987	83.38
237.221	88.38
237.455	80.38
237.689	71.38
237.922	48.38
238.156	70.38
238.39	78.38
238.624	78.38
238.858	85.38
239.091	70.38
239.325	67.38
239.559	87.38
239.793	57.38
240.027	69.38
240.26	70.38
240.494	61.38
240.728	70.38
240.961	88.38
241.195	90.38
241.429	64.38
241.662	74.38
241.896	67.38
242.13	71.38
242.363	82.38
242.597	81.38
242.83	75.38
243.064	69.38
243.298	64.38
243.531	72.38
243.765	62.38
243.998	66.38
244.232	80.38
244.465	83.38
244.699	86.38
244.932	66.38
245.166	63.38
245.399	67.38
245.633	72.38
245.866	75.38
246.099	71.38
246.333	66.38
246.566	72.38
246.8	72.38
247.033	64.38
247.266	76.38
247.5	71.38
247.733	67.38
247.966	66.38
248.2	69.38
248.433	75.38
248.666	76.38
248.899	65.38
249.133	83.38
249.366	90.38
249.599	82.38
249.832	78.38
250.066	65.38
250.299	74.38
250.532	73.38
250.765	83.38
250.998	69.38
251.231	76.38
251.465	69.38
251.698	66.38
251.931	68.38
252.164	71.38
252.397	83.38
252.63	86.38
252.863	80.38
253.096	74.38
253.329	76.38
253.562	66.38
253.795	72.38
254.028	83.38
254.261	65.38
254.494	85.38
254.727	83.38
254.96	76.38
255.193	69.38
255.426	69.38
255.659	80.38
255.892	78.38
256.124	64.38
256.357	73.38
256.59	71.38
256.823	57.38
257.056	52.38
257.289	58.38
257.521	78.38
257.754	70.38
257.987	77.38
258.22	77.38
258.452	79.38
258.685	63.38
258.918	64.38
259.151	70.38
259.383	85.38
259.616	82.38
259.849	80.38
260.081	91.38
260.314	82.38
260.547	66.38
260.779	70.38
261.012	70.38
261.244	68.38
261.477	91.38
261.71	97.38
261.942	104.38
262.175	111.38
262.407	99.38
262.64	81.38
262.872	70.38
263.105	87.38
263.337	89.38
263.57	76.38
263.802	82.38
264.035	79.38
264.267	78.38
264.499	76.38
264.732	75.38
264.964	74.38
265.197	72.38
265.429	70.38
265.661	71.38
265.894	59.38
266.126	75.38
266.358	65.38
266.591	93.38
266.823	84.38
267.055	79.38
267.287	78.38
267.52	82.38
267.752	70.38
267.984	77.38
268.216	70.38
268.448	84.38
268.681	78.38
268.913	86.38
269.145	80.38
269.377	78.38
269.609	83.38
269.841	69.38
270.073	79.38
270.306	64.38
270.538	77.38
270.77	79.38
271.002	79.38
271.234	68.38
271.466	72.38
271.698	77.38
271.93	69.38
272.162	79.38
272.394	86.38
272.626	81.38
272.858	69.38
273.09	76.38
273.322	74.38
273.553	83.38
273.785	50.38
274.017	92.38
274.249	80.38
274.481	80.38
274.713	76.38
274.945	91.38
275.176	88.38
275.408	92.38
275.64	81.38
275.872	77.38
276.104	75.38
276.335	85.38
276.567	107.38
276.799	115.38
277.031	95.38
277.262	86.38
277.494	83.38
277.726	75.38
277.957	75.38
278.189	68.38
278.421	71.38
278.652	75.38
278.884	86.38
279.115	89.38
279.347	92.38
279.579	76.38
279.81	74.38
280.042	80.38
280.273	87.38
280.505	92.38
280.736	76.38
280.968	69.38
281.199	82.38
281.431	83.38
281.662	81.38
281.894	83.38
282.125	100.38
282.356	119.38
282.588	135.38
282.819	113.38
283.051	103.38
283.282	98.38
283.513	72.38
283.745	54.38
283.976	70.38
284.207	72.38
284.439	81.38
284.67	91.38
284.901	78.38
285.132	87.38
285.364	91.38
285.595	80.38
285.826	74.38
286.057	90.38
286.288	75.38
286.52	68.38
286.751	78.38
286.982	80.38
287.213	73.38
287.444	89.38
287.675	93.38
287.906	75.38
288.138	74.38
288.369	85.38
288.6	77.38
288.831	80.38
289.062	81.38
289.293	73.38
289.524	76.38
289.755	87.38
289.986	73.38
290.217	88.38
290.448	81.38
290.679	81.38
290.91	91.38
291.141	80.38
291.371	75.38
291.602	81.38
291.833	81.38
292.064	94.38
292.295	84.38
292.526	93.38
292.757	72.38
292.987	79.38
293.218	100.38
293.449	90.38
293.68	64.38
293.91	77.38
294.141	84.38
294.372	70.38
294.603	88.38
294.833	76.38
295.064	83.38
295.295	81.38
295.525	78.38
295.756	100.38
295.987	101.38
296.217	137.38
296.448	117.38
296.679	89.38
296.909	93.38
297.14	75.38
297.37	72.38
297.601	79.38
297.831	74.38
298.062	90.38
298.292	91.38
298.523	75.38
298.753	80.38
298.984	69.38
299.214	91.38
299.445	83.38
299.675	84.38
299.905	77.38
300.136	97.38
300.366	85.38
300.597	97.38
300.827	75.38
301.057	90.38
301.288	111.38
301.518	69.38
301.748	87.38
301.979	83.38
302.209	84.38
302.439	76.38
302.669	77.38
302.9	85.38
303.13	88.38
303.36	84.38
303.59	92.38
303.82	97.38
304.051	93.38
304.281	93.38
304.511	82.38
304.741	74.38
304.971	84.38
305.201	70.38
305.431	80.38
305.661	90.38
305.891	84.38
306.121	96.38
306.352	87.38
306.582	99.38
306.812	88.38
307.042	91.38
307.272	79.38
307.502	76.38
307.731	78.38
307.961	85.38
308.191	93.38
308.421	97.38
308.651	80.38
308.881	88.38
309.111	87.38
309.341	85.38
309.571	92.38
309.8	83.38
310.03	92.38
310.26	95.38
310.49	85.38
310.72	99.38
310.949	88.38
311.179	83.38
311.409	80.38
311.639	92.38
311.868	102.38
312.098	98.38
312.328	97.38
312.557	100.38
312.787	93.38
313.017	85.38
313.246	88.38
313.476	86.38
313.706	86.38
313.935	90.38
314.165	104.38
314.394	87.38
314.624	90.38
314.853	81.38
315.083	87.38
315.312	99.38
315.542	89.38
315.771	91.38
316.001	86.38
316.23	80.38
316.46	82.38
316.689	90.38
316.919	70.38
317.148	82.38
317.377	89.38
317.607	86.38
317.836	94.38
318.065	89.38
318.295	85.38
318.524	69.38
318.753	69.38
318.983	75.38
319.212	80.38
319.441	91.38
319.67	92.38
319.9	77.38
320.129	81.38
320.358	88.38
320.587	69.38
320.816	90.38
321.046	108.38
321.275	89.38
321.504	84.38
321.733	89.38
321.962	88.38
322.191	81.38
322.42	108.38
322.649	100.38
322.878	109.38
323.108	107.38
323.337	121.38
323.566	132.38
323.795	140.38
324.024	207.38
324.253	411.38
324.482	827.38
324.71	1727.38
324.939	2218.38
325.168	820.38
325.397	251.38
325.626	152.38
325.855	113.38
326.084	130.38
326.313	113.38
326.542	138.38
326.77	212.38
326.999	472.38
327.228	893.38
327.457	1604.38
327.686	1294.38
327.914	369.38
328.143	194.38
328.372	143.38
328.6	146.38
328.829	121.38
329.058	109.38
329.287	131.38
329.515	116.38
329.744	100.38
329.972	116.38
330.201	145.38
330.43	151.38
330.658	141.38
330.887	157.38
331.115	101.38
331.344	116.38
331.572	97.38
331.801	107.38
332.03	89.38
332.258	99.38
332.486	101.38
332.715	80.38
332.943	81.38
333.172	84.38
333.4	99.38
333.629	107.38
333.857	121.38
334.085	116.38
334.314	105.38
334.542	146.38
334.771	153.38
334.999	108.38
335.227	91.38
335.455	85.38
335.684	101.38
335.912	85.38
336.14	90.38
336.369	96.38
336.597	97.38
336.825	93.38
337.053	86.38
337.281	94.38
337.51	83.38
337.738	99.38
337.966	81.38
338.194	89.38
338.422	92.38
338.65	80.38
338.878	84.38
339.106	75.38
339.334	79.38
339.562	70.38
339.79	92.38
340.018	78.38
340.246	98.38
340.474	82.38
340.702	84.38
340.93	90.38
341.158	87.38
341.386	96.38
341.614	90.38
341.842	99.38
342.07	92.38
342.298	78.38
342.526	84.38
342.754	78.38
342.981	93.38
343.209	94.38
343.437	92.38
343.665	78.38
343.893	88.38
344.12	89.38
344.348	85.38
344.576	71.38
344.804	85.38
345.031	82.38
345.259	96.38
345.487	78.38
345.714	90.38
345.942	84.38
346.17	85.38
346.397	89.38
346.625	73.38
346.853	82.38
347.08	108.38
347.308	79.38
347.535	91.38
347.763	98.38
347.99	82.38
348.218	98.38
348.445	96.38
348.673	99.38
348.9	84.38
349.128	85.38
349.355	92.38
349.583	74.38
349.81	95.38
350.037	96.38
350.265	92.38
350.492	104.38
350.72	84.38
350.947	85.38
351.174	101.38
351.402	107.38
351.629	76.38
351.856	97.38
352.083	92.38
352.311	110.38
352.538	96.38
352.765	110.38
352.992	114.38
353.22	92.38
353.447	90.38
353.674	92.38
353.901	102.38
354.128	89.38
354.355	87.38
354.583	89.38
354.81	102.38
355.037	94.38
355.264	74.38
355.491	86.38
355.718	81.38
355.945	83.38
356.172	93.38
356.399	83.38
356.626	87.38
356.853	93.38
357.08	77.38
357.307	89.38
357.534	92.38
357.761	85.38
357.988	93.38
358.215	83.38
358.441	82.38
358.668	88.38
358.895	75.38
359.122	77.38
359.349	75.38
359.576	82.38
359.802	95.38
360.029	108.38
360.256	106.38
360.483	86.38
360.709	92.38
360.936	77.38
361.163	91.38
361.39	88.38
361.616	90.38
361.843	84.38
362.07	83.38
362.296	99.38
362.523	94.38
362.749	70.38
362.976	84.38
363.203	82.38
363.429	69.38
363.656	82.38
363.882	81.38
364.109	90.38
364.335	84.38
364.562	80.38
364.788	82.38
365.015	89.38
365.241	104.38
365.468	100.38
365.694	91.38
365.92	88.38
366.147	79.38
366.373	82.38
366.599	97.38
366.826	99.38
367.052	74.38
367.278	94.38
367.505	83.38
367.731	82.38
367.957	101.38
368.184	89.38
368.41	89.38
368.636	99.38
368.862	118.38
369.089	110.38
369.315	87.38
369.541	90.38
369.767	91.38
369.993	90.38
370.219	89.38
370.445	78.38
370.672	79.38
370.898	91.38
371.124	84.38
371.35	95.38
371.576	82.38
371.802	79.38
372.028	56.38
372.254	94.38
372.48	90.38
372.706	80.38
372.932	80.38
373.158	83.38
373.384	78.38
373.61	81.38
373.835	73.38
374.061	95.38
374.287	74.38
374.513	77.38
374.739	84.38
374.965	78.38
375.191	81.38
375.416	73.38
375.642	70.38
375.868	86.38
376.094	83.38
376.319	74.38
376.545	78.38
376.771	86.38
376.997	83.38
377.222	77.38
377.448	81.38
377.674	72.38
377.899	82.38
378.125	80.38
378.35	95.38
378.576	85.38
378.802	99.38
379.027	89.38
379.253	76.38
379.478	85.38
379.704	81.38
379.929	87.38
380.155	84.38
380.38	89.38
380.606	84.38
380.831	72.38
381.057	80.38
381.282	92.38
381.507	92.38
381.733	85.38
381.958	90.38
382.184	92.38
382.409	79.38
382.634	100.38
382.86	80.38
383.085	88.38
383.31	95.38
383.535	89.38
383.761	81.38
383.986	84.38
384.211	86.38
384.436	94.38
384.662	96.38
384.887	85.38
385.112	94.38
385.337	89.38
385.562	95.38
385.787	85.38
386.013	100.38
386.238	90.38
386.463	95.38
386.688	104.38
386.913	80.38
387.138	99.38
387.363	92.38
387.588	79.38
387.813	90.38
388.038	108.38
388.263	106.38
388.488	95.38
388.713	81.38
388.938	79.38
389.163	79.38
389.387	78.38
389.612	83.38
389.837	73.38
390.062	88.38
390.287	117.38
390.512	88.38
390.736	81.38
390.961	74.38
391.186	90.38
391.411	83.38
391.636	79.38
391.86	87.38
392.085	81.38
392.31	71.38
392.534	85.38
392.759	72.38
392.984	83.38
393.208	67.38
393.433	83.38
393.658	65.38
393.882	81.38
394.107	85.38
394.331	81.38
394.556	76.38
394.78	84.38
395.005	93.38
395.229	77.38
395.454	78.38
395.678	84.38
395.903	91.38
396.127	79.38
396.352	72.38
396.576	84.38
396.801	76.38
397.025	65.38
397.249	96.38
397.474	73.38
397.698	76.38
397.922	87.38
398.147	91.38
398.371	80.38
398.595	85.38
398.82	81.38
399.044	91.38
399.268	87.38
399.492	84.38
399.717	77.38
399.941	86.38
400.165	75.38
400.389	90.38
400.613	96.38
400.837	80.38
401.062	73.38
401.286	87.38
401.51	91.38
401.734	95.38
401.958	98.38
402.182	140.38
402.406	170.38
402.63	128.38
402.854	93.38
403.078	90.38
403.302	94.38
403.526	75.38
403.75	89.38
403.974	70.38
404.198	76.38
404.422	79.38
404.645	81.38
404.869	102.38
405.093	87.38
405.317	94.38
405.541	104.38
405.765	99.38
405.988	122.38
406.212	205.38
406.436	261.38
406.66	166.38
406.883	104.38
407.107	90.38
407.331	96.38
407.555	100.38
407.778	95.38
408.002	76.38
408.226	93.38
408.449	100.38
408.673	79.38
408.896	86.38
409.12	99.38
409.344	98.38
409.567	92.38
409.791	67.38
410.014	92.38
410.238	83.38
410.461	83.38
410.685	80.38
410.908	91.38
411.132	98.38
411.355	84.38
411.578	67.38
411.802	94.38
412.025	80.38
412.249	82.38
412.472	79.38
412.695	92.38
412.919	93.38
413.142	80.38
413.365	77.38
413.589	70.38
413.812	100.38
414.035	69.38
414.258	79.38
414.482	81.38
414.705	75.38
414.928	84.38
415.151	87.38
415.374	102.38
415.597	86.38
415.821	96.38
416.044	81.38
416.267	90.38
416.49	87.38
416.713	76.38
416.936	68.38
417.159	89.38
417.382	81.38
417.605	78.38
417.828	107.38
418.051	87.38
418.274	86.38
418.497	84.38
418.72	83.38
418.943	83.38
419.166	82.38
419.389	94.38
419.611	91.38
419.834	88.38
420.057	88.38
420.28	75.38
420.503	85.38
420.726	77.38
420.948	86.38
421.171	100.38
421.394	86.38
421.617	82.38
421.839	96.38
422.062	84.38
422.285	82.38
422.507	93.38
422.73	100.38
422.953	84.38
423.175	91.38
423.398	90.38
423.621	89.38
423.843	89.38
424.066	73.38
424.288	80.38
424.511	91.38
424.733	102.38
424.956	105.38
425.178	100.38
425.401	87.38
425.623	90.38
425.846	85.38
426.068	97.38
426.291	88.38
426.513	85.38
426.735	89.38
426.958	97.38
427.18	105.38
427.402	134.38
427.625	173.38
427.847	129.38
428.069	97.38
428.292	86.38
428.514	71.38
428.736	78.38
428.958	76.38
429.181	74.38
429.403	84.38
429.625	83.38
429.847	92.38
430.069	96.38
430.292	84.38
430.514	81.38
430.736	79.38
430.958	98.38
431.18	78.38
431.402	80.38
431.624	80.38
431.846	89.38
432.068	69.38
432.29	83.38
432.512	95.38
432.734	89.38
432.956	85.38
433.178	92.38
433.4	71.38
433.622	90.38
433.844	80.38
434.066	96.38
434.287	76.38
434.509	90.38
434.731	80.38
434.953	76.38
435.175	83.38
435.397	109.38
435.618	86.38
435.84	92.38
436.062	101.38
436.284	111.38
436.505	106.38
436.727	87.38
436.949	106.38
437.17	84.38
437.392	87.38
437.614	98.38
437.835	104.38
438.057	132.38
438.278	104.38
438.5	99.38
438.721	112.38
438.943	97.38
439.165	83.38
439.386	96.38
439.608	102.38
439.829	90.38
440.05	109.38
440.272	144.38
440.493	101.38
440.715	83.38
440.936	74.38
441.158	98.38
441.379	82.38
441.6	92.38
441.822	84.38
442.043	92.38
442.264	96.38
442.486	98.38
442.707	84.38
442.928	109.38
443.149	138.38
443.371	142.38
443.592	125.38
443.813	120.38
444.034	101.38
444.255	95.38
444.476	93.38
444.698	85.38
444.919	76.38
445.14	141.38
445.361	112.38
445.582	117.38
445.803	127.38
446.024	147.38
446.245	129.38
446.466	109.38
446.687	84.38
446.908	73.38
447.129	90.38
447.35	92.38
447.571	94.38
447.792	79.38
448.013	96.38
448.234	104.38
448.455	100.38
448.675	120.38
448.896	110.38
449.117	101.38
449.338	90.38
449.559	121.38
449.779	125.38
450	91.38
450.221	87.38
450.442	95.38
450.662	103.38
450.883	109.38
451.104	104.38
451.324	84.38
451.545	90.38
451.766	83.38
451.986	78.38
452.207	93.38
452.428	102.38
452.648	90.38
452.869	88.38
453.089	99.38
453.31	107.38
453.53	83.38
453.751	82.38
453.971	93.38
454.192	107.38
454.412	98.38
454.633	90.38
454.853	88.38
455.073	77.38
455.294	97.38
455.514	92.38
455.734	81.38
455.955	82.38
456.175	76.38
456.395	92.38
456.616	74.38
456.836	92.38
457.056	93.38
457.276	75.38
457.497	78.38
457.717	65.38
457.937	72.38
458.157	72.38
458.377	94.38
458.598	109.38
458.818	173.38
459.038	180.38
459.258	121.38
459.478	90.38
459.698	75.38
459.918	80.38
460.138	72.38
460.358	73.38
460.578	82.38
460.798	95.38
461.018	73.38
461.238	90.38
461.458	68.38
461.678	84.38
461.898	84.38
462.118	79.38
462.338	83.38
462.558	85.38
462.777	83.38
462.997	70.38
463.217	88.38
463.437	95.38
463.657	71.38
463.876	75.38
464.096	89.38
464.316	85.38
464.536	83.38
464.755	92.38
464.975	101.38
465.195	186.38
465.414	185.38
465.634	90.38
465.854	76.38
466.073	90.38
466.293	81.38
466.512	67.38
466.732	83.38
466.951	84.38
467.171	80.38
467.391	93.38
467.61	107.38
467.829	89.38
468.049	87.38
468.268	113.38
468.488	85.38
468.707	73.38
468.927	92.38
469.146	72.38
469.365	74.38
469.585	91.38
469.804	99.38
470.023	88.38
470.243	98.38
470.462	93.38
470.681	125.38
470.901	91.38
471.12	74.38
471.339	80.38
471.558	83.38
471.777	85.38
471.997	97.38
472.216	126.38
472.435	183.38
472.654	95.38
472.873	88.38
473.092	87.38
473.311	87.38
473.53	73.38
473.749	83.38
473.968	89.38
474.187	95.38
474.406	98.38
474.625	74.38
474.844	83.38
475.063	93.38
475.282	85.38
475.501	77.38
475.72	84.38
475.939	84.38
476.158	80.38
476.377	81.38
476.596	79.38
476.814	85.38
477.033	98.38
477.252	101.38
477.471	72.38
477.69	92.38
477.908	80.38
478.127	79.38
478.346	86.38
478.564	89.38
478.783	85.38
479.002	100.38
479.22	80.38
479.439	89.38
479.658	96.38
479.876	98.38
480.095	83.38
480.313	99.38
480.532	80.38
480.751	79.38
480.969	139.38
481.188	256.38
481.406	198.38
481.624	93.38
481.843	82.38
482.061	85.38
482.28	88.38
482.498	74.38
482.717	82.38
482.935	85.38
483.153	80.38
483.372	88.38
483.59	93.38
483.808	89.38
484.027	82.38
484.245	90.38
484.463	99.38
484.681	92.38
484.9	92.38
485.118	94.38
485.336	106.38
485.554	82.38
485.772	88.38
485.99	97.38
486.209	89.38
486.427	97.38
486.645	124.38
486.863	105.38
487.081	96.38
487.299	100.38
487.517	86.38
487.735	86.38
487.953	82.38
488.171	86.38
488.389	88.38
488.607	93.38
488.825	94.38
489.043	90.38
489.261	87.38
489.479	69.38
489.696	90.38
489.914	86.38
490.132	86.38
490.35	106.38
490.568	77.38
490.786	95.38
491.003	90.38
491.221	85.38
491.439	73.38
491.657	79.38
491.874	92.38
492.092	88.38
492.31	86.38
492.527	68.38
492.745	84.38
492.963	94.38
493.18	87.38
493.398	97.38
493.615	78.38
493.833	84.38
494.05	87.38
494.268	84.38
494.485	108.38
494.703	84.38
494.92	95.38
495.138	97.38
495.355	79.38
495.573	86.38
495.79	84.38
496.008	83.38
496.225	82.38
496.442	83.38
496.66	89.38
496.877	81.38
497.094	93.38
497.312	74.38
497.529	91.38
497.746	87.38
497.963	91.38
498.181	78.38
498.398	85.38
498.615	101.38
498.832	101.38
499.049	70.38
499.267	91.38
499.484	105.38
499.701	92.38
499.918	83.38
500.135	82.38
500.352	81.38
500.569	82.38
500.786	76.38
501.003	76.38
501.22	89.38
501.437	90.38
501.654	109.38
501.871	113.38
502.088	72.38
502.305	97.38
502.522	78.38
502.739	84.38
502.956	84.38
503.172	69.38
503.389	87.38
503.606	110.38
503.823	99.38
504.04	88.38
504.256	87.38
504.473	80.38
504.69	70.38
504.907	85.38
505.123	71.38
505.34	78.38
505.557	84.38
505.773	80.38
505.99	81.38
506.207	84.38
506.423	91.38
506.64	88.38
506.856	91.38
507.073	105.38
507.289	82.38
507.506	91.38
507.722	126.38
507.939	104.38
508.155	75.38
508.372	81.38
508.588	91.38
508.805	70.38
509.021	100.38
509.238	106.38
509.454	105.38
509.67	96.38
509.887	99.38
510.103	133.38
510.319	228.38
510.536	876.38
510.752	3097.38
510.968	829.38
511.184	177.38
511.401	109.38
511.617	93.38
511.833	95.38
512.049	66.38
512.265	81.38
512.481	88.38
512.698	89.38
512.914	99.38
513.13	88.38
513.346	81.38
513.562	91.38
513.778	90.38
513.994	94.38
514.21	89.38
514.426	107.38
514.642	155.38
514.858	141.38
515.074	178.38
515.29	536.38
515.506	1934.38
515.721	710.38
515.937	181.38
516.153	109.38
516.369	97.38
516.585	91.38
516.801	83.38
517.016	97.38
517.232	99.38
