Data from Circ_2018_H10_HRD10591_00061.txt Node
Date: Wed Jan 03 09:56:14 EST 2024
User: Yrep
Spectrometer: HR+D1059
Trigger mode: 1
Integration Time (sec): 1.000000E-1
Scans to average: 1
Electric dark correction enabled: true
Nonlinearity correction enabled: false
Boxcar width: 0
XAxis mode: Wavelengths
Number of Pixels in Spectrum: 2048
>>>>>Begin Spectral Data<<<<<
223.165	-22.62
223.4	-22.62
223.635	-22.62
223.869	-26.62
224.104	-37.62
224.338	-14.62
224.573	-14.62
224.808	-7.62
225.042	-7.62
225.277	-5.62
225.511	-2.62
225.746	1.38
225.98	5.38
226.215	15.38
226.449	12.38
226.683	32.38
226.918	38.38
227.152	34.38
227.387	49.38
227.621	37.38
227.856	44.38
228.09	64.38
228.324	41.38
228.559	57.38
228.793	66.38
229.027	69.38
229.262	75.38
229.496	67.38
229.73	74.38
229.964	88.38
230.199	77.38
230.433	89.38
230.667	83.38
230.901	76.38
231.136	89.38
231.37	76.38
231.604	76.38
231.838	75.38
232.072	84.38
232.306	94.38
232.541	81.38
232.775	70.38
233.009	81.38
233.243	74.38
233.477	80.38
233.711	78.38
233.945	75.38
234.179	89.38
234.413	84.38
234.647	80.38
234.881	89.38
235.115	90.38
235.349	81.38
235.583	68.38
235.817	63.38
236.051	77.38
236.285	83.38
236.519	76.38
236.753	88.38
236.987	78.38
237.221	98.38
237.455	75.38
237.689	77.38
237.922	96.38
238.156	73.38
238.39	68.38
238.624	68.38
238.858	87.38
239.091	75.38
239.325	86.38
239.559	83.38
239.793	69.38
240.027	80.38
240.26	69.38
240.494	84.38
240.728	73.38
240.961	84.38
241.195	87.38
241.429	81.38
241.662	82.38
241.896	86.38
242.13	74.38
242.363	98.38
242.597	78.38
242.83	75.38
243.064	79.38
243.298	66.38
243.531	81.38
243.765	90.38
243.998	81.38
244.232	80.38
244.465	84.38
244.699	85.38
244.932	87.38
245.166	79.38
245.399	62.38
245.633	72.38
245.866	78.38
246.099	77.38
246.333	78.38
246.566	80.38
246.8	77.38
247.033	72.38
247.266	94.38
247.5	87.38
247.733	76.38
247.966	80.38
248.2	82.38
248.433	79.38
248.666	74.38
248.899	67.38
249.133	86.38
249.366	109.38
249.599	93.38
249.832	89.38
250.066	79.38
250.299	76.38
250.532	74.38
250.765	79.38
250.998	83.38
251.231	89.38
251.465	88.38
251.698	73.38
251.931	85.38
252.164	81.38
252.397	79.38
252.63	94.38
252.863	91.38
253.096	73.38
253.329	80.38
253.562	82.38
253.795	79.38
254.028	83.38
254.261	71.38
254.494	88.38
254.727	87.38
254.96	91.38
255.193	86.38
255.426	76.38
255.659	73.38
255.892	75.38
256.124	88.38
256.357	90.38
256.59	82.38
256.823	88.38
257.056	87.38
257.289	76.38
257.521	74.38
257.754	77.38
257.987	67.38
258.22	86.38
258.452	79.38
258.685	72.38
258.918	86.38
259.151	72.38
259.383	86.38
259.616	76.38
259.849	67.38
260.081	77.38
260.314	91.38
260.547	62.38
260.779	75.38
261.012	89.38
261.244	82.38
261.477	76.38
261.71	105.38
261.942	110.38
262.175	119.38
262.407	80.38
262.64	91.38
262.872	83.38
263.105	88.38
263.337	79.38
263.57	74.38
263.802	87.38
264.035	80.38
264.267	75.38
264.499	72.38
264.732	73.38
264.964	76.38
265.197	81.38
265.429	81.38
265.661	84.38
265.894	76.38
266.126	76.38
266.358	84.38
266.591	83.38
266.823	84.38
267.055	63.38
267.287	86.38
267.52	73.38
267.752	79.38
267.984	84.38
268.216	73.38
268.448	92.38
268.681	87.38
268.913	88.38
269.145	78.38
269.377	95.38
269.609	85.38
269.841	89.38
270.073	75.38
270.306	87.38
270.538	81.38
270.77	88.38
271.002	82.38
271.234	95.38
271.466	80.38
271.698	83.38
271.93	72.38
272.162	73.38
272.394	85.38
272.626	90.38
272.858	91.38
273.09	94.38
273.322	90.38
273.553	68.38
273.785	77.38
274.017	79.38
274.249	85.38
274.481	86.38
274.713	79.38
274.945	84.38
275.176	86.38
275.408	91.38
275.64	83.38
275.872	82.38
276.104	77.38
276.335	83.38
276.567	117.38
276.799	118.38
277.031	95.38
277.262	101.38
277.494	93.38
277.726	89.38
277.957	68.38
278.189	83.38
278.421	91.38
278.652	95.38
278.884	88.38
279.115	86.38
279.347	84.38
279.579	94.38
279.81	75.38
280.042	79.38
280.273	92.38
280.505	85.38
280.736	88.38
280.968	87.38
281.199	93.38
281.431	72.38
281.662	80.38
281.894	92.38
282.125	103.38
282.356	131.38
282.588	149.38
282.819	112.38
283.051	82.38
283.282	89.38
283.513	83.38
283.745	77.38
283.976	95.38
284.207	95.38
284.439	101.38
284.67	115.38
284.901	96.38
285.132	92.38
285.364	88.38
285.595	83.38
285.826	86.38
286.057	84.38
286.288	78.38
286.52	81.38
286.751	82.38
286.982	77.38
287.213	95.38
287.444	87.38
287.675	74.38
287.906	81.38
288.138	89.38
288.369	103.38
288.6	96.38
288.831	92.38
289.062	92.38
289.293	92.38
289.524	94.38
289.755	94.38
289.986	90.38
290.217	95.38
290.448	98.38
290.679	99.38
290.91	83.38
291.141	84.38
291.371	74.38
291.602	75.38
291.833	91.38
292.064	94.38
292.295	92.38
292.526	76.38
292.757	84.38
292.987	88.38
293.218	87.38
293.449	95.38
293.68	103.38
293.91	82.38
294.141	92.38
294.372	92.38
294.603	86.38
294.833	90.38
295.064	92.38
295.295	92.38
295.525	92.38
295.756	105.38
295.987	111.38
296.217	154.38
296.448	143.38
296.679	95.38
296.909	89.38
297.14	96.38
297.37	97.38
297.601	86.38
297.831	98.38
298.062	89.38
298.292	88.38
298.523	72.38
298.753	89.38
298.984	81.38
299.214	110.38
299.445	97.38
299.675	93.38
299.905	95.38
300.136	88.38
300.366	89.38
300.597	83.38
300.827	91.38
301.057	107.38
301.288	88.38
301.518	97.38
301.748	95.38
301.979	96.38
302.209	90.38
302.439	94.38
302.669	85.38
302.9	81.38
303.13	92.38
303.36	95.38
303.59	121.38
303.82	120.38
304.051	96.38
304.281	89.38
304.511	76.38
304.741	96.38
304.971	81.38
305.201	77.38
305.431	76.38
305.661	80.38
305.891	92.38
306.121	104.38
306.352	107.38
306.582	110.38
306.812	113.38
307.042	84.38
307.272	89.38
307.502	92.38
307.731	96.38
307.961	95.38
308.191	100.38
308.421	96.38
308.651	90.38
308.881	94.38
309.111	91.38
309.341	91.38
309.571	103.38
309.8	98.38
310.03	82.38
310.26	83.38
310.49	93.38
310.72	106.38
310.949	96.38
311.179	105.38
311.409	100.38
311.639	102.38
311.868	103.38
312.098	94.38
312.328	103.38
312.557	118.38
312.787	104.38
313.017	90.38
313.246	96.38
313.476	85.38
313.706	98.38
313.935	101.38
314.165	102.38
314.394	95.38
314.624	90.38
314.853	83.38
315.083	98.38
315.312	100.38
315.542	89.38
315.771	86.38
316.001	95.38
316.23	95.38
316.46	78.38
316.689	81.38
316.919	103.38
317.148	100.38
317.377	101.38
317.607	97.38
317.836	90.38
318.065	97.38
318.295	82.38
318.524	89.38
318.753	92.38
318.983	101.38
319.212	93.38
319.441	100.38
319.67	121.38
319.9	93.38
320.129	105.38
320.358	81.38
320.587	108.38
320.816	95.38
321.046	92.38
321.275	100.38
321.504	90.38
321.733	107.38
321.962	91.38
322.191	104.38
322.42	112.38
322.649	104.38
322.878	104.38
323.108	114.38
323.337	131.38
323.566	130.38
323.795	156.38
324.024	196.38
324.253	415.38
324.482	871.38
324.71	1715.38
324.939	2295.38
325.168	852.38
325.397	244.38
325.626	160.38
325.855	127.38
326.084	130.38
326.313	157.38
326.542	145.38
326.77	245.38
326.999	484.38
327.228	953.38
327.457	1683.38
327.686	1355.38
327.914	396.38
328.143	215.38
328.372	168.38
328.6	134.38
328.829	128.38
329.058	132.38
329.287	144.38
329.515	113.38
329.744	103.38
329.972	105.38
330.201	150.38
330.43	148.38
330.658	159.38
330.887	156.38
331.115	136.38
331.344	112.38
331.572	98.38
331.801	106.38
332.03	109.38
332.258	104.38
332.486	80.38
332.715	99.38
332.943	86.38
333.172	99.38
333.4	89.38
333.629	114.38
333.857	111.38
334.085	127.38
334.314	137.38
334.542	164.38
334.771	143.38
334.999	106.38
335.227	87.38
335.455	103.38
335.684	92.38
335.912	93.38
336.14	114.38
336.369	100.38
336.597	81.38
336.825	96.38
337.053	100.38
337.281	99.38
337.51	95.38
337.738	97.38
337.966	100.38
338.194	94.38
338.422	85.38
338.65	101.38
338.878	101.38
339.106	111.38
339.334	95.38
339.562	97.38
339.79	103.38
340.018	103.38
340.246	86.38
340.474	100.38
340.702	99.38
340.93	94.38
341.158	88.38
341.386	102.38
341.614	93.38
341.842	99.38
342.07	98.38
342.298	85.38
342.526	91.38
342.754	77.38
342.981	103.38
343.209	100.38
343.437	118.38
343.665	93.38
343.893	97.38
344.12	95.38
344.348	76.38
344.576	82.38
344.804	96.38
345.031	100.38
345.259	98.38
345.487	92.38
345.714	85.38
345.942	94.38
346.17	86.38
346.397	84.38
346.625	83.38
346.853	90.38
347.08	90.38
347.308	104.38
347.535	114.38
347.763	96.38
347.99	109.38
348.218	112.38
348.445	87.38
348.673	83.38
348.9	126.38
349.128	95.38
349.355	94.38
349.583	85.38
349.81	96.38
350.037	98.38
350.265	97.38
350.492	88.38
350.72	97.38
350.947	103.38
351.174	116.38
351.402	125.38
351.629	102.38
351.856	97.38
352.083	103.38
352.311	101.38
352.538	109.38
352.765	96.38
352.992	116.38
353.22	114.38
353.447	113.38
353.674	93.38
353.901	83.38
354.128	100.38
354.355	85.38
354.583	87.38
354.81	121.38
355.037	111.38
355.264	109.38
355.491	91.38
355.718	91.38
355.945	95.38
356.172	81.38
356.399	100.38
356.626	92.38
356.853	100.38
357.08	96.38
357.307	87.38
357.534	88.38
357.761	89.38
357.988	90.38
358.215	86.38
358.441	99.38
358.668	101.38
358.895	87.38
359.122	80.38
359.349	87.38
359.576	95.38
359.802	101.38
360.029	118.38
360.256	115.38
360.483	88.38
360.709	98.38
360.936	92.38
361.163	89.38
361.39	108.38
361.616	94.38
361.843	106.38
362.07	90.38
362.296	98.38
362.523	98.38
362.749	90.38
362.976	92.38
363.203	90.38
363.429	90.38
363.656	104.38
363.882	88.38
364.109	97.38
364.335	91.38
364.562	95.38
364.788	93.38
365.015	104.38
365.241	109.38
365.468	117.38
365.694	112.38
365.92	100.38
366.147	77.38
366.373	97.38
366.599	90.38
366.826	100.38
367.052	102.38
367.278	86.38
367.505	92.38
367.731	103.38
367.957	96.38
368.184	92.38
368.41	93.38
368.636	129.38
368.862	120.38
369.089	105.38
369.315	92.38
369.541	105.38
369.767	99.38
369.993	103.38
370.219	100.38
370.445	102.38
370.672	98.38
370.898	88.38
371.124	91.38
371.35	77.38
371.576	105.38
371.802	85.38
372.028	80.38
372.254	79.38
372.48	102.38
372.706	97.38
372.932	93.38
373.158	86.38
373.384	99.38
373.61	82.38
373.835	91.38
374.061	107.38
374.287	87.38
374.513	86.38
374.739	100.38
374.965	83.38
375.191	91.38
375.416	86.38
375.642	88.38
375.868	89.38
376.094	91.38
376.319	85.38
376.545	80.38
376.771	99.38
376.997	92.38
377.222	96.38
377.448	93.38
377.674	97.38
377.899	99.38
378.125	91.38
378.35	97.38
378.576	86.38
378.802	89.38
379.027	103.38
379.253	93.38
379.478	100.38
379.704	88.38
379.929	91.38
380.155	96.38
380.38	95.38
380.606	102.38
380.831	105.38
381.057	101.38
381.282	101.38
381.507	107.38
381.733	100.38
381.958	98.38
382.184	104.38
382.409	99.38
382.634	86.38
382.86	90.38
383.085	95.38
383.31	87.38
383.535	93.38
383.761	116.38
383.986	91.38
384.211	89.38
384.436	95.38
384.662	95.38
384.887	80.38
385.112	104.38
385.337	96.38
385.562	97.38
385.787	101.38
386.013	112.38
386.238	118.38
386.463	112.38
386.688	101.38
386.913	121.38
387.138	97.38
387.363	104.38
387.588	103.38
387.813	99.38
388.038	92.38
388.263	114.38
388.488	102.38
388.713	101.38
388.938	81.38
389.163	95.38
389.387	88.38
389.612	90.38
389.837	96.38
390.062	88.38
390.287	89.38
390.512	89.38
390.736	89.38
390.961	102.38
391.186	89.38
391.411	86.38
391.636	90.38
391.86	75.38
392.085	73.38
392.31	79.38
392.534	83.38
392.759	90.38
392.984	87.38
393.208	91.38
393.433	88.38
393.658	99.38
393.882	86.38
394.107	85.38
394.331	90.38
394.556	89.38
394.78	89.38
395.005	85.38
395.229	82.38
395.454	81.38
395.678	99.38
395.903	83.38
396.127	82.38
396.352	82.38
396.576	80.38
396.801	88.38
397.025	77.38
397.249	89.38
397.474	84.38
397.698	76.38
397.922	76.38
398.147	87.38
398.371	100.38
398.595	71.38
398.82	75.38
399.044	81.38
399.268	88.38
399.492	78.38
399.717	85.38
399.941	98.38
400.165	94.38
400.389	92.38
400.613	85.38
400.837	97.38
401.062	90.38
401.286	83.38
401.51	93.38
401.734	88.38
401.958	108.38
402.182	133.38
402.406	189.38
402.63	142.38
402.854	87.38
403.078	75.38
403.302	82.38
403.526	74.38
403.75	85.38
403.974	76.38
404.198	77.38
404.422	105.38
404.645	95.38
404.869	89.38
405.093	92.38
405.317	99.38
405.541	97.38
405.765	115.38
405.988	124.38
406.212	198.38
406.436	267.38
406.66	161.38
406.883	108.38
407.107	87.38
407.331	109.38
407.555	93.38
407.778	105.38
408.002	96.38
408.226	92.38
408.449	91.38
408.673	89.38
408.896	90.38
409.12	80.38
409.344	100.38
409.567	100.38
409.791	73.38
410.014	98.38
410.238	83.38
410.461	90.38
410.685	106.38
410.908	97.38
411.132	103.38
411.355	98.38
411.578	94.38
411.802	95.38
412.025	89.38
412.249	97.38
412.472	86.38
412.695	98.38
412.919	95.38
413.142	83.38
413.365	99.38
413.589	95.38
413.812	91.38
414.035	92.38
414.258	92.38
414.482	92.38
414.705	96.38
414.928	95.38
415.151	91.38
415.374	91.38
415.597	81.38
415.821	77.38
416.044	96.38
416.267	82.38
416.49	96.38
416.713	92.38
416.936	92.38
417.159	85.38
417.382	88.38
417.605	83.38
417.828	101.38
418.051	95.38
418.274	92.38
418.497	99.38
418.72	89.38
418.943	89.38
419.166	95.38
419.389	83.38
419.611	82.38
419.834	90.38
420.057	91.38
420.28	96.38
420.503	77.38
420.726	90.38
420.948	85.38
421.171	111.38
421.394	96.38
421.617	96.38
421.839	100.38
422.062	94.38
422.285	92.38
422.507	112.38
422.73	108.38
422.953	95.38
423.175	87.38
423.398	96.38
423.621	81.38
423.843	92.38
424.066	78.38
424.288	88.38
424.511	99.38
424.733	111.38
424.956	98.38
425.178	107.38
425.401	100.38
425.623	114.38
425.846	84.38
426.068	92.38
426.291	100.38
426.513	95.38
426.735	85.38
426.958	98.38
427.18	114.38
427.402	155.38
427.625	170.38
427.847	135.38
428.069	130.38
428.292	88.38
428.514	95.38
428.736	80.38
428.958	68.38
429.181	68.38
429.403	89.38
429.625	84.38
429.847	96.38
430.069	103.38
430.292	84.38
430.514	95.38
430.736	76.38
430.958	81.38
431.18	88.38
431.402	97.38
431.624	85.38
431.846	88.38
432.068	85.38
432.29	78.38
432.512	82.38
432.734	102.38
432.956	98.38
433.178	101.38
433.4	98.38
433.622	88.38
433.844	95.38
434.066	100.38
434.287	85.38
434.509	86.38
434.731	86.38
434.953	90.38
435.175	89.38
435.397	100.38
435.618	84.38
435.84	102.38
436.062	127.38
436.284	121.38
436.505	106.38
436.727	100.38
436.949	90.38
437.17	95.38
437.392	92.38
437.614	99.38
437.835	101.38
438.057	116.38
438.278	114.38
438.5	101.38
438.721	115.38
438.943	103.38
439.165	88.38
439.386	80.38
439.608	91.38
439.829	89.38
440.05	129.38
440.272	145.38
440.493	93.38
440.715	90.38
440.936	81.38
441.158	97.38
441.379	92.38
441.6	95.38
441.822	115.38
442.043	95.38
442.264	94.38
442.486	104.38
442.707	101.38
442.928	113.38
443.149	141.38
443.371	140.38
443.592	121.38
443.813	123.38
444.034	102.38
444.255	102.38
444.476	93.38
444.698	95.38
444.919	104.38
445.14	129.38
445.361	109.38
445.582	124.38
445.803	139.38
446.024	136.38
446.245	144.38
446.466	110.38
446.687	98.38
446.908	101.38
447.129	84.38
447.35	96.38
447.571	98.38
447.792	95.38
448.013	97.38
448.234	124.38
448.455	104.38
448.675	133.38
448.896	114.38
449.117	111.38
449.338	94.38
449.559	128.38
449.779	119.38
450	85.38
450.221	82.38
450.442	82.38
450.662	91.38
450.883	111.38
451.104	118.38
451.324	91.38
451.545	88.38
451.766	75.38
451.986	82.38
452.207	83.38
452.428	107.38
452.648	96.38
452.869	115.38
453.089	121.38
453.31	128.38
453.53	95.38
453.751	84.38
453.971	102.38
454.192	112.38
454.412	101.38
454.633	99.38
454.853	99.38
455.073	97.38
455.294	98.38
455.514	97.38
455.734	89.38
455.955	89.38
456.175	81.38
456.395	75.38
456.616	84.38
456.836	79.38
457.056	86.38
457.276	88.38
457.497	79.38
457.717	82.38
457.937	78.38
458.157	89.38
458.377	95.38
458.598	112.38
458.818	173.38
459.038	176.38
459.258	121.38
459.478	96.38
459.698	101.38
459.918	85.38
460.138	97.38
460.358	83.38
460.578	101.38
460.798	91.38
461.018	93.38
461.238	87.38
461.458	82.38
461.678	83.38
461.898	82.38
462.118	77.38
462.338	83.38
462.558	88.38
462.777	95.38
462.997	86.38
463.217	94.38
463.437	88.38
463.657	80.38
463.876	90.38
464.096	100.38
464.316	95.38
464.536	110.38
464.755	106.38
464.975	121.38
465.195	180.38
465.414	191.38
465.634	100.38
465.854	88.38
466.073	96.38
466.293	91.38
466.512	92.38
466.732	77.38
466.951	83.38
467.171	77.38
467.391	91.38
467.61	114.38
467.829	107.38
468.049	110.38
468.268	121.38
468.488	95.38
468.707	85.38
468.927	78.38
469.146	75.38
469.365	87.38
469.585	89.38
469.804	120.38
470.023	101.38
470.243	91.38
470.462	104.38
470.681	113.38
470.901	87.38
471.12	89.38
471.339	86.38
471.558	96.38
471.777	78.38
471.997	111.38
472.216	139.38
472.435	173.38
472.654	124.38
472.873	97.38
473.092	89.38
473.311	95.38
473.53	99.38
473.749	99.38
473.968	104.38
474.187	105.38
474.406	109.38
474.625	84.38
474.844	94.38
475.063	89.38
475.282	92.38
475.501	83.38
475.72	88.38
475.939	93.38
476.158	64.38
476.377	87.38
476.596	92.38
476.814	111.38
477.033	100.38
477.252	91.38
477.471	96.38
477.69	100.38
477.908	94.38
478.127	90.38
478.346	85.38
478.564	99.38
478.783	103.38
479.002	92.38
479.22	93.38
479.439	116.38
479.658	108.38
479.876	98.38
480.095	83.38
480.313	100.38
480.532	100.38
480.751	103.38
480.969	128.38
481.188	264.38
481.406	220.38
481.624	102.38
481.843	100.38
482.061	97.38
482.28	79.38
482.498	89.38
482.717	108.38
482.935	92.38
483.153	92.38
483.372	96.38
483.59	88.38
483.808	91.38
484.027	99.38
484.245	95.38
484.463	104.38
484.681	101.38
484.9	95.38
485.118	91.38
485.336	102.38
485.554	98.38
485.772	98.38
485.99	106.38
486.209	109.38
486.427	101.38
486.645	115.38
486.863	122.38
487.081	111.38
487.299	100.38
487.517	107.38
487.735	84.38
487.953	89.38
488.171	97.38
488.389	95.38
488.607	98.38
488.825	88.38
489.043	100.38
489.261	95.38
489.479	93.38
489.696	85.38
489.914	78.38
490.132	92.38
490.35	88.38
490.568	75.38
490.786	91.38
491.003	92.38
491.221	93.38
491.439	85.38
491.657	99.38
491.874	91.38
492.092	99.38
492.31	101.38
492.527	97.38
492.745	81.38
492.963	93.38
493.18	97.38
493.398	86.38
493.615	95.38
493.833	102.38
494.05	84.38
494.268	92.38
494.485	85.38
494.703	83.38
494.92	92.38
495.138	95.38
495.355	83.38
495.573	91.38
495.79	83.38
496.008	91.38
496.225	98.38
496.442	104.38
496.66	85.38
496.877	83.38
497.094	89.38
497.312	99.38
497.529	97.38
497.746	85.38
497.963	87.38
498.181	73.38
498.398	95.38
498.615	103.38
498.832	96.38
499.049	100.38
499.267	102.38
499.484	93.38
499.701	82.38
499.918	91.38
500.135	101.38
500.352	80.38
500.569	76.38
500.786	72.38
501.003	83.38
501.22	81.38
501.437	88.38
501.654	99.38
501.871	106.38
502.088	79.38
502.305	92.38
502.522	86.38
502.739	93.38
502.956	87.38
503.172	83.38
503.389	88.38
503.606	132.38
503.823	107.38
504.04	96.38
504.256	81.38
504.473	91.38
504.69	92.38
504.907	93.38
505.123	93.38
505.34	91.38
505.557	85.38
505.773	98.38
505.99	85.38
506.207	91.38
506.423	82.38
506.64	93.38
506.856	100.38
507.073	80.38
507.289	101.38
507.506	105.38
507.722	118.38
507.939	117.38
508.155	101.38
508.372	98.38
508.588	85.38
508.805	90.38
509.021	91.38
509.238	119.38
509.454	111.38
509.67	109.38
509.887	110.38
510.103	121.38
510.319	233.38
510.536	902.38
510.752	2888.38
510.968	839.38
511.184	172.38
511.401	123.38
511.617	92.38
511.833	80.38
512.049	91.38
512.265	97.38
512.481	94.38
512.698	96.38
512.914	91.38
513.13	85.38
513.346	96.38
513.562	88.38
513.778	89.38
513.994	96.38
514.21	103.38
514.426	131.38
514.642	152.38
514.858	142.38
