Data from Circ_2018_H10_HRD10591_00052.txt Node
Date: Wed Jan 03 09:56:12 EST 2024
User: Yrep
Spectrometer: HR+D1059
Trigger mode: 1
Integration Time (sec): 1.000000E-1
Scans to average: 1
Electric dark correction enabled: true
Nonlinearity correction enabled: false
Boxcar width: 0
XAxis mode: Wavelengths
Number of Pixels in Spectrum: 2048
>>>>>Begin Spectral Data<<<<<
223.165	-14.44
223.4	-14.44
223.635	-14.44
223.869	-3.44
224.104	-4.44
224.338	-5.44
224.573	-15.44
224.808	-13.44
225.042	-16.44
225.277	-14.44
225.511	3.56
225.746	1.56
225.98	12.56
226.215	7.56
226.449	7.56
226.683	31.56
226.918	7.56
227.152	15.56
227.387	31.56
227.621	29.56
227.856	31.56
228.09	50.56
228.324	53.56
228.559	51.56
228.793	68.56
229.027	39.56
229.262	73.56
229.496	69.56
229.73	85.56
229.964	77.56
230.199	72.56
230.433	72.56
230.667	65.56
230.901	80.56
231.136	67.56
231.37	85.56
231.604	78.56
231.838	81.56
232.072	76.56
232.306	69.56
232.541	70.56
232.775	67.56
233.009	81.56
233.243	96.56
233.477	79.56
233.711	87.56
233.945	72.56
234.179	84.56
234.413	88.56
234.647	83.56
234.881	71.56
235.115	78.56
235.349	73.56
235.583	87.56
235.817	84.56
236.051	84.56
236.285	78.56
236.519	73.56
236.753	79.56
236.987	75.56
237.221	79.56
237.455	78.56
237.689	62.56
237.922	75.56
238.156	75.56
238.39	69.56
238.624	68.56
238.858	69.56
239.091	68.56
239.325	80.56
239.559	83.56
239.793	76.56
240.027	77.56
240.26	73.56
240.494	71.56
240.728	92.56
240.961	78.56
241.195	99.56
241.429	58.56
241.662	73.56
241.896	68.56
242.13	72.56
242.363	50.56
242.597	69.56
242.83	74.56
243.064	72.56
243.298	82.56
243.531	76.56
243.765	83.56
243.998	75.56
244.232	86.56
244.465	89.56
244.699	84.56
244.932	62.56
245.166	84.56
245.399	73.56
245.633	90.56
245.866	75.56
246.099	73.56
246.333	80.56
246.566	77.56
246.8	80.56
247.033	75.56
247.266	79.56
247.5	82.56
247.733	84.56
247.966	88.56
248.2	66.56
248.433	69.56
248.666	76.56
248.899	70.56
249.133	90.56
249.366	104.56
249.599	88.56
249.832	84.56
250.066	84.56
250.299	79.56
250.532	82.56
250.765	69.56
250.998	84.56
251.231	70.56
251.465	69.56
251.698	67.56
251.931	85.56
252.164	74.56
252.397	66.56
252.63	64.56
252.863	69.56
253.096	80.56
253.329	79.56
253.562	71.56
253.795	79.56
254.028	85.56
254.261	72.56
254.494	84.56
254.727	83.56
254.96	64.56
255.193	75.56
255.426	88.56
255.659	82.56
255.892	89.56
256.124	75.56
256.357	80.56
256.59	81.56
256.823	72.56
257.056	81.56
257.289	73.56
257.521	79.56
257.754	73.56
257.987	78.56
258.22	74.56
258.452	75.56
258.685	77.56
258.918	84.56
259.151	79.56
259.383	77.56
259.616	82.56
259.849	81.56
260.081	80.56
260.314	77.56
260.547	77.56
260.779	85.56
261.012	67.56
261.244	69.56
261.477	72.56
261.71	98.56
261.942	97.56
262.175	131.56
262.407	98.56
262.64	88.56
262.872	83.56
263.105	84.56
263.337	75.56
263.57	87.56
263.802	74.56
264.035	80.56
264.267	90.56
264.499	80.56
264.732	72.56
264.964	79.56
265.197	83.56
265.429	63.56
265.661	69.56
265.894	91.56
266.126	96.56
266.358	72.56
266.591	79.56
266.823	65.56
267.055	75.56
267.287	71.56
267.52	89.56
267.752	99.56
267.984	80.56
268.216	79.56
268.448	91.56
268.681	78.56
268.913	77.56
269.145	87.56
269.377	94.56
269.609	91.56
269.841	79.56
270.073	74.56
270.306	93.56
270.538	92.56
270.77	78.56
271.002	71.56
271.234	84.56
271.466	80.56
271.698	71.56
271.93	81.56
272.162	86.56
272.394	84.56
272.626	82.56
272.858	90.56
273.09	81.56
273.322	84.56
273.553	70.56
273.785	80.56
274.017	90.56
274.249	83.56
274.481	72.56
274.713	68.56
274.945	93.56
275.176	74.56
275.408	93.56
275.64	88.56
275.872	88.56
276.104	92.56
276.335	88.56
276.567	101.56
276.799	103.56
277.031	91.56
277.262	87.56
277.494	85.56
277.726	85.56
277.957	87.56
278.189	87.56
278.421	92.56
278.652	92.56
278.884	68.56
279.115	95.56
279.347	88.56
279.579	76.56
279.81	93.56
280.042	78.56
280.273	100.56
280.505	86.56
280.736	81.56
280.968	92.56
281.199	84.56
281.431	84.56
281.662	82.56
281.894	86.56
282.125	103.56
282.356	94.56
282.588	150.56
282.819	105.56
283.051	94.56
283.282	76.56
283.513	88.56
283.745	87.56
283.976	90.56
284.207	88.56
284.439	82.56
284.67	72.56
284.901	80.56
285.132	91.56
285.364	91.56
285.595	88.56
285.826	100.56
286.057	79.56
286.288	66.56
286.52	85.56
286.751	73.56
286.982	70.56
287.213	84.56
287.444	73.56
287.675	96.56
287.906	86.56
288.138	92.56
288.369	87.56
288.6	73.56
288.831	87.56
289.062	88.56
289.293	92.56
289.524	81.56
289.755	93.56
289.986	91.56
290.217	70.56
290.448	71.56
290.679	79.56
290.91	80.56
291.141	72.56
291.371	66.56
291.602	82.56
291.833	81.56
292.064	94.56
292.295	72.56
292.526	76.56
292.757	78.56
292.987	85.56
293.218	90.56
293.449	90.56
293.68	81.56
293.91	84.56
294.141	78.56
294.372	90.56
294.603	88.56
294.833	93.56
295.064	80.56
295.295	78.56
295.525	102.56
295.756	108.56
295.987	103.56
296.217	131.56
296.448	108.56
296.679	99.56
296.909	87.56
297.14	81.56
297.37	80.56
297.601	80.56
297.831	80.56
298.062	91.56
298.292	73.56
298.523	84.56
298.753	93.56
298.984	92.56
299.214	80.56
299.445	89.56
299.675	75.56
299.905	102.56
300.136	81.56
300.366	79.56
300.597	85.56
300.827	88.56
301.057	97.56
301.288	99.56
301.518	71.56
301.748	79.56
301.979	98.56
302.209	86.56
302.439	81.56
302.669	87.56
302.9	92.56
303.13	85.56
303.36	102.56
303.59	86.56
303.82	108.56
304.051	95.56
304.281	86.56
304.511	84.56
304.741	71.56
304.971	74.56
305.201	84.56
305.431	82.56
305.661	88.56
305.891	87.56
306.121	97.56
306.352	102.56
306.582	103.56
306.812	87.56
307.042	77.56
307.272	88.56
307.502	88.56
307.731	81.56
307.961	105.56
308.191	90.56
308.421	78.56
308.651	91.56
308.881	81.56
309.111	88.56
309.341	91.56
309.571	93.56
309.8	91.56
310.03	97.56
310.26	96.56
310.49	94.56
310.72	93.56
310.949	106.56
311.179	98.56
311.409	81.56
311.639	99.56
311.868	102.56
312.098	96.56
312.328	109.56
312.557	107.56
312.787	112.56
313.017	88.56
313.246	98.56
313.476	83.56
313.706	96.56
313.935	88.56
314.165	112.56
314.394	96.56
314.624	100.56
314.853	104.56
315.083	96.56
315.312	84.56
315.542	75.56
315.771	88.56
316.001	84.56
316.23	81.56
316.46	83.56
316.689	86.56
316.919	95.56
317.148	95.56
317.377	89.56
317.607	95.56
317.836	72.56
318.065	84.56
318.295	84.56
318.524	93.56
318.753	89.56
318.983	95.56
319.212	94.56
319.441	111.56
319.67	103.56
319.9	84.56
320.129	92.56
320.358	83.56
320.587	79.56
320.816	85.56
321.046	93.56
321.275	93.56
321.504	103.56
321.733	116.56
321.962	89.56
322.191	101.56
322.42	98.56
322.649	111.56
322.878	93.56
323.108	116.56
323.337	101.56
323.566	125.56
323.795	163.56
324.024	194.56
324.253	425.56
324.482	840.56
324.71	1819.56
324.939	2279.56
325.168	856.56
325.397	253.56
325.626	152.56
325.855	139.56
326.084	131.56
326.313	125.56
326.542	163.56
326.77	237.56
326.999	472.56
327.228	965.56
327.457	1724.56
327.686	1346.56
327.914	391.56
328.143	198.56
328.372	151.56
328.6	148.56
328.829	141.56
329.058	134.56
329.287	142.56
329.515	124.56
329.744	95.56
329.972	105.56
330.201	128.56
330.43	159.56
330.658	123.56
330.887	166.56
331.115	122.56
331.344	100.56
331.572	91.56
331.801	114.56
332.03	110.56
332.258	107.56
332.486	91.56
332.715	85.56
332.943	89.56
333.172	91.56
333.4	95.56
333.629	108.56
333.857	123.56
334.085	115.56
334.314	135.56
334.542	129.56
334.771	125.56
334.999	106.56
335.227	95.56
335.455	101.56
335.684	83.56
335.912	91.56
336.14	94.56
336.369	93.56
336.597	92.56
336.825	101.56
337.053	82.56
337.281	82.56
337.51	97.56
337.738	89.56
337.966	90.56
338.194	96.56
338.422	93.56
338.65	92.56
338.878	92.56
339.106	79.56
339.334	79.56
339.562	97.56
339.79	80.56
340.018	83.56
340.246	93.56
340.474	80.56
340.702	88.56
340.93	112.56
341.158	90.56
341.386	96.56
341.614	94.56
341.842	103.56
342.07	97.56
342.298	97.56
342.526	84.56
342.754	80.56
342.981	87.56
343.209	85.56
343.437	94.56
343.665	90.56
343.893	85.56
344.12	78.56
344.348	87.56
344.576	81.56
344.804	74.56
345.031	89.56
345.259	81.56
345.487	91.56
345.714	90.56
345.942	87.56
346.17	88.56
346.397	77.56
346.625	95.56
346.853	86.56
347.08	75.56
347.308	94.56
347.535	92.56
347.763	104.56
347.99	95.56
348.218	84.56
348.445	101.56
348.673	92.56
348.9	91.56
349.128	84.56
349.355	87.56
349.583	87.56
349.81	95.56
350.037	84.56
350.265	78.56
350.492	103.56
350.72	100.56
350.947	94.56
351.174	106.56
351.402	102.56
351.629	100.56
351.856	94.56
352.083	95.56
352.311	107.56
352.538	109.56
352.765	104.56
352.992	110.56
353.22	116.56
353.447	93.56
353.674	96.56
353.901	90.56
354.128	100.56
354.355	90.56
354.583	86.56
354.81	92.56
355.037	85.56
355.264	92.56
355.491	91.56
355.718	83.56
355.945	97.56
356.172	99.56
356.399	91.56
356.626	96.56
356.853	83.56
357.08	70.56
357.307	91.56
357.534	92.56
357.761	85.56
357.988	80.56
358.215	88.56
358.441	98.56
358.668	84.56
358.895	94.56
359.122	98.56
359.349	87.56
359.576	86.56
359.802	91.56
360.029	98.56
360.256	107.56
360.483	104.56
360.709	68.56
360.936	89.56
361.163	97.56
361.39	97.56
361.616	102.56
361.843	79.56
362.07	67.56
362.296	95.56
362.523	81.56
362.749	87.56
362.976	87.56
363.203	91.56
363.429	79.56
363.656	87.56
363.882	94.56
364.109	87.56
364.335	77.56
364.562	110.56
364.788	93.56
365.015	87.56
365.241	112.56
365.468	105.56
365.694	94.56
365.92	96.56
366.147	91.56
366.373	95.56
366.599	88.56
366.826	87.56
367.052	74.56
367.278	71.56
367.505	86.56
367.731	89.56
367.957	92.56
368.184	78.56
368.41	92.56
368.636	127.56
368.862	117.56
369.089	116.56
369.315	106.56
369.541	85.56
369.767	88.56
369.993	96.56
370.219	87.56
370.445	84.56
370.672	81.56
370.898	78.56
371.124	64.56
371.35	82.56
371.576	82.56
371.802	83.56
372.028	88.56
372.254	72.56
372.48	81.56
372.706	89.56
372.932	77.56
373.158	73.56
373.384	97.56
373.61	89.56
373.835	85.56
374.061	82.56
374.287	93.56
374.513	71.56
374.739	90.56
374.965	87.56
375.191	90.56
375.416	86.56
375.642	85.56
375.868	97.56
376.094	94.56
376.319	79.56
376.545	80.56
376.771	94.56
376.997	96.56
377.222	85.56
377.448	73.56
377.674	94.56
377.899	74.56
378.125	86.56
378.35	92.56
378.576	90.56
378.802	85.56
379.027	94.56
379.253	91.56
379.478	85.56
379.704	91.56
379.929	92.56
380.155	100.56
380.38	88.56
380.606	100.56
380.831	93.56
381.057	98.56
381.282	88.56
381.507	105.56
381.733	103.56
381.958	87.56
382.184	87.56
382.409	92.56
382.634	92.56
382.86	88.56
383.085	103.56
383.31	100.56
383.535	97.56
383.761	112.56
383.986	100.56
384.211	94.56
384.436	94.56
384.662	90.56
384.887	97.56
385.112	100.56
385.337	108.56
385.562	101.56
385.787	85.56
386.013	107.56
386.238	97.56
386.463	101.56
386.688	102.56
386.913	101.56
387.138	105.56
387.363	93.56
387.588	86.56
387.813	88.56
388.038	96.56
388.263	113.56
388.488	102.56
388.713	93.56
388.938	99.56
389.163	98.56
389.387	88.56
389.612	78.56
389.837	82.56
390.062	92.56
390.287	84.56
390.512	91.56
390.736	89.56
390.961	88.56
391.186	89.56
391.411	89.56
391.636	98.56
391.86	75.56
392.085	78.56
392.31	80.56
392.534	77.56
392.759	88.56
392.984	83.56
393.208	67.56
393.433	87.56
393.658	86.56
393.882	69.56
394.107	76.56
394.331	85.56
394.556	98.56
394.78	92.56
395.005	92.56
395.229	94.56
395.454	68.56
395.678	73.56
395.903	88.56
396.127	76.56
396.352	81.56
396.576	83.56
396.801	82.56
397.025	83.56
397.249	72.56
397.474	82.56
397.698	85.56
397.922	87.56
398.147	81.56
398.371	73.56
398.595	75.56
398.82	80.56
399.044	83.56
399.268	87.56
399.492	79.56
399.717	80.56
399.941	86.56
400.165	92.56
400.389	91.56
400.613	90.56
400.837	82.56
401.062	92.56
401.286	101.56
401.51	88.56
401.734	94.56
401.958	109.56
402.182	135.56
402.406	162.56
402.63	129.56
402.854	85.56
403.078	86.56
403.302	84.56
403.526	82.56
403.75	87.56
403.974	78.56
404.198	79.56
404.422	78.56
404.645	89.56
404.869	84.56
405.093	91.56
405.317	101.56
405.541	95.56
405.765	127.56
405.988	111.56
406.212	194.56
406.436	264.56
406.66	165.56
406.883	100.56
407.107	95.56
407.331	96.56
407.555	112.56
407.778	109.56
408.002	105.56
408.226	88.56
408.449	78.56
408.673	88.56
408.896	88.56
409.12	108.56
409.344	82.56
409.567	86.56
409.791	99.56
410.014	94.56
410.238	82.56
410.461	86.56
410.685	97.56
410.908	79.56
411.132	73.56
411.355	98.56
411.578	84.56
411.802	92.56
412.025	87.56
412.249	79.56
412.472	95.56
412.695	91.56
412.919	85.56
413.142	72.56
413.365	82.56
413.589	93.56
413.812	92.56
414.035	80.56
414.258	89.56
414.482	100.56
414.705	80.56
414.928	83.56
415.151	79.56
415.374	91.56
415.597	84.56
415.821	83.56
416.044	90.56
416.267	102.56
416.49	90.56
416.713	81.56
416.936	89.56
417.159	91.56
417.382	68.56
417.605	87.56
417.828	96.56
418.051	102.56
418.274	88.56
418.497	93.56
418.72	88.56
418.943	80.56
419.166	78.56
419.389	95.56
419.611	77.56
419.834	95.56
420.057	94.56
420.28	102.56
420.503	106.56
420.726	81.56
420.948	88.56
421.171	87.56
421.394	100.56
421.617	86.56
421.839	94.56
422.062	89.56
422.285	97.56
422.507	100.56
422.73	86.56
422.953	89.56
423.175	82.56
423.398	90.56
423.621	82.56
423.843	90.56
424.066	88.56
424.288	84.56
424.511	94.56
424.733	91.56
424.956	107.56
425.178	93.56
425.401	104.56
425.623	99.56
425.846	94.56
426.068	89.56
426.291	85.56
426.513	95.56
426.735	79.56
426.958	86.56
427.18	116.56
427.402	151.56
427.625	173.56
427.847	141.56
428.069	116.56
428.292	83.56
428.514	85.56
428.736	93.56
428.958	95.56
429.181	81.56
429.403	93.56
429.625	85.56
429.847	95.56
430.069	104.56
430.292	105.56
430.514	83.56
430.736	80.56
430.958	95.56
431.18	76.56
431.402	81.56
431.624	85.56
431.846	76.56
432.068	88.56
432.29	96.56
432.512	81.56
432.734	81.56
432.956	87.56
433.178	103.56
433.4	105.56
433.622	75.56
433.844	83.56
434.066	90.56
434.287	92.56
434.509	86.56
434.731	91.56
434.953	98.56
435.175	88.56
435.397	104.56
435.618	87.56
435.84	89.56
436.062	104.56
436.284	104.56
436.505	96.56
436.727	92.56
436.949	86.56
437.17	73.56
437.392	71.56
437.614	90.56
437.835	102.56
438.057	128.56
438.278	99.56
438.5	99.56
438.721	124.56
438.943	99.56
439.165	87.56
439.386	87.56
439.608	82.56
439.829	99.56
440.05	116.56
440.272	130.56
440.493	102.56
440.715	79.56
440.936	79.56
441.158	108.56
441.379	78.56
441.6	86.56
441.822	83.56
442.043	82.56
442.264	95.56
442.486	88.56
442.707	95.56
442.928	122.56
443.149	132.56
443.371	125.56
443.592	103.56
443.813	116.56
444.034	102.56
444.255	90.56
444.476	68.56
444.698	82.56
444.919	96.56
445.14	114.56
445.361	117.56
445.582	103.56
445.803	136.56
446.024	136.56
446.245	128.56
446.466	107.56
446.687	77.56
446.908	71.56
447.129	78.56
447.35	74.56
447.571	98.56
447.792	91.56
448.013	97.56
448.234	115.56
448.455	96.56
448.675	110.56
448.896	109.56
449.117	93.56
449.338	100.56
449.559	119.56
449.779	124.56
450	101.56
450.221	89.56
450.442	91.56
450.662	91.56
450.883	116.56
451.104	105.56
451.324	87.56
451.545	88.56
451.766	77.56
451.986	88.56
452.207	80.56
452.428	97.56
452.648	95.56
452.869	109.56
453.089	104.56
453.31	113.56
453.53	92.56
453.751	83.56
453.971	110.56
454.192	127.56
454.412	92.56
454.633	74.56
454.853	65.56
455.073	82.56
455.294	80.56
455.514	91.56
455.734	93.56
455.955	91.56
456.175	80.56
456.395	91.56
456.616	75.56
456.836	78.56
457.056	85.56
457.276	65.56
457.497	77.56
457.717	81.56
457.937	80.56
458.157	80.56
458.377	94.56
458.598	107.56
458.818	157.56
459.038	171.56
459.258	104.56
459.478	68.56
459.698	83.56
459.918	87.56
460.138	81.56
460.358	77.56
460.578	92.56
460.798	96.56
461.018	86.56
461.238	72.56
461.458	89.56
461.678	68.56
461.898	92.56
462.118	100.56
462.338	80.56
462.558	72.56
462.777	87.56
462.997	89.56
463.217	72.56
463.437	86.56
463.657	71.56
463.876	73.56
464.096	81.56
464.316	88.56
464.536	94.56
464.755	87.56
464.975	108.56
465.195	203.56
465.414	171.56
465.634	94.56
465.854	88.56
466.073	90.56
466.293	88.56
466.512	83.56
466.732	97.56
466.951	74.56
467.171	80.56
467.391	90.56
467.61	115.56
467.829	97.56
468.049	102.56
468.268	121.56
468.488	82.56
468.707	94.56
468.927	88.56
469.146	93.56
469.365	91.56
469.585	82.56
469.804	100.56
470.023	98.56
470.243	100.56
470.462	92.56
470.681	110.56
470.901	88.56
471.12	90.56
471.339	78.56
471.558	83.56
471.777	96.56
471.997	80.56
472.216	117.56
472.435	151.56
472.654	98.56
472.873	98.56
473.092	108.56
473.311	100.56
473.53	90.56
473.749	102.56
473.968	95.56
474.187	107.56
474.406	89.56
474.625	94.56
474.844	83.56
475.063	68.56
475.282	82.56
475.501	80.56
475.72	90.56
475.939	81.56
476.158	91.56
476.377	90.56
476.596	80.56
476.814	87.56
477.033	84.56
477.252	89.56
477.471	79.56
477.69	88.56
477.908	84.56
478.127	83.56
478.346	112.56
478.564	90.56
478.783	95.56
479.002	79.56
479.22	94.56
479.439	102.56
479.658	103.56
479.876	105.56
480.095	88.56
480.313	91.56
480.532	85.56
480.751	95.56
480.969	123.56
481.188	207.56
481.406	174.56
481.624	109.56
481.843	98.56
482.061	80.56
482.28	101.56
482.498	91.56
482.717	70.56
482.935	93.56
483.153	87.56
483.372	72.56
483.59	90.56
483.808	78.56
484.027	96.56
484.245	99.56
484.463	84.56
484.681	85.56
484.9	89.56
485.118	84.56
485.336	92.56
485.554	102.56
485.772	89.56
485.99	87.56
486.209	107.56
486.427	100.56
486.645	112.56
486.863	116.56
487.081	101.56
487.299	84.56
487.517	73.56
487.735	86.56
487.953	94.56
488.171	88.56
488.389	96.56
488.607	86.56
488.825	112.56
489.043	88.56
489.261	95.56
489.479	85.56
489.696	92.56
489.914	87.56
490.132	85.56
490.35	73.56
490.568	72.56
490.786	88.56
491.003	84.56
491.221	101.56
491.439	90.56
491.657	83.56
491.874	91.56
492.092	102.56
492.31	87.56
492.527	90.56
492.745	95.56
492.963	85.56
493.18	84.56
493.398	81.56
493.615	99.56
493.833	97.56
494.05	80.56
494.268	75.56
494.485	79.56
494.703	86.56
494.92	87.56
495.138	78.56
495.355	73.56
495.573	82.56
495.79	77.56
496.008	83.56
496.225	99.56
496.442	87.56
496.66	81.56
496.877	88.56
497.094	97.56
497.312	89.56
497.529	88.56
497.746	89.56
497.963	87.56
498.181	95.56
498.398	92.56
498.615	113.56
498.832	101.56
499.049	82.56
499.267	84.56
499.484	78.56
499.701	87.56
499.918	71.56
500.135	84.56
500.352	91.56
500.569	91.56
500.786	93.56
501.003	89.56
501.22	92.56
501.437	96.56
501.654	104.56
501.871	110.56
502.088	94.56
502.305	82.56
502.522	93.56
502.739	93.56
502.956	84.56
503.172	88.56
503.389	79.56
503.606	111.56
503.823	92.56
504.04	91.56
504.256	80.56
504.473	83.56
504.69	95.56
504.907	89.56
505.123	99.56
505.34	91.56
505.557	97.56
505.773	111.56
505.99	94.56
506.207	96.56
506.423	89.56
506.64	107.56
506.856	93.56
507.073	96.56
507.289	83.56
507.506	88.56
507.722	106.56
507.939	114.56
508.155	82.56
508.372	102.56
508.588	89.56
508.805	104.56
509.021	100.56
509.238	114.56
509.454	92.56
509.67	110.56
509.887	112.56
510.103	142.56
510.319	245.56
510.536	896.56
510.752	2990.56
510.968	864.56
511.184	159.56
511.401	121.56
511.617	102.56
511.833	86.56
512.049	108.56
512.265	85.56
512.481	84.56
512.698	96.56
512.914	92.56
513.13	100.56
513.346	97.56
513.562	100.56
513.778	104.56
513.994	93.56
514.21	113.56
514.426	133.56
514.642	140.56
514.858	130.56
515.074	184.56
515.29	506.56
515.506	1919.56
515.721	713.56
515.937	174.56
516.153	99.56
516.369	92.56
