Data from Circ_2018_H10_HRD10591_00039.txt Node
Date: Wed Jan 03 09:56:09 EST 2024
User: Yrep
Spectrometer: HR+D1059
Trigger mode: 1
Integration Time (sec): 1.000000E-1
Scans to average: 1
Electric dark correction enabled: true
Nonlinearity correction enabled: false
Boxcar width: 0
XAxis mode: Wavelengths
Number of Pixels in Spectrum: 2048
>>>>>Begin Spectral Data<<<<<
223.165	-10.94
223.4	-10.94
223.635	-10.94
223.869	-19.94
224.104	-22.94
224.338	-18.94
224.573	-16.94
224.808	-10.94
225.042	-8.94
225.277	-8.94
225.511	-4.94
225.746	12.06
225.98	10.06
226.215	20.06
226.449	4.06
226.683	12.06
226.918	25.06
227.152	40.06
227.387	33.06
227.621	31.06
227.856	51.06
228.09	49.06
228.324	64.06
228.559	59.06
228.793	60.06
229.027	70.06
229.262	52.06
229.496	79.06
229.73	98.06
229.964	93.06
230.199	73.06
230.433	77.06
230.667	78.06
230.901	72.06
231.136	83.06
231.37	85.06
231.604	85.06
231.838	87.06
232.072	87.06
232.306	72.06
232.541	84.06
232.775	77.06
233.009	81.06
233.243	73.06
233.477	83.06
233.711	85.06
233.945	83.06
234.179	78.06
234.413	93.06
234.647	79.06
234.881	72.06
235.115	80.06
235.349	94.06
235.583	79.06
235.817	82.06
236.051	64.06
236.285	76.06
236.519	74.06
236.753	82.06
236.987	75.06
237.221	77.06
237.455	82.06
237.689	68.06
237.922	92.06
238.156	64.06
238.39	76.06
238.624	58.06
238.858	75.06
239.091	71.06
239.325	72.06
239.559	78.06
239.793	88.06
240.027	76.06
240.26	81.06
240.494	68.06
240.728	68.06
240.961	72.06
241.195	81.06
241.429	70.06
241.662	74.06
241.896	73.06
242.13	83.06
242.363	77.06
242.597	74.06
242.83	90.06
243.064	68.06
243.298	74.06
243.531	72.06
243.765	78.06
243.998	73.06
244.232	69.06
244.465	81.06
244.699	77.06
244.932	79.06
245.166	74.06
245.399	71.06
245.633	80.06
245.866	76.06
246.099	70.06
246.333	69.06
246.566	88.06
246.8	83.06
247.033	70.06
247.266	76.06
247.5	77.06
247.733	77.06
247.966	73.06
248.2	85.06
248.433	78.06
248.666	74.06
248.899	91.06
249.133	66.06
249.366	98.06
249.599	82.06
249.832	66.06
250.066	92.06
250.299	87.06
250.532	84.06
250.765	72.06
250.998	80.06
251.231	70.06
251.465	82.06
251.698	63.06
251.931	73.06
252.164	95.06
252.397	72.06
252.63	67.06
252.863	81.06
253.096	76.06
253.329	81.06
253.562	77.06
253.795	83.06
254.028	75.06
254.261	86.06
254.494	85.06
254.727	78.06
254.96	77.06
255.193	96.06
255.426	78.06
255.659	70.06
255.892	82.06
256.124	79.06
256.357	73.06
256.59	83.06
256.823	69.06
257.056	71.06
257.289	69.06
257.521	72.06
257.754	79.06
257.987	75.06
258.22	71.06
258.452	81.06
258.685	88.06
258.918	88.06
259.151	76.06
259.383	65.06
259.616	82.06
259.849	77.06
260.081	91.06
260.314	81.06
260.547	87.06
260.779	81.06
261.012	84.06
261.244	73.06
261.477	93.06
261.71	86.06
261.942	117.06
262.175	126.06
262.407	102.06
262.64	89.06
262.872	75.06
263.105	88.06
263.337	84.06
263.57	75.06
263.802	77.06
264.035	83.06
264.267	75.06
264.499	79.06
264.732	75.06
264.964	80.06
265.197	97.06
265.429	81.06
265.661	84.06
265.894	74.06
266.126	85.06
266.358	81.06
266.591	82.06
266.823	80.06
267.055	74.06
267.287	69.06
267.52	66.06
267.752	80.06
267.984	71.06
268.216	74.06
268.448	79.06
268.681	76.06
268.913	79.06
269.145	85.06
269.377	80.06
269.609	81.06
269.841	85.06
270.073	85.06
270.306	92.06
270.538	98.06
270.77	100.06
271.002	96.06
271.234	83.06
271.466	71.06
271.698	73.06
271.93	84.06
272.162	83.06
272.394	102.06
272.626	92.06
272.858	87.06
273.09	90.06
273.322	79.06
273.553	77.06
273.785	71.06
274.017	85.06
274.249	98.06
274.481	84.06
274.713	90.06
274.945	82.06
275.176	77.06
275.408	83.06
275.64	91.06
275.872	91.06
276.104	85.06
276.335	81.06
276.567	88.06
276.799	119.06
277.031	94.06
277.262	91.06
277.494	92.06
277.726	79.06
277.957	97.06
278.189	81.06
278.421	76.06
278.652	75.06
278.884	84.06
279.115	85.06
279.347	87.06
279.579	83.06
279.81	85.06
280.042	84.06
280.273	76.06
280.505	89.06
280.736	74.06
280.968	83.06
281.199	91.06
281.431	88.06
281.662	93.06
281.894	99.06
282.125	102.06
282.356	134.06
282.588	156.06
282.819	117.06
283.051	96.06
283.282	84.06
283.513	79.06
283.745	71.06
283.976	92.06
284.207	86.06
284.439	96.06
284.67	96.06
284.901	81.06
285.132	84.06
285.364	96.06
285.595	80.06
285.826	81.06
286.057	92.06
286.288	83.06
286.52	87.06
286.751	94.06
286.982	88.06
287.213	90.06
287.444	86.06
287.675	88.06
287.906	77.06
288.138	83.06
288.369	98.06
288.6	76.06
288.831	85.06
289.062	88.06
289.293	91.06
289.524	83.06
289.755	82.06
289.986	83.06
290.217	98.06
290.448	82.06
290.679	85.06
290.91	93.06
291.141	76.06
291.371	92.06
291.602	90.06
291.833	72.06
292.064	80.06
292.295	90.06
292.526	92.06
292.757	83.06
292.987	91.06
293.218	85.06
293.449	83.06
293.68	104.06
293.91	81.06
294.141	81.06
294.372	75.06
294.603	84.06
294.833	98.06
295.064	81.06
295.295	104.06
295.525	91.06
295.756	99.06
295.987	146.06
296.217	153.06
296.448	139.06
296.679	109.06
296.909	87.06
297.14	74.06
297.37	101.06
297.601	85.06
297.831	91.06
298.062	96.06
298.292	88.06
298.523	89.06
298.753	85.06
298.984	85.06
299.214	80.06
299.445	100.06
299.675	90.06
299.905	109.06
300.136	89.06
300.366	91.06
300.597	98.06
300.827	100.06
301.057	105.06
301.288	108.06
301.518	83.06
301.748	94.06
301.979	90.06
302.209	97.06
302.439	94.06
302.669	92.06
302.9	86.06
303.13	95.06
303.36	93.06
303.59	94.06
303.82	90.06
304.051	115.06
304.281	89.06
304.511	93.06
304.741	76.06
304.971	91.06
305.201	80.06
305.431	75.06
305.661	94.06
305.891	92.06
306.121	96.06
306.352	99.06
306.582	101.06
306.812	113.06
307.042	93.06
307.272	107.06
307.502	88.06
307.731	83.06
307.961	104.06
308.191	95.06
308.421	89.06
308.651	90.06
308.881	84.06
309.111	94.06
309.341	107.06
309.571	112.06
309.8	113.06
310.03	98.06
310.26	101.06
310.49	87.06
310.72	97.06
310.949	102.06
311.179	103.06
311.409	93.06
311.639	109.06
311.868	89.06
312.098	92.06
312.328	97.06
312.557	113.06
312.787	127.06
313.017	102.06
313.246	104.06
313.476	98.06
313.706	88.06
313.935	95.06
314.165	107.06
314.394	111.06
314.624	100.06
314.853	102.06
315.083	92.06
315.312	91.06
315.542	103.06
315.771	87.06
316.001	83.06
316.23	74.06
316.46	93.06
316.689	91.06
316.919	102.06
317.148	93.06
317.377	94.06
317.607	101.06
317.836	98.06
318.065	96.06
318.295	100.06
318.524	90.06
318.753	90.06
318.983	93.06
319.212	100.06
319.441	110.06
319.67	112.06
319.9	88.06
320.129	103.06
320.358	100.06
320.587	97.06
320.816	98.06
321.046	105.06
321.275	105.06
321.504	107.06
321.733	87.06
321.962	97.06
322.191	103.06
322.42	116.06
322.649	105.06
322.878	114.06
323.108	126.06
323.337	138.06
323.566	148.06
323.795	160.06
324.024	232.06
324.253	464.06
324.482	949.06
324.71	1909.06
324.939	2522.06
325.168	914.06
325.397	283.06
325.626	157.06
325.855	134.06
326.084	107.06
326.313	134.06
326.542	152.06
326.77	273.06
326.999	502.06
327.228	1034.06
327.457	1833.06
327.686	1439.06
327.914	408.06
328.143	219.06
328.372	187.06
328.6	148.06
328.829	113.06
329.058	134.06
329.287	155.06
329.515	119.06
329.744	116.06
329.972	100.06
330.201	105.06
330.43	148.06
330.658	145.06
330.887	174.06
331.115	139.06
331.344	112.06
331.572	89.06
331.801	115.06
332.03	101.06
332.258	97.06
332.486	103.06
332.715	96.06
332.943	93.06
333.172	93.06
333.4	110.06
333.629	121.06
333.857	123.06
334.085	121.06
334.314	131.06
334.542	124.06
334.771	135.06
334.999	96.06
335.227	102.06
335.455	97.06
335.684	104.06
335.912	113.06
336.14	106.06
336.369	115.06
336.597	105.06
336.825	96.06
337.053	94.06
337.281	97.06
337.51	92.06
337.738	102.06
337.966	91.06
338.194	84.06
338.422	95.06
338.65	86.06
338.878	81.06
339.106	101.06
339.334	87.06
339.562	89.06
339.79	81.06
340.018	84.06
340.246	87.06
340.474	93.06
340.702	95.06
340.93	92.06
341.158	97.06
341.386	87.06
341.614	107.06
341.842	90.06
342.07	101.06
342.298	89.06
342.526	83.06
342.754	77.06
342.981	81.06
343.209	94.06
343.437	96.06
343.665	86.06
343.893	90.06
344.12	92.06
344.348	93.06
344.576	90.06
344.804	91.06
345.031	100.06
345.259	103.06
345.487	98.06
345.714	106.06
345.942	100.06
346.17	79.06
346.397	83.06
346.625	97.06
346.853	101.06
347.08	93.06
347.308	87.06
347.535	94.06
347.763	91.06
347.99	91.06
348.218	96.06
348.445	104.06
348.673	101.06
348.9	110.06
349.128	95.06
349.355	96.06
349.583	95.06
349.81	93.06
350.037	84.06
350.265	84.06
350.492	87.06
350.72	93.06
350.947	91.06
351.174	109.06
351.402	116.06
351.629	104.06
351.856	102.06
352.083	107.06
352.311	105.06
352.538	115.06
352.765	101.06
352.992	137.06
353.22	104.06
353.447	109.06
353.674	115.06
353.901	98.06
354.128	79.06
354.355	89.06
354.583	103.06
354.81	125.06
355.037	89.06
355.264	101.06
355.491	92.06
355.718	96.06
355.945	100.06
356.172	95.06
356.399	89.06
356.626	92.06
356.853	79.06
357.08	90.06
357.307	85.06
357.534	97.06
357.761	87.06
357.988	93.06
358.215	103.06
358.441	92.06
358.668	86.06
358.895	90.06
359.122	99.06
359.349	99.06
359.576	95.06
359.802	99.06
360.029	132.06
360.256	111.06
360.483	93.06
360.709	99.06
360.936	109.06
361.163	91.06
361.39	100.06
361.616	98.06
361.843	94.06
362.07	107.06
362.296	94.06
362.523	88.06
362.749	106.06
362.976	91.06
363.203	106.06
363.429	86.06
363.656	104.06
363.882	77.06
364.109	88.06
364.335	113.06
364.562	87.06
364.788	93.06
365.015	95.06
365.241	97.06
365.468	111.06
365.694	112.06
365.92	110.06
366.147	92.06
366.373	91.06
366.599	74.06
366.826	92.06
367.052	103.06
367.278	100.06
367.505	96.06
367.731	95.06
367.957	87.06
368.184	88.06
368.41	109.06
368.636	105.06
368.862	125.06
369.089	115.06
369.315	111.06
369.541	92.06
369.767	90.06
369.993	88.06
370.219	78.06
370.445	80.06
370.672	79.06
370.898	80.06
371.124	79.06
371.35	94.06
371.576	84.06
371.802	83.06
372.028	90.06
372.254	76.06
372.48	91.06
372.706	91.06
372.932	97.06
373.158	75.06
373.384	92.06
373.61	80.06
373.835	95.06
374.061	88.06
374.287	101.06
374.513	97.06
374.739	99.06
374.965	90.06
375.191	73.06
375.416	89.06
375.642	90.06
375.868	87.06
376.094	89.06
376.319	82.06
376.545	71.06
376.771	95.06
376.997	98.06
377.222	91.06
377.448	91.06
377.674	83.06
377.899	84.06
378.125	89.06
378.35	83.06
378.576	86.06
378.802	99.06
379.027	106.06
379.253	88.06
379.478	95.06
379.704	85.06
379.929	84.06
380.155	98.06
380.38	88.06
380.606	96.06
380.831	93.06
381.057	93.06
381.282	101.06
381.507	85.06
381.733	101.06
381.958	114.06
382.184	95.06
382.409	97.06
382.634	116.06
382.86	111.06
383.085	103.06
383.31	103.06
383.535	101.06
383.761	117.06
383.986	105.06
384.211	92.06
384.436	101.06
384.662	113.06
384.887	101.06
385.112	92.06
385.337	97.06
385.562	99.06
385.787	98.06
386.013	117.06
386.238	127.06
386.463	97.06
386.688	100.06
386.913	112.06
387.138	105.06
387.363	105.06
387.588	108.06
387.813	110.06
388.038	96.06
388.263	103.06
388.488	112.06
388.713	91.06
388.938	106.06
389.163	83.06
389.387	94.06
389.612	98.06
389.837	88.06
390.062	98.06
390.287	100.06
390.512	86.06
390.736	96.06
390.961	83.06
391.186	84.06
391.411	85.06
391.636	88.06
391.86	90.06
392.085	84.06
392.31	89.06
392.534	95.06
392.759	87.06
392.984	83.06
393.208	100.06
393.433	99.06
393.658	91.06
393.882	93.06
394.107	74.06
394.331	88.06
394.556	91.06
394.78	80.06
395.005	85.06
395.229	78.06
395.454	73.06
395.678	84.06
395.903	87.06
396.127	93.06
396.352	76.06
396.576	79.06
396.801	75.06
397.025	89.06
397.249	87.06
397.474	92.06
397.698	104.06
397.922	104.06
398.147	92.06
398.371	91.06
398.595	77.06
398.82	81.06
399.044	86.06
399.268	91.06
399.492	104.06
399.717	89.06
399.941	84.06
400.165	112.06
400.389	97.06
400.613	88.06
400.837	84.06
401.062	84.06
401.286	99.06
401.51	82.06
401.734	90.06
401.958	107.06
402.182	144.06
402.406	186.06
402.63	131.06
402.854	99.06
403.078	78.06
403.302	85.06
403.526	92.06
403.75	96.06
403.974	74.06
404.198	72.06
404.422	89.06
404.645	82.06
404.869	89.06
405.093	92.06
405.317	99.06
405.541	103.06
405.765	114.06
405.988	112.06
406.212	199.06
406.436	268.06
406.66	182.06
406.883	100.06
407.107	91.06
407.331	112.06
407.555	103.06
407.778	87.06
408.002	81.06
408.226	92.06
408.449	89.06
408.673	88.06
408.896	100.06
409.12	93.06
409.344	80.06
409.567	81.06
409.791	99.06
410.014	102.06
410.238	86.06
410.461	101.06
410.685	94.06
410.908	99.06
411.132	102.06
411.355	99.06
411.578	103.06
411.802	66.06
412.025	83.06
412.249	98.06
412.472	102.06
412.695	101.06
412.919	100.06
413.142	92.06
413.365	101.06
413.589	84.06
413.812	89.06
414.035	83.06
414.258	102.06
414.482	104.06
414.705	97.06
414.928	92.06
415.151	93.06
415.374	104.06
415.597	86.06
415.821	87.06
416.044	82.06
416.267	92.06
416.49	91.06
416.713	87.06
416.936	96.06
417.159	91.06
417.382	90.06
417.605	100.06
417.828	98.06
418.051	86.06
418.274	86.06
418.497	87.06
418.72	78.06
418.943	92.06
419.166	95.06
419.389	77.06
419.611	84.06
419.834	91.06
420.057	93.06
420.28	85.06
420.503	96.06
420.726	82.06
420.948	91.06
421.171	98.06
421.394	92.06
421.617	96.06
421.839	101.06
422.062	93.06
422.285	98.06
422.507	99.06
422.73	94.06
422.953	94.06
423.175	85.06
423.398	82.06
423.621	91.06
423.843	86.06
424.066	90.06
424.288	93.06
424.511	107.06
424.733	82.06
424.956	101.06
425.178	102.06
425.401	108.06
425.623	112.06
425.846	90.06
426.068	97.06
426.291	75.06
426.513	74.06
426.735	97.06
426.958	88.06
427.18	117.06
427.402	132.06
427.625	187.06
427.847	152.06
428.069	112.06
428.292	96.06
428.514	88.06
428.736	77.06
428.958	86.06
429.181	77.06
429.403	94.06
429.625	85.06
429.847	91.06
430.069	112.06
430.292	83.06
430.514	90.06
430.736	101.06
430.958	82.06
431.18	83.06
431.402	71.06
431.624	76.06
431.846	94.06
432.068	95.06
432.29	91.06
432.512	96.06
432.734	111.06
432.956	94.06
433.178	89.06
433.4	104.06
433.622	91.06
433.844	82.06
434.066	87.06
434.287	97.06
434.509	104.06
434.731	100.06
434.953	89.06
435.175	89.06
435.397	87.06
435.618	107.06
435.84	102.06
436.062	132.06
436.284	119.06
436.505	113.06
436.727	100.06
436.949	90.06
437.17	88.06
437.392	87.06
437.614	106.06
437.835	131.06
438.057	129.06
438.278	131.06
438.5	119.06
438.721	129.06
438.943	91.06
439.165	83.06
439.386	88.06
439.608	99.06
439.829	101.06
440.05	139.06
440.272	157.06
440.493	115.06
440.715	96.06
440.936	85.06
441.158	93.06
441.379	89.06
441.6	103.06
441.822	103.06
442.043	107.06
442.264	115.06
442.486	111.06
442.707	105.06
442.928	123.06
443.149	120.06
443.371	161.06
443.592	123.06
443.813	104.06
444.034	106.06
444.255	97.06
444.476	86.06
444.698	99.06
444.919	101.06
445.14	119.06
445.361	120.06
445.582	116.06
445.803	162.06
446.024	153.06
446.245	139.06
446.466	132.06
446.687	95.06
446.908	93.06
447.129	87.06
447.35	94.06
447.571	101.06
447.792	92.06
448.013	113.06
448.234	111.06
448.455	98.06
448.675	122.06
448.896	113.06
449.117	91.06
449.338	115.06
449.559	127.06
449.779	132.06
450	85.06
450.221	85.06
450.442	87.06
450.662	94.06
450.883	127.06
451.104	125.06
451.324	96.06
451.545	95.06
451.766	92.06
451.986	59.06
452.207	91.06
452.428	96.06
452.648	100.06
452.869	106.06
453.089	113.06
453.31	131.06
453.53	109.06
453.751	96.06
453.971	106.06
454.192	114.06
454.412	107.06
454.633	80.06
454.853	80.06
455.073	95.06
455.294	92.06
455.514	102.06
455.734	89.06
455.955	96.06
456.175	75.06
456.395	94.06
456.616	88.06
456.836	100.06
457.056	85.06
457.276	95.06
457.497	80.06
457.717	79.06
457.937	96.06
458.157	88.06
458.377	95.06
458.598	119.06
458.818	167.06
459.038	192.06
459.258	128.06
459.478	91.06
459.698	84.06
459.918	104.06
460.138	98.06
460.358	78.06
460.578	85.06
460.798	84.06
461.018	97.06
461.238	96.06
461.458	79.06
461.678	64.06
461.898	89.06
462.118	91.06
462.338	81.06
462.558	90.06
462.777	87.06
462.997	83.06
463.217	94.06
463.437	71.06
463.657	81.06
463.876	98.06
464.096	74.06
464.316	81.06
464.536	108.06
464.755	95.06
464.975	122.06
465.195	206.06
465.414	185.06
465.634	108.06
465.854	87.06
466.073	95.06
466.293	79.06
466.512	92.06
466.732	83.06
466.951	90.06
467.171	101.06
467.391	99.06
467.61	107.06
467.829	105.06
468.049	120.06
468.268	108.06
468.488	99.06
468.707	82.06
468.927	81.06
469.146	72.06
469.365	84.06
469.585	95.06
469.804	93.06
470.023	99.06
470.243	101.06
470.462	103.06
470.681	121.06
470.901	96.06
471.12	87.06
471.339	88.06
471.558	89.06
471.777	93.06
471.997	107.06
472.216	104.06
472.435	139.06
472.654	107.06
472.873	88.06
473.092	73.06
473.311	85.06
473.53	82.06
473.749	91.06
473.968	111.06
474.187	125.06
474.406	93.06
474.625	83.06
474.844	87.06
475.063	77.06
475.282	92.06
475.501	86.06
475.72	93.06
475.939	87.06
476.158	92.06
476.377	82.06
476.596	85.06
476.814	94.06
477.033	96.06
477.252	93.06
477.471	89.06
477.69	85.06
477.908	97.06
478.127	87.06
478.346	87.06
478.564	82.06
478.783	101.06
479.002	93.06
479.22	97.06
479.439	113.06
479.658	97.06
479.876	100.06
480.095	87.06
480.313	88.06
480.532	75.06
480.751	96.06
480.969	109.06
481.188	187.06
481.406	155.06
481.624	89.06
481.843	104.06
482.061	107.06
482.28	80.06
482.498	73.06
482.717	86.06
482.935	102.06
483.153	92.06
483.372	99.06
483.59	84.06
483.808	92.06
484.027	95.06
484.245	92.06
484.463	106.06
484.681	95.06
484.9	108.06
485.118	90.06
485.336	97.06
485.554	99.06
485.772	102.06
485.99	87.06
486.209	98.06
486.427	100.06
486.645	111.06
486.863	111.06
487.081	94.06
487.299	98.06
487.517	95.06
487.735	92.06
487.953	88.06
488.171	105.06
488.389	97.06
488.607	96.06
488.825	88.06
489.043	82.06
489.261	81.06
489.479	94.06
489.696	87.06
489.914	100.06
490.132	90.06
490.35	97.06
490.568	81.06
490.786	92.06
491.003	88.06
491.221	80.06
491.439	87.06
491.657	88.06
491.874	102.06
492.092	102.06
492.31	90.06
492.527	89.06
492.745	85.06
492.963	92.06
493.18	93.06
493.398	87.06
493.615	90.06
493.833	76.06
494.05	88.06
494.268	84.06
494.485	102.06
494.703	80.06
494.92	104.06
495.138	81.06
495.355	101.06
495.573	84.06
495.79	92.06
496.008	96.06
496.225	107.06
496.442	96.06
496.66	105.06
496.877	92.06
497.094	82.06
497.312	102.06
497.529	100.06
497.746	91.06
497.963	77.06
498.181	98.06
498.398	106.06
498.615	111.06
498.832	111.06
499.049	85.06
499.267	85.06
499.484	81.06
499.701	103.06
499.918	100.06
500.135	94.06
500.352	91.06
500.569	85.06
500.786	92.06
501.003	95.06
501.22	86.06
501.437	84.06
501.654	87.06
501.871	101.06
502.088	69.06
502.305	95.06
502.522	84.06
502.739	79.06
502.956	87.06
503.172	79.06
503.389	92.06
503.606	112.06
503.823	116.06
504.04	98.06
504.256	90.06
504.473	76.06
504.69	91.06
504.907	79.06
505.123	94.06
505.34	105.06
505.557	79.06
505.773	88.06
505.99	106.06
506.207	94.06
506.423	88.06
506.64	89.06
506.856	98.06
507.073	99.06
507.289	91.06
507.506	95.06
507.722	129.06
507.939	103.06
508.155	105.06
508.372	82.06
508.588	85.06
508.805	90.06
509.021	111.06
509.238	89.06
509.454	106.06
509.67	102.06
509.887	103.06
510.103	147.06
510.319	239.06
510.536	946.06
510.752	3185.06
510.968	890.06
511.184	185.06
511.401	134.06
511.617	96.06
511.833	97.06
512.049	83.06
512.265	102.06
512.481	107.06
512.698	91.06
512.914	95.06
513.13	97.06
513.346	92.06
513.562	87.06
513.778	99.06
513.994	102.06
514.21	101.06
514.426	135.06
514.642	171.06
514.858	152.06
