Data from Circ_2018_H10_HRD10591_00053.txt Node
Date: Wed Jan 03 09:56:12 EST 2024
User: Yrep
Spectrometer: HR+D1059
Trigger mode: 1
Integration Time (sec): 1.000000E-1
Scans to average: 1
Electric dark correction enabled: true
Nonlinearity correction enabled: false
Boxcar width: 0
XAxis mode: Wavelengths
Number of Pixels in Spectrum: 2048
>>>>>Begin Spectral Data<<<<<
223.165	-10.25
223.4	-10.25
223.635	-10.25
223.869	-20.25
224.104	-17.25
224.338	-7.25
224.573	-26.25
224.808	-7.25
225.042	-2.25
225.277	-14.25
225.511	-1.25
225.746	7.75
225.98	5.75
226.215	7.75
226.449	20.75
226.683	23.75
226.918	19.75
227.152	20.75
227.387	36.75
227.621	34.75
227.856	42.75
228.09	60.75
228.324	51.75
228.559	54.75
228.793	60.75
229.027	43.75
229.262	76.75
229.496	66.75
229.73	94.75
229.964	93.75
230.199	68.75
230.433	90.75
230.667	87.75
230.901	82.75
231.136	75.75
231.37	76.75
231.604	103.75
231.838	84.75
232.072	70.75
232.306	84.75
232.541	68.75
232.775	70.75
233.009	88.75
233.243	94.75
233.477	73.75
233.711	74.75
233.945	81.75
234.179	79.75
234.413	74.75
234.647	76.75
234.881	67.75
235.115	71.75
235.349	69.75
235.583	82.75
235.817	76.75
236.051	66.75
236.285	76.75
236.519	89.75
236.753	73.75
236.987	79.75
237.221	79.75
237.455	84.75
237.689	81.75
237.922	80.75
238.156	74.75
238.39	70.75
238.624	62.75
238.858	89.75
239.091	80.75
239.325	74.75
239.559	80.75
239.793	90.75
240.027	87.75
240.26	83.75
240.494	80.75
240.728	71.75
240.961	83.75
241.195	81.75
241.429	87.75
241.662	64.75
241.896	66.75
242.13	81.75
242.363	82.75
242.597	78.75
242.83	95.75
243.064	87.75
243.298	78.75
243.531	77.75
243.765	76.75
243.998	86.75
244.232	81.75
244.465	83.75
244.699	92.75
244.932	73.75
245.166	74.75
245.399	70.75
245.633	96.75
245.866	87.75
246.099	78.75
246.333	75.75
246.566	75.75
246.8	83.75
247.033	73.75
247.266	75.75
247.5	71.75
247.733	81.75
247.966	67.75
248.2	79.75
248.433	76.75
248.666	69.75
248.899	85.75
249.133	93.75
249.366	93.75
249.599	99.75
249.832	79.75
250.066	79.75
250.299	72.75
250.532	83.75
250.765	67.75
250.998	81.75
251.231	88.75
251.465	88.75
251.698	74.75
251.931	82.75
252.164	87.75
252.397	79.75
252.63	73.75
252.863	84.75
253.096	82.75
253.329	85.75
253.562	86.75
253.795	92.75
254.028	71.75
254.261	82.75
254.494	69.75
254.727	74.75
254.96	80.75
255.193	76.75
255.426	81.75
255.659	71.75
255.892	67.75
256.124	94.75
256.357	68.75
256.59	75.75
256.823	87.75
257.056	94.75
257.289	85.75
257.521	82.75
257.754	78.75
257.987	70.75
258.22	78.75
258.452	84.75
258.685	88.75
258.918	63.75
259.151	71.75
259.383	79.75
259.616	78.75
259.849	90.75
260.081	75.75
260.314	85.75
260.547	68.75
260.779	92.75
261.012	81.75
261.244	70.75
261.477	91.75
261.71	80.75
261.942	126.75
262.175	106.75
262.407	88.75
262.64	67.75
262.872	83.75
263.105	71.75
263.337	84.75
263.57	80.75
263.802	80.75
264.035	90.75
264.267	86.75
264.499	87.75
264.732	89.75
264.964	101.75
265.197	80.75
265.429	85.75
265.661	85.75
265.894	83.75
266.126	86.75
266.358	86.75
266.591	98.75
266.823	84.75
267.055	79.75
267.287	89.75
267.52	80.75
267.752	89.75
267.984	75.75
268.216	74.75
268.448	77.75
268.681	83.75
268.913	82.75
269.145	91.75
269.377	82.75
269.609	89.75
269.841	82.75
270.073	71.75
270.306	81.75
270.538	83.75
270.77	80.75
271.002	80.75
271.234	92.75
271.466	83.75
271.698	79.75
271.93	73.75
272.162	82.75
272.394	84.75
272.626	93.75
272.858	85.75
273.09	69.75
273.322	93.75
273.553	103.75
273.785	89.75
274.017	83.75
274.249	91.75
274.481	79.75
274.713	87.75
274.945	86.75
275.176	83.75
275.408	90.75
275.64	91.75
275.872	87.75
276.104	80.75
276.335	78.75
276.567	103.75
276.799	126.75
277.031	116.75
277.262	92.75
277.494	97.75
277.726	95.75
277.957	79.75
278.189	72.75
278.421	91.75
278.652	76.75
278.884	80.75
279.115	84.75
279.347	90.75
279.579	82.75
279.81	92.75
280.042	87.75
280.273	95.75
280.505	90.75
280.736	84.75
280.968	81.75
281.199	92.75
281.431	89.75
281.662	89.75
281.894	97.75
282.125	104.75
282.356	131.75
282.588	144.75
282.819	127.75
283.051	87.75
283.282	80.75
283.513	95.75
283.745	81.75
283.976	79.75
284.207	89.75
284.439	83.75
284.67	78.75
284.901	91.75
285.132	76.75
285.364	93.75
285.595	78.75
285.826	97.75
286.057	88.75
286.288	88.75
286.52	92.75
286.751	95.75
286.982	76.75
287.213	86.75
287.444	75.75
287.675	100.75
287.906	87.75
288.138	88.75
288.369	97.75
288.6	99.75
288.831	95.75
289.062	70.75
289.293	81.75
289.524	92.75
289.755	83.75
289.986	84.75
290.217	97.75
290.448	80.75
290.679	79.75
290.91	78.75
291.141	98.75
291.371	81.75
291.602	86.75
291.833	89.75
292.064	91.75
292.295	82.75
292.526	93.75
292.757	89.75
292.987	90.75
293.218	114.75
293.449	82.75
293.68	91.75
293.91	84.75
294.141	102.75
294.372	84.75
294.603	100.75
294.833	97.75
295.064	86.75
295.295	100.75
295.525	92.75
295.756	107.75
295.987	118.75
296.217	164.75
296.448	123.75
296.679	108.75
296.909	92.75
297.14	100.75
297.37	90.75
297.601	83.75
297.831	89.75
298.062	86.75
298.292	89.75
298.523	95.75
298.753	76.75
298.984	83.75
299.214	92.75
299.445	90.75
299.675	95.75
299.905	97.75
300.136	86.75
300.366	90.75
300.597	87.75
300.827	92.75
301.057	96.75
301.288	106.75
301.518	99.75
301.748	99.75
301.979	97.75
302.209	97.75
302.439	79.75
302.669	85.75
302.9	90.75
303.13	88.75
303.36	98.75
303.59	112.75
303.82	101.75
304.051	86.75
304.281	87.75
304.511	101.75
304.741	90.75
304.971	93.75
305.201	91.75
305.431	93.75
305.661	91.75
305.891	95.75
306.121	92.75
306.352	108.75
306.582	106.75
306.812	87.75
307.042	90.75
307.272	104.75
307.502	106.75
307.731	82.75
307.961	93.75
308.191	87.75
308.421	75.75
308.651	83.75
308.881	112.75
309.111	90.75
309.341	94.75
309.571	93.75
309.8	96.75
310.03	90.75
310.26	98.75
310.49	86.75
310.72	98.75
310.949	114.75
311.179	107.75
311.409	82.75
311.639	98.75
311.868	107.75
312.098	105.75
312.328	107.75
312.557	97.75
312.787	117.75
313.017	104.75
313.246	92.75
313.476	120.75
313.706	91.75
313.935	106.75
314.165	102.75
314.394	95.75
314.624	100.75
314.853	97.75
315.083	88.75
315.312	97.75
315.542	83.75
315.771	107.75
316.001	95.75
316.23	80.75
316.46	100.75
316.689	88.75
316.919	101.75
317.148	87.75
317.377	107.75
317.607	77.75
317.836	110.75
318.065	99.75
318.295	91.75
318.524	88.75
318.753	102.75
318.983	120.75
319.212	92.75
319.441	117.75
319.67	123.75
319.9	87.75
320.129	101.75
320.358	99.75
320.587	103.75
320.816	92.75
321.046	93.75
321.275	98.75
321.504	81.75
321.733	99.75
321.962	95.75
322.191	106.75
322.42	103.75
322.649	118.75
322.878	122.75
323.108	127.75
323.337	127.75
323.566	156.75
323.795	174.75
324.024	231.75
324.253	444.75
324.482	952.75
324.71	1926.75
324.939	2540.75
325.168	950.75
325.397	280.75
325.626	153.75
325.855	148.75
326.084	112.75
326.313	148.75
326.542	161.75
326.77	238.75
326.999	508.75
327.228	1041.75
327.457	1858.75
327.686	1498.75
327.914	418.75
328.143	236.75
328.372	195.75
328.6	143.75
328.829	127.75
329.058	160.75
329.287	158.75
329.515	119.75
329.744	108.75
329.972	113.75
330.201	126.75
330.43	161.75
330.658	133.75
330.887	167.75
331.115	139.75
331.344	115.75
331.572	107.75
331.801	114.75
332.03	120.75
332.258	105.75
332.486	100.75
332.715	85.75
332.943	93.75
333.172	87.75
333.4	98.75
333.629	111.75
333.857	132.75
334.085	127.75
334.314	122.75
334.542	149.75
334.771	161.75
334.999	103.75
335.227	108.75
335.455	99.75
335.684	101.75
335.912	95.75
336.14	100.75
336.369	96.75
336.597	104.75
336.825	90.75
337.053	93.75
337.281	95.75
337.51	99.75
337.738	90.75
337.966	76.75
338.194	94.75
338.422	90.75
338.65	87.75
338.878	100.75
339.106	97.75
339.334	87.75
339.562	94.75
339.79	101.75
340.018	116.75
340.246	97.75
340.474	99.75
340.702	94.75
340.93	81.75
341.158	98.75
341.386	94.75
341.614	91.75
341.842	97.75
342.07	99.75
342.298	102.75
342.526	89.75
342.754	96.75
342.981	74.75
343.209	84.75
343.437	85.75
343.665	87.75
343.893	99.75
344.12	91.75
344.348	74.75
344.576	87.75
344.804	97.75
345.031	114.75
345.259	103.75
345.487	100.75
345.714	85.75
345.942	89.75
346.17	98.75
346.397	105.75
346.625	94.75
346.853	96.75
347.08	92.75
347.308	100.75
347.535	91.75
347.763	111.75
347.99	94.75
348.218	120.75
348.445	116.75
348.673	98.75
348.9	93.75
349.128	94.75
349.355	95.75
349.583	87.75
349.81	101.75
350.037	99.75
350.265	101.75
350.492	108.75
350.72	103.75
350.947	103.75
351.174	127.75
351.402	122.75
351.629	104.75
351.856	100.75
352.083	113.75
352.311	108.75
352.538	125.75
352.765	127.75
352.992	120.75
353.22	119.75
353.447	108.75
353.674	100.75
353.901	110.75
354.128	103.75
354.355	97.75
354.583	109.75
354.81	101.75
355.037	97.75
355.264	92.75
355.491	92.75
355.718	97.75
355.945	91.75
356.172	90.75
356.399	91.75
356.626	98.75
356.853	101.75
357.08	82.75
357.307	103.75
357.534	94.75
357.761	100.75
357.988	103.75
358.215	91.75
358.441	71.75
358.668	89.75
358.895	84.75
359.122	90.75
359.349	95.75
359.576	91.75
359.802	107.75
360.029	106.75
360.256	124.75
360.483	98.75
360.709	87.75
360.936	99.75
361.163	106.75
361.39	89.75
361.616	109.75
361.843	98.75
362.07	101.75
362.296	98.75
362.523	98.75
362.749	98.75
362.976	92.75
363.203	93.75
363.429	84.75
363.656	94.75
363.882	78.75
364.109	107.75
364.335	94.75
364.562	85.75
364.788	110.75
365.015	107.75
365.241	116.75
365.468	112.75
365.694	128.75
365.92	94.75
366.147	95.75
366.373	92.75
366.599	102.75
366.826	84.75
367.052	114.75
367.278	101.75
367.505	87.75
367.731	92.75
367.957	103.75
368.184	79.75
368.41	103.75
368.636	123.75
368.862	138.75
369.089	113.75
369.315	102.75
369.541	95.75
369.767	95.75
369.993	87.75
370.219	88.75
370.445	87.75
370.672	86.75
370.898	83.75
371.124	111.75
371.35	97.75
371.576	76.75
371.802	91.75
372.028	97.75
372.254	107.75
372.48	81.75
372.706	97.75
372.932	90.75
373.158	96.75
373.384	89.75
373.61	91.75
373.835	94.75
374.061	101.75
374.287	82.75
374.513	98.75
374.739	91.75
374.965	91.75
375.191	88.75
375.416	83.75
375.642	96.75
375.868	106.75
376.094	92.75
376.319	94.75
376.545	82.75
376.771	89.75
376.997	97.75
377.222	95.75
377.448	92.75
377.674	88.75
377.899	90.75
378.125	98.75
378.35	99.75
378.576	103.75
378.802	95.75
379.027	90.75
379.253	94.75
379.478	75.75
379.704	99.75
379.929	91.75
380.155	94.75
380.38	102.75
380.606	101.75
380.831	90.75
381.057	98.75
381.282	85.75
381.507	103.75
381.733	98.75
381.958	104.75
382.184	91.75
382.409	97.75
382.634	102.75
382.86	104.75
383.085	108.75
383.31	101.75
383.535	101.75
383.761	90.75
383.986	108.75
384.211	99.75
384.436	103.75
384.662	97.75
384.887	105.75
385.112	76.75
385.337	118.75
385.562	105.75
385.787	107.75
386.013	114.75
386.238	118.75
386.463	108.75
386.688	105.75
386.913	97.75
387.138	104.75
387.363	110.75
387.588	105.75
387.813	96.75
388.038	100.75
388.263	113.75
388.488	120.75
388.713	104.75
388.938	87.75
389.163	84.75
389.387	95.75
389.612	91.75
389.837	80.75
390.062	104.75
390.287	106.75
390.512	89.75
390.736	84.75
390.961	92.75
391.186	97.75
391.411	90.75
391.636	103.75
391.86	91.75
392.085	101.75
392.31	98.75
392.534	84.75
392.759	88.75
392.984	85.75
393.208	65.75
393.433	81.75
393.658	88.75
393.882	84.75
394.107	85.75
394.331	88.75
394.556	74.75
394.78	91.75
395.005	90.75
395.229	68.75
395.454	84.75
395.678	89.75
395.903	79.75
396.127	92.75
396.352	94.75
396.576	99.75
396.801	85.75
397.025	81.75
397.249	76.75
397.474	90.75
397.698	84.75
397.922	94.75
398.147	82.75
398.371	94.75
398.595	87.75
398.82	75.75
399.044	89.75
399.268	80.75
399.492	81.75
399.717	80.75
399.941	82.75
400.165	84.75
400.389	86.75
400.613	93.75
400.837	91.75
401.062	96.75
401.286	91.75
401.51	95.75
401.734	98.75
401.958	126.75
402.182	130.75
402.406	190.75
402.63	141.75
402.854	101.75
403.078	98.75
403.302	91.75
403.526	95.75
403.75	81.75
403.974	92.75
404.198	90.75
404.422	101.75
404.645	71.75
404.869	106.75
405.093	94.75
405.317	104.75
405.541	109.75
405.765	120.75
405.988	126.75
406.212	209.75
406.436	290.75
406.66	183.75
406.883	110.75
407.107	87.75
407.331	87.75
407.555	98.75
407.778	100.75
408.002	95.75
408.226	93.75
408.449	86.75
408.673	87.75
408.896	99.75
409.12	102.75
409.344	97.75
409.567	93.75
409.791	107.75
410.014	102.75
410.238	78.75
410.461	102.75
410.685	99.75
410.908	100.75
411.132	109.75
411.355	107.75
411.578	98.75
411.802	103.75
412.025	96.75
412.249	82.75
412.472	79.75
412.695	82.75
412.919	80.75
413.142	80.75
413.365	87.75
413.589	90.75
413.812	87.75
414.035	91.75
414.258	87.75
414.482	73.75
414.705	79.75
414.928	86.75
415.151	85.75
415.374	98.75
415.597	79.75
415.821	87.75
416.044	81.75
416.267	89.75
416.49	91.75
416.713	85.75
416.936	108.75
417.159	105.75
417.382	104.75
417.605	90.75
417.828	94.75
418.051	89.75
418.274	87.75
418.497	92.75
418.72	81.75
418.943	90.75
419.166	88.75
419.389	82.75
419.611	87.75
419.834	84.75
420.057	89.75
420.28	92.75
420.503	88.75
420.726	93.75
420.948	90.75
421.171	93.75
421.394	80.75
421.617	89.75
421.839	98.75
422.062	71.75
422.285	98.75
422.507	103.75
422.73	88.75
422.953	103.75
423.175	103.75
423.398	88.75
423.621	81.75
423.843	84.75
424.066	96.75
424.288	95.75
424.511	94.75
424.733	98.75
424.956	106.75
425.178	93.75
425.401	119.75
425.623	114.75
425.846	88.75
426.068	99.75
426.291	92.75
426.513	99.75
426.735	81.75
426.958	96.75
427.18	120.75
427.402	157.75
427.625	188.75
427.847	152.75
428.069	139.75
428.292	114.75
428.514	101.75
428.736	82.75
428.958	76.75
429.181	85.75
429.403	80.75
429.625	80.75
429.847	79.75
430.069	73.75
430.292	90.75
430.514	81.75
430.736	98.75
430.958	90.75
431.18	89.75
431.402	88.75
431.624	74.75
431.846	83.75
432.068	80.75
432.29	84.75
432.512	97.75
432.734	86.75
432.956	89.75
433.178	96.75
433.4	118.75
433.622	75.75
433.844	82.75
434.066	98.75
434.287	109.75
434.509	93.75
434.731	74.75
434.953	82.75
435.175	101.75
435.397	101.75
435.618	109.75
435.84	104.75
436.062	135.75
436.284	113.75
436.505	106.75
436.727	110.75
436.949	100.75
437.17	76.75
437.392	96.75
437.614	86.75
437.835	129.75
438.057	134.75
438.278	105.75
438.5	105.75
438.721	122.75
438.943	104.75
439.165	89.75
439.386	80.75
439.608	96.75
439.829	93.75
440.05	143.75
440.272	161.75
440.493	96.75
440.715	86.75
440.936	95.75
441.158	86.75
441.379	89.75
441.6	89.75
441.822	85.75
442.043	99.75
442.264	108.75
442.486	107.75
442.707	88.75
442.928	118.75
443.149	150.75
443.371	156.75
443.592	111.75
443.813	112.75
444.034	126.75
444.255	103.75
444.476	80.75
444.698	93.75
444.919	97.75
445.14	135.75
445.361	127.75
445.582	141.75
445.803	146.75
446.024	137.75
446.245	150.75
446.466	122.75
446.687	87.75
446.908	80.75
447.129	96.75
447.35	91.75
447.571	97.75
447.792	106.75
448.013	96.75
448.234	120.75
448.455	113.75
448.675	128.75
448.896	127.75
449.117	101.75
449.338	91.75
449.559	118.75
449.779	138.75
450	83.75
450.221	103.75
450.442	90.75
450.662	111.75
450.883	112.75
451.104	133.75
451.324	90.75
451.545	89.75
451.766	89.75
451.986	84.75
452.207	90.75
452.428	83.75
452.648	96.75
452.869	105.75
453.089	128.75
453.31	138.75
453.53	92.75
453.751	71.75
453.971	116.75
454.192	135.75
454.412	110.75
454.633	88.75
454.853	90.75
455.073	106.75
455.294	92.75
455.514	112.75
455.734	97.75
455.955	94.75
456.175	84.75
456.395	84.75
456.616	106.75
456.836	93.75
457.056	95.75
457.276	96.75
457.497	70.75
457.717	76.75
457.937	88.75
458.157	90.75
458.377	102.75
458.598	112.75
458.818	176.75
459.038	194.75
459.258	129.75
459.478	92.75
459.698	83.75
459.918	82.75
460.138	84.75
460.358	82.75
460.578	96.75
460.798	106.75
461.018	91.75
461.238	81.75
461.458	78.75
461.678	76.75
461.898	88.75
462.118	82.75
462.338	91.75
462.558	86.75
462.777	89.75
462.997	83.75
463.217	76.75
463.437	85.75
463.657	86.75
463.876	92.75
464.096	94.75
464.316	103.75
464.536	99.75
464.755	92.75
464.975	117.75
465.195	182.75
465.414	194.75
465.634	91.75
465.854	105.75
466.073	83.75
466.293	76.75
466.512	95.75
466.732	79.75
466.951	75.75
467.171	88.75
467.391	110.75
467.61	106.75
467.829	112.75
468.049	95.75
468.268	113.75
468.488	100.75
468.707	98.75
468.927	89.75
469.146	86.75
469.365	89.75
469.585	84.75
469.804	88.75
470.023	96.75
470.243	95.75
470.462	105.75
470.681	131.75
470.901	88.75
471.12	66.75
471.339	94.75
471.558	90.75
471.777	90.75
471.997	99.75
472.216	130.75
472.435	179.75
472.654	98.75
472.873	101.75
473.092	80.75
473.311	85.75
473.53	76.75
473.749	92.75
473.968	101.75
474.187	119.75
474.406	91.75
474.625	101.75
474.844	98.75
475.063	86.75
475.282	92.75
475.501	86.75
475.72	81.75
475.939	87.75
476.158	98.75
476.377	89.75
476.596	91.75
476.814	99.75
477.033	108.75
477.252	72.75
477.471	88.75
477.69	98.75
477.908	76.75
478.127	82.75
478.346	96.75
478.564	95.75
478.783	86.75
479.002	98.75
479.22	90.75
479.439	105.75
479.658	102.75
479.876	102.75
480.095	87.75
480.313	95.75
480.532	84.75
480.751	93.75
480.969	120.75
481.188	260.75
481.406	178.75
481.624	111.75
481.843	93.75
482.061	75.75
482.28	94.75
482.498	86.75
482.717	98.75
482.935	88.75
483.153	79.75
483.372	88.75
483.59	94.75
483.808	97.75
484.027	88.75
484.245	101.75
484.463	94.75
484.681	95.75
484.9	93.75
485.118	84.75
485.336	96.75
485.554	92.75
485.772	107.75
485.99	95.75
486.209	94.75
486.427	108.75
486.645	104.75
486.863	126.75
487.081	103.75
487.299	98.75
487.517	92.75
487.735	72.75
487.953	83.75
488.171	93.75
488.389	90.75
488.607	100.75
488.825	101.75
489.043	85.75
489.261	87.75
489.479	85.75
489.696	84.75
489.914	82.75
490.132	88.75
490.35	92.75
490.568	83.75
490.786	108.75
491.003	83.75
491.221	90.75
491.439	85.75
491.657	101.75
491.874	96.75
492.092	98.75
492.31	89.75
492.527	98.75
492.745	85.75
492.963	89.75
493.18	83.75
493.398	96.75
493.615	97.75
493.833	86.75
494.05	88.75
494.268	96.75
494.485	91.75
494.703	88.75
494.92	90.75
495.138	89.75
495.355	86.75
495.573	101.75
495.79	88.75
496.008	89.75
496.225	72.75
496.442	89.75
496.66	88.75
496.877	91.75
497.094	101.75
497.312	91.75
497.529	91.75
497.746	80.75
497.963	88.75
498.181	95.75
498.398	96.75
498.615	102.75
498.832	111.75
499.049	86.75
499.267	86.75
499.484	85.75
499.701	80.75
499.918	75.75
500.135	77.75
500.352	95.75
500.569	86.75
500.786	96.75
501.003	79.75
501.22	93.75
501.437	84.75
501.654	85.75
501.871	111.75
502.088	85.75
502.305	81.75
502.522	89.75
502.739	84.75
502.956	99.75
503.172	98.75
503.389	91.75
503.606	99.75
503.823	101.75
504.04	117.75
504.256	98.75
504.473	83.75
504.69	71.75
504.907	95.75
505.123	101.75
505.34	95.75
505.557	86.75
505.773	89.75
505.99	99.75
506.207	94.75
506.423	82.75
506.64	94.75
506.856	91.75
507.073	88.75
507.289	84.75
507.506	116.75
507.722	135.75
507.939	116.75
508.155	92.75
508.372	98.75
508.588	98.75
508.805	96.75
509.021	96.75
509.238	117.75
509.454	114.75
509.67	112.75
509.887	103.75
510.103	138.75
510.319	246.75
510.536	953.75
510.752	3259.75
510.968	913.75
511.184	185.75
511.401	115.75
511.617	113.75
511.833	105.75
512.049	99.75
512.265	73.75
512.481	97.75
512.698	88.75
512.914	104.75
513.13	88.75
513.346	88.75
513.562	95.75
513.778	101.75
513.994	103.75
514.21	107.75
514.426	127.75
514.642	167.75
514.858	147.75
