Data from Circ_2018_H10_HRD10591_00062.txt Node
Date: Wed Jan 03 09:56:14 EST 2024
User: Yrep
Spectrometer: HR+D1059
Trigger mode: 1
Integration Time (sec): 1.000000E-1
Scans to average: 1
Electric dark correction enabled: true
Nonlinearity correction enabled: false
Boxcar width: 0
XAxis mode: Wavelengths
Number of Pixels in Spectrum: 2048
>>>>>Begin Spectral Data<<<<<
223.165	-10.25
223.4	-10.25
223.635	-10.25
223.869	-17.25
224.104	-18.25
224.338	-34.25
224.573	-23.25
224.808	-27.25
225.042	-5.25
225.277	-9.25
225.511	-3.25
225.746	5.75
225.98	12.75
226.215	8.75
226.449	19.75
226.683	33.75
226.918	34.75
227.152	32.75
227.387	27.75
227.621	41.75
227.856	31.75
228.09	38.75
228.324	54.75
228.559	57.75
228.793	66.75
229.027	63.75
229.262	65.75
229.496	68.75
229.73	89.75
229.964	90.75
230.199	69.75
230.433	62.75
230.667	71.75
230.901	75.75
231.136	58.75
231.37	70.75
231.604	88.75
231.838	79.75
232.072	78.75
232.306	84.75
232.541	69.75
232.775	67.75
233.009	81.75
233.243	83.75
233.477	79.75
233.711	87.75
233.945	83.75
234.179	84.75
234.413	93.75
234.647	63.75
234.881	70.75
235.115	92.75
235.349	71.75
235.583	63.75
235.817	73.75
236.051	84.75
236.285	61.75
236.519	69.75
236.753	69.75
236.987	79.75
237.221	71.75
237.455	80.75
237.689	82.75
237.922	85.75
238.156	80.75
238.39	72.75
238.624	61.75
238.858	80.75
239.091	70.75
239.325	86.75
239.559	92.75
239.793	69.75
240.027	69.75
240.26	74.75
240.494	73.75
240.728	75.75
240.961	85.75
241.195	80.75
241.429	80.75
241.662	88.75
241.896	75.75
242.13	72.75
242.363	73.75
242.597	80.75
242.83	73.75
243.064	95.75
243.298	79.75
243.531	72.75
243.765	76.75
243.998	75.75
244.232	72.75
244.465	92.75
244.699	65.75
244.932	81.75
245.166	86.75
245.399	78.75
245.633	91.75
245.866	72.75
246.099	80.75
246.333	80.75
246.566	81.75
246.8	69.75
247.033	79.75
247.266	68.75
247.5	85.75
247.733	77.75
247.966	79.75
248.2	78.75
248.433	67.75
248.666	86.75
248.899	78.75
249.133	89.75
249.366	103.75
249.599	102.75
249.832	76.75
250.066	82.75
250.299	69.75
250.532	63.75
250.765	79.75
250.998	71.75
251.231	80.75
251.465	79.75
251.698	73.75
251.931	78.75
252.164	82.75
252.397	78.75
252.63	94.75
252.863	77.75
253.096	70.75
253.329	84.75
253.562	69.75
253.795	84.75
254.028	87.75
254.261	74.75
254.494	97.75
254.727	70.75
254.96	88.75
255.193	75.75
255.426	74.75
255.659	70.75
255.892	80.75
256.124	74.75
256.357	69.75
256.59	87.75
256.823	78.75
257.056	74.75
257.289	69.75
257.521	73.75
257.754	72.75
257.987	91.75
258.22	74.75
258.452	87.75
258.685	72.75
258.918	84.75
259.151	70.75
259.383	88.75
259.616	93.75
259.849	80.75
260.081	73.75
260.314	76.75
260.547	71.75
260.779	73.75
261.012	81.75
261.244	92.75
261.477	80.75
261.71	85.75
261.942	128.75
262.175	127.75
262.407	89.75
262.64	92.75
262.872	72.75
263.105	85.75
263.337	73.75
263.57	86.75
263.802	83.75
264.035	75.75
264.267	74.75
264.499	81.75
264.732	67.75
264.964	99.75
265.197	75.75
265.429	88.75
265.661	85.75
265.894	83.75
266.126	85.75
266.358	81.75
266.591	83.75
266.823	80.75
267.055	83.75
267.287	79.75
267.52	72.75
267.752	78.75
267.984	87.75
268.216	86.75
268.448	82.75
268.681	63.75
268.913	100.75
269.145	100.75
269.377	84.75
269.609	89.75
269.841	92.75
270.073	69.75
270.306	73.75
270.538	84.75
270.77	86.75
271.002	91.75
271.234	78.75
271.466	83.75
271.698	88.75
271.93	80.75
272.162	78.75
272.394	86.75
272.626	79.75
272.858	87.75
273.09	87.75
273.322	90.75
273.553	75.75
273.785	81.75
274.017	69.75
274.249	72.75
274.481	82.75
274.713	73.75
274.945	96.75
275.176	85.75
275.408	89.75
275.64	87.75
275.872	82.75
276.104	82.75
276.335	93.75
276.567	91.75
276.799	115.75
277.031	88.75
277.262	94.75
277.494	80.75
277.726	87.75
277.957	92.75
278.189	90.75
278.421	80.75
278.652	81.75
278.884	82.75
279.115	104.75
279.347	82.75
279.579	80.75
279.81	67.75
280.042	83.75
280.273	92.75
280.505	80.75
280.736	100.75
280.968	97.75
281.199	82.75
281.431	86.75
281.662	70.75
281.894	77.75
282.125	85.75
282.356	120.75
282.588	179.75
282.819	132.75
283.051	84.75
283.282	79.75
283.513	100.75
283.745	100.75
283.976	75.75
284.207	75.75
284.439	84.75
284.67	94.75
284.901	93.75
285.132	81.75
285.364	90.75
285.595	82.75
285.826	95.75
286.057	81.75
286.288	74.75
286.52	90.75
286.751	88.75
286.982	85.75
287.213	93.75
287.444	88.75
287.675	84.75
287.906	81.75
288.138	88.75
288.369	83.75
288.6	94.75
288.831	81.75
289.062	92.75
289.293	92.75
289.524	85.75
289.755	85.75
289.986	72.75
290.217	84.75
290.448	95.75
290.679	88.75
290.91	84.75
291.141	82.75
291.371	82.75
291.602	84.75
291.833	86.75
292.064	89.75
292.295	82.75
292.526	75.75
292.757	78.75
292.987	68.75
293.218	89.75
293.449	84.75
293.68	87.75
293.91	92.75
294.141	87.75
294.372	83.75
294.603	83.75
294.833	87.75
295.064	86.75
295.295	86.75
295.525	85.75
295.756	102.75
295.987	137.75
296.217	161.75
296.448	138.75
296.679	86.75
296.909	93.75
297.14	99.75
297.37	93.75
297.601	90.75
297.831	98.75
298.062	79.75
298.292	89.75
298.523	88.75
298.753	82.75
298.984	78.75
299.214	86.75
299.445	99.75
299.675	86.75
299.905	98.75
300.136	88.75
300.366	86.75
300.597	91.75
300.827	91.75
301.057	107.75
301.288	104.75
301.518	93.75
301.748	90.75
301.979	98.75
302.209	95.75
302.439	74.75
302.669	93.75
302.9	90.75
303.13	86.75
303.36	94.75
303.59	122.75
303.82	98.75
304.051	96.75
304.281	88.75
304.511	91.75
304.741	87.75
304.971	80.75
305.201	90.75
305.431	68.75
305.661	87.75
305.891	80.75
306.121	82.75
306.352	103.75
306.582	113.75
306.812	92.75
307.042	80.75
307.272	91.75
307.502	90.75
307.731	101.75
307.961	94.75
308.191	100.75
308.421	85.75
308.651	86.75
308.881	99.75
309.111	102.75
309.341	97.75
309.571	101.75
309.8	109.75
310.03	95.75
310.26	104.75
310.49	97.75
310.72	96.75
310.949	103.75
311.179	112.75
311.409	85.75
311.639	100.75
311.868	95.75
312.098	96.75
312.328	99.75
312.557	99.75
312.787	116.75
313.017	114.75
313.246	107.75
313.476	81.75
313.706	92.75
313.935	96.75
314.165	85.75
314.394	103.75
314.624	97.75
314.853	114.75
315.083	81.75
315.312	105.75
315.542	79.75
315.771	74.75
316.001	67.75
316.23	86.75
316.46	78.75
316.689	77.75
316.919	105.75
317.148	90.75
317.377	99.75
317.607	90.75
317.836	102.75
318.065	85.75
318.295	100.75
318.524	85.75
318.753	90.75
318.983	104.75
319.212	107.75
319.441	117.75
319.67	98.75
319.9	86.75
320.129	89.75
320.358	99.75
320.587	89.75
320.816	96.75
321.046	96.75
321.275	80.75
321.504	80.75
321.733	109.75
321.962	93.75
322.191	106.75
322.42	109.75
322.649	97.75
322.878	130.75
323.108	132.75
323.337	133.75
323.566	145.75
323.795	157.75
324.024	224.75
324.253	444.75
324.482	946.75
324.71	1924.75
324.939	2513.75
325.168	915.75
325.397	253.75
325.626	156.75
325.855	109.75
326.084	121.75
326.313	131.75
326.542	175.75
326.77	249.75
326.999	473.75
327.228	1024.75
327.457	1804.75
327.686	1416.75
327.914	404.75
328.143	222.75
328.372	183.75
328.6	156.75
328.829	125.75
329.058	153.75
329.287	139.75
329.515	110.75
329.744	116.75
329.972	124.75
330.201	143.75
330.43	172.75
330.658	151.75
330.887	161.75
331.115	146.75
331.344	99.75
331.572	104.75
331.801	95.75
332.03	98.75
332.258	102.75
332.486	88.75
332.715	97.75
332.943	101.75
333.172	95.75
333.4	102.75
333.629	116.75
333.857	115.75
334.085	119.75
334.314	140.75
334.542	170.75
334.771	184.75
334.999	112.75
335.227	105.75
335.455	114.75
335.684	90.75
335.912	98.75
336.14	85.75
336.369	93.75
336.597	114.75
336.825	86.75
337.053	83.75
337.281	93.75
337.51	100.75
337.738	101.75
337.966	104.75
338.194	99.75
338.422	97.75
338.65	102.75
338.878	76.75
339.106	74.75
339.334	92.75
339.562	92.75
339.79	89.75
340.018	87.75
340.246	89.75
340.474	100.75
340.702	84.75
340.93	80.75
341.158	86.75
341.386	97.75
341.614	110.75
341.842	79.75
342.07	89.75
342.298	90.75
342.526	95.75
342.754	89.75
342.981	75.75
343.209	83.75
343.437	92.75
343.665	99.75
343.893	90.75
344.12	101.75
344.348	94.75
344.576	86.75
344.804	90.75
345.031	92.75
345.259	95.75
345.487	96.75
345.714	92.75
345.942	97.75
346.17	97.75
346.397	85.75
346.625	75.75
346.853	84.75
347.08	96.75
347.308	90.75
347.535	101.75
347.763	105.75
347.99	99.75
348.218	115.75
348.445	102.75
348.673	110.75
348.9	99.75
349.128	98.75
349.355	95.75
349.583	95.75
349.81	93.75
350.037	103.75
350.265	94.75
350.492	86.75
350.72	82.75
350.947	113.75
351.174	122.75
351.402	97.75
351.629	101.75
351.856	88.75
352.083	105.75
352.311	114.75
352.538	114.75
352.765	124.75
352.992	127.75
353.22	126.75
353.447	105.75
353.674	84.75
353.901	102.75
354.128	90.75
354.355	91.75
354.583	105.75
354.81	88.75
355.037	103.75
355.264	87.75
355.491	86.75
355.718	94.75
355.945	95.75
356.172	96.75
356.399	97.75
356.626	97.75
356.853	84.75
357.08	87.75
357.307	96.75
357.534	75.75
357.761	78.75
357.988	102.75
358.215	99.75
358.441	88.75
358.668	86.75
358.895	92.75
359.122	78.75
359.349	71.75
359.576	95.75
359.802	81.75
360.029	133.75
360.256	139.75
360.483	104.75
360.709	81.75
360.936	96.75
361.163	84.75
361.39	89.75
361.616	98.75
361.843	86.75
362.07	100.75
362.296	103.75
362.523	91.75
362.749	85.75
362.976	94.75
363.203	85.75
363.429	94.75
363.656	88.75
363.882	100.75
364.109	100.75
364.335	89.75
364.562	94.75
364.788	97.75
365.015	98.75
365.241	97.75
365.468	100.75
365.694	119.75
365.92	85.75
366.147	83.75
366.373	77.75
366.599	83.75
366.826	95.75
367.052	92.75
367.278	77.75
367.505	94.75
367.731	91.75
367.957	111.75
368.184	85.75
368.41	101.75
368.636	114.75
368.862	124.75
369.089	95.75
369.315	92.75
369.541	97.75
369.767	79.75
369.993	97.75
370.219	98.75
370.445	85.75
370.672	77.75
370.898	88.75
371.124	76.75
371.35	88.75
371.576	86.75
371.802	80.75
372.028	82.75
372.254	89.75
372.48	92.75
372.706	85.75
372.932	85.75
373.158	76.75
373.384	90.75
373.61	91.75
373.835	93.75
374.061	89.75
374.287	93.75
374.513	93.75
374.739	84.75
374.965	93.75
375.191	84.75
375.416	87.75
375.642	92.75
375.868	80.75
376.094	76.75
376.319	89.75
376.545	95.75
376.771	93.75
376.997	92.75
377.222	73.75
377.448	84.75
377.674	76.75
377.899	89.75
378.125	89.75
378.35	88.75
378.576	96.75
378.802	80.75
379.027	95.75
379.253	82.75
379.478	82.75
379.704	85.75
379.929	84.75
380.155	80.75
380.38	87.75
380.606	94.75
380.831	88.75
381.057	102.75
381.282	100.75
381.507	88.75
381.733	80.75
381.958	72.75
382.184	101.75
382.409	102.75
382.634	98.75
382.86	95.75
383.085	94.75
383.31	97.75
383.535	105.75
383.761	93.75
383.986	103.75
384.211	90.75
384.436	97.75
384.662	106.75
384.887	97.75
385.112	111.75
385.337	113.75
385.562	81.75
385.787	91.75
386.013	104.75
386.238	104.75
386.463	102.75
386.688	109.75
386.913	89.75
387.138	98.75
387.363	114.75
387.588	101.75
387.813	93.75
388.038	95.75
388.263	103.75
388.488	108.75
388.713	85.75
388.938	90.75
389.163	92.75
389.387	97.75
389.612	94.75
389.837	86.75
390.062	93.75
390.287	91.75
390.512	84.75
390.736	81.75
390.961	87.75
391.186	83.75
391.411	96.75
391.636	78.75
391.86	97.75
392.085	85.75
392.31	96.75
392.534	95.75
392.759	94.75
392.984	97.75
393.208	87.75
393.433	92.75
393.658	84.75
393.882	80.75
394.107	97.75
394.331	88.75
394.556	97.75
394.78	89.75
395.005	91.75
395.229	68.75
395.454	91.75
395.678	84.75
395.903	91.75
396.127	84.75
396.352	92.75
396.576	83.75
396.801	95.75
397.025	80.75
397.249	84.75
397.474	79.75
397.698	90.75
397.922	87.75
398.147	74.75
398.371	81.75
398.595	85.75
398.82	81.75
399.044	94.75
399.268	93.75
399.492	89.75
399.717	95.75
399.941	98.75
400.165	92.75
400.389	110.75
400.613	84.75
400.837	84.75
401.062	82.75
401.286	77.75
401.51	92.75
401.734	105.75
401.958	115.75
402.182	147.75
402.406	204.75
402.63	152.75
402.854	99.75
403.078	110.75
403.302	93.75
403.526	96.75
403.75	89.75
403.974	86.75
404.198	95.75
404.422	89.75
404.645	84.75
404.869	97.75
405.093	98.75
405.317	111.75
405.541	111.75
405.765	105.75
405.988	138.75
406.212	201.75
406.436	300.75
406.66	181.75
406.883	92.75
407.107	95.75
407.331	87.75
407.555	99.75
407.778	84.75
408.002	80.75
408.226	91.75
408.449	91.75
408.673	80.75
408.896	98.75
409.12	85.75
409.344	86.75
409.567	98.75
409.791	88.75
410.014	105.75
410.238	74.75
410.461	91.75
410.685	109.75
410.908	101.75
411.132	89.75
411.355	97.75
411.578	97.75
411.802	89.75
412.025	96.75
412.249	69.75
412.472	78.75
412.695	85.75
412.919	98.75
413.142	73.75
413.365	85.75
413.589	85.75
413.812	89.75
414.035	77.75
414.258	79.75
414.482	92.75
414.705	89.75
414.928	80.75
415.151	88.75
415.374	95.75
415.597	85.75
415.821	81.75
416.044	96.75
416.267	95.75
416.49	83.75
416.713	83.75
416.936	78.75
417.159	85.75
417.382	83.75
417.605	85.75
417.828	92.75
418.051	98.75
418.274	82.75
418.497	88.75
418.72	93.75
418.943	89.75
419.166	81.75
419.389	98.75
419.611	84.75
419.834	103.75
420.057	85.75
420.28	86.75
420.503	93.75
420.726	84.75
420.948	89.75
421.171	93.75
421.394	103.75
421.617	88.75
421.839	80.75
422.062	86.75
422.285	83.75
422.507	102.75
422.73	97.75
422.953	100.75
423.175	92.75
423.398	88.75
423.621	91.75
423.843	84.75
424.066	81.75
424.288	83.75
424.511	93.75
424.733	109.75
424.956	106.75
425.178	105.75
425.401	83.75
425.623	85.75
425.846	92.75
426.068	83.75
426.291	84.75
426.513	79.75
426.735	76.75
426.958	105.75
427.18	109.75
427.402	137.75
427.625	184.75
427.847	154.75
428.069	130.75
428.292	81.75
428.514	91.75
428.736	68.75
428.958	78.75
429.181	86.75
429.403	92.75
429.625	93.75
429.847	91.75
430.069	100.75
430.292	94.75
430.514	99.75
430.736	91.75
430.958	84.75
431.18	80.75
431.402	81.75
431.624	84.75
431.846	77.75
432.068	91.75
432.29	89.75
432.512	84.75
432.734	95.75
432.956	92.75
433.178	96.75
433.4	83.75
433.622	77.75
433.844	87.75
434.066	97.75
434.287	100.75
434.509	92.75
434.731	97.75
434.953	85.75
435.175	78.75
435.397	88.75
435.618	104.75
435.84	104.75
436.062	123.75
436.284	110.75
436.505	106.75
436.727	96.75
436.949	97.75
437.17	85.75
437.392	85.75
437.614	96.75
437.835	111.75
438.057	127.75
438.278	112.75
438.5	114.75
438.721	133.75
438.943	94.75
439.165	68.75
439.386	90.75
439.608	91.75
439.829	90.75
440.05	111.75
440.272	144.75
440.493	122.75
440.715	92.75
440.936	76.75
441.158	85.75
441.379	89.75
441.6	109.75
441.822	102.75
442.043	105.75
442.264	103.75
442.486	108.75
442.707	96.75
442.928	114.75
443.149	142.75
443.371	146.75
443.592	119.75
443.813	125.75
444.034	106.75
444.255	100.75
444.476	87.75
444.698	86.75
444.919	88.75
445.14	138.75
445.361	134.75
445.582	126.75
445.803	151.75
446.024	154.75
446.245	142.75
446.466	111.75
446.687	87.75
446.908	81.75
447.129	92.75
447.35	84.75
447.571	95.75
447.792	91.75
448.013	92.75
448.234	95.75
448.455	97.75
448.675	111.75
448.896	112.75
449.117	97.75
449.338	105.75
449.559	123.75
449.779	145.75
450	89.75
450.221	83.75
450.442	89.75
450.662	83.75
450.883	100.75
451.104	115.75
451.324	104.75
451.545	90.75
451.766	88.75
451.986	90.75
452.207	91.75
452.428	97.75
452.648	104.75
452.869	120.75
453.089	136.75
453.31	143.75
453.53	93.75
453.751	100.75
453.971	98.75
454.192	131.75
454.412	98.75
454.633	98.75
454.853	89.75
455.073	76.75
455.294	94.75
455.514	97.75
455.734	92.75
455.955	91.75
456.175	77.75
456.395	71.75
456.616	74.75
456.836	94.75
457.056	96.75
457.276	92.75
457.497	87.75
457.717	82.75
457.937	99.75
458.157	81.75
458.377	74.75
458.598	112.75
458.818	167.75
459.038	195.75
459.258	130.75
459.478	85.75
459.698	71.75
459.918	83.75
460.138	94.75
460.358	84.75
460.578	71.75
460.798	100.75
461.018	88.75
461.238	93.75
461.458	85.75
461.678	83.75
461.898	82.75
462.118	84.75
462.338	91.75
462.558	91.75
462.777	85.75
462.997	89.75
463.217	85.75
463.437	67.75
463.657	79.75
463.876	86.75
464.096	98.75
464.316	83.75
464.536	95.75
464.755	94.75
464.975	106.75
465.195	195.75
465.414	201.75
465.634	117.75
465.854	87.75
466.073	97.75
466.293	102.75
466.512	85.75
466.732	84.75
466.951	94.75
467.171	99.75
467.391	94.75
467.61	78.75
467.829	112.75
468.049	116.75
468.268	101.75
468.488	94.75
468.707	82.75
468.927	84.75
469.146	81.75
469.365	89.75
469.585	100.75
469.804	94.75
470.023	103.75
470.243	108.75
470.462	117.75
470.681	119.75
470.901	91.75
471.12	86.75
471.339	83.75
471.558	72.75
471.777	87.75
471.997	97.75
472.216	153.75
472.435	218.75
472.654	110.75
472.873	87.75
473.092	78.75
473.311	79.75
473.53	74.75
473.749	81.75
473.968	105.75
474.187	109.75
474.406	89.75
474.625	85.75
474.844	78.75
475.063	88.75
475.282	87.75
475.501	88.75
475.72	84.75
475.939	88.75
476.158	80.75
476.377	77.75
476.596	89.75
476.814	94.75
477.033	89.75
477.252	99.75
477.471	71.75
477.69	82.75
477.908	91.75
478.127	92.75
478.346	85.75
478.564	84.75
478.783	110.75
479.002	77.75
479.22	98.75
479.439	101.75
479.658	122.75
479.876	95.75
480.095	109.75
480.313	85.75
480.532	97.75
480.751	92.75
480.969	143.75
481.188	308.75
481.406	224.75
481.624	94.75
481.843	100.75
482.061	88.75
482.28	96.75
482.498	69.75
482.717	87.75
482.935	88.75
483.153	85.75
483.372	88.75
483.59	95.75
483.808	89.75
484.027	87.75
484.245	97.75
484.463	83.75
484.681	97.75
484.9	87.75
485.118	99.75
485.336	84.75
485.554	100.75
485.772	89.75
485.99	94.75
486.209	113.75
486.427	95.75
486.645	103.75
486.863	124.75
487.081	109.75
487.299	98.75
487.517	105.75
487.735	92.75
487.953	84.75
488.171	95.75
488.389	90.75
488.607	116.75
488.825	82.75
489.043	100.75
489.261	85.75
489.479	100.75
489.696	89.75
489.914	89.75
490.132	93.75
490.35	82.75
490.568	90.75
490.786	93.75
491.003	100.75
491.221	107.75
491.439	71.75
491.657	98.75
491.874	79.75
492.092	87.75
492.31	95.75
492.527	100.75
492.745	96.75
492.963	90.75
493.18	90.75
493.398	98.75
493.615	101.75
493.833	83.75
494.05	89.75
494.268	82.75
494.485	87.75
494.703	92.75
494.92	104.75
495.138	88.75
495.355	98.75
495.573	95.75
495.79	85.75
496.008	103.75
496.225	100.75
496.442	82.75
496.66	96.75
496.877	91.75
497.094	91.75
497.312	86.75
497.529	88.75
497.746	89.75
497.963	85.75
498.181	104.75
498.398	88.75
498.615	109.75
498.832	118.75
499.049	92.75
499.267	98.75
499.484	85.75
499.701	98.75
499.918	98.75
500.135	84.75
500.352	101.75
500.569	94.75
500.786	93.75
501.003	95.75
501.22	90.75
501.437	85.75
501.654	92.75
501.871	101.75
502.088	101.75
502.305	85.75
502.522	78.75
502.739	87.75
502.956	116.75
503.172	84.75
503.389	98.75
503.606	131.75
503.823	99.75
504.04	100.75
504.256	101.75
504.473	87.75
504.69	94.75
504.907	99.75
505.123	90.75
505.34	91.75
505.557	84.75
505.773	98.75
505.99	91.75
506.207	102.75
506.423	88.75
506.64	81.75
506.856	95.75
507.073	93.75
507.289	101.75
507.506	111.75
507.722	130.75
507.939	114.75
508.155	92.75
508.372	74.75
508.588	93.75
508.805	103.75
509.021	88.75
509.238	103.75
509.454	114.75
509.67	116.75
509.887	128.75
510.103	152.75
510.319	267.75
510.536	1011.75
510.752	3390.75
510.968	975.75
511.184	182.75
511.401	112.75
511.617	108.75
511.833	85.75
512.049	93.75
512.265	95.75
512.481	97.75
512.698	97.75
512.914	109.75
513.13	88.75
513.346	88.75
513.562	100.75
513.778	124.75
513.994	107.75
514.21	113.75
514.426	125.75
514.642	177.75
514.858	157.75
515.074	206.75
515.29	672.75
515.506	2373.75
