Data from Uncirc_2008_H10_HRD10591_00059.txt Node
Date: Wed Jan 03 10:15:42 EST 2024
User: Yrep
Spectrometer: HR+D1059
Trigger mode: 1
Integration Time (sec): 1.000000E-1
Scans to average: 1
Electric dark correction enabled: true
Nonlinearity correction enabled: false
Boxcar width: 0
XAxis mode: Wavelengths
Number of Pixels in Spectrum: 2048
>>>>>Begin Spectral Data<<<<<
223.165	-24.12
223.4	-24.12
223.635	-24.12
223.869	-18.12
224.104	-28.12
224.338	-5.12
224.573	-23.12
224.808	-7.12
225.042	-1.12
225.277	-14.12
225.511	-2.12
225.746	3.88
225.98	24.88
226.215	21.88
226.449	21.88
226.683	11.88
226.918	19.88
227.152	18.88
227.387	24.88
227.621	29.88
227.856	30.88
228.09	37.88
228.324	59.88
228.559	38.88
228.793	45.88
229.027	53.88
229.262	55.88
229.496	73.88
229.73	81.88
229.964	75.88
230.199	53.88
230.433	69.88
230.667	69.88
230.901	68.88
231.136	76.88
231.37	85.88
231.604	76.88
231.838	75.88
232.072	93.88
232.306	92.88
232.541	89.88
232.775	65.88
233.009	65.88
233.243	92.88
233.477	89.88
233.711	69.88
233.945	73.88
234.179	76.88
234.413	75.88
234.647	80.88
234.881	86.88
235.115	88.88
235.349	78.88
235.583	74.88
235.817	79.88
236.051	62.88
236.285	77.88
236.519	72.88
236.753	79.88
236.987	85.88
237.221	74.88
237.455	69.88
237.689	71.88
237.922	75.88
238.156	66.88
238.39	67.88
238.624	57.88
238.858	73.88
239.091	71.88
239.325	70.88
239.559	66.88
239.793	70.88
240.027	68.88
240.26	78.88
240.494	79.88
240.728	60.88
240.961	78.88
241.195	73.88
241.429	73.88
241.662	84.88
241.896	75.88
242.13	75.88
242.363	68.88
242.597	55.88
242.83	55.88
243.064	81.88
243.298	69.88
243.531	69.88
243.765	66.88
243.998	78.88
244.232	67.88
244.465	86.88
244.699	62.88
244.932	65.88
245.166	64.88
245.399	69.88
245.633	75.88
245.866	74.88
246.099	75.88
246.333	98.88
246.566	71.88
246.8	73.88
247.033	82.88
247.266	69.88
247.5	69.88
247.733	91.88
247.966	83.88
248.2	79.88
248.433	82.88
248.666	74.88
248.899	64.88
249.133	68.88
249.366	79.88
249.599	84.88
249.832	75.88
250.066	75.88
250.299	82.88
250.532	73.88
250.765	78.88
250.998	78.88
251.231	66.88
251.465	81.88
251.698	78.88
251.931	70.88
252.164	78.88
252.397	77.88
252.63	71.88
252.863	65.88
253.096	84.88
253.329	77.88
253.562	78.88
253.795	79.88
254.028	85.88
254.261	72.88
254.494	89.88
254.727	80.88
254.96	82.88
255.193	74.88
255.426	68.88
255.659	85.88
255.892	77.88
256.124	77.88
256.357	76.88
256.59	64.88
256.823	65.88
257.056	79.88
257.289	65.88
257.521	85.88
257.754	86.88
257.987	58.88
258.22	89.88
258.452	86.88
258.685	69.88
258.918	86.88
259.151	77.88
259.383	74.88
259.616	89.88
259.849	73.88
260.081	65.88
260.314	81.88
260.547	81.88
260.779	83.88
261.012	85.88
261.244	90.88
261.477	75.88
261.71	77.88
261.942	87.88
262.175	92.88
262.407	70.88
262.64	67.88
262.872	72.88
263.105	85.88
263.337	85.88
263.57	83.88
263.802	79.88
264.035	74.88
264.267	72.88
264.499	77.88
264.732	79.88
264.964	81.88
265.197	81.88
265.429	83.88
265.661	86.88
265.894	84.88
266.126	95.88
266.358	60.88
266.591	72.88
266.823	75.88
267.055	87.88
267.287	85.88
267.52	71.88
267.752	85.88
267.984	83.88
268.216	91.88
268.448	86.88
268.681	78.88
268.913	78.88
269.145	68.88
269.377	85.88
269.609	86.88
269.841	74.88
270.073	77.88
270.306	81.88
270.538	75.88
270.77	88.88
271.002	79.88
271.234	78.88
271.466	83.88
271.698	75.88
271.93	86.88
272.162	79.88
272.394	80.88
272.626	88.88
272.858	68.88
273.09	70.88
273.322	70.88
273.553	77.88
273.785	89.88
274.017	88.88
274.249	85.88
274.481	75.88
274.713	78.88
274.945	68.88
275.176	75.88
275.408	88.88
275.64	74.88
275.872	82.88
276.104	76.88
276.335	90.88
276.567	103.88
276.799	93.88
277.031	93.88
277.262	69.88
277.494	82.88
277.726	65.88
277.957	79.88
278.189	75.88
278.421	76.88
278.652	69.88
278.884	80.88
279.115	78.88
279.347	84.88
279.579	87.88
279.81	86.88
280.042	91.88
280.273	86.88
280.505	69.88
280.736	71.88
280.968	81.88
281.199	78.88
281.431	75.88
281.662	90.88
281.894	83.88
282.125	108.88
282.356	102.88
282.588	110.88
282.819	105.88
283.051	79.88
283.282	75.88
283.513	75.88
283.745	79.88
283.976	84.88
284.207	83.88
284.439	67.88
284.67	79.88
284.901	74.88
285.132	83.88
285.364	85.88
285.595	83.88
285.826	78.88
286.057	88.88
286.288	76.88
286.52	87.88
286.751	77.88
286.982	93.88
287.213	69.88
287.444	98.88
287.675	92.88
287.906	93.88
288.138	89.88
288.369	93.88
288.6	79.88
288.831	74.88
289.062	83.88
289.293	87.88
289.524	89.88
289.755	81.88
289.986	68.88
290.217	89.88
290.448	79.88
290.679	79.88
290.91	72.88
291.141	85.88
291.371	74.88
291.602	78.88
291.833	95.88
292.064	85.88
292.295	90.88
292.526	95.88
292.757	78.88
292.987	94.88
293.218	84.88
293.449	82.88
293.68	90.88
293.91	82.88
294.141	81.88
294.372	92.88
294.603	87.88
294.833	84.88
295.064	95.88
295.295	86.88
295.525	93.88
295.756	101.88
295.987	125.88
296.217	129.88
296.448	108.88
296.679	90.88
296.909	80.88
297.14	76.88
297.37	75.88
297.601	82.88
297.831	89.88
298.062	81.88
298.292	90.88
298.523	79.88
298.753	88.88
298.984	75.88
299.214	86.88
299.445	78.88
299.675	91.88
299.905	82.88
300.136	81.88
300.366	75.88
300.597	77.88
300.827	73.88
301.057	96.88
301.288	100.88
301.518	91.88
301.748	86.88
301.979	97.88
302.209	78.88
302.439	83.88
302.669	69.88
302.9	75.88
303.13	67.88
303.36	80.88
303.59	90.88
303.82	81.88
304.051	84.88
304.281	85.88
304.511	88.88
304.741	78.88
304.971	70.88
305.201	88.88
305.431	93.88
305.661	81.88
305.891	89.88
306.121	98.88
306.352	104.88
306.582	90.88
306.812	96.88
307.042	73.88
307.272	85.88
307.502	89.88
307.731	91.88
307.961	94.88
308.191	70.88
308.421	61.88
308.651	82.88
308.881	89.88
309.111	98.88
309.341	85.88
309.571	76.88
309.8	107.88
310.03	101.88
310.26	71.88
310.49	78.88
310.72	85.88
310.949	89.88
311.179	82.88
311.409	72.88
311.639	88.88
311.868	94.88
312.098	83.88
312.328	90.88
312.557	96.88
312.787	98.88
313.017	97.88
313.246	80.88
313.476	97.88
313.706	94.88
313.935	70.88
314.165	110.88
314.394	95.88
314.624	81.88
314.853	100.88
315.083	84.88
315.312	86.88
315.542	89.88
315.771	84.88
316.001	90.88
316.23	90.88
316.46	90.88
316.689	90.88
316.919	70.88
317.148	89.88
317.377	75.88
317.607	92.88
317.836	80.88
318.065	89.88
318.295	74.88
318.524	69.88
318.753	91.88
318.983	86.88
319.212	103.88
319.441	91.88
319.67	93.88
319.9	93.88
320.129	93.88
320.358	88.88
320.587	88.88
320.816	91.88
321.046	90.88
321.275	87.88
321.504	107.88
321.733	78.88
321.962	87.88
322.191	92.88
322.42	101.88
322.649	99.88
322.878	94.88
323.108	108.88
323.337	108.88
323.566	110.88
323.795	146.88
324.024	184.88
324.253	334.88
324.482	702.88
324.71	1347.88
324.939	1787.88
325.168	673.88
325.397	211.88
325.626	129.88
325.855	114.88
326.084	99.88
326.313	116.88
326.542	142.88
326.77	204.88
326.999	391.88
327.228	782.88
327.457	1384.88
327.686	1122.88
327.914	315.88
328.143	170.88
328.372	121.88
328.6	113.88
328.829	101.88
329.058	117.88
329.287	105.88
329.515	103.88
329.744	106.88
329.972	93.88
330.201	90.88
330.43	100.88
330.658	109.88
330.887	121.88
331.115	102.88
331.344	104.88
331.572	108.88
331.801	92.88
332.03	86.88
332.258	78.88
332.486	86.88
332.715	84.88
332.943	89.88
333.172	91.88
333.4	90.88
333.629	97.88
333.857	103.88
334.085	93.88
334.314	89.88
334.542	76.88
334.771	94.88
334.999	91.88
335.227	78.88
335.455	93.88
335.684	85.88
335.912	93.88
336.14	113.88
336.369	79.88
336.597	99.88
336.825	82.88
337.053	78.88
337.281	83.88
337.51	89.88
337.738	73.88
337.966	83.88
338.194	94.88
338.422	90.88
338.65	88.88
338.878	82.88
339.106	85.88
339.334	91.88
339.562	78.88
339.79	98.88
340.018	89.88
340.246	84.88
340.474	87.88
340.702	93.88
340.93	86.88
341.158	101.88
341.386	79.88
341.614	91.88
341.842	89.88
342.07	75.88
342.298	79.88
342.526	74.88
342.754	100.88
342.981	86.88
343.209	91.88
343.437	85.88
343.665	84.88
343.893	85.88
344.12	107.88
344.348	95.88
344.576	89.88
344.804	76.88
345.031	102.88
345.259	96.88
345.487	94.88
345.714	103.88
345.942	91.88
346.17	85.88
346.397	97.88
346.625	97.88
346.853	105.88
347.08	96.88
347.308	108.88
347.535	88.88
347.763	88.88
347.99	78.88
348.218	89.88
348.445	103.88
348.673	100.88
348.9	102.88
349.128	88.88
349.355	96.88
349.583	73.88
349.81	79.88
350.037	97.88
350.265	92.88
350.492	91.88
350.72	85.88
350.947	93.88
351.174	102.88
351.402	97.88
351.629	101.88
351.856	89.88
352.083	100.88
352.311	103.88
352.538	112.88
352.765	106.88
352.992	115.88
353.22	115.88
353.447	91.88
353.674	85.88
353.901	77.88
354.128	99.88
354.355	90.88
354.583	98.88
354.81	90.88
355.037	88.88
355.264	87.88
355.491	82.88
355.718	87.88
355.945	86.88
356.172	88.88
356.399	88.88
356.626	81.88
356.853	89.88
357.08	80.88
357.307	88.88
357.534	77.88
357.761	98.88
357.988	87.88
358.215	97.88
358.441	97.88
358.668	96.88
358.895	87.88
359.122	76.88
359.349	85.88
359.576	85.88
359.802	91.88
360.029	102.88
360.256	94.88
360.483	82.88
360.709	75.88
360.936	93.88
361.163	90.88
361.39	87.88
361.616	78.88
361.843	81.88
362.07	82.88
362.296	90.88
362.523	92.88
362.749	87.88
362.976	90.88
363.203	83.88
363.429	98.88
363.656	76.88
363.882	71.88
364.109	97.88
364.335	99.88
364.562	82.88
364.788	88.88
365.015	102.88
365.241	105.88
365.468	93.88
365.694	79.88
365.92	84.88
366.147	91.88
366.373	87.88
366.599	85.88
366.826	75.88
367.052	95.88
367.278	79.88
367.505	93.88
367.731	93.88
367.957	86.88
368.184	78.88
368.41	101.88
368.636	107.88
368.862	99.88
369.089	97.88
369.315	88.88
369.541	85.88
369.767	83.88
369.993	85.88
370.219	90.88
370.445	80.88
370.672	91.88
370.898	83.88
371.124	90.88
371.35	75.88
371.576	78.88
371.802	84.88
372.028	79.88
372.254	91.88
372.48	97.88
372.706	73.88
372.932	74.88
373.158	87.88
373.384	82.88
373.61	81.88
373.835	80.88
374.061	95.88
374.287	91.88
374.513	83.88
374.739	88.88
374.965	95.88
375.191	71.88
375.416	75.88
375.642	86.88
375.868	86.88
376.094	87.88
376.319	92.88
376.545	83.88
376.771	74.88
376.997	86.88
377.222	82.88
377.448	96.88
377.674	90.88
377.899	83.88
378.125	82.88
378.35	85.88
378.576	84.88
378.802	90.88
379.027	77.88
379.253	89.88
379.478	85.88
379.704	87.88
379.929	94.88
380.155	78.88
380.38	85.88
380.606	89.88
380.831	97.88
381.057	92.88
381.282	93.88
381.507	101.88
381.733	84.88
381.958	85.88
382.184	110.88
382.409	94.88
382.634	94.88
382.86	93.88
383.085	117.88
383.31	120.88
383.535	94.88
383.761	106.88
383.986	94.88
384.211	107.88
384.436	101.88
384.662	83.88
384.887	101.88
385.112	101.88
385.337	99.88
385.562	93.88
385.787	95.88
386.013	107.88
386.238	105.88
386.463	107.88
386.688	107.88
386.913	100.88
387.138	97.88
387.363	108.88
387.588	89.88
387.813	94.88
388.038	101.88
388.263	106.88
388.488	101.88
388.713	95.88
388.938	90.88
389.163	74.88
389.387	84.88
389.612	92.88
389.837	81.88
390.062	88.88
390.287	92.88
390.512	93.88
390.736	79.88
390.961	83.88
391.186	86.88
391.411	84.88
391.636	82.88
391.86	83.88
392.085	76.88
392.31	84.88
392.534	95.88
392.759	89.88
392.984	82.88
393.208	82.88
393.433	85.88
393.658	88.88
393.882	84.88
394.107	82.88
394.331	87.88
394.556	97.88
394.78	95.88
395.005	75.88
395.229	90.88
395.454	83.88
395.678	88.88
395.903	85.88
396.127	75.88
396.352	91.88
396.576	68.88
396.801	79.88
397.025	94.88
397.249	94.88
397.474	86.88
397.698	92.88
397.922	90.88
398.147	84.88
398.371	86.88
398.595	76.88
398.82	88.88
399.044	84.88
399.268	96.88
399.492	97.88
399.717	77.88
399.941	94.88
400.165	87.88
400.389	65.88
400.613	83.88
400.837	54.88
401.062	94.88
401.286	93.88
401.51	98.88
401.734	76.88
401.958	101.88
402.182	100.88
402.406	132.88
402.63	102.88
402.854	93.88
403.078	78.88
403.302	91.88
403.526	81.88
403.75	61.88
403.974	96.88
404.198	88.88
404.422	71.88
404.645	88.88
404.869	86.88
405.093	84.88
405.317	85.88
405.541	91.88
405.765	88.88
405.988	106.88
406.212	138.88
406.436	202.88
406.66	129.88
406.883	102.88
407.107	77.88
407.331	87.88
407.555	94.88
407.778	96.88
408.002	78.88
408.226	90.88
408.449	69.88
408.673	85.88
408.896	96.88
409.12	87.88
409.344	92.88
409.567	78.88
409.791	87.88
410.014	84.88
410.238	85.88
410.461	82.88
410.685	85.88
410.908	102.88
411.132	91.88
411.355	104.88
411.578	81.88
411.802	83.88
412.025	80.88
412.249	84.88
412.472	88.88
412.695	86.88
412.919	79.88
413.142	94.88
413.365	90.88
413.589	101.88
413.812	90.88
414.035	91.88
414.258	84.88
414.482	96.88
414.705	98.88
414.928	87.88
415.151	91.88
415.374	92.88
415.597	82.88
415.821	79.88
416.044	84.88
416.267	73.88
416.49	63.88
416.713	91.88
416.936	78.88
417.159	88.88
417.382	91.88
417.605	82.88
417.828	93.88
418.051	75.88
418.274	79.88
418.497	77.88
418.72	93.88
418.943	92.88
419.166	76.88
419.389	81.88
419.611	71.88
419.834	74.88
420.057	75.88
420.28	91.88
420.503	78.88
420.726	92.88
420.948	64.88
421.171	96.88
421.394	84.88
421.617	74.88
421.839	102.88
422.062	91.88
422.285	82.88
422.507	87.88
422.73	96.88
422.953	83.88
423.175	86.88
423.398	87.88
423.621	81.88
423.843	92.88
424.066	91.88
424.288	79.88
424.511	89.88
424.733	94.88
424.956	99.88
425.178	95.88
425.401	96.88
425.623	77.88
425.846	70.88
426.068	100.88
426.291	86.88
426.513	86.88
426.735	77.88
426.958	87.88
427.18	89.88
427.402	134.88
427.625	136.88
427.847	119.88
428.069	88.88
428.292	89.88
428.514	87.88
428.736	98.88
428.958	83.88
429.181	80.88
429.403	79.88
429.625	81.88
429.847	82.88
430.069	101.88
430.292	81.88
430.514	74.88
430.736	77.88
430.958	84.88
431.18	84.88
431.402	101.88
431.624	89.88
431.846	87.88
432.068	91.88
432.29	85.88
432.512	83.88
432.734	83.88
432.956	100.88
433.178	88.88
433.4	84.88
433.622	84.88
433.844	84.88
434.066	76.88
434.287	89.88
434.509	83.88
434.731	92.88
434.953	87.88
435.175	78.88
435.397	93.88
435.618	92.88
435.84	93.88
436.062	103.88
436.284	105.88
436.505	86.88
436.727	85.88
436.949	89.88
437.17	79.88
437.392	82.88
437.614	93.88
437.835	109.88
438.057	105.88
438.278	98.88
438.5	93.88
438.721	99.88
438.943	106.88
439.165	86.88
439.386	85.88
439.608	91.88
439.829	96.88
440.05	110.88
440.272	139.88
440.493	101.88
440.715	78.88
440.936	86.88
441.158	92.88
441.379	77.88
441.6	81.88
441.822	86.88
442.043	74.88
442.264	88.88
442.486	98.88
442.707	100.88
442.928	101.88
443.149	114.88
443.371	118.88
443.592	107.88
443.813	104.88
444.034	109.88
444.255	85.88
444.476	82.88
444.698	80.88
444.919	78.88
445.14	131.88
445.361	122.88
445.582	94.88
445.803	108.88
446.024	114.88
446.245	110.88
446.466	104.88
446.687	90.88
446.908	81.88
447.129	99.88
447.35	85.88
447.571	88.88
447.792	89.88
448.013	100.88
448.234	95.88
448.455	94.88
448.675	100.88
448.896	106.88
449.117	87.88
449.338	92.88
449.559	103.88
449.779	113.88
450	89.88
450.221	89.88
450.442	79.88
450.662	90.88
450.883	93.88
451.104	93.88
451.324	86.88
451.545	87.88
451.766	74.88
451.986	91.88
452.207	94.88
452.428	92.88
452.648	87.88
452.869	97.88
453.089	113.88
453.31	97.88
453.53	90.88
453.751	86.88
453.971	91.88
454.192	101.88
454.412	91.88
454.633	90.88
454.853	88.88
455.073	73.88
455.294	90.88
455.514	97.88
455.734	91.88
455.955	77.88
456.175	88.88
456.395	83.88
456.616	97.88
456.836	74.88
457.056	92.88
457.276	74.88
457.497	74.88
457.717	83.88
457.937	85.88
458.157	90.88
458.377	87.88
458.598	107.88
458.818	145.88
459.038	138.88
459.258	91.88
459.478	92.88
459.698	82.88
459.918	94.88
460.138	88.88
460.358	76.88
460.578	87.88
460.798	84.88
461.018	81.88
461.238	80.88
461.458	81.88
461.678	78.88
461.898	85.88
462.118	79.88
462.338	83.88
462.558	77.88
462.777	85.88
462.997	86.88
463.217	85.88
463.437	77.88
463.657	83.88
463.876	90.88
464.096	94.88
464.316	77.88
464.536	87.88
464.755	91.88
464.975	103.88
465.195	133.88
465.414	134.88
465.634	79.88
465.854	74.88
466.073	82.88
466.293	84.88
466.512	95.88
466.732	82.88
466.951	75.88
467.171	102.88
467.391	92.88
467.61	92.88
467.829	87.88
468.049	76.88
468.268	90.88
468.488	72.88
468.707	85.88
468.927	84.88
469.146	91.88
469.365	87.88
469.585	96.88
469.804	88.88
470.023	90.88
470.243	89.88
470.462	98.88
470.681	102.88
470.901	93.88
471.12	83.88
471.339	91.88
471.558	71.88
471.777	94.88
471.997	86.88
472.216	85.88
472.435	92.88
472.654	88.88
472.873	95.88
473.092	65.88
473.311	86.88
473.53	87.88
473.749	98.88
473.968	87.88
474.187	100.88
474.406	104.88
474.625	90.88
474.844	89.88
475.063	77.88
475.282	81.88
475.501	89.88
475.72	83.88
475.939	95.88
476.158	69.88
476.377	89.88
476.596	79.88
476.814	85.88
477.033	92.88
477.252	94.88
477.471	84.88
477.69	88.88
477.908	90.88
478.127	77.88
478.346	81.88
478.564	84.88
478.783	96.88
479.002	91.88
479.22	81.88
479.439	90.88
479.658	94.88
479.876	97.88
480.095	94.88
480.313	81.88
480.532	84.88
480.751	80.88
480.969	85.88
481.188	89.88
481.406	92.88
481.624	86.88
481.843	78.88
482.061	71.88
482.28	80.88
482.498	73.88
482.717	77.88
482.935	81.88
483.153	81.88
483.372	93.88
483.59	97.88
483.808	74.88
484.027	87.88
484.245	81.88
484.463	88.88
484.681	94.88
484.9	92.88
485.118	88.88
485.336	90.88
485.554	87.88
485.772	92.88
485.99	94.88
486.209	91.88
486.427	97.88
486.645	100.88
486.863	123.88
487.081	94.88
487.299	86.88
487.517	89.88
487.735	86.88
487.953	95.88
488.171	87.88
488.389	99.88
488.607	77.88
488.825	81.88
489.043	85.88
489.261	87.88
489.479	84.88
489.696	89.88
489.914	83.88
490.132	86.88
490.35	85.88
490.568	82.88
490.786	86.88
491.003	78.88
491.221	80.88
491.439	86.88
491.657	84.88
491.874	71.88
492.092	93.88
492.31	89.88
492.527	79.88
492.745	96.88
492.963	71.88
493.18	97.88
493.398	82.88
493.615	90.88
493.833	81.88
494.05	80.88
494.268	78.88
494.485	84.88
494.703	80.88
494.92	90.88
495.138	94.88
495.355	82.88
495.573	85.88
495.79	85.88
496.008	94.88
496.225	97.88
496.442	75.88
496.66	92.88
496.877	84.88
497.094	87.88
497.312	75.88
497.529	95.88
497.746	75.88
497.963	77.88
498.181	78.88
498.398	82.88
498.615	97.88
498.832	100.88
499.049	74.88
499.267	82.88
499.484	98.88
499.701	89.88
499.918	88.88
500.135	94.88
500.352	96.88
500.569	87.88
500.786	87.88
501.003	78.88
501.22	94.88
501.437	87.88
501.654	97.88
501.871	111.88
502.088	92.88
502.305	85.88
502.522	92.88
502.739	101.88
502.956	89.88
503.172	83.88
503.389	84.88
503.606	98.88
503.823	92.88
504.04	98.88
504.256	84.88
504.473	95.88
504.69	68.88
504.907	101.88
505.123	72.88
505.34	83.88
505.557	74.88
505.773	89.88
505.99	76.88
506.207	76.88
506.423	84.88
506.64	91.88
506.856	79.88
507.073	89.88
507.289	84.88
507.506	88.88
507.722	98.88
507.939	97.88
508.155	92.88
508.372	93.88
508.588	86.88
508.805	84.88
509.021	87.88
509.238	93.88
509.454	88.88
509.67	93.88
509.887	106.88
510.103	120.88
510.319	185.88
510.536	644.88
510.752	1995.88
510.968	585.88
511.184	140.88
511.401	95.88
511.617	90.88
511.833	94.88
512.049	77.88
512.265	86.88
512.481	74.88
512.698	88.88
512.914	70.88
513.13	90.88
513.346	88.88
513.562	89.88
513.778	77.88
513.994	84.88
514.21	93.88
514.426	106.88
514.642	108.88
514.858	110.88
515.074	168.88
515.29	369.88
515.506	1158.88
515.721	448.88
515.937	133.88
516.153	104.88
516.369	104.88
516.585	87.88
516.801	79.88
517.016	87.88
517.232	84.88
517.448	76.88
