Data from Uncirc_2008_H10_HRD10591_00019.txt Node
Date: Wed Jan 03 10:15:34 EST 2024
User: Yrep
Spectrometer: HR+D1059
Trigger mode: 1
Integration Time (sec): 1.000000E-1
Scans to average: 1
Electric dark correction enabled: true
Nonlinearity correction enabled: false
Boxcar width: 0
XAxis mode: Wavelengths
Number of Pixels in Spectrum: 2048
>>>>>Begin Spectral Data<<<<<
223.165	-20.25
223.4	-20.25
223.635	-20.25
223.869	-10.25
224.104	-24.25
224.338	-20.25
224.573	-10.25
224.808	-10.25
225.042	-9.25
225.277	-14.25
225.511	-5.25
225.746	5.75
225.98	5.75
226.215	15.75
226.449	16.75
226.683	34.75
226.918	18.75
227.152	26.75
227.387	21.75
227.621	35.75
227.856	35.75
228.09	35.75
228.324	51.75
228.559	55.75
228.793	62.75
229.027	56.75
229.262	73.75
229.496	77.75
229.73	74.75
229.964	73.75
230.199	66.75
230.433	72.75
230.667	75.75
230.901	70.75
231.136	98.75
231.37	73.75
231.604	86.75
231.838	76.75
232.072	79.75
232.306	82.75
232.541	78.75
232.775	89.75
233.009	95.75
233.243	77.75
233.477	71.75
233.711	75.75
233.945	76.75
234.179	76.75
234.413	94.75
234.647	82.75
234.881	68.75
235.115	75.75
235.349	80.75
235.583	81.75
235.817	83.75
236.051	83.75
236.285	66.75
236.519	72.75
236.753	87.75
236.987	78.75
237.221	77.75
237.455	79.75
237.689	69.75
237.922	82.75
238.156	82.75
238.39	71.75
238.624	74.75
238.858	74.75
239.091	77.75
239.325	71.75
239.559	81.75
239.793	81.75
240.027	88.75
240.26	75.75
240.494	65.75
240.728	72.75
240.961	72.75
241.195	64.75
241.429	82.75
241.662	73.75
241.896	85.75
242.13	70.75
242.363	78.75
242.597	81.75
242.83	78.75
243.064	84.75
243.298	74.75
243.531	81.75
243.765	63.75
243.998	79.75
244.232	78.75
244.465	64.75
244.699	70.75
244.932	77.75
245.166	89.75
245.399	76.75
245.633	69.75
245.866	81.75
246.099	90.75
246.333	79.75
246.566	88.75
246.8	77.75
247.033	79.75
247.266	89.75
247.5	79.75
247.733	74.75
247.966	77.75
248.2	80.75
248.433	81.75
248.666	77.75
248.899	83.75
249.133	84.75
249.366	93.75
249.599	109.75
249.832	86.75
250.066	98.75
250.299	81.75
250.532	73.75
250.765	66.75
250.998	78.75
251.231	75.75
251.465	81.75
251.698	69.75
251.931	81.75
252.164	63.75
252.397	78.75
252.63	88.75
252.863	82.75
253.096	89.75
253.329	87.75
253.562	72.75
253.795	87.75
254.028	78.75
254.261	84.75
254.494	79.75
254.727	100.75
254.96	79.75
255.193	84.75
255.426	81.75
255.659	84.75
255.892	82.75
256.124	86.75
256.357	75.75
256.59	69.75
256.823	83.75
257.056	92.75
257.289	91.75
257.521	89.75
257.754	74.75
257.987	90.75
258.22	81.75
258.452	74.75
258.685	82.75
258.918	80.75
259.151	98.75
259.383	70.75
259.616	90.75
259.849	94.75
260.081	73.75
260.314	85.75
260.547	98.75
260.779	86.75
261.012	94.75
261.244	77.75
261.477	83.75
261.71	92.75
261.942	105.75
262.175	87.75
262.407	94.75
262.64	80.75
262.872	94.75
263.105	76.75
263.337	90.75
263.57	79.75
263.802	81.75
264.035	91.75
264.267	69.75
264.499	71.75
264.732	87.75
264.964	79.75
265.197	74.75
265.429	75.75
265.661	75.75
265.894	81.75
266.126	57.75
266.358	83.75
266.591	80.75
266.823	81.75
267.055	99.75
267.287	90.75
267.52	83.75
267.752	77.75
267.984	87.75
268.216	79.75
268.448	77.75
268.681	92.75
268.913	93.75
269.145	107.75
269.377	81.75
269.609	66.75
269.841	88.75
270.073	78.75
270.306	78.75
270.538	83.75
270.77	75.75
271.002	87.75
271.234	91.75
271.466	85.75
271.698	88.75
271.93	78.75
272.162	80.75
272.394	82.75
272.626	81.75
272.858	79.75
273.09	91.75
273.322	89.75
273.553	74.75
273.785	78.75
274.017	75.75
274.249	97.75
274.481	84.75
274.713	88.75
274.945	80.75
275.176	80.75
275.408	83.75
275.64	77.75
275.872	77.75
276.104	88.75
276.335	70.75
276.567	87.75
276.799	103.75
277.031	96.75
277.262	93.75
277.494	83.75
277.726	78.75
277.957	80.75
278.189	87.75
278.421	83.75
278.652	73.75
278.884	93.75
279.115	83.75
279.347	88.75
279.579	97.75
279.81	82.75
280.042	90.75
280.273	90.75
280.505	82.75
280.736	86.75
280.968	83.75
281.199	73.75
281.431	93.75
281.662	82.75
281.894	66.75
282.125	82.75
282.356	104.75
282.588	118.75
282.819	91.75
283.051	89.75
283.282	71.75
283.513	97.75
283.745	87.75
283.976	73.75
284.207	89.75
284.439	89.75
284.67	85.75
284.901	91.75
285.132	83.75
285.364	93.75
285.595	87.75
285.826	92.75
286.057	77.75
286.288	88.75
286.52	89.75
286.751	87.75
286.982	81.75
287.213	79.75
287.444	106.75
287.675	86.75
287.906	84.75
288.138	94.75
288.369	84.75
288.6	88.75
288.831	80.75
289.062	98.75
289.293	80.75
289.524	85.75
289.755	93.75
289.986	76.75
290.217	89.75
290.448	77.75
290.679	101.75
290.91	79.75
291.141	87.75
291.371	99.75
291.602	89.75
291.833	81.75
292.064	65.75
292.295	80.75
292.526	84.75
292.757	97.75
292.987	93.75
293.218	85.75
293.449	90.75
293.68	81.75
293.91	92.75
294.141	87.75
294.372	84.75
294.603	77.75
294.833	97.75
295.064	71.75
295.295	95.75
295.525	97.75
295.756	90.75
295.987	109.75
296.217	107.75
296.448	108.75
296.679	96.75
296.909	90.75
297.14	92.75
297.37	80.75
297.601	88.75
297.831	86.75
298.062	93.75
298.292	89.75
298.523	83.75
298.753	92.75
298.984	81.75
299.214	76.75
299.445	91.75
299.675	93.75
299.905	90.75
300.136	101.75
300.366	83.75
300.597	91.75
300.827	103.75
301.057	97.75
301.288	103.75
301.518	87.75
301.748	73.75
301.979	68.75
302.209	94.75
302.439	87.75
302.669	94.75
302.9	101.75
303.13	93.75
303.36	90.75
303.59	90.75
303.82	105.75
304.051	101.75
304.281	96.75
304.511	79.75
304.741	89.75
304.971	99.75
305.201	84.75
305.431	104.75
305.661	94.75
305.891	93.75
306.121	99.75
306.352	108.75
306.582	90.75
306.812	83.75
307.042	90.75
307.272	93.75
307.502	73.75
307.731	79.75
307.961	93.75
308.191	86.75
308.421	91.75
308.651	91.75
308.881	98.75
309.111	89.75
309.341	90.75
309.571	117.75
309.8	106.75
310.03	91.75
310.26	93.75
310.49	90.75
310.72	101.75
310.949	92.75
311.179	100.75
311.409	99.75
311.639	92.75
311.868	83.75
312.098	90.75
312.328	83.75
312.557	92.75
312.787	90.75
313.017	95.75
313.246	95.75
313.476	87.75
313.706	87.75
313.935	98.75
314.165	107.75
314.394	104.75
314.624	93.75
314.853	93.75
315.083	91.75
315.312	99.75
315.542	91.75
315.771	82.75
316.001	85.75
316.23	89.75
316.46	83.75
316.689	97.75
316.919	90.75
317.148	86.75
317.377	92.75
317.607	93.75
317.836	96.75
318.065	87.75
318.295	95.75
318.524	92.75
318.753	91.75
318.983	89.75
319.212	84.75
319.441	94.75
319.67	108.75
319.9	87.75
320.129	92.75
320.358	94.75
320.587	95.75
320.816	96.75
321.046	105.75
321.275	89.75
321.504	85.75
321.733	84.75
321.962	89.75
322.191	89.75
322.42	104.75
322.649	105.75
322.878	102.75
323.108	124.75
323.337	118.75
323.566	115.75
323.795	148.75
324.024	191.75
324.253	328.75
324.482	725.75
324.71	1397.75
324.939	1875.75
325.168	700.75
325.397	229.75
325.626	141.75
325.855	103.75
326.084	120.75
326.313	117.75
326.542	144.75
326.77	220.75
326.999	424.75
327.228	825.75
327.457	1453.75
327.686	1143.75
327.914	316.75
328.143	165.75
328.372	139.75
328.6	123.75
328.829	119.75
329.058	117.75
329.287	133.75
329.515	98.75
329.744	100.75
329.972	89.75
330.201	96.75
330.43	95.75
330.658	111.75
330.887	136.75
331.115	107.75
331.344	106.75
331.572	103.75
331.801	99.75
332.03	95.75
332.258	93.75
332.486	96.75
332.715	95.75
332.943	99.75
333.172	97.75
333.4	101.75
333.629	103.75
333.857	115.75
334.085	110.75
334.314	85.75
334.542	105.75
334.771	85.75
334.999	102.75
335.227	107.75
335.455	93.75
335.684	95.75
335.912	101.75
336.14	88.75
336.369	93.75
336.597	97.75
336.825	99.75
337.053	105.75
337.281	82.75
337.51	83.75
337.738	93.75
337.966	84.75
338.194	104.75
338.422	91.75
338.65	100.75
338.878	105.75
339.106	94.75
339.334	98.75
339.562	85.75
339.79	85.75
340.018	92.75
340.246	97.75
340.474	84.75
340.702	95.75
340.93	97.75
341.158	87.75
341.386	78.75
341.614	88.75
341.842	95.75
342.07	71.75
342.298	77.75
342.526	91.75
342.754	95.75
342.981	91.75
343.209	89.75
343.437	82.75
343.665	89.75
343.893	79.75
344.12	81.75
344.348	97.75
344.576	74.75
344.804	90.75
345.031	96.75
345.259	103.75
345.487	95.75
345.714	88.75
345.942	97.75
346.17	90.75
346.397	91.75
346.625	94.75
346.853	96.75
347.08	87.75
347.308	99.75
347.535	93.75
347.763	94.75
347.99	106.75
348.218	104.75
348.445	99.75
348.673	107.75
348.9	96.75
349.128	105.75
349.355	95.75
349.583	98.75
349.81	100.75
350.037	107.75
350.265	101.75
350.492	94.75
350.72	94.75
350.947	111.75
351.174	117.75
351.402	105.75
351.629	99.75
351.856	98.75
352.083	97.75
352.311	103.75
352.538	102.75
352.765	118.75
352.992	110.75
353.22	108.75
353.447	95.75
353.674	98.75
353.901	95.75
354.128	91.75
354.355	107.75
354.583	108.75
354.81	95.75
355.037	89.75
355.264	100.75
355.491	83.75
355.718	95.75
355.945	96.75
356.172	98.75
356.399	103.75
356.626	98.75
356.853	98.75
357.08	96.75
357.307	107.75
357.534	96.75
357.761	102.75
357.988	105.75
358.215	83.75
358.441	101.75
358.668	101.75
358.895	84.75
359.122	102.75
359.349	107.75
359.576	103.75
359.802	109.75
360.029	117.75
360.256	85.75
360.483	94.75
360.709	79.75
360.936	78.75
361.163	99.75
361.39	95.75
361.616	77.75
361.843	91.75
362.07	93.75
362.296	93.75
362.523	79.75
362.749	106.75
362.976	78.75
363.203	94.75
363.429	79.75
363.656	81.75
363.882	97.75
364.109	87.75
364.335	94.75
364.562	78.75
364.788	90.75
365.015	88.75
365.241	94.75
365.468	102.75
365.694	100.75
365.92	87.75
366.147	77.75
366.373	98.75
366.599	81.75
366.826	83.75
367.052	85.75
367.278	86.75
367.505	82.75
367.731	103.75
367.957	83.75
368.184	94.75
368.41	92.75
368.636	94.75
368.862	105.75
369.089	109.75
369.315	90.75
369.541	95.75
369.767	89.75
369.993	95.75
370.219	91.75
370.445	85.75
370.672	73.75
370.898	87.75
371.124	80.75
371.35	85.75
371.576	89.75
371.802	77.75
372.028	92.75
372.254	95.75
372.48	85.75
372.706	82.75
372.932	91.75
373.158	88.75
373.384	91.75
373.61	92.75
373.835	93.75
374.061	87.75
374.287	97.75
374.513	86.75
374.739	76.75
374.965	91.75
375.191	105.75
375.416	85.75
375.642	87.75
375.868	75.75
376.094	87.75
376.319	77.75
376.545	99.75
376.771	92.75
376.997	66.75
377.222	85.75
377.448	90.75
377.674	85.75
377.899	79.75
378.125	78.75
378.35	96.75
378.576	93.75
378.802	87.75
379.027	82.75
379.253	89.75
379.478	95.75
379.704	88.75
379.929	105.75
380.155	105.75
380.38	94.75
380.606	92.75
380.831	87.75
381.057	94.75
381.282	84.75
381.507	98.75
381.733	95.75
381.958	98.75
382.184	100.75
382.409	94.75
382.634	89.75
382.86	102.75
383.085	94.75
383.31	104.75
383.535	106.75
383.761	104.75
383.986	113.75
384.211	97.75
384.436	88.75
384.662	108.75
384.887	95.75
385.112	98.75
385.337	101.75
385.562	119.75
385.787	97.75
386.013	113.75
386.238	117.75
386.463	106.75
386.688	102.75
386.913	107.75
387.138	99.75
387.363	89.75
387.588	99.75
387.813	84.75
388.038	98.75
388.263	102.75
388.488	114.75
388.713	87.75
388.938	95.75
389.163	107.75
389.387	91.75
389.612	108.75
389.837	107.75
390.062	90.75
390.287	104.75
390.512	96.75
390.736	86.75
390.961	85.75
391.186	94.75
391.411	108.75
391.636	94.75
391.86	98.75
392.085	79.75
392.31	94.75
392.534	82.75
392.759	79.75
392.984	89.75
393.208	97.75
393.433	97.75
393.658	82.75
393.882	91.75
394.107	93.75
394.331	74.75
394.556	81.75
394.78	92.75
395.005	93.75
395.229	93.75
395.454	88.75
395.678	80.75
395.903	91.75
396.127	85.75
396.352	92.75
396.576	88.75
396.801	88.75
397.025	94.75
397.249	106.75
397.474	86.75
397.698	82.75
397.922	77.75
398.147	70.75
398.371	93.75
398.595	96.75
398.82	87.75
399.044	87.75
399.268	89.75
399.492	95.75
399.717	98.75
399.941	86.75
400.165	89.75
400.389	82.75
400.613	94.75
400.837	84.75
401.062	89.75
401.286	90.75
401.51	86.75
401.734	93.75
401.958	97.75
402.182	120.75
402.406	153.75
402.63	102.75
402.854	86.75
403.078	83.75
403.302	89.75
403.526	88.75
403.75	73.75
403.974	98.75
404.198	94.75
404.422	91.75
404.645	79.75
404.869	83.75
405.093	80.75
405.317	86.75
405.541	88.75
405.765	85.75
405.988	111.75
406.212	151.75
406.436	181.75
406.66	122.75
406.883	90.75
407.107	86.75
407.331	90.75
407.555	105.75
407.778	83.75
408.002	90.75
408.226	83.75
408.449	76.75
408.673	79.75
408.896	86.75
409.12	97.75
409.344	82.75
409.567	79.75
409.791	80.75
410.014	93.75
410.238	95.75
410.461	103.75
410.685	90.75
410.908	106.75
411.132	99.75
411.355	93.75
411.578	88.75
411.802	90.75
412.025	89.75
412.249	91.75
412.472	83.75
412.695	96.75
412.919	87.75
413.142	83.75
413.365	79.75
413.589	85.75
413.812	76.75
414.035	90.75
414.258	91.75
414.482	109.75
414.705	98.75
414.928	83.75
415.151	98.75
415.374	95.75
415.597	88.75
415.821	96.75
416.044	86.75
416.267	87.75
416.49	73.75
416.713	88.75
416.936	87.75
417.159	94.75
417.382	87.75
417.605	84.75
417.828	89.75
418.051	90.75
418.274	95.75
418.497	82.75
418.72	76.75
418.943	84.75
419.166	86.75
419.389	84.75
419.611	85.75
419.834	90.75
420.057	82.75
420.28	81.75
420.503	90.75
420.726	79.75
420.948	86.75
421.171	96.75
421.394	93.75
421.617	89.75
421.839	93.75
422.062	86.75
422.285	89.75
422.507	94.75
422.73	95.75
422.953	83.75
423.175	82.75
423.398	102.75
423.621	89.75
423.843	89.75
424.066	80.75
424.288	85.75
424.511	98.75
424.733	96.75
424.956	81.75
425.178	84.75
425.401	85.75
425.623	87.75
425.846	77.75
426.068	93.75
426.291	102.75
426.513	99.75
426.735	90.75
426.958	85.75
427.18	108.75
427.402	124.75
427.625	139.75
427.847	122.75
428.069	104.75
428.292	85.75
428.514	82.75
428.736	84.75
428.958	76.75
429.181	92.75
429.403	88.75
429.625	96.75
429.847	79.75
430.069	91.75
430.292	87.75
430.514	91.75
430.736	100.75
430.958	95.75
431.18	79.75
431.402	83.75
431.624	91.75
431.846	95.75
432.068	80.75
432.29	81.75
432.512	77.75
432.734	71.75
432.956	78.75
433.178	85.75
433.4	96.75
433.622	92.75
433.844	89.75
434.066	88.75
434.287	83.75
434.509	103.75
434.731	75.75
434.953	89.75
435.175	83.75
435.397	87.75
435.618	98.75
435.84	101.75
436.062	105.75
436.284	110.75
436.505	86.75
436.727	103.75
436.949	102.75
437.17	86.75
437.392	101.75
437.614	94.75
437.835	93.75
438.057	108.75
438.278	95.75
438.5	85.75
438.721	114.75
438.943	106.75
439.165	89.75
439.386	85.75
439.608	81.75
439.829	96.75
440.05	129.75
440.272	115.75
440.493	86.75
440.715	78.75
440.936	81.75
441.158	89.75
441.379	83.75
441.6	78.75
441.822	92.75
442.043	89.75
442.264	95.75
442.486	99.75
442.707	107.75
442.928	107.75
443.149	115.75
443.371	111.75
443.592	100.75
443.813	93.75
444.034	102.75
444.255	87.75
444.476	88.75
444.698	93.75
444.919	88.75
445.14	142.75
445.361	121.75
445.582	107.75
445.803	129.75
446.024	105.75
446.245	117.75
446.466	108.75
446.687	107.75
446.908	94.75
447.129	83.75
447.35	81.75
447.571	88.75
447.792	94.75
448.013	84.75
448.234	105.75
448.455	94.75
448.675	99.75
448.896	107.75
449.117	87.75
449.338	101.75
449.559	128.75
449.779	119.75
450	95.75
450.221	92.75
450.442	81.75
450.662	93.75
450.883	98.75
451.104	97.75
451.324	90.75
451.545	78.75
451.766	88.75
451.986	83.75
452.207	89.75
452.428	91.75
452.648	87.75
452.869	86.75
453.089	107.75
453.31	118.75
453.53	90.75
453.751	89.75
453.971	99.75
454.192	95.75
454.412	84.75
454.633	95.75
454.853	92.75
455.073	83.75
455.294	82.75
455.514	90.75
455.734	82.75
455.955	90.75
456.175	88.75
456.395	99.75
456.616	85.75
456.836	78.75
457.056	87.75
457.276	89.75
457.497	91.75
457.717	85.75
457.937	82.75
458.157	83.75
458.377	72.75
458.598	107.75
458.818	130.75
459.038	145.75
459.258	100.75
459.478	78.75
459.698	72.75
459.918	71.75
460.138	88.75
460.358	101.75
460.578	91.75
460.798	77.75
461.018	90.75
461.238	95.75
461.458	85.75
461.678	76.75
461.898	77.75
462.118	84.75
462.338	87.75
462.558	83.75
462.777	82.75
462.997	76.75
463.217	93.75
463.437	83.75
463.657	93.75
463.876	83.75
464.096	84.75
464.316	93.75
464.536	91.75
464.755	87.75
464.975	96.75
465.195	139.75
465.414	138.75
465.634	95.75
465.854	89.75
466.073	101.75
466.293	80.75
466.512	92.75
466.732	75.75
466.951	76.75
467.171	99.75
467.391	95.75
467.61	93.75
467.829	96.75
468.049	101.75
468.268	86.75
468.488	81.75
468.707	76.75
468.927	89.75
469.146	102.75
469.365	81.75
469.585	87.75
469.804	99.75
470.023	97.75
470.243	98.75
470.462	105.75
470.681	107.75
470.901	89.75
471.12	92.75
471.339	95.75
471.558	88.75
471.777	95.75
471.997	81.75
472.216	90.75
472.435	85.75
472.654	85.75
472.873	93.75
473.092	85.75
473.311	72.75
473.53	84.75
473.749	87.75
473.968	95.75
474.187	110.75
474.406	83.75
474.625	87.75
474.844	74.75
475.063	85.75
475.282	83.75
475.501	91.75
475.72	73.75
475.939	79.75
476.158	88.75
476.377	94.75
476.596	80.75
476.814	83.75
477.033	76.75
477.252	76.75
477.471	82.75
477.69	92.75
477.908	89.75
478.127	98.75
478.346	82.75
478.564	86.75
478.783	83.75
479.002	97.75
479.22	92.75
479.439	101.75
479.658	96.75
479.876	91.75
480.095	77.75
480.313	96.75
480.532	88.75
480.751	88.75
480.969	83.75
481.188	90.75
481.406	80.75
481.624	80.75
481.843	87.75
482.061	77.75
482.28	79.75
482.498	89.75
482.717	74.75
482.935	100.75
483.153	91.75
483.372	83.75
483.59	89.75
483.808	76.75
484.027	91.75
484.245	88.75
484.463	95.75
484.681	81.75
484.9	91.75
485.118	98.75
485.336	95.75
485.554	113.75
485.772	96.75
485.99	93.75
486.209	121.75
486.427	100.75
486.645	91.75
486.863	113.75
487.081	110.75
487.299	78.75
487.517	82.75
487.735	93.75
487.953	89.75
488.171	81.75
488.389	108.75
488.607	97.75
488.825	82.75
489.043	83.75
489.261	92.75
489.479	99.75
489.696	83.75
489.914	75.75
490.132	85.75
490.35	93.75
490.568	82.75
490.786	98.75
491.003	94.75
491.221	86.75
491.439	97.75
491.657	82.75
491.874	64.75
492.092	88.75
492.31	82.75
492.527	92.75
492.745	75.75
492.963	98.75
493.18	75.75
493.398	74.75
493.615	112.75
493.833	92.75
494.05	77.75
494.268	96.75
494.485	90.75
494.703	83.75
494.92	89.75
495.138	94.75
495.355	86.75
495.573	88.75
495.79	94.75
496.008	91.75
496.225	78.75
496.442	75.75
496.66	92.75
496.877	94.75
497.094	89.75
497.312	78.75
497.529	87.75
497.746	94.75
497.963	88.75
498.181	93.75
498.398	91.75
498.615	93.75
498.832	98.75
499.049	92.75
499.267	93.75
499.484	98.75
499.701	82.75
499.918	90.75
500.135	95.75
500.352	89.75
500.569	88.75
500.786	94.75
501.003	92.75
501.22	80.75
501.437	88.75
501.654	102.75
501.871	91.75
502.088	96.75
502.305	90.75
502.522	73.75
502.739	88.75
502.956	86.75
503.172	96.75
503.389	78.75
503.606	113.75
503.823	91.75
504.04	95.75
504.256	97.75
504.473	91.75
504.69	83.75
504.907	82.75
505.123	89.75
505.34	86.75
505.557	83.75
505.773	91.75
505.99	99.75
506.207	93.75
506.423	86.75
506.64	89.75
506.856	91.75
507.073	91.75
507.289	90.75
507.506	116.75
507.722	96.75
507.939	93.75
508.155	96.75
508.372	86.75
508.588	82.75
508.805	86.75
509.021	98.75
509.238	102.75
509.454	99.75
509.67	98.75
509.887	98.75
510.103	130.75
510.319	191.75
510.536	687.75
510.752	2123.75
510.968	607.75
511.184	153.75
511.401	106.75
511.617	102.75
511.833	96.75
512.049	96.75
512.265	89.75
512.481	87.75
512.698	102.75
512.914	94.75
513.13	97.75
513.346	81.75
513.562	91.75
513.778	92.75
513.994	87.75
514.21	101.75
514.426	121.75
514.642	118.75
514.858	125.75
515.074	162.75
515.29	380.75
515.506	1302.75
515.721	490.75
515.937	156.75
516.153	113.75
516.369	97.75
516.585	93.75
516.801	77.75
