Data from Uncirc_2008_H10_HRD10591_00099.txt Node
Date: Wed Jan 03 10:15:50 EST 2024
User: Yrep
Spectrometer: HR+D1059
Trigger mode: 1
Integration Time (sec): 1.000000E-1
Scans to average: 1
Electric dark correction enabled: true
Nonlinearity correction enabled: false
Boxcar width: 0
XAxis mode: Wavelengths
Number of Pixels in Spectrum: 2048
>>>>>Begin Spectral Data<<<<<
223.165	-6.25
223.4	-6.25
223.635	-6.25
223.869	-18.25
224.104	-21.25
224.338	-14.25
224.573	-1.25
224.808	-15.25
225.042	-9.25
225.277	-9.25
225.511	-0.25
225.746	-1.25
225.98	8.75
226.215	9.75
226.449	3.75
226.683	16.75
226.918	30.75
227.152	26.75
227.387	33.75
227.621	49.75
227.856	57.75
228.09	48.75
228.324	47.75
228.559	62.75
228.793	56.75
229.027	58.75
229.262	78.75
229.496	76.75
229.73	88.75
229.964	79.75
230.199	71.75
230.433	74.75
230.667	78.75
230.901	77.75
231.136	72.75
231.37	77.75
231.604	79.75
231.838	85.75
232.072	68.75
232.306	73.75
232.541	79.75
232.775	89.75
233.009	68.75
233.243	69.75
233.477	79.75
233.711	81.75
233.945	78.75
234.179	81.75
234.413	76.75
234.647	70.75
234.881	82.75
235.115	78.75
235.349	83.75
235.583	74.75
235.817	76.75
236.051	77.75
236.285	89.75
236.519	88.75
236.753	66.75
236.987	74.75
237.221	62.75
237.455	76.75
237.689	76.75
237.922	72.75
238.156	81.75
238.39	73.75
238.624	67.75
238.858	61.75
239.091	77.75
239.325	77.75
239.559	81.75
239.793	70.75
240.027	64.75
240.26	76.75
240.494	89.75
240.728	77.75
240.961	81.75
241.195	70.75
241.429	82.75
241.662	75.75
241.896	70.75
242.13	80.75
242.363	67.75
242.597	64.75
242.83	71.75
243.064	73.75
243.298	82.75
243.531	72.75
243.765	79.75
243.998	80.75
244.232	83.75
244.465	92.75
244.699	74.75
244.932	70.75
245.166	73.75
245.399	82.75
245.633	87.75
245.866	81.75
246.099	58.75
246.333	70.75
246.566	88.75
246.8	72.75
247.033	77.75
247.266	83.75
247.5	82.75
247.733	79.75
247.966	82.75
248.2	74.75
248.433	85.75
248.666	64.75
248.899	78.75
249.133	86.75
249.366	87.75
249.599	95.75
249.832	84.75
250.066	67.75
250.299	66.75
250.532	89.75
250.765	80.75
250.998	80.75
251.231	82.75
251.465	77.75
251.698	73.75
251.931	76.75
252.164	87.75
252.397	76.75
252.63	66.75
252.863	72.75
253.096	72.75
253.329	90.75
253.562	84.75
253.795	82.75
254.028	74.75
254.261	73.75
254.494	66.75
254.727	77.75
254.96	77.75
255.193	87.75
255.426	88.75
255.659	79.75
255.892	82.75
256.124	74.75
256.357	83.75
256.59	88.75
256.823	61.75
257.056	63.75
257.289	64.75
257.521	78.75
257.754	79.75
257.987	74.75
258.22	92.75
258.452	78.75
258.685	91.75
258.918	79.75
259.151	72.75
259.383	80.75
259.616	89.75
259.849	73.75
260.081	73.75
260.314	71.75
260.547	83.75
260.779	82.75
261.012	72.75
261.244	72.75
261.477	92.75
261.71	90.75
261.942	104.75
262.175	109.75
262.407	89.75
262.64	80.75
262.872	81.75
263.105	90.75
263.337	87.75
263.57	87.75
263.802	85.75
264.035	87.75
264.267	81.75
264.499	92.75
264.732	77.75
264.964	93.75
265.197	78.75
265.429	75.75
265.661	84.75
265.894	82.75
266.126	80.75
266.358	79.75
266.591	87.75
266.823	80.75
267.055	71.75
267.287	79.75
267.52	71.75
267.752	86.75
267.984	95.75
268.216	78.75
268.448	77.75
268.681	88.75
268.913	92.75
269.145	90.75
269.377	96.75
269.609	83.75
269.841	68.75
270.073	80.75
270.306	67.75
270.538	92.75
270.77	89.75
271.002	83.75
271.234	78.75
271.466	85.75
271.698	83.75
271.93	78.75
272.162	81.75
272.394	88.75
272.626	87.75
272.858	68.75
273.09	66.75
273.322	80.75
273.553	86.75
273.785	76.75
274.017	68.75
274.249	81.75
274.481	91.75
274.713	89.75
274.945	76.75
275.176	68.75
275.408	86.75
275.64	80.75
275.872	94.75
276.104	71.75
276.335	93.75
276.567	90.75
276.799	112.75
277.031	103.75
277.262	72.75
277.494	86.75
277.726	101.75
277.957	101.75
278.189	80.75
278.421	86.75
278.652	88.75
278.884	78.75
279.115	72.75
279.347	75.75
279.579	82.75
279.81	92.75
280.042	94.75
280.273	92.75
280.505	81.75
280.736	86.75
280.968	77.75
281.199	93.75
281.431	93.75
281.662	81.75
281.894	88.75
282.125	102.75
282.356	108.75
282.588	123.75
282.819	101.75
283.051	79.75
283.282	89.75
283.513	85.75
283.745	101.75
283.976	82.75
284.207	85.75
284.439	92.75
284.67	77.75
284.901	82.75
285.132	83.75
285.364	94.75
285.595	85.75
285.826	82.75
286.057	85.75
286.288	92.75
286.52	90.75
286.751	93.75
286.982	88.75
287.213	82.75
287.444	82.75
287.675	73.75
287.906	98.75
288.138	113.75
288.369	92.75
288.6	91.75
288.831	81.75
289.062	94.75
289.293	93.75
289.524	82.75
289.755	82.75
289.986	76.75
290.217	86.75
290.448	93.75
290.679	76.75
290.91	88.75
291.141	73.75
291.371	68.75
291.602	84.75
291.833	94.75
292.064	91.75
292.295	88.75
292.526	93.75
292.757	89.75
292.987	81.75
293.218	80.75
293.449	87.75
293.68	98.75
293.91	75.75
294.141	97.75
294.372	81.75
294.603	96.75
294.833	87.75
295.064	81.75
295.295	79.75
295.525	95.75
295.756	92.75
295.987	105.75
296.217	131.75
296.448	110.75
296.679	79.75
296.909	86.75
297.14	93.75
297.37	81.75
297.601	78.75
297.831	85.75
298.062	96.75
298.292	83.75
298.523	92.75
298.753	88.75
298.984	88.75
299.214	79.75
299.445	101.75
299.675	100.75
299.905	94.75
300.136	85.75
300.366	86.75
300.597	89.75
300.827	93.75
301.057	103.75
301.288	97.75
301.518	97.75
301.748	101.75
301.979	101.75
302.209	64.75
302.439	105.75
302.669	75.75
302.9	80.75
303.13	96.75
303.36	76.75
303.59	101.75
303.82	95.75
304.051	83.75
304.281	79.75
304.511	90.75
304.741	95.75
304.971	80.75
305.201	99.75
305.431	86.75
305.661	94.75
305.891	96.75
306.121	98.75
306.352	92.75
306.582	76.75
306.812	79.75
307.042	82.75
307.272	90.75
307.502	111.75
307.731	88.75
307.961	90.75
308.191	87.75
308.421	91.75
308.651	87.75
308.881	89.75
309.111	86.75
309.341	93.75
309.571	98.75
309.8	93.75
310.03	94.75
310.26	101.75
310.49	85.75
310.72	101.75
310.949	105.75
311.179	90.75
311.409	102.75
311.639	97.75
311.868	87.75
312.098	116.75
312.328	92.75
312.557	90.75
312.787	88.75
313.017	89.75
313.246	88.75
313.476	93.75
313.706	76.75
313.935	90.75
314.165	98.75
314.394	96.75
314.624	100.75
314.853	94.75
315.083	95.75
315.312	89.75
315.542	80.75
315.771	86.75
316.001	94.75
316.23	86.75
316.46	93.75
316.689	80.75
316.919	88.75
317.148	88.75
317.377	85.75
317.607	100.75
317.836	100.75
318.065	96.75
318.295	90.75
318.524	104.75
318.753	82.75
318.983	105.75
319.212	101.75
319.441	101.75
319.67	92.75
319.9	96.75
320.129	82.75
320.358	93.75
320.587	78.75
320.816	87.75
321.046	101.75
321.275	83.75
321.504	105.75
321.733	102.75
321.962	102.75
322.191	102.75
322.42	93.75
322.649	103.75
322.878	118.75
323.108	111.75
323.337	120.75
323.566	131.75
323.795	156.75
324.024	197.75
324.253	378.75
324.482	818.75
324.71	1644.75
324.939	2188.75
325.168	788.75
325.397	245.75
325.626	133.75
325.855	116.75
326.084	118.75
326.313	122.75
326.542	149.75
326.77	220.75
326.999	456.75
327.228	943.75
327.457	1680.75
327.686	1336.75
327.914	355.75
328.143	168.75
328.372	142.75
328.6	116.75
328.829	122.75
329.058	137.75
329.287	120.75
329.515	107.75
329.744	93.75
329.972	104.75
330.201	94.75
330.43	117.75
330.658	110.75
330.887	121.75
331.115	113.75
331.344	91.75
331.572	114.75
331.801	105.75
332.03	81.75
332.258	88.75
332.486	91.75
332.715	90.75
332.943	100.75
333.172	101.75
333.4	92.75
333.629	104.75
333.857	105.75
334.085	97.75
334.314	95.75
334.542	91.75
334.771	85.75
334.999	102.75
335.227	93.75
335.455	101.75
335.684	91.75
335.912	95.75
336.14	98.75
336.369	106.75
336.597	78.75
336.825	91.75
337.053	79.75
337.281	89.75
337.51	90.75
337.738	85.75
337.966	88.75
338.194	87.75
338.422	91.75
338.65	110.75
338.878	94.75
339.106	102.75
339.334	94.75
339.562	90.75
339.79	88.75
340.018	88.75
340.246	106.75
340.474	83.75
340.702	86.75
340.93	85.75
341.158	98.75
341.386	90.75
341.614	102.75
341.842	94.75
342.07	97.75
342.298	79.75
342.526	91.75
342.754	81.75
342.981	88.75
343.209	86.75
343.437	82.75
343.665	88.75
343.893	87.75
344.12	93.75
344.348	89.75
344.576	72.75
344.804	81.75
345.031	106.75
345.259	102.75
345.487	74.75
345.714	87.75
345.942	86.75
346.17	85.75
346.397	73.75
346.625	88.75
346.853	88.75
347.08	97.75
347.308	102.75
347.535	83.75
347.763	96.75
347.99	95.75
348.218	106.75
348.445	92.75
348.673	84.75
348.9	90.75
349.128	87.75
349.355	65.75
349.583	85.75
349.81	88.75
350.037	100.75
350.265	94.75
350.492	93.75
350.72	77.75
350.947	103.75
351.174	94.75
351.402	105.75
351.629	98.75
351.856	89.75
352.083	105.75
352.311	106.75
352.538	108.75
352.765	120.75
352.992	108.75
353.22	116.75
353.447	107.75
353.674	112.75
353.901	106.75
354.128	97.75
354.355	96.75
354.583	80.75
354.81	88.75
355.037	106.75
355.264	98.75
355.491	98.75
355.718	85.75
355.945	87.75
356.172	80.75
356.399	97.75
356.626	92.75
356.853	95.75
357.08	94.75
357.307	95.75
357.534	86.75
357.761	87.75
357.988	85.75
358.215	82.75
358.441	88.75
358.668	96.75
358.895	82.75
359.122	82.75
359.349	87.75
359.576	91.75
359.802	92.75
360.029	108.75
360.256	100.75
360.483	96.75
360.709	87.75
360.936	80.75
361.163	88.75
361.39	97.75
361.616	90.75
361.843	96.75
362.07	75.75
362.296	92.75
362.523	101.75
362.749	80.75
362.976	81.75
363.203	82.75
363.429	83.75
363.656	88.75
363.882	87.75
364.109	88.75
364.335	89.75
364.562	85.75
364.788	107.75
365.015	87.75
365.241	98.75
365.468	103.75
365.694	107.75
365.92	90.75
366.147	89.75
366.373	90.75
366.599	93.75
366.826	81.75
367.052	97.75
367.278	77.75
367.505	76.75
367.731	93.75
367.957	101.75
368.184	93.75
368.41	88.75
368.636	89.75
368.862	116.75
369.089	102.75
369.315	89.75
369.541	93.75
369.767	91.75
369.993	80.75
370.219	90.75
370.445	84.75
370.672	90.75
370.898	94.75
371.124	88.75
371.35	66.75
371.576	88.75
371.802	92.75
372.028	100.75
372.254	97.75
372.48	88.75
372.706	105.75
372.932	84.75
373.158	85.75
373.384	92.75
373.61	93.75
373.835	82.75
374.061	89.75
374.287	92.75
374.513	91.75
374.739	98.75
374.965	88.75
375.191	104.75
375.416	99.75
375.642	84.75
375.868	81.75
376.094	83.75
376.319	89.75
376.545	83.75
376.771	83.75
376.997	88.75
377.222	77.75
377.448	87.75
377.674	79.75
377.899	86.75
378.125	84.75
378.35	88.75
378.576	109.75
378.802	86.75
379.027	89.75
379.253	84.75
379.478	80.75
379.704	82.75
379.929	82.75
380.155	100.75
380.38	93.75
380.606	84.75
380.831	94.75
381.057	92.75
381.282	79.75
381.507	102.75
381.733	89.75
381.958	100.75
382.184	89.75
382.409	102.75
382.634	97.75
382.86	98.75
383.085	92.75
383.31	104.75
383.535	89.75
383.761	94.75
383.986	94.75
384.211	106.75
384.436	87.75
384.662	99.75
384.887	105.75
385.112	100.75
385.337	107.75
385.562	108.75
385.787	101.75
386.013	102.75
386.238	109.75
386.463	101.75
386.688	103.75
386.913	103.75
387.138	83.75
387.363	88.75
387.588	91.75
387.813	104.75
388.038	101.75
388.263	98.75
388.488	95.75
388.713	90.75
388.938	100.75
389.163	103.75
389.387	102.75
389.612	100.75
389.837	85.75
390.062	91.75
390.287	107.75
390.512	93.75
390.736	109.75
390.961	105.75
391.186	78.75
391.411	88.75
391.636	95.75
391.86	83.75
392.085	74.75
392.31	98.75
392.534	85.75
392.759	90.75
392.984	87.75
393.208	74.75
393.433	81.75
393.658	84.75
393.882	94.75
394.107	94.75
394.331	95.75
394.556	97.75
394.78	83.75
395.005	86.75
395.229	79.75
395.454	81.75
395.678	81.75
395.903	82.75
396.127	87.75
396.352	95.75
396.576	94.75
396.801	74.75
397.025	78.75
397.249	94.75
397.474	86.75
397.698	93.75
397.922	78.75
398.147	85.75
398.371	84.75
398.595	88.75
398.82	85.75
399.044	77.75
399.268	70.75
399.492	81.75
399.717	88.75
399.941	96.75
400.165	76.75
400.389	99.75
400.613	88.75
400.837	89.75
401.062	80.75
401.286	86.75
401.51	97.75
401.734	81.75
401.958	93.75
402.182	112.75
402.406	144.75
402.63	110.75
402.854	88.75
403.078	79.75
403.302	75.75
403.526	96.75
403.75	95.75
403.974	79.75
404.198	90.75
404.422	88.75
404.645	71.75
404.869	86.75
405.093	97.75
405.317	106.75
405.541	95.75
405.765	108.75
405.988	114.75
406.212	159.75
406.436	226.75
406.66	141.75
406.883	104.75
407.107	92.75
407.331	104.75
407.555	78.75
407.778	93.75
408.002	86.75
408.226	78.75
408.449	91.75
408.673	95.75
408.896	77.75
409.12	106.75
409.344	87.75
409.567	81.75
409.791	102.75
410.014	93.75
410.238	96.75
410.461	94.75
410.685	93.75
410.908	109.75
411.132	108.75
411.355	98.75
411.578	87.75
411.802	97.75
412.025	86.75
412.249	99.75
412.472	93.75
412.695	81.75
412.919	68.75
413.142	74.75
413.365	79.75
413.589	88.75
413.812	90.75
414.035	85.75
414.258	84.75
414.482	78.75
414.705	74.75
414.928	82.75
415.151	96.75
415.374	100.75
415.597	69.75
415.821	92.75
416.044	90.75
416.267	81.75
416.49	88.75
416.713	93.75
416.936	75.75
417.159	92.75
417.382	87.75
417.605	89.75
417.828	103.75
418.051	97.75
418.274	75.75
418.497	94.75
418.72	104.75
418.943	79.75
419.166	99.75
419.389	88.75
419.611	87.75
419.834	82.75
420.057	95.75
420.28	78.75
420.503	88.75
420.726	89.75
420.948	81.75
421.171	82.75
421.394	89.75
421.617	84.75
421.839	90.75
422.062	84.75
422.285	85.75
422.507	90.75
422.73	101.75
422.953	90.75
423.175	102.75
423.398	93.75
423.621	93.75
423.843	94.75
424.066	80.75
424.288	89.75
424.511	77.75
424.733	89.75
424.956	107.75
425.178	105.75
425.401	100.75
425.623	95.75
425.846	80.75
426.068	82.75
426.291	92.75
426.513	74.75
426.735	82.75
426.958	73.75
427.18	99.75
427.402	123.75
427.625	152.75
427.847	106.75
428.069	84.75
428.292	78.75
428.514	76.75
428.736	93.75
428.958	79.75
429.181	86.75
429.403	86.75
429.625	80.75
429.847	99.75
430.069	103.75
430.292	92.75
430.514	84.75
430.736	97.75
430.958	102.75
431.18	85.75
431.402	83.75
431.624	77.75
431.846	90.75
432.068	86.75
432.29	102.75
432.512	79.75
432.734	90.75
432.956	98.75
433.178	97.75
433.4	103.75
433.622	95.75
433.844	74.75
434.066	86.75
434.287	97.75
434.509	93.75
434.731	97.75
434.953	90.75
435.175	88.75
435.397	99.75
435.618	102.75
435.84	106.75
436.062	121.75
436.284	101.75
436.505	100.75
436.727	86.75
436.949	95.75
437.17	79.75
437.392	79.75
437.614	71.75
437.835	94.75
438.057	111.75
438.278	108.75
438.5	102.75
438.721	108.75
438.943	100.75
439.165	87.75
439.386	89.75
439.608	86.75
439.829	94.75
440.05	116.75
440.272	143.75
440.493	107.75
440.715	88.75
440.936	76.75
441.158	79.75
441.379	80.75
441.6	77.75
441.822	87.75
442.043	92.75
442.264	89.75
442.486	101.75
442.707	89.75
442.928	92.75
443.149	113.75
443.371	136.75
443.592	97.75
443.813	114.75
444.034	105.75
444.255	106.75
444.476	95.75
444.698	90.75
444.919	103.75
445.14	125.75
445.361	112.75
445.582	100.75
445.803	136.75
446.024	132.75
446.245	144.75
446.466	110.75
446.687	100.75
446.908	89.75
447.129	87.75
447.35	84.75
447.571	89.75
447.792	90.75
448.013	98.75
448.234	89.75
448.455	90.75
448.675	97.75
448.896	119.75
449.117	93.75
449.338	96.75
449.559	118.75
449.779	113.75
450	88.75
450.221	89.75
450.442	81.75
450.662	95.75
450.883	117.75
451.104	116.75
451.324	92.75
451.545	84.75
451.766	95.75
451.986	76.75
452.207	79.75
452.428	70.75
452.648	86.75
452.869	96.75
453.089	107.75
453.31	128.75
453.53	81.75
453.751	93.75
453.971	102.75
454.192	100.75
454.412	94.75
454.633	81.75
454.853	93.75
455.073	83.75
455.294	87.75
455.514	102.75
455.734	96.75
455.955	74.75
456.175	105.75
456.395	100.75
456.616	93.75
456.836	74.75
457.056	88.75
457.276	85.75
457.497	81.75
457.717	87.75
457.937	88.75
458.157	88.75
458.377	88.75
458.598	100.75
458.818	146.75
459.038	157.75
459.258	111.75
459.478	96.75
459.698	89.75
459.918	96.75
460.138	74.75
460.358	87.75
460.578	83.75
460.798	99.75
461.018	82.75
461.238	95.75
461.458	71.75
461.678	92.75
461.898	77.75
462.118	82.75
462.338	75.75
462.558	86.75
462.777	66.75
462.997	79.75
463.217	78.75
463.437	82.75
463.657	74.75
463.876	86.75
464.096	88.75
464.316	82.75
464.536	85.75
464.755	85.75
464.975	116.75
465.195	161.75
465.414	156.75
465.634	86.75
465.854	70.75
466.073	81.75
466.293	87.75
466.512	85.75
466.732	106.75
466.951	95.75
467.171	87.75
467.391	96.75
467.61	97.75
467.829	89.75
468.049	100.75
468.268	84.75
468.488	79.75
468.707	89.75
468.927	78.75
469.146	84.75
469.365	101.75
469.585	91.75
469.804	91.75
470.023	97.75
470.243	89.75
470.462	106.75
470.681	98.75
470.901	84.75
471.12	74.75
471.339	89.75
471.558	79.75
471.777	73.75
471.997	86.75
472.216	93.75
472.435	100.75
472.654	86.75
472.873	89.75
473.092	86.75
473.311	76.75
473.53	82.75
473.749	85.75
473.968	92.75
474.187	105.75
474.406	84.75
474.625	103.75
474.844	84.75
475.063	92.75
475.282	71.75
475.501	80.75
475.72	95.75
475.939	87.75
476.158	80.75
476.377	89.75
476.596	86.75
476.814	105.75
477.033	97.75
477.252	82.75
477.471	86.75
477.69	81.75
477.908	101.75
478.127	100.75
478.346	88.75
478.564	97.75
478.783	93.75
479.002	82.75
479.22	83.75
479.439	98.75
479.658	103.75
479.876	78.75
480.095	86.75
480.313	96.75
480.532	76.75
480.751	84.75
480.969	92.75
481.188	79.75
481.406	91.75
481.624	80.75
481.843	105.75
482.061	88.75
482.28	80.75
482.498	100.75
482.717	84.75
482.935	90.75
483.153	83.75
483.372	73.75
483.59	90.75
483.808	86.75
484.027	90.75
484.245	84.75
484.463	96.75
484.681	97.75
484.9	105.75
485.118	88.75
485.336	84.75
485.554	89.75
485.772	101.75
485.99	98.75
486.209	105.75
486.427	94.75
486.645	116.75
486.863	120.75
487.081	96.75
487.299	107.75
487.517	106.75
487.735	89.75
487.953	77.75
488.171	86.75
488.389	96.75
488.607	93.75
488.825	88.75
489.043	96.75
489.261	74.75
489.479	82.75
489.696	82.75
489.914	92.75
490.132	89.75
490.35	96.75
490.568	78.75
490.786	95.75
491.003	85.75
491.221	108.75
491.439	93.75
491.657	89.75
491.874	87.75
492.092	88.75
492.31	95.75
492.527	89.75
492.745	76.75
492.963	88.75
493.18	102.75
493.398	89.75
493.615	88.75
493.833	87.75
494.05	79.75
494.268	99.75
494.485	95.75
494.703	78.75
494.92	89.75
495.138	82.75
495.355	83.75
495.573	87.75
495.79	89.75
496.008	90.75
496.225	83.75
496.442	81.75
496.66	97.75
496.877	90.75
497.094	103.75
497.312	96.75
497.529	75.75
497.746	87.75
497.963	84.75
498.181	98.75
498.398	104.75
498.615	104.75
498.832	116.75
499.049	97.75
499.267	101.75
499.484	87.75
499.701	97.75
499.918	96.75
500.135	85.75
500.352	98.75
500.569	81.75
500.786	85.75
501.003	88.75
501.22	100.75
501.437	92.75
501.654	97.75
501.871	100.75
502.088	93.75
502.305	89.75
502.522	96.75
502.739	90.75
502.956	88.75
503.172	79.75
503.389	79.75
503.606	105.75
503.823	92.75
504.04	85.75
504.256	105.75
504.473	100.75
504.69	82.75
504.907	88.75
505.123	83.75
505.34	88.75
505.557	89.75
505.773	91.75
505.99	94.75
506.207	92.75
506.423	96.75
506.64	90.75
506.856	88.75
507.073	94.75
507.289	71.75
507.506	90.75
507.722	107.75
507.939	120.75
508.155	96.75
508.372	90.75
508.588	98.75
508.805	86.75
509.021	95.75
509.238	100.75
509.454	94.75
509.67	97.75
509.887	101.75
510.103	126.75
510.319	204.75
510.536	783.75
510.752	2497.75
510.968	694.75
511.184	150.75
511.401	115.75
511.617	101.75
511.833	90.75
512.049	101.75
512.265	97.75
512.481	86.75
512.698	86.75
512.914	82.75
513.13	97.75
513.346	85.75
513.562	108.75
513.778	99.75
513.994	107.75
514.21	95.75
514.426	119.75
514.642	103.75
514.858	134.75
515.074	157.75
515.29	472.75
515.506	1510.75
515.721	561.75
515.937	154.75
516.153	105.75
