Data from Uncirc_2008_H10_HRD10591_00077.txt Node
Date: Wed Jan 03 10:15:46 EST 2024
User: Yrep
Spectrometer: HR+D1059
Trigger mode: 1
Integration Time (sec): 1.000000E-1
Scans to average: 1
Electric dark correction enabled: true
Nonlinearity correction enabled: false
Boxcar width: 0
XAxis mode: Wavelengths
Number of Pixels in Spectrum: 2048
>>>>>Begin Spectral Data<<<<<
223.165	-20.31
223.4	-20.31
223.635	-20.31
223.869	-12.31
224.104	-14.31
224.338	-15.31
224.573	-16.31
224.808	-14.31
225.042	-14.31
225.277	-0.31
225.511	4.69
225.746	-9.31
225.98	0.69
226.215	16.69
226.449	14.69
226.683	32.69
226.918	18.69
227.152	28.69
227.387	48.69
227.621	46.69
227.856	57.69
228.09	47.69
228.324	51.69
228.559	66.69
228.793	66.69
229.027	67.69
229.262	73.69
229.496	71.69
229.73	97.69
229.964	89.69
230.199	85.69
230.433	79.69
230.667	84.69
230.901	76.69
231.136	85.69
231.37	69.69
231.604	91.69
231.838	79.69
232.072	94.69
232.306	66.69
232.541	88.69
232.775	87.69
233.009	86.69
233.243	79.69
233.477	76.69
233.711	98.69
233.945	81.69
234.179	93.69
234.413	78.69
234.647	68.69
234.881	82.69
235.115	70.69
235.349	75.69
235.583	85.69
235.817	82.69
236.051	82.69
236.285	87.69
236.519	69.69
236.753	77.69
236.987	67.69
237.221	94.69
237.455	79.69
237.689	81.69
237.922	96.69
238.156	84.69
238.39	63.69
238.624	75.69
238.858	83.69
239.091	91.69
239.325	80.69
239.559	78.69
239.793	91.69
240.027	84.69
240.26	73.69
240.494	88.69
240.728	90.69
240.961	80.69
241.195	82.69
241.429	85.69
241.662	81.69
241.896	80.69
242.13	80.69
242.363	74.69
242.597	101.69
242.83	94.69
243.064	87.69
243.298	78.69
243.531	75.69
243.765	83.69
243.998	87.69
244.232	84.69
244.465	83.69
244.699	70.69
244.932	85.69
245.166	64.69
245.399	80.69
245.633	99.69
245.866	67.69
246.099	93.69
246.333	72.69
246.566	79.69
246.8	89.69
247.033	84.69
247.266	81.69
247.5	94.69
247.733	95.69
247.966	68.69
248.2	91.69
248.433	90.69
248.666	71.69
248.899	91.69
249.133	83.69
249.366	98.69
249.599	101.69
249.832	87.69
250.066	96.69
250.299	86.69
250.532	81.69
250.765	79.69
250.998	70.69
251.231	78.69
251.465	87.69
251.698	87.69
251.931	86.69
252.164	71.69
252.397	75.69
252.63	94.69
252.863	96.69
253.096	81.69
253.329	85.69
253.562	83.69
253.795	80.69
254.028	85.69
254.261	101.69
254.494	82.69
254.727	87.69
254.96	86.69
255.193	72.69
255.426	90.69
255.659	82.69
255.892	71.69
256.124	89.69
256.357	82.69
256.59	88.69
256.823	84.69
257.056	92.69
257.289	78.69
257.521	77.69
257.754	83.69
257.987	73.69
258.22	89.69
258.452	79.69
258.685	86.69
258.918	91.69
259.151	92.69
259.383	86.69
259.616	95.69
259.849	82.69
260.081	94.69
260.314	73.69
260.547	92.69
260.779	74.69
261.012	92.69
261.244	99.69
261.477	96.69
261.71	85.69
261.942	112.69
262.175	117.69
262.407	75.69
262.64	88.69
262.872	97.69
263.105	82.69
263.337	88.69
263.57	91.69
263.802	77.69
264.035	87.69
264.267	83.69
264.499	87.69
264.732	99.69
264.964	82.69
265.197	69.69
265.429	82.69
265.661	84.69
265.894	92.69
266.126	96.69
266.358	73.69
266.591	77.69
266.823	88.69
267.055	91.69
267.287	93.69
267.52	74.69
267.752	76.69
267.984	87.69
268.216	91.69
268.448	93.69
268.681	86.69
268.913	94.69
269.145	85.69
269.377	75.69
269.609	75.69
269.841	92.69
270.073	97.69
270.306	94.69
270.538	101.69
270.77	91.69
271.002	88.69
271.234	91.69
271.466	92.69
271.698	83.69
271.93	87.69
272.162	85.69
272.394	103.69
272.626	93.69
272.858	83.69
273.09	70.69
273.322	93.69
273.553	79.69
273.785	95.69
274.017	83.69
274.249	88.69
274.481	81.69
274.713	77.69
274.945	87.69
275.176	60.69
275.408	78.69
275.64	87.69
275.872	99.69
276.104	94.69
276.335	92.69
276.567	100.69
276.799	98.69
277.031	84.69
277.262	95.69
277.494	90.69
277.726	87.69
277.957	94.69
278.189	101.69
278.421	87.69
278.652	102.69
278.884	96.69
279.115	86.69
279.347	88.69
279.579	74.69
279.81	85.69
280.042	88.69
280.273	95.69
280.505	86.69
280.736	98.69
280.968	81.69
281.199	97.69
281.431	87.69
281.662	76.69
281.894	81.69
282.125	101.69
282.356	113.69
282.588	148.69
282.819	115.69
283.051	90.69
283.282	74.69
283.513	99.69
283.745	71.69
283.976	91.69
284.207	91.69
284.439	91.69
284.67	105.69
284.901	91.69
285.132	76.69
285.364	100.69
285.595	97.69
285.826	90.69
286.057	93.69
286.288	109.69
286.52	91.69
286.751	101.69
286.982	85.69
287.213	82.69
287.444	88.69
287.675	92.69
287.906	93.69
288.138	91.69
288.369	99.69
288.6	89.69
288.831	75.69
289.062	85.69
289.293	89.69
289.524	96.69
289.755	93.69
289.986	89.69
290.217	97.69
290.448	95.69
290.679	92.69
290.91	91.69
291.141	95.69
291.371	79.69
291.602	93.69
291.833	88.69
292.064	98.69
292.295	87.69
292.526	88.69
292.757	79.69
292.987	87.69
293.218	92.69
293.449	96.69
293.68	96.69
293.91	83.69
294.141	85.69
294.372	89.69
294.603	101.69
294.833	90.69
295.064	82.69
295.295	98.69
295.525	88.69
295.756	98.69
295.987	120.69
296.217	145.69
296.448	119.69
296.679	109.69
296.909	92.69
297.14	101.69
297.37	95.69
297.601	90.69
297.831	91.69
298.062	98.69
298.292	87.69
298.523	109.69
298.753	91.69
298.984	101.69
299.214	98.69
299.445	81.69
299.675	95.69
299.905	104.69
300.136	101.69
300.366	93.69
300.597	103.69
300.827	99.69
301.057	107.69
301.288	99.69
301.518	95.69
301.748	103.69
301.979	104.69
302.209	92.69
302.439	95.69
302.669	96.69
302.9	100.69
303.13	98.69
303.36	102.69
303.59	107.69
303.82	122.69
304.051	85.69
304.281	92.69
304.511	94.69
304.741	109.69
304.971	90.69
305.201	99.69
305.431	96.69
305.661	89.69
305.891	95.69
306.121	88.69
306.352	96.69
306.582	107.69
306.812	94.69
307.042	93.69
307.272	85.69
307.502	103.69
307.731	88.69
307.961	95.69
308.191	98.69
308.421	88.69
308.651	94.69
308.881	89.69
309.111	91.69
309.341	91.69
309.571	94.69
309.8	115.69
310.03	110.69
310.26	102.69
310.49	111.69
310.72	101.69
310.949	97.69
311.179	101.69
311.409	95.69
311.639	83.69
311.868	98.69
312.098	99.69
312.328	98.69
312.557	112.69
312.787	91.69
313.017	93.69
313.246	95.69
313.476	89.69
313.706	95.69
313.935	109.69
314.165	100.69
314.394	105.69
314.624	93.69
314.853	88.69
315.083	92.69
315.312	94.69
315.542	98.69
315.771	110.69
316.001	79.69
316.23	96.69
316.46	99.69
316.689	95.69
316.919	101.69
317.148	87.69
317.377	97.69
317.607	101.69
317.836	96.69
318.065	80.69
318.295	89.69
318.524	88.69
318.753	81.69
318.983	101.69
319.212	116.69
319.441	105.69
319.67	110.69
319.9	89.69
320.129	93.69
320.358	90.69
320.587	95.69
320.816	100.69
321.046	106.69
321.275	116.69
321.504	94.69
321.733	102.69
321.962	97.69
322.191	104.69
322.42	109.69
322.649	116.69
322.878	114.69
323.108	110.69
323.337	118.69
323.566	135.69
323.795	162.69
324.024	217.69
324.253	394.69
324.482	828.69
324.71	1646.69
324.939	2151.69
325.168	793.69
325.397	235.69
325.626	149.69
325.855	131.69
326.084	123.69
326.313	127.69
326.542	155.69
326.77	237.69
326.999	466.69
327.228	955.69
327.457	1688.69
327.686	1314.69
327.914	363.69
328.143	183.69
328.372	144.69
328.6	122.69
328.829	117.69
329.058	127.69
329.287	126.69
329.515	117.69
329.744	109.69
329.972	112.69
330.201	111.69
330.43	101.69
330.658	118.69
330.887	122.69
331.115	122.69
331.344	110.69
331.572	95.69
331.801	92.69
332.03	108.69
332.258	97.69
332.486	94.69
332.715	110.69
332.943	93.69
333.172	103.69
333.4	99.69
333.629	114.69
333.857	103.69
334.085	103.69
334.314	99.69
334.542	91.69
334.771	99.69
334.999	101.69
335.227	97.69
335.455	91.69
335.684	93.69
335.912	101.69
336.14	110.69
336.369	106.69
336.597	93.69
336.825	102.69
337.053	98.69
337.281	99.69
337.51	94.69
337.738	97.69
337.966	98.69
338.194	100.69
338.422	106.69
338.65	92.69
338.878	90.69
339.106	104.69
339.334	95.69
339.562	99.69
339.79	114.69
340.018	98.69
340.246	81.69
340.474	99.69
340.702	89.69
340.93	96.69
341.158	97.69
341.386	85.69
341.614	101.69
341.842	96.69
342.07	97.69
342.298	92.69
342.526	91.69
342.754	86.69
342.981	84.69
343.209	91.69
343.437	109.69
343.665	95.69
343.893	100.69
344.12	106.69
344.348	86.69
344.576	97.69
344.804	96.69
345.031	94.69
345.259	90.69
345.487	93.69
345.714	108.69
345.942	97.69
346.17	102.69
346.397	103.69
346.625	104.69
346.853	87.69
347.08	102.69
347.308	100.69
347.535	110.69
347.763	114.69
347.99	93.69
348.218	112.69
348.445	98.69
348.673	91.69
348.9	101.69
349.128	82.69
349.355	87.69
349.583	108.69
349.81	96.69
350.037	95.69
350.265	102.69
350.492	96.69
350.72	84.69
350.947	114.69
351.174	101.69
351.402	110.69
351.629	101.69
351.856	107.69
352.083	109.69
352.311	115.69
352.538	111.69
352.765	117.69
352.992	119.69
353.22	99.69
353.447	99.69
353.674	102.69
353.901	78.69
354.128	99.69
354.355	102.69
354.583	110.69
354.81	117.69
355.037	102.69
355.264	95.69
355.491	84.69
355.718	105.69
355.945	97.69
356.172	99.69
356.399	103.69
356.626	100.69
356.853	102.69
357.08	94.69
357.307	109.69
357.534	94.69
357.761	111.69
357.988	90.69
358.215	94.69
358.441	94.69
358.668	85.69
358.895	91.69
359.122	87.69
359.349	102.69
359.576	98.69
359.802	94.69
360.029	111.69
360.256	102.69
360.483	95.69
360.709	81.69
360.936	112.69
361.163	102.69
361.39	93.69
361.616	107.69
361.843	89.69
362.07	97.69
362.296	99.69
362.523	97.69
362.749	92.69
362.976	101.69
363.203	97.69
363.429	95.69
363.656	96.69
363.882	93.69
364.109	103.69
364.335	100.69
364.562	88.69
364.788	94.69
365.015	101.69
365.241	100.69
365.468	109.69
365.694	104.69
365.92	94.69
366.147	100.69
366.373	93.69
366.599	88.69
366.826	90.69
367.052	113.69
367.278	103.69
367.505	112.69
367.731	101.69
367.957	95.69
368.184	95.69
368.41	103.69
368.636	109.69
368.862	117.69
369.089	98.69
369.315	96.69
369.541	103.69
369.767	99.69
369.993	93.69
370.219	83.69
370.445	103.69
370.672	92.69
370.898	88.69
371.124	98.69
371.35	106.69
371.576	93.69
371.802	86.69
372.028	93.69
372.254	85.69
372.48	91.69
372.706	89.69
372.932	91.69
373.158	97.69
373.384	96.69
373.61	96.69
373.835	83.69
374.061	72.69
374.287	100.69
374.513	90.69
374.739	89.69
374.965	95.69
375.191	94.69
375.416	93.69
375.642	86.69
375.868	98.69
376.094	84.69
376.319	88.69
376.545	100.69
376.771	97.69
376.997	94.69
377.222	98.69
377.448	105.69
377.674	85.69
377.899	94.69
378.125	82.69
378.35	82.69
378.576	96.69
378.802	101.69
379.027	101.69
379.253	82.69
379.478	94.69
379.704	101.69
379.929	96.69
380.155	96.69
380.38	96.69
380.606	104.69
380.831	96.69
381.057	100.69
381.282	99.69
381.507	102.69
381.733	88.69
381.958	101.69
382.184	106.69
382.409	96.69
382.634	100.69
382.86	97.69
383.085	98.69
383.31	101.69
383.535	102.69
383.761	116.69
383.986	105.69
384.211	94.69
384.436	95.69
384.662	104.69
384.887	114.69
385.112	109.69
385.337	107.69
385.562	107.69
385.787	105.69
386.013	94.69
386.238	125.69
386.463	99.69
386.688	108.69
386.913	115.69
387.138	106.69
387.363	99.69
387.588	99.69
387.813	113.69
388.038	115.69
388.263	117.69
388.488	108.69
388.713	107.69
388.938	91.69
389.163	97.69
389.387	106.69
389.612	101.69
389.837	95.69
390.062	88.69
390.287	103.69
390.512	106.69
390.736	96.69
390.961	83.69
391.186	109.69
391.411	100.69
391.636	91.69
391.86	90.69
392.085	82.69
392.31	94.69
392.534	100.69
392.759	95.69
392.984	91.69
393.208	98.69
393.433	87.69
393.658	98.69
393.882	89.69
394.107	98.69
394.331	95.69
394.556	88.69
394.78	101.69
395.005	97.69
395.229	87.69
395.454	95.69
395.678	91.69
395.903	85.69
396.127	94.69
396.352	103.69
396.576	86.69
396.801	88.69
397.025	87.69
397.249	103.69
397.474	93.69
397.698	83.69
397.922	98.69
398.147	86.69
398.371	94.69
398.595	80.69
398.82	94.69
399.044	89.69
399.268	80.69
399.492	94.69
399.717	88.69
399.941	97.69
400.165	103.69
400.389	91.69
400.613	85.69
400.837	79.69
401.062	109.69
401.286	96.69
401.51	88.69
401.734	95.69
401.958	96.69
402.182	134.69
402.406	149.69
402.63	114.69
402.854	87.69
403.078	100.69
403.302	96.69
403.526	104.69
403.75	111.69
403.974	86.69
404.198	88.69
404.422	87.69
404.645	106.69
404.869	91.69
405.093	100.69
405.317	106.69
405.541	119.69
405.765	99.69
405.988	120.69
406.212	165.69
406.436	238.69
406.66	140.69
406.883	105.69
407.107	102.69
407.331	108.69
407.555	88.69
407.778	88.69
408.002	93.69
408.226	88.69
408.449	92.69
408.673	98.69
408.896	96.69
409.12	91.69
409.344	87.69
409.567	87.69
409.791	86.69
410.014	100.69
410.238	86.69
410.461	84.69
410.685	103.69
410.908	93.69
411.132	102.69
411.355	103.69
411.578	110.69
411.802	102.69
412.025	97.69
412.249	102.69
412.472	85.69
412.695	87.69
412.919	94.69
413.142	101.69
413.365	95.69
413.589	87.69
413.812	92.69
414.035	94.69
414.258	110.69
414.482	94.69
414.705	97.69
414.928	99.69
415.151	105.69
415.374	87.69
415.597	94.69
415.821	97.69
416.044	92.69
416.267	80.69
416.49	95.69
416.713	87.69
416.936	99.69
417.159	93.69
417.382	80.69
417.605	93.69
417.828	110.69
418.051	97.69
418.274	86.69
418.497	102.69
418.72	98.69
418.943	111.69
419.166	80.69
419.389	114.69
419.611	94.69
419.834	87.69
420.057	87.69
420.28	86.69
420.503	94.69
420.726	85.69
420.948	100.69
421.171	93.69
421.394	102.69
421.617	83.69
421.839	107.69
422.062	86.69
422.285	89.69
422.507	114.69
422.73	88.69
422.953	90.69
423.175	92.69
423.398	98.69
423.621	94.69
423.843	86.69
424.066	78.69
424.288	103.69
424.511	100.69
424.733	112.69
424.956	105.69
425.178	96.69
425.401	103.69
425.623	109.69
425.846	82.69
426.068	94.69
426.291	85.69
426.513	111.69
426.735	95.69
426.958	96.69
427.18	95.69
427.402	144.69
427.625	161.69
427.847	126.69
428.069	113.69
428.292	91.69
428.514	92.69
428.736	102.69
428.958	98.69
429.181	93.69
429.403	88.69
429.625	68.69
429.847	85.69
430.069	94.69
430.292	97.69
430.514	91.69
430.736	91.69
430.958	97.69
431.18	77.69
431.402	91.69
431.624	102.69
431.846	93.69
432.068	98.69
432.29	101.69
432.512	92.69
432.734	94.69
432.956	102.69
433.178	97.69
433.4	102.69
433.622	86.69
433.844	102.69
434.066	93.69
434.287	109.69
434.509	92.69
434.731	96.69
434.953	87.69
435.175	97.69
435.397	93.69
435.618	94.69
435.84	108.69
436.062	131.69
436.284	125.69
436.505	108.69
436.727	102.69
436.949	108.69
437.17	102.69
437.392	79.69
437.614	106.69
437.835	115.69
438.057	128.69
438.278	115.69
438.5	112.69
438.721	124.69
438.943	98.69
439.165	87.69
439.386	74.69
439.608	98.69
439.829	103.69
440.05	128.69
440.272	134.69
440.493	108.69
440.715	101.69
440.936	74.69
441.158	97.69
441.379	87.69
441.6	106.69
441.822	99.69
442.043	94.69
442.264	90.69
442.486	105.69
442.707	104.69
442.928	111.69
443.149	139.69
443.371	125.69
443.592	115.69
443.813	110.69
444.034	121.69
444.255	96.69
444.476	88.69
444.698	98.69
444.919	76.69
445.14	124.69
445.361	115.69
445.582	106.69
445.803	131.69
446.024	131.69
446.245	129.69
446.466	108.69
446.687	94.69
446.908	89.69
447.129	111.69
447.35	103.69
447.571	90.69
447.792	98.69
448.013	100.69
448.234	105.69
448.455	98.69
448.675	108.69
448.896	140.69
449.117	103.69
449.338	116.69
449.559	125.69
449.779	146.69
450	102.69
450.221	88.69
450.442	99.69
450.662	84.69
450.883	115.69
451.104	127.69
451.324	103.69
451.545	91.69
451.766	81.69
451.986	96.69
452.207	104.69
452.428	98.69
452.648	106.69
452.869	102.69
453.089	110.69
453.31	124.69
453.53	107.69
453.751	89.69
453.971	109.69
454.192	108.69
454.412	95.69
454.633	98.69
454.853	100.69
455.073	93.69
455.294	106.69
455.514	86.69
455.734	98.69
455.955	94.69
456.175	90.69
456.395	80.69
456.616	94.69
456.836	82.69
457.056	90.69
457.276	84.69
457.497	78.69
457.717	95.69
457.937	87.69
458.157	86.69
458.377	93.69
458.598	95.69
458.818	152.69
459.038	156.69
459.258	110.69
459.478	94.69
459.698	88.69
459.918	100.69
460.138	98.69
460.358	91.69
460.578	95.69
460.798	99.69
461.018	97.69
461.238	81.69
461.458	101.69
461.678	96.69
461.898	88.69
462.118	98.69
462.338	80.69
462.558	90.69
462.777	96.69
462.997	83.69
463.217	84.69
463.437	109.69
463.657	92.69
463.876	96.69
464.096	94.69
464.316	97.69
464.536	99.69
464.755	93.69
464.975	114.69
465.195	152.69
465.414	147.69
465.634	99.69
465.854	89.69
466.073	93.69
466.293	84.69
466.512	90.69
466.732	88.69
466.951	86.69
467.171	105.69
467.391	108.69
467.61	98.69
467.829	91.69
468.049	91.69
468.268	82.69
468.488	91.69
468.707	77.69
468.927	96.69
469.146	88.69
469.365	94.69
469.585	91.69
469.804	101.69
470.023	107.69
470.243	92.69
470.462	92.69
470.681	118.69
470.901	102.69
471.12	88.69
471.339	92.69
471.558	92.69
471.777	91.69
471.997	88.69
472.216	99.69
472.435	94.69
472.654	88.69
472.873	95.69
473.092	94.69
473.311	87.69
473.53	83.69
473.749	91.69
473.968	96.69
474.187	100.69
474.406	94.69
474.625	79.69
474.844	94.69
475.063	102.69
475.282	88.69
475.501	92.69
475.72	94.69
475.939	97.69
476.158	84.69
476.377	79.69
476.596	77.69
476.814	94.69
477.033	91.69
477.252	88.69
477.471	100.69
477.69	98.69
477.908	91.69
478.127	100.69
478.346	96.69
478.564	85.69
478.783	111.69
479.002	90.69
479.22	104.69
479.439	110.69
479.658	111.69
479.876	111.69
480.095	98.69
480.313	90.69
480.532	90.69
480.751	80.69
480.969	106.69
481.188	98.69
481.406	94.69
481.624	92.69
481.843	93.69
482.061	94.69
482.28	93.69
482.498	93.69
482.717	78.69
482.935	94.69
483.153	95.69
483.372	95.69
483.59	101.69
483.808	101.69
484.027	83.69
484.245	100.69
484.463	94.69
484.681	99.69
484.9	91.69
485.118	104.69
485.336	96.69
485.554	96.69
485.772	102.69
485.99	113.69
486.209	95.69
486.427	100.69
486.645	103.69
486.863	124.69
487.081	117.69
487.299	103.69
487.517	102.69
487.735	107.69
487.953	100.69
488.171	89.69
488.389	88.69
488.607	90.69
488.825	84.69
489.043	85.69
489.261	88.69
489.479	98.69
489.696	87.69
489.914	103.69
490.132	93.69
490.35	79.69
490.568	95.69
490.786	98.69
491.003	96.69
491.221	96.69
491.439	100.69
491.657	104.69
491.874	88.69
492.092	100.69
492.31	103.69
492.527	88.69
492.745	83.69
492.963	79.69
493.18	88.69
493.398	75.69
493.615	114.69
493.833	106.69
494.05	93.69
494.268	108.69
494.485	86.69
494.703	92.69
494.92	93.69
495.138	106.69
495.355	100.69
495.573	107.69
495.79	96.69
496.008	86.69
496.225	78.69
496.442	84.69
496.66	84.69
496.877	85.69
497.094	107.69
497.312	95.69
497.529	97.69
497.746	95.69
497.963	95.69
498.181	94.69
498.398	100.69
498.615	117.69
498.832	105.69
499.049	92.69
499.267	96.69
499.484	89.69
499.701	89.69
499.918	102.69
500.135	97.69
500.352	111.69
500.569	86.69
500.786	102.69
501.003	95.69
501.22	97.69
501.437	91.69
501.654	94.69
501.871	92.69
502.088	89.69
502.305	95.69
502.522	84.69
502.739	79.69
502.956	93.69
503.172	84.69
503.389	100.69
503.606	115.69
503.823	99.69
504.04	92.69
504.256	96.69
504.473	104.69
504.69	98.69
504.907	98.69
505.123	80.69
505.34	69.69
505.557	86.69
505.773	102.69
505.99	101.69
506.207	99.69
506.423	92.69
506.64	90.69
506.856	81.69
507.073	88.69
507.289	95.69
507.506	98.69
507.722	107.69
507.939	108.69
508.155	99.69
508.372	106.69
508.588	101.69
508.805	98.69
509.021	90.69
509.238	95.69
509.454	112.69
509.67	104.69
509.887	118.69
510.103	138.69
510.319	236.69
510.536	804.69
510.752	2472.69
510.968	698.69
511.184	162.69
511.401	113.69
511.617	106.69
511.833	84.69
512.049	80.69
512.265	98.69
512.481	103.69
512.698	94.69
512.914	99.69
513.13	88.69
513.346	101.69
513.562	103.69
513.778	98.69
513.994	101.69
514.21	116.69
