Data from Uncirc_2008_H10_HRD10591_00003.txt Node
Date: Wed Jan 03 10:15:31 EST 2024
User: Yrep
Spectrometer: HR+D1059
Trigger mode: 1
Integration Time (sec): 1.000000E-1
Scans to average: 1
Electric dark correction enabled: true
Nonlinearity correction enabled: false
Boxcar width: 0
XAxis mode: Wavelengths
Number of Pixels in Spectrum: 2048
>>>>>Begin Spectral Data<<<<<
223.165	-24
223.4	-24
223.635	-24
223.869	-13
224.104	-18
224.338	-19
224.573	-15
224.808	-13
225.042	-19
225.277	9
225.511	10
225.746	3
225.98	-4
226.215	15
226.449	13
226.683	19
226.918	24
227.152	32
227.387	30
227.621	40
227.856	47
228.09	50
228.324	46
228.559	62
228.793	60
229.027	70
229.262	63
229.496	71
229.73	72
229.964	90
230.199	78
230.433	79
230.667	82
230.901	79
231.136	83
231.37	75
231.604	69
231.838	74
232.072	75
232.306	69
232.541	74
232.775	81
233.009	86
233.243	78
233.477	77
233.711	75
233.945	78
234.179	78
234.413	83
234.647	62
234.881	75
235.115	72
235.349	71
235.583	77
235.817	65
236.051	82
236.285	88
236.519	76
236.753	93
236.987	78
237.221	89
237.455	73
237.689	81
237.922	69
238.156	82
238.39	89
238.624	73
238.858	88
239.091	84
239.325	77
239.559	71
239.793	75
240.027	85
240.26	68
240.494	86
240.728	75
240.961	74
241.195	76
241.429	81
241.662	82
241.896	83
242.13	69
242.363	69
242.597	76
242.83	81
243.064	90
243.298	85
243.531	78
243.765	78
243.998	89
244.232	81
244.465	78
244.699	69
244.932	77
245.166	68
245.399	97
245.633	81
245.866	77
246.099	70
246.333	67
246.566	60
246.8	80
247.033	89
247.266	80
247.5	67
247.733	81
247.966	89
248.2	77
248.433	92
248.666	84
248.899	66
249.133	77
249.366	89
249.599	91
249.832	72
250.066	93
250.299	90
250.532	82
250.765	83
250.998	81
251.231	87
251.465	82
251.698	76
251.931	80
252.164	84
252.397	80
252.63	94
252.863	91
253.096	73
253.329	82
253.562	84
253.795	83
254.028	80
254.261	70
254.494	84
254.727	87
254.96	88
255.193	78
255.426	87
255.659	84
255.892	81
256.124	80
256.357	91
256.59	90
256.823	86
257.056	84
257.289	81
257.521	81
257.754	78
257.987	71
258.22	90
258.452	80
258.685	78
258.918	81
259.151	83
259.383	77
259.616	84
259.849	85
260.081	85
260.314	69
260.547	91
260.779	82
261.012	105
261.244	92
261.477	90
261.71	90
261.942	113
262.175	102
262.407	82
262.64	91
262.872	88
263.105	79
263.337	78
263.57	93
263.802	80
264.035	87
264.267	90
264.499	79
264.732	78
264.964	90
265.197	94
265.429	75
265.661	89
265.894	88
266.126	79
266.358	88
266.591	93
266.823	90
267.055	83
267.287	90
267.52	100
267.752	91
267.984	83
268.216	77
268.448	93
268.681	77
268.913	82
269.145	87
269.377	97
269.609	83
269.841	83
270.073	97
270.306	80
270.538	83
270.77	78
271.002	75
271.234	85
271.466	73
271.698	82
271.93	95
272.162	75
272.394	90
272.626	85
272.858	78
273.09	79
273.322	88
273.553	81
273.785	79
274.017	83
274.249	86
274.481	79
274.713	93
274.945	92
275.176	86
275.408	85
275.64	73
275.872	86
276.104	86
276.335	92
276.567	93
276.799	94
277.031	95
277.262	104
277.494	84
277.726	91
277.957	83
278.189	101
278.421	84
278.652	86
278.884	84
279.115	90
279.347	90
279.579	82
279.81	86
280.042	85
280.273	90
280.505	86
280.736	80
280.968	92
281.199	85
281.431	81
281.662	86
281.894	81
282.125	93
282.356	98
282.588	121
282.819	98
283.051	88
283.282	93
283.513	80
283.745	95
283.976	77
284.207	87
284.439	83
284.67	76
284.901	93
285.132	107
285.364	74
285.595	78
285.826	78
286.057	97
286.288	89
286.52	94
286.751	96
286.982	89
287.213	87
287.444	96
287.675	93
287.906	80
288.138	94
288.369	94
288.6	90
288.831	85
289.062	98
289.293	92
289.524	81
289.755	86
289.986	85
290.217	100
290.448	84
290.679	91
290.91	91
291.141	90
291.371	83
291.602	84
291.833	99
292.064	88
292.295	69
292.526	93
292.757	94
292.987	84
293.218	103
293.449	84
293.68	80
293.91	100
294.141	99
294.372	93
294.603	97
294.833	105
295.064	94
295.295	99
295.525	93
295.756	81
295.987	106
296.217	120
296.448	134
296.679	87
296.909	104
297.14	97
297.37	93
297.601	100
297.831	83
298.062	92
298.292	90
298.523	89
298.753	88
298.984	85
299.214	98
299.445	84
299.675	98
299.905	97
300.136	81
300.366	85
300.597	85
300.827	102
301.057	115
301.288	89
301.518	85
301.748	92
301.979	103
302.209	83
302.439	79
302.669	75
302.9	91
303.13	84
303.36	85
303.59	93
303.82	94
304.051	94
304.281	84
304.511	97
304.741	94
304.971	81
305.201	80
305.431	87
305.661	84
305.891	101
306.121	101
306.352	97
306.582	100
306.812	91
307.042	86
307.272	100
307.502	98
307.731	96
307.961	109
308.191	92
308.421	78
308.651	80
308.881	107
309.111	98
309.341	89
309.571	97
309.8	85
310.03	102
310.26	107
310.49	93
310.72	100
310.949	102
311.179	89
311.409	98
311.639	93
311.868	91
312.098	94
312.328	82
312.557	100
312.787	81
313.017	97
313.246	111
313.476	94
313.706	92
313.935	91
314.165	104
314.394	109
314.624	91
314.853	105
315.083	99
315.312	92
315.542	107
315.771	109
316.001	98
316.23	86
316.46	98
316.689	76
316.919	101
317.148	93
317.377	98
317.607	93
317.836	98
318.065	93
318.295	88
318.524	90
318.753	82
318.983	89
319.212	100
319.441	99
319.67	94
319.9	103
320.129	83
320.358	80
320.587	89
320.816	102
321.046	96
321.275	106
321.504	101
321.733	106
321.962	86
322.191	100
322.42	104
322.649	97
322.878	116
323.108	118
323.337	110
323.566	137
323.795	138
324.024	175
324.253	342
324.482	686
324.71	1406
324.939	1778
325.168	689
325.397	206
325.626	135
325.855	124
326.084	130
326.313	122
326.542	146
326.77	216
326.999	421
327.228	803
327.457	1435
327.686	1125
327.914	320
328.143	164
328.372	126
328.6	132
328.829	120
329.058	117
329.287	124
329.515	95
329.744	106
329.972	85
330.201	86
330.43	103
330.658	110
330.887	130
331.115	113
331.344	94
331.572	92
331.801	109
332.03	111
332.258	115
332.486	107
332.715	86
332.943	102
333.172	99
333.4	93
333.629	102
333.857	116
334.085	84
334.314	89
334.542	92
334.771	101
334.999	101
335.227	77
335.455	102
335.684	103
335.912	79
336.14	104
336.369	83
336.597	101
336.825	94
337.053	84
337.281	98
337.51	90
337.738	96
337.966	93
338.194	97
338.422	103
338.65	96
338.878	100
339.106	80
339.334	95
339.562	102
339.79	96
340.018	85
340.246	96
340.474	94
340.702	86
340.93	103
341.158	98
341.386	102
341.614	83
341.842	99
342.07	98
342.298	85
342.526	109
342.754	102
342.981	93
343.209	95
343.437	96
343.665	94
343.893	104
344.12	99
344.348	112
344.576	102
344.804	109
345.031	89
345.259	88
345.487	93
345.714	85
345.942	103
346.17	99
346.397	91
346.625	94
346.853	101
347.08	94
347.308	105
347.535	99
347.763	96
347.99	101
348.218	109
348.445	115
348.673	97
348.9	99
349.128	83
349.355	84
349.583	98
349.81	92
350.037	89
350.265	99
350.492	95
350.72	94
350.947	102
351.174	113
351.402	120
351.629	100
351.856	110
352.083	97
352.311	109
352.538	112
352.765	116
352.992	120
353.22	88
353.447	109
353.674	108
353.901	104
354.128	98
354.355	103
354.583	98
354.81	94
355.037	106
355.264	99
355.491	102
355.718	96
355.945	107
356.172	115
356.399	96
356.626	100
356.853	106
357.08	90
357.307	93
357.534	72
357.761	104
357.988	109
358.215	96
358.441	95
358.668	103
358.895	92
359.122	86
359.349	93
359.576	87
359.802	92
360.029	112
360.256	104
360.483	88
360.709	77
360.936	94
361.163	85
361.39	88
361.616	93
361.843	88
362.07	101
362.296	86
362.523	84
362.749	80
362.976	82
363.203	86
363.429	99
363.656	90
363.882	92
364.109	84
364.335	94
364.562	104
364.788	77
365.015	87
365.241	100
365.468	97
365.694	106
365.92	110
366.147	93
366.373	87
366.599	97
366.826	93
367.052	94
367.278	97
367.505	92
367.731	101
367.957	85
368.184	89
368.41	110
368.636	98
368.862	104
369.089	109
369.315	97
369.541	111
369.767	98
369.993	98
370.219	86
370.445	94
370.672	78
370.898	83
371.124	84
371.35	86
371.576	104
371.802	96
372.028	78
372.254	86
372.48	98
372.706	104
372.932	83
373.158	89
373.384	97
373.61	96
373.835	94
374.061	93
374.287	99
374.513	89
374.739	97
374.965	101
375.191	94
375.416	110
375.642	94
375.868	97
376.094	94
376.319	100
376.545	91
376.771	99
376.997	90
377.222	91
377.448	103
377.674	87
377.899	95
378.125	106
378.35	92
378.576	102
378.802	87
379.027	82
379.253	94
379.478	114
379.704	76
379.929	88
380.155	102
380.38	104
380.606	116
380.831	89
381.057	101
381.282	91
381.507	116
381.733	110
381.958	105
382.184	115
382.409	111
382.634	110
382.86	113
383.085	101
383.31	125
383.535	111
383.761	101
383.986	115
384.211	104
384.436	120
384.662	111
384.887	128
385.112	120
385.337	120
385.562	122
385.787	115
386.013	117
386.238	123
386.463	115
386.688	115
386.913	120
387.138	122
387.363	115
387.588	123
387.813	105
388.038	123
388.263	132
388.488	113
388.713	99
388.938	109
389.163	106
389.387	108
389.612	103
389.837	85
390.062	92
390.287	104
390.512	103
390.736	96
390.961	78
391.186	104
391.411	94
391.636	104
391.86	86
392.085	88
392.31	82
392.534	90
392.759	92
392.984	88
393.208	97
393.433	94
393.658	85
393.882	82
394.107	93
394.331	82
394.556	78
394.78	78
395.005	91
395.229	92
395.454	78
395.678	82
395.903	101
396.127	95
396.352	83
396.576	67
396.801	84
397.025	89
397.249	75
397.474	98
397.698	85
397.922	78
398.147	78
398.371	87
398.595	80
398.82	90
399.044	76
399.268	78
399.492	80
399.717	78
399.941	95
400.165	88
400.389	85
400.613	89
400.837	78
401.062	80
401.286	91
401.51	104
401.734	102
401.958	105
402.182	105
402.406	153
402.63	126
402.854	107
403.078	87
403.302	97
403.526	91
403.75	85
403.974	84
404.198	95
404.422	91
404.645	95
404.869	82
405.093	92
405.317	104
405.541	106
405.765	94
405.988	123
406.212	141
406.436	202
406.66	128
406.883	97
407.107	95
407.331	77
407.555	86
407.778	102
408.002	99
408.226	78
408.449	80
408.673	85
408.896	90
409.12	99
409.344	88
409.567	100
409.791	86
410.014	112
410.238	86
410.461	109
410.685	85
410.908	106
411.132	103
411.355	97
411.578	93
411.802	101
412.025	81
412.249	107
412.472	100
412.695	91
412.919	83
413.142	93
413.365	101
413.589	95
413.812	94
414.035	87
414.258	92
414.482	83
414.705	96
414.928	112
415.151	101
415.374	87
415.597	83
415.821	95
416.044	99
416.267	95
416.49	101
416.713	98
416.936	86
417.159	90
417.382	92
417.605	79
417.828	82
418.051	96
418.274	102
418.497	98
418.72	83
418.943	104
419.166	82
419.389	84
419.611	84
419.834	98
420.057	107
420.28	81
420.503	88
420.726	85
420.948	74
421.171	101
421.394	100
421.617	94
421.839	85
422.062	78
422.285	101
422.507	94
422.73	116
422.953	87
423.175	78
423.398	93
423.621	88
423.843	82
424.066	92
424.288	77
424.511	78
424.733	103
424.956	105
425.178	88
425.401	109
425.623	92
425.846	92
426.068	100
426.291	100
426.513	83
426.735	93
426.958	94
427.18	105
427.402	119
427.625	153
427.847	106
428.069	110
428.292	95
428.514	93
428.736	94
428.958	76
429.181	81
429.403	95
429.625	102
429.847	103
430.069	93
430.292	99
430.514	94
430.736	93
430.958	75
431.18	81
431.402	96
431.624	80
431.846	89
432.068	81
432.29	79
432.512	96
432.734	87
432.956	92
433.178	109
433.4	110
433.622	93
433.844	88
434.066	95
434.287	87
434.509	96
434.731	85
434.953	93
435.175	97
435.397	99
435.618	105
435.84	94
436.062	99
436.284	103
436.505	104
436.727	105
436.949	110
437.17	92
437.392	88
437.614	93
437.835	96
438.057	112
438.278	104
438.5	95
438.721	105
438.943	108
439.165	94
439.386	90
439.608	91
439.829	88
440.05	100
440.272	133
440.493	95
440.715	80
440.936	70
441.158	95
441.379	95
441.6	87
441.822	99
442.043	86
442.264	105
442.486	96
442.707	96
442.928	103
443.149	117
443.371	128
443.592	98
443.813	96
444.034	99
444.255	81
444.476	79
444.698	98
444.919	78
445.14	123
445.361	114
445.582	105
445.803	123
446.024	124
446.245	133
446.466	104
446.687	86
446.908	86
447.129	85
447.35	76
447.571	81
447.792	98
448.013	91
448.234	94
448.455	101
448.675	115
448.896	107
449.117	87
449.338	78
449.559	114
449.779	124
450	87
450.221	87
450.442	84
450.662	101
450.883	102
451.104	98
451.324	94
451.545	90
451.766	68
451.986	88
452.207	83
452.428	94
452.648	104
452.869	109
453.089	111
453.31	96
453.53	81
453.751	91
453.971	92
454.192	107
454.412	90
454.633	88
454.853	89
455.073	81
455.294	91
455.514	81
455.734	87
455.955	95
456.175	78
456.395	85
456.616	72
456.836	90
457.056	85
457.276	90
457.497	80
457.717	91
457.937	83
458.157	96
458.377	100
458.598	93
458.818	145
459.038	136
459.258	102
459.478	89
459.698	86
459.918	88
460.138	86
460.358	96
460.578	107
460.798	92
461.018	85
461.238	87
461.458	72
461.678	93
461.898	82
462.118	88
462.338	88
462.558	95
462.777	84
462.997	81
463.217	80
463.437	89
463.657	93
463.876	81
464.096	96
464.316	91
464.536	86
464.755	83
464.975	87
465.195	143
465.414	139
465.634	78
465.854	103
466.073	102
466.293	92
466.512	98
466.732	85
466.951	89
467.171	95
467.391	100
467.61	106
467.829	92
468.049	91
468.268	76
468.488	87
468.707	92
468.927	75
469.146	88
469.365	92
469.585	81
469.804	88
470.023	82
470.243	89
470.462	85
470.681	111
470.901	81
471.12	89
471.339	88
471.558	93
471.777	81
471.997	94
472.216	91
472.435	97
472.654	84
472.873	91
473.092	92
473.311	96
473.53	84
473.749	78
473.968	94
474.187	101
474.406	78
474.625	89
474.844	92
475.063	89
475.282	81
475.501	86
475.72	98
475.939	89
476.158	110
476.377	91
476.596	77
476.814	98
477.033	90
477.252	99
477.471	86
477.69	102
477.908	91
478.127	93
478.346	83
478.564	87
478.783	89
479.002	99
479.22	97
479.439	106
479.658	98
479.876	97
480.095	96
480.313	95
480.532	81
480.751	94
480.969	90
481.188	93
481.406	105
481.624	81
481.843	102
482.061	91
482.28	81
482.498	97
482.717	95
482.935	99
483.153	97
483.372	90
483.59	93
483.808	76
484.027	86
484.245	97
484.463	88
484.681	99
484.9	101
485.118	93
485.336	110
485.554	93
485.772	108
485.99	89
486.209	100
486.427	96
486.645	101
486.863	120
487.081	111
487.299	95
487.517	99
487.735	99
487.953	88
488.171	104
488.389	91
488.607	101
488.825	80
489.043	88
489.261	81
489.479	93
489.696	101
489.914	86
490.132	92
490.35	109
490.568	84
490.786	92
491.003	105
491.221	83
491.439	101
491.657	85
491.874	85
492.092	94
492.31	85
492.527	97
492.745	80
492.963	97
493.18	107
493.398	90
493.615	99
493.833	99
494.05	98
494.268	99
494.485	100
494.703	100
494.92	100
495.138	101
495.355	91
495.573	111
495.79	96
496.008	96
496.225	93
496.442	103
496.66	97
496.877	89
497.094	97
497.312	107
497.529	97
497.746	79
497.963	91
498.181	108
498.398	105
498.615	93
498.832	109
499.049	98
499.267	104
499.484	89
499.701	81
499.918	102
500.135	82
500.352	101
500.569	94
500.786	84
501.003	87
501.22	90
501.437	91
501.654	106
501.871	107
502.088	89
502.305	82
502.522	69
502.739	86
502.956	106
503.172	97
503.389	90
503.606	112
503.823	96
504.04	86
504.256	93
504.473	89
504.69	92
504.907	111
505.123	100
505.34	88
505.557	97
505.773	100
505.99	93
506.207	82
506.423	85
506.64	92
506.856	86
507.073	89
507.289	97
507.506	102
507.722	116
507.939	118
508.155	100
508.372	93
508.588	89
508.805	88
509.021	108
509.238	100
509.454	103
509.67	105
509.887	101
510.103	128
510.319	212
510.536	679
510.752	2032
510.968	589
511.184	154
511.401	107
511.617	103
511.833	96
512.049	94
512.265	90
512.481	96
512.698	88
512.914	95
513.13	97
513.346	94
513.562	99
513.778	106
513.994	108
514.21	102
514.426	120
514.642	120
514.858	117
515.074	144
515.29	409
515.506	1264
515.721	473
515.937	144
516.153	112
516.369	89
516.585	98
516.801	106
517.016	108
517.232	101
517.448	89
517.664	100
517.879	100
518.095	89
518.311	101
518.527	98
518.742	78
518.958	92
519.173	91
519.389	85
519.605	94
519.82	96
520.036	97
520.251	125
520.467	104
520.682	92
520.898	101
521.113	107
521.329	123
521.544	186
521.76	480
521.975	2041
522.19	1272
522.406	276
522.621	120
522.836	102
523.052	97
523.267	89
523.482	94
523.698	94
523.913	113
524.128	105
524.343	102
524.559	89
524.774	96
524.989	92
525.204	102
525.419	104
525.634	105
525.849	102
526.064	95
526.28	95
526.495	82
526.71	87
526.925	98
527.14	105
527.355	92
527.57	91
527.785	97
527.999	99
528.214	88
528.429	90
528.644	102
528.859	100
529.074	101
529.289	113
529.503	166
529.718	91
529.933	88
530.148	83
530.363	88
530.577	90
530.792	88
531.007	80
531.221	95
531.436	93
531.651	113
531.865	88
532.08	95
532.295	86
532.509	103
532.724	97
532.938	99
533.153	90
533.367	99
533.582	96
533.796	90
534.011	98
534.225	87
534.44	92
534.654	109
534.868	104
535.083	88
535.297	105
535.511	107
535.726	109
535.94	99
536.154	90
536.369	97
536.583	96
536.797	92
537.011	87
537.225	96
537.44	99
537.654	92
537.868	97
538.082	91
538.296	99
538.51	90
538.724	94
538.938	98
539.153	93
539.367	102
539.581	104
539.795	91
540.009	81
540.222	103
540.436	94
540.65	96
540.864	104
541.078	94
541.292	97
541.506	84
541.72	91
541.934	97
542.147	89
542.361	96
542.575	90
542.789	92
543.002	76
543.216	79
543.43	100
543.644	92
543.857	88
544.071	91
544.285	86
544.498	95
544.712	96
544.925	93
545.139	97
545.352	93
545.566	97
545.779	92
545.993	98
546.206	99
546.42	91
546.633	86
546.847	99
547.06	101
547.274	103
547.487	97
547.7	88
547.914	104
548.127	85
548.34	82
548.554	86
548.767	86
548.98	96
549.193	86
549.407	90
549.62	91
549.833	90
550.046	94
550.259	109
550.473	100
550.686	96
550.899	100
551.112	97
551.325	96
551.538	95
551.751	84
551.964	92
552.177	86
552.39	89
552.603	91
552.816	91
553.029	96
553.242	91
553.455	105
553.667	109
553.88	99
554.093	85
554.306	94
554.519	99
554.732	83
554.944	102
555.157	96
555.37	98
555.583	88
555.795	94
556.008	82
556.221	85
556.433	96
556.646	102
556.859	102
557.071	100
557.284	96
557.496	104
557.709	79
557.921	80
558.134	92
558.346	102
558.559	93
558.771	93
558.984	109
559.196	91
559.409	94
559.621	96
559.833	96
560.046	87
560.258	86
560.47	86
560.683	85
560.895	82
561.107	82
561.32	81
561.532	96
561.744	94
561.956	96
562.168	89
562.381	105
562.593	96
562.805	91
563.017	98
563.229	90
563.441	79
563.653	98
563.865	88
564.077	90
564.289	83
564.501	80
564.713	90
564.925	92
565.137	102
565.349	100
565.561	79
565.773	79
565.985	98
566.197	82
566.408	98
566.62	79
566.832	88
567.044	91
567.255	80
567.467	85
567.679	83
567.891	88
568.102	107
568.314	84
568.526	86
568.737	85
568.949	85
569.161	93
569.372	98
569.584	93
569.795	89
570.007	124
570.218	216
570.43	126
570.641	98
570.853	80
571.064	91
571.276	84
571.487	95
571.698	96
571.91	85
572.121	100
572.333	94
572.544	95
572.755	89
572.966	97
573.178	93
573.389	92
573.6	84
573.811	96
574.023	90
574.234	76
574.445	96
574.656	85
574.867	100
575.078	93
575.289	105
575.501	99
575.712	98
575.923	71
576.134	86
576.345	106
576.556	96
576.767	103
576.978	81
577.188	92
577.399	97
577.61	92
577.821	98
578.032	128
578.243	261
578.454	728
578.665	196
578.875	97
579.086	88
579.297	89
579.508	100
579.718	82
579.929	84
580.14	86
580.35	93
580.561	95
580.772	91
580.982	93
581.193	96
581.403	88
581.614	108
581.825	97
582.035	74
582.246	79
582.456	98
582.667	86
582.877	99
583.087	91
