Data from Uncirc_2008_H10_HRD10591_00041.txt Node
Date: Wed Jan 03 10:15:39 EST 2024
User: Yrep
Spectrometer: HR+D1059
Trigger mode: 1
Integration Time (sec): 1.000000E-1
Scans to average: 1
Electric dark correction enabled: true
Nonlinearity correction enabled: false
Boxcar width: 0
XAxis mode: Wavelengths
Number of Pixels in Spectrum: 2048
>>>>>Begin Spectral Data<<<<<
223.165	-12.12
223.4	-12.12
223.635	-12.12
223.869	-21.12
224.104	-24.12
224.338	-19.12
224.573	-8.12
224.808	-23.12
225.042	-2.12
225.277	5.88
225.511	4.88
225.746	1.88
225.98	6.88
226.215	14.88
226.449	9.88
226.683	19.88
226.918	23.88
227.152	21.88
227.387	38.88
227.621	23.88
227.856	46.88
228.09	47.88
228.324	47.88
228.559	47.88
228.793	53.88
229.027	67.88
229.262	61.88
229.496	74.88
229.73	72.88
229.964	79.88
230.199	64.88
230.433	78.88
230.667	57.88
230.901	86.88
231.136	76.88
231.37	83.88
231.604	69.88
231.838	75.88
232.072	78.88
232.306	75.88
232.541	79.88
232.775	72.88
233.009	81.88
233.243	68.88
233.477	74.88
233.711	74.88
233.945	70.88
234.179	75.88
234.413	93.88
234.647	75.88
234.881	81.88
235.115	76.88
235.349	57.88
235.583	74.88
235.817	82.88
236.051	79.88
236.285	70.88
236.519	52.88
236.753	74.88
236.987	77.88
237.221	90.88
237.455	79.88
237.689	85.88
237.922	85.88
238.156	82.88
238.39	70.88
238.624	73.88
238.858	71.88
239.091	66.88
239.325	61.88
239.559	81.88
239.793	75.88
240.027	79.88
240.26	79.88
240.494	81.88
240.728	69.88
240.961	81.88
241.195	75.88
241.429	72.88
241.662	60.88
241.896	76.88
242.13	74.88
242.363	58.88
242.597	62.88
242.83	62.88
243.064	66.88
243.298	58.88
243.531	71.88
243.765	73.88
243.998	79.88
244.232	62.88
244.465	81.88
244.699	69.88
244.932	60.88
245.166	58.88
245.399	67.88
245.633	65.88
245.866	78.88
246.099	70.88
246.333	67.88
246.566	74.88
246.8	65.88
247.033	66.88
247.266	72.88
247.5	65.88
247.733	73.88
247.966	76.88
248.2	78.88
248.433	92.88
248.666	81.88
248.899	82.88
249.133	82.88
249.366	86.88
249.599	90.88
249.832	84.88
250.066	86.88
250.299	70.88
250.532	72.88
250.765	85.88
250.998	72.88
251.231	78.88
251.465	73.88
251.698	78.88
251.931	70.88
252.164	80.88
252.397	83.88
252.63	85.88
252.863	76.88
253.096	87.88
253.329	74.88
253.562	74.88
253.795	66.88
254.028	89.88
254.261	81.88
254.494	67.88
254.727	74.88
254.96	73.88
255.193	79.88
255.426	74.88
255.659	71.88
255.892	65.88
256.124	63.88
256.357	76.88
256.59	75.88
256.823	71.88
257.056	79.88
257.289	74.88
257.521	70.88
257.754	78.88
257.987	89.88
258.22	83.88
258.452	85.88
258.685	77.88
258.918	71.88
259.151	77.88
259.383	75.88
259.616	78.88
259.849	73.88
260.081	88.88
260.314	87.88
260.547	72.88
260.779	74.88
261.012	84.88
261.244	77.88
261.477	75.88
261.71	106.88
261.942	95.88
262.175	109.88
262.407	94.88
262.64	78.88
262.872	78.88
263.105	86.88
263.337	62.88
263.57	81.88
263.802	58.88
264.035	97.88
264.267	84.88
264.499	75.88
264.732	76.88
264.964	74.88
265.197	88.88
265.429	61.88
265.661	76.88
265.894	63.88
266.126	86.88
266.358	73.88
266.591	84.88
266.823	82.88
267.055	67.88
267.287	85.88
267.52	76.88
267.752	84.88
267.984	74.88
268.216	73.88
268.448	71.88
268.681	90.88
268.913	77.88
269.145	87.88
269.377	79.88
269.609	82.88
269.841	81.88
270.073	78.88
270.306	93.88
270.538	79.88
270.77	65.88
271.002	85.88
271.234	80.88
271.466	72.88
271.698	80.88
271.93	81.88
272.162	77.88
272.394	85.88
272.626	76.88
272.858	71.88
273.09	73.88
273.322	80.88
273.553	68.88
273.785	88.88
274.017	79.88
274.249	93.88
274.481	95.88
274.713	84.88
274.945	78.88
275.176	82.88
275.408	60.88
275.64	77.88
275.872	83.88
276.104	83.88
276.335	79.88
276.567	85.88
276.799	94.88
277.031	83.88
277.262	90.88
277.494	94.88
277.726	88.88
277.957	80.88
278.189	79.88
278.421	59.88
278.652	92.88
278.884	86.88
279.115	88.88
279.347	79.88
279.579	76.88
279.81	86.88
280.042	87.88
280.273	76.88
280.505	89.88
280.736	97.88
280.968	84.88
281.199	86.88
281.431	92.88
281.662	80.88
281.894	78.88
282.125	87.88
282.356	98.88
282.588	129.88
282.819	115.88
283.051	99.88
283.282	76.88
283.513	73.88
283.745	82.88
283.976	85.88
284.207	78.88
284.439	76.88
284.67	82.88
284.901	79.88
285.132	93.88
285.364	81.88
285.595	70.88
285.826	90.88
286.057	67.88
286.288	80.88
286.52	79.88
286.751	74.88
286.982	72.88
287.213	90.88
287.444	77.88
287.675	86.88
287.906	86.88
288.138	87.88
288.369	86.88
288.6	85.88
288.831	86.88
289.062	74.88
289.293	91.88
289.524	88.88
289.755	87.88
289.986	84.88
290.217	83.88
290.448	93.88
290.679	84.88
290.91	85.88
291.141	69.88
291.371	87.88
291.602	84.88
291.833	77.88
292.064	64.88
292.295	89.88
292.526	87.88
292.757	100.88
292.987	80.88
293.218	84.88
293.449	65.88
293.68	81.88
293.91	88.88
294.141	90.88
294.372	73.88
294.603	84.88
294.833	94.88
295.064	86.88
295.295	86.88
295.525	86.88
295.756	95.88
295.987	103.88
296.217	119.88
296.448	104.88
296.679	78.88
296.909	91.88
297.14	86.88
297.37	82.88
297.601	88.88
297.831	92.88
298.062	83.88
298.292	87.88
298.523	83.88
298.753	85.88
298.984	79.88
299.214	83.88
299.445	82.88
299.675	82.88
299.905	102.88
300.136	91.88
300.366	94.88
300.597	93.88
300.827	79.88
301.057	89.88
301.288	91.88
301.518	90.88
301.748	83.88
301.979	93.88
302.209	78.88
302.439	67.88
302.669	95.88
302.9	66.88
303.13	75.88
303.36	80.88
303.59	101.88
303.82	97.88
304.051	98.88
304.281	84.88
304.511	89.88
304.741	87.88
304.971	89.88
305.201	82.88
305.431	79.88
305.661	96.88
305.891	74.88
306.121	85.88
306.352	98.88
306.582	89.88
306.812	86.88
307.042	91.88
307.272	74.88
307.502	90.88
307.731	91.88
307.961	80.88
308.191	83.88
308.421	93.88
308.651	86.88
308.881	90.88
309.111	86.88
309.341	67.88
309.571	85.88
309.8	85.88
310.03	85.88
310.26	91.88
310.49	95.88
310.72	97.88
310.949	94.88
311.179	103.88
311.409	90.88
311.639	94.88
311.868	93.88
312.098	81.88
312.328	87.88
312.557	90.88
312.787	93.88
313.017	83.88
313.246	88.88
313.476	94.88
313.706	78.88
313.935	101.88
314.165	88.88
314.394	85.88
314.624	75.88
314.853	91.88
315.083	75.88
315.312	100.88
315.542	92.88
315.771	78.88
316.001	94.88
316.23	83.88
316.46	78.88
316.689	89.88
316.919	89.88
317.148	83.88
317.377	93.88
317.607	92.88
317.836	97.88
318.065	87.88
318.295	94.88
318.524	77.88
318.753	85.88
318.983	93.88
319.212	110.88
319.441	107.88
319.67	93.88
319.9	81.88
320.129	97.88
320.358	86.88
320.587	88.88
320.816	91.88
321.046	110.88
321.275	81.88
321.504	77.88
321.733	97.88
321.962	85.88
322.191	95.88
322.42	115.88
322.649	94.88
322.878	110.88
323.108	92.88
323.337	128.88
323.566	126.88
323.795	148.88
324.024	189.88
324.253	370.88
324.482	782.88
324.71	1586.88
324.939	2118.88
325.168	751.88
325.397	231.88
325.626	152.88
325.855	114.88
326.084	117.88
326.313	111.88
326.542	136.88
326.77	214.88
326.999	443.88
327.228	899.88
327.457	1570.88
327.686	1251.88
327.914	361.88
328.143	180.88
328.372	139.88
328.6	118.88
328.829	102.88
329.058	122.88
329.287	109.88
329.515	99.88
329.744	109.88
329.972	95.88
330.201	85.88
330.43	108.88
330.658	101.88
330.887	118.88
331.115	120.88
331.344	85.88
331.572	97.88
331.801	97.88
332.03	91.88
332.258	96.88
332.486	80.88
332.715	65.88
332.943	105.88
333.172	83.88
333.4	90.88
333.629	105.88
333.857	111.88
334.085	96.88
334.314	93.88
334.542	84.88
334.771	94.88
334.999	74.88
335.227	83.88
335.455	87.88
335.684	86.88
335.912	96.88
336.14	106.88
336.369	79.88
336.597	99.88
336.825	83.88
337.053	87.88
337.281	82.88
337.51	84.88
337.738	86.88
337.966	95.88
338.194	101.88
338.422	73.88
338.65	88.88
338.878	80.88
339.106	82.88
339.334	96.88
339.562	88.88
339.79	82.88
340.018	77.88
340.246	80.88
340.474	95.88
340.702	104.88
340.93	90.88
341.158	89.88
341.386	97.88
341.614	91.88
341.842	111.88
342.07	74.88
342.298	87.88
342.526	83.88
342.754	86.88
342.981	82.88
343.209	76.88
343.437	97.88
343.665	85.88
343.893	80.88
344.12	90.88
344.348	100.88
344.576	89.88
344.804	83.88
345.031	104.88
345.259	102.88
345.487	83.88
345.714	90.88
345.942	91.88
346.17	85.88
346.397	89.88
346.625	83.88
346.853	97.88
347.08	96.88
347.308	89.88
347.535	92.88
347.763	97.88
347.99	101.88
348.218	100.88
348.445	99.88
348.673	78.88
348.9	89.88
349.128	101.88
349.355	95.88
349.583	102.88
349.81	95.88
350.037	86.88
350.265	94.88
350.492	98.88
350.72	92.88
350.947	92.88
351.174	107.88
351.402	122.88
351.629	101.88
351.856	97.88
352.083	93.88
352.311	91.88
352.538	107.88
352.765	91.88
352.992	108.88
353.22	107.88
353.447	108.88
353.674	90.88
353.901	98.88
354.128	101.88
354.355	106.88
354.583	93.88
354.81	112.88
355.037	100.88
355.264	99.88
355.491	85.88
355.718	84.88
355.945	88.88
356.172	78.88
356.399	91.88
356.626	72.88
356.853	85.88
357.08	87.88
357.307	81.88
357.534	101.88
357.761	84.88
357.988	86.88
358.215	85.88
358.441	91.88
358.668	94.88
358.895	90.88
359.122	96.88
359.349	86.88
359.576	82.88
359.802	76.88
360.029	102.88
360.256	92.88
360.483	91.88
360.709	72.88
360.936	95.88
361.163	77.88
361.39	90.88
361.616	101.88
361.843	95.88
362.07	62.88
362.296	93.88
362.523	77.88
362.749	93.88
362.976	100.88
363.203	87.88
363.429	87.88
363.656	91.88
363.882	101.88
364.109	80.88
364.335	78.88
364.562	77.88
364.788	86.88
365.015	83.88
365.241	82.88
365.468	93.88
365.694	103.88
365.92	87.88
366.147	85.88
366.373	85.88
366.599	86.88
366.826	77.88
367.052	82.88
367.278	83.88
367.505	82.88
367.731	88.88
367.957	93.88
368.184	77.88
368.41	86.88
368.636	104.88
368.862	103.88
369.089	99.88
369.315	103.88
369.541	93.88
369.767	96.88
369.993	91.88
370.219	84.88
370.445	88.88
370.672	77.88
370.898	78.88
371.124	91.88
371.35	70.88
371.576	82.88
371.802	74.88
372.028	92.88
372.254	81.88
372.48	92.88
372.706	81.88
372.932	90.88
373.158	90.88
373.384	85.88
373.61	98.88
373.835	88.88
374.061	94.88
374.287	85.88
374.513	95.88
374.739	85.88
374.965	77.88
375.191	92.88
375.416	83.88
375.642	65.88
375.868	70.88
376.094	81.88
376.319	81.88
376.545	75.88
376.771	78.88
376.997	74.88
377.222	94.88
377.448	95.88
377.674	88.88
377.899	79.88
378.125	82.88
378.35	98.88
378.576	88.88
378.802	87.88
379.027	90.88
379.253	77.88
379.478	84.88
379.704	91.88
379.929	81.88
380.155	87.88
380.38	95.88
380.606	108.88
380.831	98.88
381.057	96.88
381.282	84.88
381.507	95.88
381.733	77.88
381.958	88.88
382.184	90.88
382.409	99.88
382.634	99.88
382.86	92.88
383.085	90.88
383.31	99.88
383.535	99.88
383.761	91.88
383.986	99.88
384.211	96.88
384.436	111.88
384.662	95.88
384.887	88.88
385.112	102.88
385.337	92.88
385.562	86.88
385.787	87.88
386.013	89.88
386.238	110.88
386.463	90.88
386.688	101.88
386.913	92.88
387.138	105.88
387.363	91.88
387.588	83.88
387.813	103.88
388.038	100.88
388.263	118.88
388.488	119.88
388.713	88.88
388.938	90.88
389.163	90.88
389.387	86.88
389.612	88.88
389.837	97.88
390.062	88.88
390.287	90.88
390.512	77.88
390.736	87.88
390.961	72.88
391.186	93.88
391.411	85.88
391.636	80.88
391.86	85.88
392.085	95.88
392.31	83.88
392.534	75.88
392.759	83.88
392.984	77.88
393.208	84.88
393.433	88.88
393.658	86.88
393.882	87.88
394.107	88.88
394.331	88.88
394.556	98.88
394.78	82.88
395.005	101.88
395.229	64.88
395.454	90.88
395.678	85.88
395.903	84.88
396.127	90.88
396.352	78.88
396.576	71.88
396.801	86.88
397.025	89.88
397.249	86.88
397.474	65.88
397.698	77.88
397.922	82.88
398.147	84.88
398.371	76.88
398.595	69.88
398.82	83.88
399.044	86.88
399.268	76.88
399.492	91.88
399.717	87.88
399.941	89.88
400.165	79.88
400.389	95.88
400.613	79.88
400.837	77.88
401.062	95.88
401.286	87.88
401.51	95.88
401.734	77.88
401.958	116.88
402.182	118.88
402.406	147.88
402.63	114.88
402.854	97.88
403.078	78.88
403.302	80.88
403.526	82.88
403.75	86.88
403.974	89.88
404.198	84.88
404.422	90.88
404.645	70.88
404.869	78.88
405.093	93.88
405.317	82.88
405.541	86.88
405.765	90.88
405.988	107.88
406.212	157.88
406.436	211.88
406.66	129.88
406.883	94.88
407.107	97.88
407.331	87.88
407.555	88.88
407.778	79.88
408.002	78.88
408.226	82.88
408.449	85.88
408.673	86.88
408.896	95.88
409.12	93.88
409.344	91.88
409.567	66.88
409.791	89.88
410.014	93.88
410.238	88.88
410.461	91.88
410.685	93.88
410.908	84.88
411.132	103.88
411.355	93.88
411.578	83.88
411.802	80.88
412.025	84.88
412.249	80.88
412.472	86.88
412.695	95.88
412.919	94.88
413.142	100.88
413.365	86.88
413.589	89.88
413.812	83.88
414.035	96.88
414.258	94.88
414.482	73.88
414.705	78.88
414.928	86.88
415.151	93.88
415.374	92.88
415.597	88.88
415.821	74.88
416.044	74.88
416.267	105.88
416.49	82.88
416.713	80.88
416.936	90.88
417.159	76.88
417.382	81.88
417.605	85.88
417.828	91.88
418.051	84.88
418.274	79.88
418.497	82.88
418.72	78.88
418.943	100.88
419.166	82.88
419.389	92.88
419.611	86.88
419.834	91.88
420.057	74.88
420.28	75.88
420.503	71.88
420.726	91.88
420.948	77.88
421.171	94.88
421.394	93.88
421.617	73.88
421.839	86.88
422.062	91.88
422.285	92.88
422.507	86.88
422.73	99.88
422.953	91.88
423.175	77.88
423.398	90.88
423.621	87.88
423.843	78.88
424.066	71.88
424.288	77.88
424.511	87.88
424.733	101.88
424.956	98.88
425.178	97.88
425.401	98.88
425.623	89.88
425.846	91.88
426.068	84.88
426.291	70.88
426.513	96.88
426.735	94.88
426.958	104.88
427.18	105.88
427.402	126.88
427.625	153.88
427.847	106.88
428.069	91.88
428.292	83.88
428.514	81.88
428.736	74.88
428.958	89.88
429.181	83.88
429.403	75.88
429.625	71.88
429.847	86.88
430.069	81.88
430.292	86.88
430.514	90.88
430.736	76.88
430.958	82.88
431.18	78.88
431.402	79.88
431.624	86.88
431.846	90.88
432.068	76.88
432.29	91.88
432.512	98.88
432.734	86.88
432.956	93.88
433.178	106.88
433.4	103.88
433.622	68.88
433.844	96.88
434.066	76.88
434.287	76.88
434.509	70.88
434.731	74.88
434.953	95.88
435.175	76.88
435.397	86.88
435.618	96.88
435.84	94.88
436.062	119.88
436.284	114.88
436.505	102.88
436.727	90.88
436.949	94.88
437.17	84.88
437.392	79.88
437.614	91.88
437.835	106.88
438.057	105.88
438.278	111.88
438.5	113.88
438.721	117.88
438.943	93.88
439.165	81.88
439.386	83.88
439.608	95.88
439.829	85.88
440.05	102.88
440.272	134.88
440.493	101.88
440.715	87.88
440.936	84.88
441.158	82.88
441.379	67.88
441.6	93.88
441.822	83.88
442.043	98.88
442.264	98.88
442.486	91.88
442.707	79.88
442.928	105.88
443.149	120.88
443.371	117.88
443.592	102.88
443.813	105.88
444.034	107.88
444.255	94.88
444.476	92.88
444.698	79.88
444.919	76.88
445.14	124.88
445.361	111.88
445.582	114.88
445.803	121.88
446.024	126.88
446.245	126.88
446.466	108.88
446.687	94.88
446.908	93.88
447.129	70.88
447.35	87.88
447.571	74.88
447.792	84.88
448.013	86.88
448.234	115.88
448.455	95.88
448.675	91.88
448.896	101.88
449.117	92.88
449.338	103.88
449.559	129.88
449.779	113.88
450	81.88
450.221	72.88
450.442	97.88
450.662	102.88
450.883	103.88
451.104	105.88
451.324	82.88
451.545	90.88
451.766	79.88
451.986	92.88
452.207	86.88
452.428	78.88
452.648	93.88
452.869	102.88
453.089	106.88
453.31	116.88
453.53	89.88
453.751	83.88
453.971	89.88
454.192	106.88
454.412	86.88
454.633	75.88
454.853	89.88
455.073	87.88
455.294	88.88
455.514	89.88
455.734	82.88
455.955	75.88
456.175	84.88
456.395	93.88
456.616	85.88
456.836	83.88
457.056	73.88
457.276	79.88
457.497	78.88
457.717	94.88
457.937	75.88
458.157	76.88
458.377	77.88
458.598	96.88
458.818	134.88
459.038	138.88
459.258	101.88
459.478	73.88
459.698	105.88
459.918	77.88
460.138	91.88
460.358	86.88
460.578	78.88
460.798	92.88
461.018	82.88
461.238	85.88
461.458	89.88
461.678	80.88
461.898	88.88
462.118	79.88
462.338	83.88
462.558	85.88
462.777	95.88
462.997	82.88
463.217	78.88
463.437	78.88
463.657	63.88
463.876	97.88
464.096	91.88
464.316	85.88
464.536	86.88
464.755	94.88
464.975	115.88
465.195	138.88
465.414	142.88
465.634	87.88
465.854	91.88
466.073	93.88
466.293	91.88
466.512	85.88
466.732	85.88
466.951	75.88
467.171	93.88
467.391	91.88
467.61	87.88
467.829	82.88
468.049	88.88
468.268	79.88
468.488	94.88
468.707	68.88
468.927	81.88
469.146	90.88
469.365	77.88
469.585	79.88
469.804	81.88
470.023	84.88
470.243	90.88
470.462	89.88
470.681	101.88
470.901	96.88
471.12	88.88
471.339	86.88
471.558	62.88
471.777	78.88
471.997	83.88
472.216	90.88
472.435	93.88
472.654	92.88
472.873	79.88
473.092	107.88
473.311	85.88
473.53	86.88
473.749	89.88
473.968	90.88
474.187	107.88
474.406	90.88
474.625	76.88
474.844	91.88
475.063	93.88
475.282	88.88
475.501	88.88
475.72	84.88
475.939	79.88
476.158	79.88
476.377	78.88
476.596	83.88
476.814	80.88
477.033	93.88
477.252	78.88
477.471	86.88
477.69	87.88
477.908	82.88
478.127	83.88
478.346	89.88
478.564	80.88
478.783	95.88
479.002	88.88
479.22	83.88
479.439	102.88
479.658	104.88
479.876	79.88
480.095	88.88
480.313	82.88
480.532	78.88
480.751	87.88
480.969	68.88
481.188	82.88
481.406	93.88
481.624	76.88
481.843	79.88
482.061	89.88
482.28	93.88
482.498	85.88
482.717	90.88
482.935	91.88
483.153	92.88
483.372	85.88
483.59	81.88
483.808	79.88
484.027	89.88
484.245	99.88
484.463	82.88
484.681	75.88
484.9	82.88
485.118	90.88
485.336	87.88
485.554	93.88
485.772	102.88
485.99	108.88
486.209	87.88
486.427	99.88
486.645	98.88
486.863	114.88
487.081	95.88
487.299	92.88
487.517	98.88
487.735	102.88
487.953	94.88
488.171	91.88
488.389	96.88
488.607	103.88
488.825	103.88
489.043	91.88
489.261	103.88
489.479	92.88
489.696	97.88
489.914	82.88
490.132	89.88
490.35	87.88
490.568	94.88
490.786	87.88
491.003	88.88
491.221	93.88
491.439	85.88
491.657	76.88
491.874	89.88
492.092	96.88
492.31	83.88
492.527	88.88
492.745	82.88
492.963	86.88
493.18	92.88
493.398	83.88
493.615	94.88
493.833	86.88
494.05	100.88
494.268	90.88
494.485	79.88
494.703	69.88
494.92	87.88
495.138	81.88
495.355	101.88
495.573	98.88
495.79	77.88
496.008	78.88
496.225	85.88
496.442	93.88
496.66	87.88
496.877	82.88
497.094	89.88
497.312	90.88
497.529	85.88
497.746	83.88
497.963	78.88
498.181	81.88
498.398	89.88
498.615	100.88
498.832	94.88
499.049	94.88
499.267	85.88
499.484	82.88
499.701	85.88
499.918	90.88
500.135	76.88
500.352	84.88
500.569	87.88
500.786	90.88
501.003	77.88
501.22	81.88
501.437	92.88
501.654	82.88
501.871	107.88
502.088	86.88
502.305	106.88
502.522	98.88
502.739	79.88
502.956	86.88
503.172	90.88
503.389	98.88
503.606	101.88
503.823	98.88
504.04	85.88
504.256	104.88
504.473	91.88
504.69	84.88
504.907	79.88
505.123	75.88
505.34	99.88
505.557	88.88
505.773	95.88
505.99	94.88
506.207	84.88
506.423	83.88
506.64	102.88
506.856	81.88
507.073	90.88
507.289	96.88
507.506	100.88
507.722	101.88
507.939	108.88
508.155	95.88
508.372	97.88
508.588	83.88
508.805	97.88
509.021	102.88
509.238	98.88
509.454	97.88
509.67	113.88
509.887	104.88
510.103	129.88
510.319	219.88
510.536	744.88
510.752	2337.88
510.968	653.88
511.184	158.88
511.401	111.88
511.617	100.88
511.833	102.88
512.049	94.88
512.265	91.88
512.481	93.88
512.698	90.88
512.914	99.88
513.13	81.88
513.346	104.88
513.562	85.88
513.778	92.88
513.994	121.88
514.21	83.88
514.426	107.88
514.642	124.88
514.858	130.88
515.074	168.88
515.29	434.88
515.506	1417.88
515.721	542.88
515.937	150.88
516.153	105.88
516.369	94.88
516.585	85.88
516.801	93.88
517.016	95.88
517.232	93.88
