Data from Uncirc_2008_H10_HRD10591_00013.txt Node
Date: Wed Jan 03 10:15:33 EST 2024
User: Yrep
Spectrometer: HR+D1059
Trigger mode: 1
Integration Time (sec): 1.000000E-1
Scans to average: 1
Electric dark correction enabled: true
Nonlinearity correction enabled: false
Boxcar width: 0
XAxis mode: Wavelengths
Number of Pixels in Spectrum: 2048
>>>>>Begin Spectral Data<<<<<
223.165	-23.81
223.4	-23.81
223.635	-23.81
223.869	-6.81
224.104	-17.81
224.338	-25.81
224.573	-14.81
224.808	-11.81
225.042	-2.81
225.277	-2.81
225.511	-9.81
225.746	6.19
225.98	-2.81
226.215	19.19
226.449	17.19
226.683	28.19
226.918	24.19
227.152	24.19
227.387	29.19
227.621	31.19
227.856	47.19
228.09	37.19
228.324	69.19
228.559	60.19
228.793	63.19
229.027	59.19
229.262	68.19
229.496	73.19
229.73	83.19
229.964	81.19
230.199	80.19
230.433	71.19
230.667	73.19
230.901	71.19
231.136	86.19
231.37	90.19
231.604	64.19
231.838	87.19
232.072	83.19
232.306	80.19
232.541	86.19
232.775	91.19
233.009	78.19
233.243	80.19
233.477	92.19
233.711	86.19
233.945	90.19
234.179	69.19
234.413	83.19
234.647	80.19
234.881	75.19
235.115	65.19
235.349	72.19
235.583	78.19
235.817	58.19
236.051	68.19
236.285	52.19
236.519	74.19
236.753	80.19
236.987	81.19
237.221	67.19
237.455	74.19
237.689	72.19
237.922	76.19
238.156	75.19
238.39	65.19
238.624	75.19
238.858	85.19
239.091	76.19
239.325	70.19
239.559	84.19
239.793	66.19
240.027	90.19
240.26	89.19
240.494	80.19
240.728	71.19
240.961	66.19
241.195	73.19
241.429	80.19
241.662	79.19
241.896	90.19
242.13	76.19
242.363	81.19
242.597	68.19
242.83	65.19
243.064	80.19
243.298	80.19
243.531	73.19
243.765	86.19
243.998	86.19
244.232	77.19
244.465	70.19
244.699	90.19
244.932	88.19
245.166	69.19
245.399	78.19
245.633	86.19
245.866	79.19
246.099	75.19
246.333	81.19
246.566	74.19
246.8	79.19
247.033	76.19
247.266	79.19
247.5	81.19
247.733	75.19
247.966	75.19
248.2	78.19
248.433	76.19
248.666	79.19
248.899	84.19
249.133	76.19
249.366	100.19
249.599	86.19
249.832	80.19
250.066	88.19
250.299	85.19
250.532	77.19
250.765	88.19
250.998	58.19
251.231	70.19
251.465	74.19
251.698	94.19
251.931	84.19
252.164	68.19
252.397	88.19
252.63	70.19
252.863	87.19
253.096	75.19
253.329	80.19
253.562	83.19
253.795	82.19
254.028	75.19
254.261	75.19
254.494	73.19
254.727	83.19
254.96	82.19
255.193	86.19
255.426	86.19
255.659	83.19
255.892	89.19
256.124	82.19
256.357	81.19
256.59	77.19
256.823	82.19
257.056	70.19
257.289	84.19
257.521	89.19
257.754	83.19
257.987	77.19
258.22	79.19
258.452	85.19
258.685	76.19
258.918	88.19
259.151	80.19
259.383	82.19
259.616	91.19
259.849	73.19
260.081	83.19
260.314	89.19
260.547	84.19
260.779	94.19
261.012	77.19
261.244	73.19
261.477	97.19
261.71	91.19
261.942	113.19
262.175	118.19
262.407	74.19
262.64	79.19
262.872	74.19
263.105	64.19
263.337	96.19
263.57	88.19
263.802	87.19
264.035	81.19
264.267	84.19
264.499	82.19
264.732	84.19
264.964	88.19
265.197	83.19
265.429	88.19
265.661	89.19
265.894	78.19
266.126	90.19
266.358	77.19
266.591	65.19
266.823	80.19
267.055	80.19
267.287	74.19
267.52	91.19
267.752	83.19
267.984	87.19
268.216	87.19
268.448	84.19
268.681	78.19
268.913	86.19
269.145	84.19
269.377	96.19
269.609	95.19
269.841	91.19
270.073	83.19
270.306	84.19
270.538	88.19
270.77	80.19
271.002	93.19
271.234	88.19
271.466	98.19
271.698	83.19
271.93	80.19
272.162	72.19
272.394	81.19
272.626	82.19
272.858	89.19
273.09	78.19
273.322	90.19
273.553	82.19
273.785	89.19
274.017	87.19
274.249	70.19
274.481	79.19
274.713	94.19
274.945	84.19
275.176	84.19
275.408	98.19
275.64	86.19
275.872	67.19
276.104	73.19
276.335	90.19
276.567	93.19
276.799	95.19
277.031	93.19
277.262	87.19
277.494	83.19
277.726	87.19
277.957	72.19
278.189	86.19
278.421	90.19
278.652	85.19
278.884	90.19
279.115	84.19
279.347	84.19
279.579	73.19
279.81	82.19
280.042	87.19
280.273	81.19
280.505	89.19
280.736	85.19
280.968	86.19
281.199	73.19
281.431	83.19
281.662	90.19
281.894	102.19
282.125	88.19
282.356	90.19
282.588	128.19
282.819	115.19
283.051	80.19
283.282	94.19
283.513	93.19
283.745	74.19
283.976	78.19
284.207	79.19
284.439	85.19
284.67	83.19
284.901	88.19
285.132	83.19
285.364	82.19
285.595	83.19
285.826	88.19
286.057	96.19
286.288	79.19
286.52	100.19
286.751	89.19
286.982	77.19
287.213	94.19
287.444	86.19
287.675	88.19
287.906	87.19
288.138	84.19
288.369	70.19
288.6	99.19
288.831	67.19
289.062	87.19
289.293	86.19
289.524	87.19
289.755	91.19
289.986	94.19
290.217	79.19
290.448	80.19
290.679	96.19
290.91	107.19
291.141	89.19
291.371	85.19
291.602	88.19
291.833	97.19
292.064	93.19
292.295	90.19
292.526	75.19
292.757	84.19
292.987	87.19
293.218	82.19
293.449	86.19
293.68	77.19
293.91	84.19
294.141	83.19
294.372	90.19
294.603	90.19
294.833	84.19
295.064	74.19
295.295	86.19
295.525	90.19
295.756	96.19
295.987	100.19
296.217	117.19
296.448	120.19
296.679	78.19
296.909	103.19
297.14	72.19
297.37	80.19
297.601	90.19
297.831	90.19
298.062	83.19
298.292	79.19
298.523	80.19
298.753	89.19
298.984	62.19
299.214	98.19
299.445	95.19
299.675	91.19
299.905	94.19
300.136	84.19
300.366	80.19
300.597	88.19
300.827	88.19
301.057	86.19
301.288	99.19
301.518	74.19
301.748	87.19
301.979	79.19
302.209	88.19
302.439	94.19
302.669	102.19
302.9	94.19
303.13	88.19
303.36	97.19
303.59	83.19
303.82	96.19
304.051	84.19
304.281	82.19
304.511	96.19
304.741	90.19
304.971	90.19
305.201	97.19
305.431	105.19
305.661	84.19
305.891	90.19
306.121	92.19
306.352	94.19
306.582	90.19
306.812	97.19
307.042	97.19
307.272	102.19
307.502	92.19
307.731	95.19
307.961	89.19
308.191	89.19
308.421	94.19
308.651	89.19
308.881	88.19
309.111	99.19
309.341	98.19
309.571	106.19
309.8	94.19
310.03	99.19
310.26	86.19
310.49	83.19
310.72	96.19
310.949	89.19
311.179	95.19
311.409	108.19
311.639	97.19
311.868	99.19
312.098	89.19
312.328	99.19
312.557	98.19
312.787	114.19
313.017	103.19
313.246	88.19
313.476	99.19
313.706	88.19
313.935	99.19
314.165	103.19
314.394	97.19
314.624	94.19
314.853	95.19
315.083	97.19
315.312	85.19
315.542	99.19
315.771	91.19
316.001	84.19
316.23	101.19
316.46	98.19
316.689	90.19
316.919	94.19
317.148	105.19
317.377	92.19
317.607	84.19
317.836	95.19
318.065	97.19
318.295	86.19
318.524	82.19
318.753	73.19
318.983	79.19
319.212	104.19
319.441	95.19
319.67	88.19
319.9	102.19
320.129	81.19
320.358	93.19
320.587	102.19
320.816	114.19
321.046	88.19
321.275	100.19
321.504	97.19
321.733	99.19
321.962	91.19
322.191	110.19
322.42	107.19
322.649	111.19
322.878	89.19
323.108	98.19
323.337	117.19
323.566	120.19
323.795	140.19
324.024	187.19
324.253	328.19
324.482	702.19
324.71	1362.19
324.939	1834.19
325.168	656.19
325.397	231.19
325.626	132.19
325.855	122.19
326.084	111.19
326.313	120.19
326.542	142.19
326.77	207.19
326.999	390.19
327.228	769.19
327.457	1451.19
327.686	1126.19
327.914	286.19
328.143	159.19
328.372	132.19
328.6	114.19
328.829	113.19
329.058	101.19
329.287	114.19
329.515	103.19
329.744	111.19
329.972	109.19
330.201	101.19
330.43	92.19
330.658	106.19
330.887	110.19
331.115	108.19
331.344	105.19
331.572	97.19
331.801	99.19
332.03	99.19
332.258	90.19
332.486	92.19
332.715	89.19
332.943	111.19
333.172	107.19
333.4	88.19
333.629	97.19
333.857	111.19
334.085	96.19
334.314	106.19
334.542	97.19
334.771	87.19
334.999	96.19
335.227	97.19
335.455	99.19
335.684	96.19
335.912	95.19
336.14	79.19
336.369	98.19
336.597	90.19
336.825	95.19
337.053	94.19
337.281	84.19
337.51	84.19
337.738	90.19
337.966	91.19
338.194	96.19
338.422	90.19
338.65	89.19
338.878	105.19
339.106	88.19
339.334	103.19
339.562	100.19
339.79	93.19
340.018	82.19
340.246	99.19
340.474	95.19
340.702	102.19
340.93	82.19
341.158	104.19
341.386	92.19
341.614	82.19
341.842	77.19
342.07	102.19
342.298	93.19
342.526	81.19
342.754	93.19
342.981	92.19
343.209	85.19
343.437	109.19
343.665	97.19
343.893	96.19
344.12	91.19
344.348	75.19
344.576	95.19
344.804	83.19
345.031	108.19
345.259	88.19
345.487	90.19
345.714	109.19
345.942	91.19
346.17	89.19
346.397	88.19
346.625	91.19
346.853	93.19
347.08	110.19
347.308	95.19
347.535	94.19
347.763	83.19
347.99	103.19
348.218	86.19
348.445	87.19
348.673	104.19
348.9	84.19
349.128	87.19
349.355	96.19
349.583	91.19
349.81	98.19
350.037	84.19
350.265	102.19
350.492	97.19
350.72	107.19
350.947	108.19
351.174	104.19
351.402	110.19
351.629	100.19
351.856	118.19
352.083	106.19
352.311	99.19
352.538	102.19
352.765	110.19
352.992	102.19
353.22	102.19
353.447	102.19
353.674	99.19
353.901	91.19
354.128	101.19
354.355	90.19
354.583	98.19
354.81	98.19
355.037	93.19
355.264	91.19
355.491	94.19
355.718	100.19
355.945	97.19
356.172	104.19
356.399	101.19
356.626	90.19
356.853	87.19
357.08	82.19
357.307	88.19
357.534	96.19
357.761	93.19
357.988	89.19
358.215	94.19
358.441	99.19
358.668	97.19
358.895	78.19
359.122	83.19
359.349	96.19
359.576	106.19
359.802	89.19
360.029	100.19
360.256	104.19
360.483	95.19
360.709	89.19
360.936	98.19
361.163	96.19
361.39	83.19
361.616	98.19
361.843	73.19
362.07	83.19
362.296	82.19
362.523	92.19
362.749	92.19
362.976	90.19
363.203	95.19
363.429	90.19
363.656	89.19
363.882	87.19
364.109	88.19
364.335	88.19
364.562	86.19
364.788	101.19
365.015	93.19
365.241	91.19
365.468	113.19
365.694	122.19
365.92	103.19
366.147	88.19
366.373	90.19
366.599	70.19
366.826	86.19
367.052	77.19
367.278	104.19
367.505	97.19
367.731	73.19
367.957	88.19
368.184	89.19
368.41	92.19
368.636	102.19
368.862	108.19
369.089	114.19
369.315	97.19
369.541	86.19
369.767	82.19
369.993	91.19
370.219	88.19
370.445	91.19
370.672	81.19
370.898	98.19
371.124	80.19
371.35	103.19
371.576	78.19
371.802	92.19
372.028	88.19
372.254	95.19
372.48	103.19
372.706	100.19
372.932	81.19
373.158	91.19
373.384	103.19
373.61	110.19
373.835	103.19
374.061	90.19
374.287	98.19
374.513	103.19
374.739	79.19
374.965	84.19
375.191	86.19
375.416	84.19
375.642	91.19
375.868	107.19
376.094	85.19
376.319	96.19
376.545	84.19
376.771	100.19
376.997	89.19
377.222	89.19
377.448	96.19
377.674	86.19
377.899	73.19
378.125	95.19
378.35	89.19
378.576	88.19
378.802	93.19
379.027	94.19
379.253	90.19
379.478	100.19
379.704	102.19
379.929	97.19
380.155	96.19
380.38	94.19
380.606	94.19
380.831	96.19
381.057	86.19
381.282	99.19
381.507	90.19
381.733	79.19
381.958	100.19
382.184	93.19
382.409	93.19
382.634	99.19
382.86	107.19
383.085	95.19
383.31	102.19
383.535	117.19
383.761	102.19
383.986	107.19
384.211	94.19
384.436	78.19
384.662	94.19
384.887	106.19
385.112	97.19
385.337	122.19
385.562	110.19
385.787	112.19
386.013	129.19
386.238	122.19
386.463	113.19
386.688	108.19
386.913	114.19
387.138	102.19
387.363	112.19
387.588	119.19
387.813	92.19
388.038	123.19
388.263	133.19
388.488	118.19
388.713	91.19
388.938	99.19
389.163	106.19
389.387	99.19
389.612	95.19
389.837	96.19
390.062	82.19
390.287	92.19
390.512	88.19
390.736	83.19
390.961	91.19
391.186	93.19
391.411	93.19
391.636	99.19
391.86	83.19
392.085	77.19
392.31	107.19
392.534	97.19
392.759	82.19
392.984	93.19
393.208	94.19
393.433	95.19
393.658	98.19
393.882	85.19
394.107	68.19
394.331	89.19
394.556	87.19
394.78	83.19
395.005	92.19
395.229	101.19
395.454	83.19
395.678	79.19
395.903	80.19
396.127	87.19
396.352	82.19
396.576	72.19
396.801	83.19
397.025	96.19
397.249	111.19
397.474	89.19
397.698	75.19
397.922	83.19
398.147	91.19
398.371	93.19
398.595	84.19
398.82	107.19
399.044	92.19
399.268	82.19
399.492	90.19
399.717	93.19
399.941	86.19
400.165	95.19
400.389	79.19
400.613	93.19
400.837	90.19
401.062	88.19
401.286	77.19
401.51	82.19
401.734	92.19
401.958	91.19
402.182	126.19
402.406	134.19
402.63	110.19
402.854	95.19
403.078	91.19
403.302	84.19
403.526	87.19
403.75	82.19
403.974	83.19
404.198	99.19
404.422	73.19
404.645	89.19
404.869	90.19
405.093	81.19
405.317	79.19
405.541	88.19
405.765	96.19
405.988	110.19
406.212	134.19
406.436	154.19
406.66	111.19
406.883	95.19
407.107	95.19
407.331	101.19
407.555	94.19
407.778	89.19
408.002	94.19
408.226	93.19
408.449	83.19
408.673	74.19
408.896	98.19
409.12	82.19
409.344	95.19
409.567	103.19
409.791	88.19
410.014	91.19
410.238	103.19
410.461	90.19
410.685	99.19
410.908	100.19
411.132	91.19
411.355	106.19
411.578	106.19
411.802	97.19
412.025	99.19
412.249	89.19
412.472	87.19
412.695	109.19
412.919	90.19
413.142	90.19
413.365	66.19
413.589	95.19
413.812	99.19
414.035	90.19
414.258	88.19
414.482	90.19
414.705	100.19
414.928	92.19
415.151	87.19
415.374	85.19
415.597	83.19
415.821	94.19
416.044	100.19
416.267	86.19
416.49	89.19
416.713	78.19
416.936	88.19
417.159	82.19
417.382	73.19
417.605	95.19
417.828	99.19
418.051	85.19
418.274	93.19
418.497	82.19
418.72	79.19
418.943	83.19
419.166	95.19
419.389	80.19
419.611	100.19
419.834	86.19
420.057	98.19
420.28	92.19
420.503	92.19
420.726	96.19
420.948	84.19
421.171	86.19
421.394	98.19
421.617	98.19
421.839	92.19
422.062	78.19
422.285	98.19
422.507	93.19
422.73	95.19
422.953	71.19
423.175	78.19
423.398	81.19
423.621	79.19
423.843	88.19
424.066	76.19
424.288	88.19
424.511	89.19
424.733	93.19
424.956	100.19
425.178	110.19
425.401	106.19
425.623	111.19
425.846	97.19
426.068	96.19
426.291	104.19
426.513	93.19
426.735	96.19
426.958	106.19
427.18	104.19
427.402	120.19
427.625	143.19
427.847	123.19
428.069	104.19
428.292	87.19
428.514	100.19
428.736	86.19
428.958	84.19
429.181	96.19
429.403	91.19
429.625	83.19
429.847	97.19
430.069	100.19
430.292	90.19
430.514	87.19
430.736	93.19
430.958	89.19
431.18	90.19
431.402	94.19
431.624	83.19
431.846	84.19
432.068	97.19
432.29	82.19
432.512	87.19
432.734	91.19
432.956	79.19
433.178	100.19
433.4	102.19
433.622	97.19
433.844	81.19
434.066	96.19
434.287	87.19
434.509	90.19
434.731	94.19
434.953	85.19
435.175	84.19
435.397	90.19
435.618	100.19
435.84	102.19
436.062	110.19
436.284	112.19
436.505	102.19
436.727	102.19
436.949	101.19
437.17	98.19
437.392	84.19
437.614	105.19
437.835	112.19
438.057	94.19
438.278	114.19
438.5	92.19
438.721	92.19
438.943	92.19
439.165	79.19
439.386	85.19
439.608	92.19
439.829	83.19
440.05	105.19
440.272	126.19
440.493	90.19
440.715	90.19
440.936	95.19
441.158	87.19
441.379	83.19
441.6	94.19
441.822	94.19
442.043	92.19
442.264	94.19
442.486	94.19
442.707	76.19
442.928	104.19
443.149	124.19
443.371	123.19
443.592	99.19
443.813	102.19
444.034	89.19
444.255	92.19
444.476	88.19
444.698	94.19
444.919	83.19
445.14	127.19
445.361	121.19
445.582	97.19
445.803	109.19
446.024	121.19
446.245	128.19
446.466	100.19
446.687	96.19
446.908	86.19
447.129	99.19
447.35	94.19
447.571	83.19
447.792	93.19
448.013	100.19
448.234	100.19
448.455	99.19
448.675	98.19
448.896	110.19
449.117	96.19
449.338	116.19
449.559	121.19
449.779	122.19
450	95.19
450.221	99.19
450.442	97.19
450.662	95.19
450.883	98.19
451.104	121.19
451.324	89.19
451.545	94.19
451.766	95.19
451.986	83.19
452.207	96.19
452.428	84.19
452.648	105.19
452.869	92.19
453.089	106.19
453.31	94.19
453.53	90.19
453.751	84.19
453.971	90.19
454.192	93.19
454.412	83.19
454.633	96.19
454.853	99.19
455.073	80.19
455.294	84.19
455.514	90.19
455.734	71.19
455.955	83.19
456.175	96.19
456.395	94.19
456.616	98.19
456.836	80.19
457.056	87.19
457.276	80.19
457.497	86.19
457.717	84.19
457.937	84.19
458.157	81.19
458.377	93.19
458.598	103.19
458.818	124.19
459.038	125.19
459.258	107.19
459.478	91.19
459.698	95.19
459.918	81.19
460.138	92.19
460.358	83.19
460.578	88.19
460.798	90.19
461.018	87.19
461.238	95.19
461.458	87.19
461.678	88.19
461.898	85.19
462.118	84.19
462.338	88.19
462.558	88.19
462.777	90.19
462.997	84.19
463.217	84.19
463.437	92.19
463.657	78.19
463.876	90.19
464.096	95.19
464.316	96.19
464.536	87.19
464.755	107.19
464.975	98.19
465.195	135.19
465.414	144.19
465.634	84.19
465.854	85.19
466.073	100.19
466.293	84.19
466.512	92.19
466.732	102.19
466.951	79.19
467.171	106.19
467.391	90.19
467.61	108.19
467.829	100.19
468.049	79.19
468.268	99.19
468.488	80.19
468.707	91.19
468.927	76.19
469.146	83.19
469.365	78.19
469.585	91.19
469.804	102.19
470.023	106.19
470.243	96.19
470.462	92.19
470.681	98.19
470.901	90.19
471.12	80.19
471.339	76.19
471.558	86.19
471.777	80.19
471.997	75.19
472.216	81.19
472.435	70.19
472.654	76.19
472.873	90.19
473.092	99.19
473.311	83.19
473.53	86.19
473.749	82.19
473.968	83.19
474.187	81.19
474.406	91.19
474.625	90.19
474.844	75.19
475.063	84.19
475.282	93.19
475.501	75.19
475.72	89.19
475.939	78.19
476.158	81.19
476.377	78.19
476.596	91.19
476.814	100.19
477.033	94.19
477.252	84.19
477.471	73.19
477.69	89.19
477.908	83.19
478.127	84.19
478.346	92.19
478.564	83.19
478.783	98.19
479.002	88.19
479.22	83.19
479.439	97.19
479.658	107.19
479.876	89.19
480.095	88.19
480.313	94.19
480.532	94.19
480.751	105.19
480.969	99.19
481.188	110.19
481.406	103.19
481.624	90.19
481.843	100.19
482.061	89.19
482.28	86.19
482.498	100.19
482.717	92.19
482.935	93.19
483.153	89.19
483.372	96.19
483.59	97.19
483.808	77.19
484.027	86.19
484.245	95.19
484.463	89.19
484.681	114.19
484.9	94.19
485.118	99.19
485.336	100.19
485.554	93.19
485.772	102.19
485.99	98.19
486.209	98.19
486.427	84.19
486.645	114.19
486.863	124.19
487.081	108.19
487.299	90.19
487.517	90.19
487.735	105.19
487.953	90.19
488.171	99.19
488.389	93.19
488.607	94.19
488.825	99.19
489.043	90.19
489.261	89.19
489.479	90.19
489.696	90.19
489.914	89.19
490.132	94.19
490.35	84.19
490.568	92.19
490.786	95.19
491.003	90.19
491.221	91.19
491.439	92.19
491.657	106.19
491.874	96.19
492.092	81.19
492.31	96.19
492.527	96.19
492.745	103.19
492.963	84.19
493.18	76.19
493.398	95.19
493.615	91.19
493.833	96.19
494.05	102.19
494.268	106.19
494.485	95.19
494.703	87.19
494.92	87.19
495.138	79.19
495.355	96.19
495.573	95.19
495.79	92.19
496.008	92.19
496.225	91.19
496.442	95.19
496.66	93.19
496.877	82.19
497.094	108.19
497.312	94.19
497.529	87.19
497.746	78.19
497.963	86.19
498.181	99.19
498.398	92.19
498.615	92.19
498.832	97.19
499.049	89.19
499.267	87.19
499.484	96.19
499.701	96.19
499.918	86.19
500.135	90.19
500.352	88.19
500.569	91.19
500.786	84.19
501.003	84.19
501.22	102.19
501.437	92.19
501.654	87.19
501.871	94.19
502.088	100.19
502.305	88.19
502.522	72.19
502.739	103.19
502.956	96.19
503.172	88.19
503.389	99.19
503.606	103.19
503.823	98.19
504.04	94.19
504.256	68.19
504.473	92.19
504.69	102.19
504.907	97.19
505.123	74.19
505.34	98.19
505.557	93.19
505.773	99.19
505.99	87.19
506.207	92.19
506.423	90.19
506.64	91.19
506.856	93.19
507.073	94.19
507.289	98.19
507.506	102.19
507.722	121.19
507.939	104.19
508.155	106.19
508.372	83.19
508.588	81.19
508.805	82.19
509.021	95.19
509.238	103.19
509.454	104.19
509.67	86.19
509.887	95.19
510.103	130.19
510.319	195.19
510.536	648.19
510.752	1983.19
510.968	572.19
511.184	154.19
511.401	97.19
511.617	98.19
511.833	75.19
512.049	96.19
512.265	109.19
512.481	94.19
512.698	90.19
512.914	99.19
513.13	105.19
513.346	110.19
513.562	101.19
513.778	92.19
513.994	102.19
514.21	90.19
514.426	106.19
514.642	135.19
514.858	125.19
515.074	148.19
515.29	383.19
515.506	1202.19
515.721	457.19
515.937	150.19
516.153	110.19
