Data from Uncirc_2008_H10_HRD10591_00008.txt Node
Date: Wed Jan 03 10:15:32 EST 2024
User: Yrep
Spectrometer: HR+D1059
Trigger mode: 1
Integration Time (sec): 1.000000E-1
Scans to average: 1
Electric dark correction enabled: true
Nonlinearity correction enabled: false
Boxcar width: 0
XAxis mode: Wavelengths
Number of Pixels in Spectrum: 2048
>>>>>Begin Spectral Data<<<<<
223.165	-10.12
223.4	-10.12
223.635	-10.12
223.869	-16.12
224.104	-19.12
224.338	-22.12
224.573	-28.12
224.808	-11.12
225.042	-8.12
225.277	0.88
225.511	-3.12
225.746	9.88
225.98	12.88
226.215	23.88
226.449	3.88
226.683	11.88
226.918	26.88
227.152	27.88
227.387	23.88
227.621	27.88
227.856	30.88
228.09	33.88
228.324	58.88
228.559	47.88
228.793	35.88
229.027	49.88
229.262	54.88
229.496	73.88
229.73	71.88
229.964	64.88
230.199	67.88
230.433	74.88
230.667	60.88
230.901	71.88
231.136	79.88
231.37	76.88
231.604	78.88
231.838	77.88
232.072	77.88
232.306	75.88
232.541	62.88
232.775	78.88
233.009	70.88
233.243	86.88
233.477	86.88
233.711	67.88
233.945	85.88
234.179	76.88
234.413	76.88
234.647	76.88
234.881	74.88
235.115	81.88
235.349	72.88
235.583	76.88
235.817	73.88
236.051	78.88
236.285	60.88
236.519	91.88
236.753	67.88
236.987	79.88
237.221	76.88
237.455	79.88
237.689	61.88
237.922	79.88
238.156	85.88
238.39	74.88
238.624	67.88
238.858	70.88
239.091	71.88
239.325	77.88
239.559	81.88
239.793	75.88
240.027	79.88
240.26	68.88
240.494	76.88
240.728	69.88
240.961	75.88
241.195	64.88
241.429	66.88
241.662	75.88
241.896	66.88
242.13	65.88
242.363	84.88
242.597	62.88
242.83	78.88
243.064	77.88
243.298	88.88
243.531	72.88
243.765	73.88
243.998	63.88
244.232	84.88
244.465	70.88
244.699	67.88
244.932	81.88
245.166	81.88
245.399	63.88
245.633	68.88
245.866	81.88
246.099	94.88
246.333	74.88
246.566	72.88
246.8	81.88
247.033	87.88
247.266	83.88
247.5	77.88
247.733	73.88
247.966	78.88
248.2	77.88
248.433	73.88
248.666	66.88
248.899	81.88
249.133	89.88
249.366	66.88
249.599	80.88
249.832	79.88
250.066	76.88
250.299	77.88
250.532	72.88
250.765	71.88
250.998	77.88
251.231	70.88
251.465	75.88
251.698	64.88
251.931	79.88
252.164	70.88
252.397	81.88
252.63	80.88
252.863	82.88
253.096	74.88
253.329	65.88
253.562	86.88
253.795	71.88
254.028	79.88
254.261	65.88
254.494	65.88
254.727	77.88
254.96	73.88
255.193	86.88
255.426	79.88
255.659	77.88
255.892	90.88
256.124	76.88
256.357	77.88
256.59	91.88
256.823	80.88
257.056	78.88
257.289	82.88
257.521	76.88
257.754	69.88
257.987	85.88
258.22	81.88
258.452	64.88
258.685	65.88
258.918	80.88
259.151	71.88
259.383	72.88
259.616	81.88
259.849	82.88
260.081	80.88
260.314	71.88
260.547	89.88
260.779	79.88
261.012	71.88
261.244	79.88
261.477	85.88
261.71	81.88
261.942	101.88
262.175	111.88
262.407	76.88
262.64	75.88
262.872	84.88
263.105	96.88
263.337	75.88
263.57	78.88
263.802	86.88
264.035	78.88
264.267	76.88
264.499	85.88
264.732	80.88
264.964	64.88
265.197	83.88
265.429	74.88
265.661	70.88
265.894	71.88
266.126	81.88
266.358	78.88
266.591	87.88
266.823	91.88
267.055	91.88
267.287	82.88
267.52	87.88
267.752	73.88
267.984	74.88
268.216	73.88
268.448	91.88
268.681	80.88
268.913	79.88
269.145	71.88
269.377	84.88
269.609	71.88
269.841	83.88
270.073	73.88
270.306	90.88
270.538	80.88
270.77	87.88
271.002	81.88
271.234	91.88
271.466	83.88
271.698	78.88
271.93	91.88
272.162	90.88
272.394	93.88
272.626	85.88
272.858	80.88
273.09	76.88
273.322	94.88
273.553	81.88
273.785	94.88
274.017	78.88
274.249	72.88
274.481	67.88
274.713	77.88
274.945	88.88
275.176	77.88
275.408	88.88
275.64	83.88
275.872	74.88
276.104	93.88
276.335	93.88
276.567	87.88
276.799	96.88
277.031	90.88
277.262	92.88
277.494	85.88
277.726	94.88
277.957	79.88
278.189	79.88
278.421	75.88
278.652	88.88
278.884	72.88
279.115	81.88
279.347	87.88
279.579	70.88
279.81	77.88
280.042	92.88
280.273	80.88
280.505	73.88
280.736	88.88
280.968	87.88
281.199	85.88
281.431	70.88
281.662	69.88
281.894	87.88
282.125	98.88
282.356	119.88
282.588	122.88
282.819	106.88
283.051	80.88
283.282	80.88
283.513	90.88
283.745	88.88
283.976	79.88
284.207	80.88
284.439	101.88
284.67	85.88
284.901	96.88
285.132	89.88
285.364	75.88
285.595	79.88
285.826	79.88
286.057	90.88
286.288	81.88
286.52	78.88
286.751	85.88
286.982	74.88
287.213	90.88
287.444	101.88
287.675	79.88
287.906	96.88
288.138	81.88
288.369	87.88
288.6	77.88
288.831	88.88
289.062	81.88
289.293	80.88
289.524	73.88
289.755	84.88
289.986	94.88
290.217	78.88
290.448	87.88
290.679	80.88
290.91	86.88
291.141	96.88
291.371	93.88
291.602	78.88
291.833	90.88
292.064	81.88
292.295	96.88
292.526	73.88
292.757	61.88
292.987	81.88
293.218	78.88
293.449	74.88
293.68	74.88
293.91	87.88
294.141	80.88
294.372	81.88
294.603	75.88
294.833	78.88
295.064	75.88
295.295	74.88
295.525	82.88
295.756	88.88
295.987	101.88
296.217	113.88
296.448	112.88
296.679	82.88
296.909	95.88
297.14	91.88
297.37	88.88
297.601	93.88
297.831	79.88
298.062	80.88
298.292	68.88
298.523	77.88
298.753	79.88
298.984	84.88
299.214	86.88
299.445	96.88
299.675	92.88
299.905	88.88
300.136	107.88
300.366	90.88
300.597	70.88
300.827	85.88
301.057	88.88
301.288	96.88
301.518	99.88
301.748	94.88
301.979	97.88
302.209	73.88
302.439	91.88
302.669	83.88
302.9	81.88
303.13	84.88
303.36	87.88
303.59	103.88
303.82	94.88
304.051	106.88
304.281	89.88
304.511	79.88
304.741	83.88
304.971	86.88
305.201	81.88
305.431	72.88
305.661	87.88
305.891	83.88
306.121	70.88
306.352	100.88
306.582	99.88
306.812	97.88
307.042	88.88
307.272	87.88
307.502	92.88
307.731	96.88
307.961	88.88
308.191	69.88
308.421	95.88
308.651	99.88
308.881	85.88
309.111	94.88
309.341	107.88
309.571	88.88
309.8	90.88
310.03	82.88
310.26	95.88
310.49	94.88
310.72	87.88
310.949	93.88
311.179	96.88
311.409	79.88
311.639	104.88
311.868	84.88
312.098	95.88
312.328	99.88
312.557	90.88
312.787	91.88
313.017	106.88
313.246	87.88
313.476	83.88
313.706	101.88
313.935	85.88
314.165	94.88
314.394	99.88
314.624	107.88
314.853	102.88
315.083	107.88
315.312	73.88
315.542	75.88
315.771	81.88
316.001	95.88
316.23	93.88
316.46	86.88
316.689	71.88
316.919	90.88
317.148	79.88
317.377	92.88
317.607	96.88
317.836	81.88
318.065	90.88
318.295	75.88
318.524	85.88
318.753	92.88
318.983	91.88
319.212	80.88
319.441	96.88
319.67	96.88
319.9	90.88
320.129	95.88
320.358	89.88
320.587	78.88
320.816	75.88
321.046	84.88
321.275	96.88
321.504	95.88
321.733	86.88
321.962	79.88
322.191	73.88
322.42	101.88
322.649	95.88
322.878	94.88
323.108	94.88
323.337	109.88
323.566	93.88
323.795	126.88
324.024	163.88
324.253	321.88
324.482	649.88
324.71	1277.88
324.939	1625.88
325.168	622.88
325.397	203.88
325.626	137.88
325.855	124.88
326.084	127.88
326.313	118.88
326.542	125.88
326.77	168.88
326.999	364.88
327.228	725.88
327.457	1275.88
327.686	1021.88
327.914	296.88
328.143	154.88
328.372	111.88
328.6	108.88
328.829	107.88
329.058	120.88
329.287	125.88
329.515	86.88
329.744	103.88
329.972	89.88
330.201	99.88
330.43	107.88
330.658	101.88
330.887	116.88
331.115	104.88
331.344	97.88
331.572	84.88
331.801	85.88
332.03	78.88
332.258	83.88
332.486	91.88
332.715	95.88
332.943	87.88
333.172	106.88
333.4	89.88
333.629	88.88
333.857	100.88
334.085	85.88
334.314	91.88
334.542	85.88
334.771	90.88
334.999	98.88
335.227	100.88
335.455	100.88
335.684	101.88
335.912	94.88
336.14	80.88
336.369	89.88
336.597	90.88
336.825	89.88
337.053	82.88
337.281	88.88
337.51	100.88
337.738	100.88
337.966	90.88
338.194	102.88
338.422	109.88
338.65	95.88
338.878	91.88
339.106	81.88
339.334	92.88
339.562	85.88
339.79	73.88
340.018	82.88
340.246	89.88
340.474	93.88
340.702	79.88
340.93	91.88
341.158	87.88
341.386	73.88
341.614	91.88
341.842	86.88
342.07	91.88
342.298	73.88
342.526	74.88
342.754	87.88
342.981	85.88
343.209	81.88
343.437	104.88
343.665	88.88
343.893	87.88
344.12	77.88
344.348	95.88
344.576	81.88
344.804	74.88
345.031	94.88
345.259	90.88
345.487	84.88
345.714	99.88
345.942	81.88
346.17	88.88
346.397	80.88
346.625	95.88
346.853	87.88
347.08	88.88
347.308	85.88
347.535	91.88
347.763	104.88
347.99	85.88
348.218	91.88
348.445	90.88
348.673	102.88
348.9	89.88
349.128	96.88
349.355	100.88
349.583	86.88
349.81	96.88
350.037	97.88
350.265	89.88
350.492	107.88
350.72	102.88
350.947	104.88
351.174	86.88
351.402	93.88
351.629	98.88
351.856	95.88
352.083	100.88
352.311	105.88
352.538	105.88
352.765	93.88
352.992	112.88
353.22	101.88
353.447	96.88
353.674	93.88
353.901	88.88
354.128	95.88
354.355	100.88
354.583	93.88
354.81	96.88
355.037	95.88
355.264	88.88
355.491	100.88
355.718	83.88
355.945	85.88
356.172	100.88
356.399	97.88
356.626	99.88
356.853	98.88
357.08	78.88
357.307	84.88
357.534	89.88
357.761	98.88
357.988	95.88
358.215	80.88
358.441	107.88
358.668	85.88
358.895	79.88
359.122	86.88
359.349	79.88
359.576	80.88
359.802	86.88
360.029	89.88
360.256	108.88
360.483	93.88
360.709	94.88
360.936	94.88
361.163	87.88
361.39	73.88
361.616	89.88
361.843	87.88
362.07	100.88
362.296	86.88
362.523	78.88
362.749	95.88
362.976	92.88
363.203	93.88
363.429	77.88
363.656	92.88
363.882	96.88
364.109	90.88
364.335	83.88
364.562	82.88
364.788	76.88
365.015	84.88
365.241	85.88
365.468	91.88
365.694	93.88
365.92	97.88
366.147	83.88
366.373	86.88
366.599	96.88
366.826	92.88
367.052	87.88
367.278	94.88
367.505	76.88
367.731	84.88
367.957	84.88
368.184	100.88
368.41	99.88
368.636	95.88
368.862	107.88
369.089	90.88
369.315	86.88
369.541	98.88
369.767	96.88
369.993	95.88
370.219	82.88
370.445	84.88
370.672	90.88
370.898	90.88
371.124	78.88
371.35	79.88
371.576	79.88
371.802	85.88
372.028	87.88
372.254	85.88
372.48	84.88
372.706	74.88
372.932	86.88
373.158	77.88
373.384	90.88
373.61	88.88
373.835	90.88
374.061	79.88
374.287	80.88
374.513	84.88
374.739	87.88
374.965	88.88
375.191	85.88
375.416	82.88
375.642	84.88
375.868	86.88
376.094	90.88
376.319	96.88
376.545	102.88
376.771	73.88
376.997	93.88
377.222	82.88
377.448	99.88
377.674	88.88
377.899	80.88
378.125	93.88
378.35	83.88
378.576	97.88
378.802	88.88
379.027	86.88
379.253	112.88
379.478	88.88
379.704	95.88
379.929	88.88
380.155	89.88
380.38	86.88
380.606	86.88
380.831	91.88
381.057	92.88
381.282	94.88
381.507	98.88
381.733	101.88
381.958	106.88
382.184	82.88
382.409	95.88
382.634	101.88
382.86	89.88
383.085	106.88
383.31	110.88
383.535	86.88
383.761	112.88
383.986	115.88
384.211	108.88
384.436	106.88
384.662	117.88
384.887	115.88
385.112	102.88
385.337	121.88
385.562	119.88
385.787	111.88
386.013	115.88
386.238	115.88
386.463	98.88
386.688	116.88
386.913	101.88
387.138	111.88
387.363	124.88
387.588	104.88
387.813	109.88
388.038	120.88
388.263	108.88
388.488	121.88
388.713	95.88
388.938	85.88
389.163	104.88
389.387	92.88
389.612	99.88
389.837	85.88
390.062	103.88
390.287	72.88
390.512	82.88
390.736	88.88
390.961	89.88
391.186	102.88
391.411	92.88
391.636	91.88
391.86	73.88
392.085	88.88
392.31	93.88
392.534	80.88
392.759	91.88
392.984	81.88
393.208	68.88
393.433	93.88
393.658	100.88
393.882	97.88
394.107	81.88
394.331	85.88
394.556	86.88
394.78	95.88
395.005	78.88
395.229	76.88
395.454	97.88
395.678	90.88
395.903	71.88
396.127	95.88
396.352	100.88
396.576	85.88
396.801	85.88
397.025	88.88
397.249	100.88
397.474	87.88
397.698	73.88
397.922	86.88
398.147	93.88
398.371	77.88
398.595	92.88
398.82	84.88
399.044	86.88
399.268	84.88
399.492	83.88
399.717	87.88
399.941	86.88
400.165	78.88
400.389	86.88
400.613	92.88
400.837	95.88
401.062	85.88
401.286	88.88
401.51	88.88
401.734	100.88
401.958	94.88
402.182	107.88
402.406	134.88
402.63	106.88
402.854	97.88
403.078	91.88
403.302	84.88
403.526	93.88
403.75	80.88
403.974	70.88
404.198	91.88
404.422	83.88
404.645	76.88
404.869	79.88
405.093	87.88
405.317	80.88
405.541	99.88
405.765	90.88
405.988	105.88
406.212	149.88
406.436	198.88
406.66	132.88
406.883	92.88
407.107	98.88
407.331	85.88
407.555	88.88
407.778	91.88
408.002	92.88
408.226	82.88
408.449	82.88
408.673	81.88
408.896	82.88
409.12	92.88
409.344	87.88
409.567	78.88
409.791	86.88
410.014	116.88
410.238	85.88
410.461	83.88
410.685	88.88
410.908	101.88
411.132	95.88
411.355	93.88
411.578	97.88
411.802	95.88
412.025	92.88
412.249	86.88
412.472	100.88
412.695	94.88
412.919	77.88
413.142	86.88
413.365	83.88
413.589	95.88
413.812	88.88
414.035	80.88
414.258	91.88
414.482	88.88
414.705	88.88
414.928	85.88
415.151	84.88
415.374	83.88
415.597	87.88
415.821	83.88
416.044	76.88
416.267	79.88
416.49	85.88
416.713	90.88
416.936	89.88
417.159	73.88
417.382	96.88
417.605	86.88
417.828	81.88
418.051	79.88
418.274	99.88
418.497	76.88
418.72	84.88
418.943	93.88
419.166	81.88
419.389	87.88
419.611	101.88
419.834	81.88
420.057	78.88
420.28	85.88
420.503	89.88
420.726	89.88
420.948	84.88
421.171	85.88
421.394	86.88
421.617	97.88
421.839	87.88
422.062	87.88
422.285	95.88
422.507	90.88
422.73	98.88
422.953	92.88
423.175	75.88
423.398	80.88
423.621	77.88
423.843	79.88
424.066	91.88
424.288	92.88
424.511	100.88
424.733	82.88
424.956	86.88
425.178	91.88
425.401	92.88
425.623	84.88
425.846	81.88
426.068	97.88
426.291	89.88
426.513	85.88
426.735	87.88
426.958	96.88
427.18	94.88
427.402	121.88
427.625	135.88
427.847	116.88
428.069	107.88
428.292	83.88
428.514	79.88
428.736	85.88
428.958	75.88
429.181	87.88
429.403	81.88
429.625	88.88
429.847	87.88
430.069	88.88
430.292	85.88
430.514	80.88
430.736	78.88
430.958	80.88
431.18	93.88
431.402	80.88
431.624	87.88
431.846	95.88
432.068	97.88
432.29	95.88
432.512	85.88
432.734	72.88
432.956	78.88
433.178	81.88
433.4	87.88
433.622	81.88
433.844	96.88
434.066	89.88
434.287	101.88
434.509	88.88
434.731	86.88
434.953	86.88
435.175	75.88
435.397	91.88
435.618	89.88
435.84	101.88
436.062	103.88
436.284	95.88
436.505	95.88
436.727	95.88
436.949	88.88
437.17	86.88
437.392	94.88
437.614	85.88
437.835	102.88
438.057	97.88
438.278	95.88
438.5	68.88
438.721	90.88
438.943	104.88
439.165	104.88
439.386	89.88
439.608	90.88
439.829	68.88
440.05	113.88
440.272	111.88
440.493	87.88
440.715	89.88
440.936	92.88
441.158	79.88
441.379	71.88
441.6	94.88
441.822	87.88
442.043	84.88
442.264	109.88
442.486	107.88
442.707	93.88
442.928	103.88
443.149	105.88
443.371	106.88
443.592	89.88
443.813	82.88
444.034	102.88
444.255	90.88
444.476	86.88
444.698	99.88
444.919	89.88
445.14	134.88
445.361	108.88
445.582	98.88
445.803	133.88
446.024	130.88
446.245	121.88
446.466	99.88
446.687	84.88
446.908	97.88
447.129	89.88
447.35	94.88
447.571	91.88
447.792	86.88
448.013	87.88
448.234	102.88
448.455	106.88
448.675	107.88
448.896	104.88
449.117	86.88
449.338	103.88
449.559	104.88
449.779	115.88
450	97.88
450.221	90.88
450.442	94.88
450.662	95.88
450.883	104.88
451.104	102.88
451.324	92.88
451.545	84.88
451.766	99.88
451.986	87.88
452.207	90.88
452.428	80.88
452.648	88.88
452.869	96.88
453.089	101.88
453.31	86.88
453.53	99.88
453.751	87.88
453.971	102.88
454.192	94.88
454.412	102.88
454.633	81.88
454.853	75.88
455.073	98.88
455.294	79.88
455.514	106.88
455.734	85.88
455.955	76.88
456.175	95.88
456.395	95.88
456.616	87.88
456.836	79.88
457.056	83.88
457.276	71.88
457.497	90.88
457.717	86.88
457.937	75.88
458.157	79.88
458.377	77.88
458.598	101.88
458.818	120.88
459.038	131.88
459.258	116.88
459.478	80.88
459.698	86.88
459.918	92.88
460.138	85.88
460.358	65.88
460.578	80.88
460.798	97.88
461.018	80.88
461.238	88.88
461.458	96.88
461.678	97.88
461.898	89.88
462.118	84.88
462.338	80.88
462.558	74.88
462.777	93.88
462.997	83.88
463.217	80.88
463.437	64.88
463.657	76.88
463.876	88.88
464.096	86.88
464.316	81.88
464.536	90.88
464.755	83.88
464.975	107.88
465.195	139.88
465.414	124.88
465.634	87.88
465.854	94.88
466.073	78.88
466.293	85.88
466.512	100.88
466.732	87.88
466.951	86.88
467.171	88.88
467.391	86.88
467.61	85.88
467.829	96.88
468.049	82.88
468.268	86.88
468.488	80.88
468.707	80.88
468.927	92.88
469.146	86.88
469.365	86.88
469.585	84.88
469.804	97.88
470.023	97.88
470.243	91.88
470.462	95.88
470.681	102.88
470.901	93.88
471.12	93.88
471.339	73.88
471.558	96.88
471.777	83.88
471.997	99.88
472.216	90.88
472.435	80.88
472.654	88.88
472.873	83.88
473.092	90.88
473.311	79.88
473.53	80.88
473.749	82.88
473.968	102.88
474.187	94.88
474.406	89.88
474.625	78.88
474.844	88.88
475.063	87.88
475.282	85.88
475.501	93.88
475.72	92.88
475.939	86.88
476.158	92.88
476.377	96.88
476.596	81.88
476.814	78.88
477.033	77.88
477.252	91.88
477.471	88.88
477.69	90.88
477.908	84.88
478.127	86.88
478.346	86.88
478.564	82.88
478.783	81.88
479.002	78.88
479.22	85.88
479.439	101.88
479.658	102.88
479.876	94.88
480.095	107.88
480.313	78.88
480.532	73.88
480.751	78.88
480.969	82.88
481.188	97.88
481.406	103.88
481.624	83.88
481.843	93.88
482.061	87.88
482.28	95.88
482.498	83.88
482.717	90.88
482.935	84.88
483.153	80.88
483.372	101.88
483.59	94.88
483.808	75.88
484.027	93.88
484.245	78.88
484.463	76.88
484.681	107.88
484.9	85.88
485.118	86.88
485.336	92.88
485.554	93.88
485.772	93.88
485.99	88.88
486.209	103.88
486.427	96.88
486.645	96.88
486.863	111.88
487.081	96.88
487.299	97.88
487.517	99.88
487.735	92.88
487.953	100.88
488.171	95.88
488.389	91.88
488.607	96.88
488.825	90.88
489.043	95.88
489.261	92.88
489.479	86.88
489.696	76.88
489.914	79.88
490.132	80.88
490.35	93.88
490.568	92.88
490.786	96.88
491.003	88.88
491.221	89.88
491.439	81.88
491.657	86.88
491.874	73.88
492.092	84.88
492.31	70.88
492.527	87.88
492.745	89.88
492.963	94.88
493.18	81.88
493.398	92.88
493.615	102.88
493.833	90.88
494.05	83.88
494.268	89.88
494.485	93.88
494.703	82.88
494.92	90.88
495.138	84.88
495.355	88.88
495.573	84.88
495.79	85.88
496.008	98.88
496.225	99.88
496.442	81.88
496.66	97.88
496.877	80.88
497.094	82.88
497.312	106.88
497.529	104.88
497.746	85.88
497.963	85.88
498.181	94.88
498.398	91.88
498.615	102.88
498.832	112.88
499.049	81.88
499.267	91.88
499.484	82.88
499.701	89.88
499.918	79.88
500.135	87.88
500.352	86.88
500.569	97.88
500.786	90.88
501.003	93.88
501.22	82.88
501.437	88.88
501.654	97.88
501.871	99.88
502.088	97.88
502.305	75.88
502.522	80.88
502.739	99.88
502.956	87.88
503.172	85.88
503.389	92.88
503.606	102.88
503.823	100.88
504.04	98.88
504.256	84.88
504.473	81.88
504.69	82.88
504.907	93.88
505.123	90.88
505.34	102.88
505.557	81.88
505.773	88.88
505.99	94.88
506.207	71.88
506.423	92.88
506.64	86.88
506.856	99.88
507.073	83.88
507.289	97.88
507.506	89.88
507.722	113.88
507.939	106.88
508.155	92.88
508.372	87.88
508.588	87.88
508.805	80.88
509.021	103.88
509.238	101.88
509.454	95.88
509.67	95.88
509.887	97.88
510.103	113.88
510.319	196.88
510.536	635.88
510.752	2051.88
510.968	597.88
511.184	149.88
511.401	108.88
511.617	85.88
511.833	97.88
512.049	94.88
512.265	91.88
512.481	85.88
512.698	94.88
512.914	94.88
513.13	96.88
513.346	94.88
513.562	104.88
513.778	90.88
513.994	89.88
514.21	87.88
514.426	98.88
514.642	118.88
514.858	127.88
515.074	143.88
515.29	367.88
515.506	1172.88
515.721	471.88
515.937	143.88
516.153	100.88
516.369	93.88
516.585	100.88
516.801	87.88
517.016	90.88
