Data from Uncirc_2008_H10_HRD10591_00093.txt Node
Date: Wed Jan 03 10:15:49 EST 2024
User: Yrep
Spectrometer: HR+D1059
Trigger mode: 1
Integration Time (sec): 1.000000E-1
Scans to average: 1
Electric dark correction enabled: true
Nonlinearity correction enabled: false
Boxcar width: 0
XAxis mode: Wavelengths
Number of Pixels in Spectrum: 2048
>>>>>Begin Spectral Data<<<<<
223.165	-5.88
223.4	-5.88
223.635	-5.88
223.869	-20.88
224.104	-24.88
224.338	-7.88
224.573	-12.88
224.808	-3.88
225.042	-4.88
225.277	-12.88
225.511	-12.88
225.746	5.12
225.98	7.12
226.215	9.12
226.449	25.12
226.683	10.12
226.918	21.12
227.152	29.12
227.387	45.12
227.621	31.12
227.856	31.12
228.09	32.12
228.324	38.12
228.559	47.12
228.793	59.12
229.027	68.12
229.262	67.12
229.496	83.12
229.73	73.12
229.964	70.12
230.199	75.12
230.433	72.12
230.667	79.12
230.901	81.12
231.136	81.12
231.37	80.12
231.604	79.12
231.838	72.12
232.072	80.12
232.306	74.12
232.541	71.12
232.775	88.12
233.009	87.12
233.243	83.12
233.477	84.12
233.711	90.12
233.945	77.12
234.179	77.12
234.413	80.12
234.647	69.12
234.881	88.12
235.115	81.12
235.349	76.12
235.583	79.12
235.817	76.12
236.051	76.12
236.285	56.12
236.519	74.12
236.753	72.12
236.987	78.12
237.221	89.12
237.455	89.12
237.689	88.12
237.922	81.12
238.156	74.12
238.39	71.12
238.624	78.12
238.858	70.12
239.091	67.12
239.325	69.12
239.559	93.12
239.793	68.12
240.027	83.12
240.26	84.12
240.494	81.12
240.728	96.12
240.961	82.12
241.195	81.12
241.429	69.12
241.662	71.12
241.896	73.12
242.13	92.12
242.363	72.12
242.597	74.12
242.83	73.12
243.064	73.12
243.298	78.12
243.531	79.12
243.765	87.12
243.998	90.12
244.232	91.12
244.465	77.12
244.699	77.12
244.932	74.12
245.166	78.12
245.399	66.12
245.633	64.12
245.866	76.12
246.099	73.12
246.333	70.12
246.566	76.12
246.8	74.12
247.033	75.12
247.266	77.12
247.5	81.12
247.733	89.12
247.966	78.12
248.2	70.12
248.433	75.12
248.666	84.12
248.899	89.12
249.133	91.12
249.366	104.12
249.599	101.12
249.832	85.12
250.066	83.12
250.299	77.12
250.532	88.12
250.765	69.12
250.998	95.12
251.231	81.12
251.465	84.12
251.698	85.12
251.931	84.12
252.164	85.12
252.397	71.12
252.63	89.12
252.863	75.12
253.096	86.12
253.329	70.12
253.562	84.12
253.795	94.12
254.028	76.12
254.261	82.12
254.494	83.12
254.727	86.12
254.96	83.12
255.193	87.12
255.426	76.12
255.659	87.12
255.892	92.12
256.124	76.12
256.357	85.12
256.59	73.12
256.823	87.12
257.056	83.12
257.289	91.12
257.521	73.12
257.754	86.12
257.987	82.12
258.22	104.12
258.452	79.12
258.685	78.12
258.918	92.12
259.151	89.12
259.383	88.12
259.616	85.12
259.849	94.12
260.081	95.12
260.314	88.12
260.547	76.12
260.779	89.12
261.012	84.12
261.244	99.12
261.477	92.12
261.71	87.12
261.942	111.12
262.175	105.12
262.407	94.12
262.64	85.12
262.872	75.12
263.105	91.12
263.337	76.12
263.57	81.12
263.802	66.12
264.035	77.12
264.267	83.12
264.499	72.12
264.732	68.12
264.964	77.12
265.197	92.12
265.429	91.12
265.661	81.12
265.894	81.12
266.126	93.12
266.358	91.12
266.591	90.12
266.823	86.12
267.055	68.12
267.287	74.12
267.52	96.12
267.752	92.12
267.984	79.12
268.216	82.12
268.448	78.12
268.681	91.12
268.913	96.12
269.145	73.12
269.377	77.12
269.609	81.12
269.841	98.12
270.073	74.12
270.306	85.12
270.538	85.12
270.77	75.12
271.002	89.12
271.234	91.12
271.466	83.12
271.698	88.12
271.93	106.12
272.162	82.12
272.394	74.12
272.626	84.12
272.858	83.12
273.09	80.12
273.322	89.12
273.553	78.12
273.785	89.12
274.017	80.12
274.249	95.12
274.481	80.12
274.713	80.12
274.945	81.12
275.176	79.12
275.408	96.12
275.64	90.12
275.872	76.12
276.104	91.12
276.335	87.12
276.567	102.12
276.799	96.12
277.031	88.12
277.262	82.12
277.494	85.12
277.726	89.12
277.957	95.12
278.189	84.12
278.421	68.12
278.652	89.12
278.884	86.12
279.115	77.12
279.347	77.12
279.579	85.12
279.81	97.12
280.042	84.12
280.273	85.12
280.505	85.12
280.736	87.12
280.968	74.12
281.199	81.12
281.431	97.12
281.662	83.12
281.894	101.12
282.125	108.12
282.356	116.12
282.588	137.12
282.819	108.12
283.051	83.12
283.282	87.12
283.513	79.12
283.745	85.12
283.976	99.12
284.207	93.12
284.439	85.12
284.67	87.12
284.901	94.12
285.132	85.12
285.364	86.12
285.595	96.12
285.826	94.12
286.057	98.12
286.288	83.12
286.52	85.12
286.751	92.12
286.982	97.12
287.213	93.12
287.444	81.12
287.675	79.12
287.906	95.12
288.138	89.12
288.369	100.12
288.6	91.12
288.831	88.12
289.062	98.12
289.293	80.12
289.524	92.12
289.755	97.12
289.986	94.12
290.217	85.12
290.448	91.12
290.679	98.12
290.91	87.12
291.141	93.12
291.371	93.12
291.602	90.12
291.833	90.12
292.064	93.12
292.295	83.12
292.526	88.12
292.757	91.12
292.987	89.12
293.218	90.12
293.449	83.12
293.68	95.12
293.91	95.12
294.141	101.12
294.372	100.12
294.603	103.12
294.833	73.12
295.064	78.12
295.295	91.12
295.525	97.12
295.756	88.12
295.987	100.12
296.217	133.12
296.448	125.12
296.679	95.12
296.909	99.12
297.14	88.12
297.37	78.12
297.601	77.12
297.831	84.12
298.062	92.12
298.292	92.12
298.523	97.12
298.753	100.12
298.984	90.12
299.214	83.12
299.445	97.12
299.675	93.12
299.905	92.12
300.136	94.12
300.366	91.12
300.597	88.12
300.827	101.12
301.057	114.12
301.288	107.12
301.518	111.12
301.748	92.12
301.979	88.12
302.209	81.12
302.439	80.12
302.669	83.12
302.9	88.12
303.13	79.12
303.36	96.12
303.59	109.12
303.82	108.12
304.051	92.12
304.281	96.12
304.511	102.12
304.741	77.12
304.971	90.12
305.201	104.12
305.431	97.12
305.661	85.12
305.891	93.12
306.121	105.12
306.352	107.12
306.582	100.12
306.812	88.12
307.042	92.12
307.272	94.12
307.502	98.12
307.731	94.12
307.961	85.12
308.191	87.12
308.421	83.12
308.651	98.12
308.881	97.12
309.111	98.12
309.341	93.12
309.571	115.12
309.8	114.12
310.03	89.12
310.26	113.12
310.49	112.12
310.72	106.12
310.949	98.12
311.179	104.12
311.409	101.12
311.639	94.12
311.868	102.12
312.098	96.12
312.328	99.12
312.557	100.12
312.787	104.12
313.017	95.12
313.246	99.12
313.476	77.12
313.706	98.12
313.935	96.12
314.165	91.12
314.394	96.12
314.624	109.12
314.853	113.12
315.083	79.12
315.312	94.12
315.542	96.12
315.771	99.12
316.001	94.12
316.23	81.12
316.46	86.12
316.689	97.12
316.919	95.12
317.148	98.12
317.377	99.12
317.607	103.12
317.836	100.12
318.065	96.12
318.295	99.12
318.524	98.12
318.753	91.12
318.983	85.12
319.212	96.12
319.441	116.12
319.67	105.12
319.9	90.12
320.129	91.12
320.358	89.12
320.587	102.12
320.816	94.12
321.046	90.12
321.275	100.12
321.504	99.12
321.733	97.12
321.962	93.12
322.191	99.12
322.42	89.12
322.649	111.12
322.878	108.12
323.108	119.12
323.337	128.12
323.566	128.12
323.795	146.12
324.024	209.12
324.253	387.12
324.482	781.12
324.71	1614.12
324.939	2112.12
325.168	787.12
325.397	237.12
325.626	151.12
325.855	128.12
326.084	122.12
326.313	148.12
326.542	143.12
326.77	248.12
326.999	455.12
327.228	925.12
327.457	1646.12
327.686	1321.12
327.914	368.12
328.143	187.12
328.372	135.12
328.6	108.12
328.829	105.12
329.058	131.12
329.287	141.12
329.515	111.12
329.744	134.12
329.972	101.12
330.201	110.12
330.43	103.12
330.658	117.12
330.887	146.12
331.115	113.12
331.344	106.12
331.572	105.12
331.801	95.12
332.03	89.12
332.258	100.12
332.486	106.12
332.715	89.12
332.943	84.12
333.172	90.12
333.4	97.12
333.629	101.12
333.857	126.12
334.085	94.12
334.314	101.12
334.542	97.12
334.771	105.12
334.999	102.12
335.227	92.12
335.455	95.12
335.684	99.12
335.912	101.12
336.14	109.12
336.369	94.12
336.597	102.12
336.825	91.12
337.053	93.12
337.281	101.12
337.51	94.12
337.738	97.12
337.966	93.12
338.194	91.12
338.422	83.12
338.65	95.12
338.878	97.12
339.106	93.12
339.334	92.12
339.562	79.12
339.79	94.12
340.018	91.12
340.246	91.12
340.474	93.12
340.702	100.12
340.93	105.12
341.158	87.12
341.386	88.12
341.614	83.12
341.842	83.12
342.07	75.12
342.298	100.12
342.526	88.12
342.754	95.12
342.981	87.12
343.209	106.12
343.437	119.12
343.665	90.12
343.893	81.12
344.12	89.12
344.348	96.12
344.576	103.12
344.804	97.12
345.031	103.12
345.259	104.12
345.487	98.12
345.714	100.12
345.942	109.12
346.17	108.12
346.397	87.12
346.625	88.12
346.853	95.12
347.08	94.12
347.308	93.12
347.535	111.12
347.763	101.12
347.99	117.12
348.218	107.12
348.445	110.12
348.673	93.12
348.9	104.12
349.128	101.12
349.355	88.12
349.583	108.12
349.81	103.12
350.037	94.12
350.265	97.12
350.492	109.12
350.72	107.12
350.947	92.12
351.174	115.12
351.402	106.12
351.629	101.12
351.856	98.12
352.083	97.12
352.311	103.12
352.538	121.12
352.765	123.12
352.992	117.12
353.22	106.12
353.447	114.12
353.674	102.12
353.901	96.12
354.128	100.12
354.355	109.12
354.583	87.12
354.81	110.12
355.037	99.12
355.264	80.12
355.491	95.12
355.718	93.12
355.945	84.12
356.172	103.12
356.399	104.12
356.626	96.12
356.853	85.12
357.08	93.12
357.307	100.12
357.534	84.12
357.761	88.12
357.988	103.12
358.215	105.12
358.441	101.12
358.668	80.12
358.895	95.12
359.122	119.12
359.349	95.12
359.576	82.12
359.802	102.12
360.029	108.12
360.256	125.12
360.483	95.12
360.709	88.12
360.936	92.12
361.163	86.12
361.39	91.12
361.616	94.12
361.843	85.12
362.07	87.12
362.296	93.12
362.523	104.12
362.749	99.12
362.976	94.12
363.203	96.12
363.429	95.12
363.656	89.12
363.882	97.12
364.109	98.12
364.335	106.12
364.562	84.12
364.788	108.12
365.015	99.12
365.241	91.12
365.468	102.12
365.694	102.12
365.92	107.12
366.147	85.12
366.373	103.12
366.599	86.12
366.826	88.12
367.052	93.12
367.278	88.12
367.505	90.12
367.731	93.12
367.957	85.12
368.184	104.12
368.41	94.12
368.636	100.12
368.862	112.12
369.089	97.12
369.315	90.12
369.541	93.12
369.767	100.12
369.993	96.12
370.219	101.12
370.445	97.12
370.672	75.12
370.898	87.12
371.124	91.12
371.35	103.12
371.576	90.12
371.802	81.12
372.028	92.12
372.254	92.12
372.48	95.12
372.706	98.12
372.932	100.12
373.158	94.12
373.384	96.12
373.61	94.12
373.835	90.12
374.061	76.12
374.287	101.12
374.513	89.12
374.739	80.12
374.965	97.12
375.191	87.12
375.416	93.12
375.642	92.12
375.868	84.12
376.094	67.12
376.319	80.12
376.545	94.12
376.771	94.12
376.997	96.12
377.222	84.12
377.448	84.12
377.674	96.12
377.899	84.12
378.125	87.12
378.35	90.12
378.576	75.12
378.802	89.12
379.027	91.12
379.253	88.12
379.478	95.12
379.704	96.12
379.929	97.12
380.155	85.12
380.38	102.12
380.606	102.12
380.831	97.12
381.057	111.12
381.282	101.12
381.507	107.12
381.733	106.12
381.958	96.12
382.184	100.12
382.409	107.12
382.634	91.12
382.86	103.12
383.085	96.12
383.31	119.12
383.535	107.12
383.761	98.12
383.986	108.12
384.211	110.12
384.436	99.12
384.662	102.12
384.887	103.12
385.112	108.12
385.337	100.12
385.562	109.12
385.787	111.12
386.013	119.12
386.238	106.12
386.463	115.12
386.688	91.12
386.913	92.12
387.138	104.12
387.363	97.12
387.588	84.12
387.813	105.12
388.038	116.12
388.263	97.12
388.488	108.12
388.713	93.12
388.938	101.12
389.163	93.12
389.387	90.12
389.612	107.12
389.837	105.12
390.062	81.12
390.287	90.12
390.512	92.12
390.736	91.12
390.961	90.12
391.186	93.12
391.411	100.12
391.636	91.12
391.86	92.12
392.085	88.12
392.31	79.12
392.534	76.12
392.759	75.12
392.984	84.12
393.208	84.12
393.433	76.12
393.658	81.12
393.882	90.12
394.107	80.12
394.331	84.12
394.556	89.12
394.78	84.12
395.005	85.12
395.229	79.12
395.454	84.12
395.678	81.12
395.903	83.12
396.127	93.12
396.352	84.12
396.576	95.12
396.801	83.12
397.025	90.12
397.249	98.12
397.474	82.12
397.698	93.12
397.922	82.12
398.147	85.12
398.371	84.12
398.595	83.12
398.82	92.12
399.044	81.12
399.268	96.12
399.492	85.12
399.717	82.12
399.941	88.12
400.165	90.12
400.389	91.12
400.613	95.12
400.837	93.12
401.062	92.12
401.286	85.12
401.51	101.12
401.734	112.12
401.958	105.12
402.182	128.12
402.406	144.12
402.63	123.12
402.854	88.12
403.078	75.12
403.302	81.12
403.526	97.12
403.75	76.12
403.974	85.12
404.198	74.12
404.422	90.12
404.645	83.12
404.869	89.12
405.093	89.12
405.317	95.12
405.541	98.12
405.765	99.12
405.988	119.12
406.212	164.12
406.436	216.12
406.66	119.12
406.883	97.12
407.107	97.12
407.331	91.12
407.555	101.12
407.778	107.12
408.002	84.12
408.226	103.12
408.449	85.12
408.673	79.12
408.896	83.12
409.12	93.12
409.344	79.12
409.567	88.12
409.791	104.12
410.014	95.12
410.238	87.12
410.461	88.12
410.685	87.12
410.908	96.12
411.132	105.12
411.355	103.12
411.578	99.12
411.802	92.12
412.025	85.12
412.249	87.12
412.472	89.12
412.695	91.12
412.919	96.12
413.142	98.12
413.365	79.12
413.589	76.12
413.812	81.12
414.035	93.12
414.258	94.12
414.482	91.12
414.705	89.12
414.928	79.12
415.151	102.12
415.374	93.12
415.597	105.12
415.821	93.12
416.044	92.12
416.267	78.12
416.49	83.12
416.713	88.12
416.936	89.12
417.159	84.12
417.382	91.12
417.605	81.12
417.828	110.12
418.051	85.12
418.274	80.12
418.497	95.12
418.72	84.12
418.943	72.12
419.166	84.12
419.389	90.12
419.611	94.12
419.834	90.12
420.057	88.12
420.28	88.12
420.503	81.12
420.726	97.12
420.948	92.12
421.171	97.12
421.394	93.12
421.617	93.12
421.839	104.12
422.062	85.12
422.285	93.12
422.507	111.12
422.73	106.12
422.953	87.12
423.175	85.12
423.398	96.12
423.621	93.12
423.843	96.12
424.066	91.12
424.288	89.12
424.511	87.12
424.733	108.12
424.956	128.12
425.178	108.12
425.401	97.12
425.623	106.12
425.846	85.12
426.068	89.12
426.291	99.12
426.513	82.12
426.735	98.12
426.958	93.12
427.18	100.12
427.402	129.12
427.625	151.12
427.847	114.12
428.069	101.12
428.292	82.12
428.514	91.12
428.736	87.12
428.958	105.12
429.181	82.12
429.403	89.12
429.625	82.12
429.847	80.12
430.069	107.12
430.292	93.12
430.514	99.12
430.736	85.12
430.958	75.12
431.18	88.12
431.402	89.12
431.624	99.12
431.846	95.12
432.068	82.12
432.29	91.12
432.512	85.12
432.734	77.12
432.956	89.12
433.178	96.12
433.4	98.12
433.622	95.12
433.844	111.12
434.066	99.12
434.287	90.12
434.509	94.12
434.731	91.12
434.953	103.12
435.175	93.12
435.397	93.12
435.618	95.12
435.84	115.12
436.062	124.12
436.284	103.12
436.505	108.12
436.727	84.12
436.949	82.12
437.17	87.12
437.392	89.12
437.614	90.12
437.835	98.12
438.057	115.12
438.278	115.12
438.5	109.12
438.721	110.12
438.943	96.12
439.165	79.12
439.386	85.12
439.608	84.12
439.829	99.12
440.05	100.12
440.272	125.12
440.493	102.12
440.715	87.12
440.936	90.12
441.158	94.12
441.379	89.12
441.6	93.12
441.822	92.12
442.043	100.12
442.264	101.12
442.486	96.12
442.707	103.12
442.928	119.12
443.149	126.12
443.371	130.12
443.592	95.12
443.813	93.12
444.034	97.12
444.255	77.12
444.476	89.12
444.698	83.12
444.919	89.12
445.14	120.12
445.361	115.12
445.582	111.12
445.803	142.12
446.024	138.12
446.245	116.12
446.466	101.12
446.687	89.12
446.908	90.12
447.129	96.12
447.35	89.12
447.571	90.12
447.792	89.12
448.013	103.12
448.234	83.12
448.455	84.12
448.675	111.12
448.896	116.12
449.117	99.12
449.338	107.12
449.559	122.12
449.779	133.12
450	97.12
450.221	100.12
450.442	85.12
450.662	94.12
450.883	99.12
451.104	105.12
451.324	96.12
451.545	90.12
451.766	80.12
451.986	78.12
452.207	82.12
452.428	76.12
452.648	103.12
452.869	107.12
453.089	107.12
453.31	122.12
453.53	103.12
453.751	83.12
453.971	107.12
454.192	102.12
454.412	89.12
454.633	94.12
454.853	76.12
455.073	89.12
455.294	89.12
455.514	111.12
455.734	76.12
455.955	88.12
456.175	78.12
456.395	87.12
456.616	76.12
456.836	91.12
457.056	96.12
457.276	93.12
457.497	85.12
457.717	91.12
457.937	83.12
458.157	75.12
458.377	94.12
458.598	95.12
458.818	139.12
459.038	149.12
459.258	114.12
459.478	87.12
459.698	84.12
459.918	91.12
460.138	80.12
460.358	91.12
460.578	87.12
460.798	97.12
461.018	89.12
461.238	88.12
461.458	73.12
461.678	86.12
461.898	82.12
462.118	85.12
462.338	76.12
462.558	84.12
462.777	99.12
462.997	90.12
463.217	84.12
463.437	71.12
463.657	95.12
463.876	82.12
464.096	83.12
464.316	96.12
464.536	91.12
464.755	108.12
464.975	99.12
465.195	129.12
465.414	138.12
465.634	94.12
465.854	100.12
466.073	83.12
466.293	91.12
466.512	89.12
466.732	108.12
466.951	82.12
467.171	86.12
467.391	104.12
467.61	110.12
467.829	91.12
468.049	87.12
468.268	87.12
468.488	86.12
468.707	68.12
468.927	83.12
469.146	73.12
469.365	88.12
469.585	76.12
469.804	92.12
470.023	101.12
470.243	89.12
470.462	95.12
470.681	108.12
470.901	95.12
471.12	80.12
471.339	97.12
471.558	92.12
471.777	95.12
471.997	92.12
472.216	80.12
472.435	73.12
472.654	90.12
472.873	95.12
473.092	95.12
473.311	81.12
473.53	85.12
473.749	100.12
473.968	99.12
474.187	92.12
474.406	86.12
474.625	90.12
474.844	92.12
475.063	84.12
475.282	88.12
475.501	75.12
475.72	101.12
475.939	86.12
476.158	96.12
476.377	86.12
476.596	76.12
476.814	99.12
477.033	91.12
477.252	105.12
477.471	78.12
477.69	82.12
477.908	105.12
478.127	80.12
478.346	82.12
478.564	99.12
478.783	106.12
479.002	89.12
479.22	83.12
479.439	101.12
479.658	101.12
479.876	94.12
480.095	81.12
480.313	93.12
480.532	84.12
480.751	84.12
480.969	91.12
481.188	86.12
481.406	99.12
481.624	89.12
481.843	91.12
482.061	90.12
482.28	81.12
482.498	96.12
482.717	88.12
482.935	95.12
483.153	96.12
483.372	99.12
483.59	92.12
483.808	86.12
484.027	91.12
484.245	90.12
484.463	82.12
484.681	87.12
484.9	106.12
485.118	93.12
485.336	101.12
485.554	98.12
485.772	111.12
485.99	96.12
486.209	119.12
486.427	109.12
486.645	116.12
486.863	113.12
487.081	119.12
487.299	103.12
487.517	97.12
487.735	93.12
487.953	76.12
488.171	85.12
488.389	93.12
488.607	107.12
488.825	106.12
489.043	101.12
489.261	83.12
489.479	77.12
489.696	86.12
489.914	85.12
490.132	83.12
490.35	91.12
490.568	91.12
490.786	86.12
491.003	95.12
491.221	97.12
491.439	95.12
491.657	98.12
491.874	99.12
492.092	92.12
492.31	94.12
492.527	97.12
492.745	89.12
492.963	93.12
493.18	102.12
493.398	92.12
493.615	92.12
493.833	97.12
494.05	75.12
494.268	99.12
494.485	100.12
494.703	85.12
494.92	107.12
495.138	85.12
495.355	100.12
495.573	91.12
495.79	88.12
496.008	96.12
496.225	89.12
496.442	94.12
496.66	93.12
496.877	90.12
497.094	95.12
497.312	85.12
497.529	79.12
497.746	96.12
497.963	89.12
498.181	95.12
498.398	104.12
498.615	106.12
498.832	107.12
499.049	90.12
499.267	94.12
499.484	83.12
499.701	89.12
499.918	108.12
500.135	90.12
500.352	85.12
500.569	98.12
500.786	81.12
501.003	95.12
501.22	80.12
501.437	92.12
501.654	84.12
501.871	90.12
502.088	90.12
502.305	92.12
502.522	88.12
502.739	93.12
502.956	84.12
503.172	90.12
503.389	97.12
503.606	94.12
503.823	109.12
504.04	95.12
504.256	97.12
504.473	99.12
504.69	89.12
504.907	91.12
505.123	88.12
505.34	92.12
505.557	101.12
505.773	86.12
505.99	87.12
506.207	88.12
506.423	81.12
506.64	84.12
506.856	85.12
507.073	89.12
507.289	93.12
507.506	84.12
507.722	106.12
507.939	106.12
508.155	104.12
508.372	96.12
508.588	81.12
508.805	94.12
509.021	91.12
509.238	93.12
509.454	97.12
509.67	115.12
509.887	110.12
510.103	128.12
510.319	212.12
510.536	782.12
510.752	2418.12
510.968	689.12
511.184	163.12
511.401	116.12
511.617	96.12
511.833	100.12
512.049	85.12
512.265	81.12
512.481	99.12
512.698	89.12
512.914	98.12
513.13	98.12
513.346	91.12
513.562	102.12
513.778	91.12
513.994	93.12
514.21	103.12
514.426	115.12
514.642	126.12
514.858	135.12
515.074	165.12
515.29	443.12
515.506	1458.12
