Data from Uncirc_2008_H10_HRD10591_00069.txt Node
Date: Wed Jan 03 10:15:44 EST 2024
User: Yrep
Spectrometer: HR+D1059
Trigger mode: 1
Integration Time (sec): 1.000000E-1
Scans to average: 1
Electric dark correction enabled: true
Nonlinearity correction enabled: false
Boxcar width: 0
XAxis mode: Wavelengths
Number of Pixels in Spectrum: 2048
>>>>>Begin Spectral Data<<<<<
223.165	-24.5
223.4	-24.5
223.635	-24.5
223.869	-18.5
224.104	-17.5
224.338	-22.5
224.573	-18.5
224.808	-6.5
225.042	-8.5
225.277	-6.5
225.511	-2.5
225.746	4.5
225.98	10.5
226.215	14.5
226.449	14.5
226.683	26.5
226.918	20.5
227.152	34.5
227.387	38.5
227.621	32.5
227.856	39.5
228.09	41.5
228.324	46.5
228.559	53.5
228.793	64.5
229.027	68.5
229.262	55.5
229.496	61.5
229.73	73.5
229.964	67.5
230.199	76.5
230.433	82.5
230.667	70.5
230.901	80.5
231.136	76.5
231.37	71.5
231.604	75.5
231.838	73.5
232.072	92.5
232.306	73.5
232.541	80.5
232.775	81.5
233.009	85.5
233.243	89.5
233.477	80.5
233.711	85.5
233.945	75.5
234.179	77.5
234.413	78.5
234.647	86.5
234.881	77.5
235.115	76.5
235.349	80.5
235.583	76.5
235.817	86.5
236.051	87.5
236.285	78.5
236.519	75.5
236.753	64.5
236.987	75.5
237.221	80.5
237.455	77.5
237.689	61.5
237.922	52.5
238.156	68.5
238.39	68.5
238.624	71.5
238.858	61.5
239.091	79.5
239.325	78.5
239.559	75.5
239.793	74.5
240.027	57.5
240.26	81.5
240.494	82.5
240.728	72.5
240.961	91.5
241.195	69.5
241.429	60.5
241.662	71.5
241.896	75.5
242.13	79.5
242.363	76.5
242.597	81.5
242.83	78.5
243.064	74.5
243.298	74.5
243.531	68.5
243.765	71.5
243.998	75.5
244.232	79.5
244.465	81.5
244.699	66.5
244.932	82.5
245.166	66.5
245.399	83.5
245.633	71.5
245.866	74.5
246.099	80.5
246.333	80.5
246.566	79.5
246.8	82.5
247.033	74.5
247.266	65.5
247.5	75.5
247.733	71.5
247.966	65.5
248.2	96.5
248.433	78.5
248.666	79.5
248.899	85.5
249.133	85.5
249.366	73.5
249.599	90.5
249.832	79.5
250.066	75.5
250.299	83.5
250.532	65.5
250.765	66.5
250.998	70.5
251.231	72.5
251.465	65.5
251.698	85.5
251.931	85.5
252.164	72.5
252.397	84.5
252.63	73.5
252.863	67.5
253.096	73.5
253.329	77.5
253.562	76.5
253.795	86.5
254.028	65.5
254.261	81.5
254.494	83.5
254.727	76.5
254.96	76.5
255.193	83.5
255.426	80.5
255.659	74.5
255.892	75.5
256.124	70.5
256.357	71.5
256.59	85.5
256.823	74.5
257.056	75.5
257.289	65.5
257.521	80.5
257.754	79.5
257.987	91.5
258.22	79.5
258.452	91.5
258.685	80.5
258.918	87.5
259.151	89.5
259.383	80.5
259.616	66.5
259.849	81.5
260.081	75.5
260.314	87.5
260.547	68.5
260.779	100.5
261.012	76.5
261.244	68.5
261.477	81.5
261.71	92.5
261.942	94.5
262.175	111.5
262.407	79.5
262.64	81.5
262.872	90.5
263.105	79.5
263.337	59.5
263.57	83.5
263.802	72.5
264.035	77.5
264.267	72.5
264.499	72.5
264.732	87.5
264.964	76.5
265.197	79.5
265.429	84.5
265.661	79.5
265.894	91.5
266.126	73.5
266.358	85.5
266.591	87.5
266.823	77.5
267.055	69.5
267.287	88.5
267.52	75.5
267.752	80.5
267.984	86.5
268.216	79.5
268.448	82.5
268.681	81.5
268.913	77.5
269.145	89.5
269.377	106.5
269.609	77.5
269.841	79.5
270.073	71.5
270.306	67.5
270.538	83.5
270.77	81.5
271.002	67.5
271.234	89.5
271.466	88.5
271.698	80.5
271.93	83.5
272.162	87.5
272.394	91.5
272.626	78.5
272.858	71.5
273.09	80.5
273.322	86.5
273.553	69.5
273.785	74.5
274.017	79.5
274.249	86.5
274.481	90.5
274.713	83.5
274.945	80.5
275.176	82.5
275.408	91.5
275.64	74.5
275.872	86.5
276.104	85.5
276.335	93.5
276.567	104.5
276.799	116.5
277.031	97.5
277.262	86.5
277.494	91.5
277.726	93.5
277.957	79.5
278.189	77.5
278.421	81.5
278.652	70.5
278.884	75.5
279.115	71.5
279.347	94.5
279.579	88.5
279.81	87.5
280.042	79.5
280.273	95.5
280.505	84.5
280.736	73.5
280.968	83.5
281.199	68.5
281.431	85.5
281.662	100.5
281.894	80.5
282.125	90.5
282.356	105.5
282.588	113.5
282.819	104.5
283.051	88.5
283.282	87.5
283.513	77.5
283.745	90.5
283.976	72.5
284.207	70.5
284.439	85.5
284.67	90.5
284.901	92.5
285.132	80.5
285.364	80.5
285.595	75.5
285.826	66.5
286.057	79.5
286.288	65.5
286.52	87.5
286.751	80.5
286.982	73.5
287.213	87.5
287.444	73.5
287.675	74.5
287.906	81.5
288.138	86.5
288.369	95.5
288.6	88.5
288.831	76.5
289.062	75.5
289.293	77.5
289.524	71.5
289.755	83.5
289.986	78.5
290.217	81.5
290.448	82.5
290.679	93.5
290.91	82.5
291.141	75.5
291.371	86.5
291.602	89.5
291.833	87.5
292.064	80.5
292.295	67.5
292.526	87.5
292.757	84.5
292.987	76.5
293.218	86.5
293.449	80.5
293.68	88.5
293.91	83.5
294.141	84.5
294.372	80.5
294.603	95.5
294.833	82.5
295.064	85.5
295.295	100.5
295.525	70.5
295.756	102.5
295.987	119.5
296.217	151.5
296.448	111.5
296.679	92.5
296.909	75.5
297.14	92.5
297.37	81.5
297.601	86.5
297.831	75.5
298.062	92.5
298.292	79.5
298.523	83.5
298.753	104.5
298.984	87.5
299.214	86.5
299.445	78.5
299.675	86.5
299.905	94.5
300.136	91.5
300.366	81.5
300.597	92.5
300.827	88.5
301.057	85.5
301.288	98.5
301.518	97.5
301.748	81.5
301.979	107.5
302.209	71.5
302.439	89.5
302.669	103.5
302.9	85.5
303.13	90.5
303.36	105.5
303.59	100.5
303.82	112.5
304.051	96.5
304.281	86.5
304.511	73.5
304.741	82.5
304.971	85.5
305.201	80.5
305.431	78.5
305.661	84.5
305.891	97.5
306.121	95.5
306.352	100.5
306.582	91.5
306.812	93.5
307.042	94.5
307.272	78.5
307.502	89.5
307.731	93.5
307.961	83.5
308.191	90.5
308.421	103.5
308.651	86.5
308.881	87.5
309.111	93.5
309.341	76.5
309.571	91.5
309.8	67.5
310.03	92.5
310.26	85.5
310.49	97.5
310.72	99.5
310.949	89.5
311.179	101.5
311.409	84.5
311.639	85.5
311.868	84.5
312.098	90.5
312.328	98.5
312.557	103.5
312.787	99.5
313.017	96.5
313.246	93.5
313.476	91.5
313.706	84.5
313.935	84.5
314.165	91.5
314.394	101.5
314.624	94.5
314.853	81.5
315.083	76.5
315.312	89.5
315.542	93.5
315.771	91.5
316.001	91.5
316.23	79.5
316.46	83.5
316.689	73.5
316.919	93.5
317.148	92.5
317.377	94.5
317.607	86.5
317.836	91.5
318.065	99.5
318.295	82.5
318.524	87.5
318.753	88.5
318.983	99.5
319.212	102.5
319.441	106.5
319.67	91.5
319.9	94.5
320.129	87.5
320.358	80.5
320.587	87.5
320.816	96.5
321.046	90.5
321.275	94.5
321.504	98.5
321.733	93.5
321.962	101.5
322.191	106.5
322.42	108.5
322.649	101.5
322.878	104.5
323.108	119.5
323.337	108.5
323.566	125.5
323.795	155.5
324.024	199.5
324.253	390.5
324.482	783.5
324.71	1721.5
324.939	2216.5
325.168	799.5
325.397	251.5
325.626	147.5
325.855	131.5
326.084	127.5
326.313	123.5
326.542	145.5
326.77	220.5
326.999	455.5
327.228	921.5
327.457	1708.5
327.686	1373.5
327.914	356.5
328.143	185.5
328.372	147.5
328.6	124.5
328.829	111.5
329.058	107.5
329.287	116.5
329.515	118.5
329.744	105.5
329.972	93.5
330.201	104.5
330.43	93.5
330.658	111.5
330.887	137.5
331.115	120.5
331.344	108.5
331.572	107.5
331.801	122.5
332.03	106.5
332.258	93.5
332.486	91.5
332.715	96.5
332.943	100.5
333.172	102.5
333.4	97.5
333.629	109.5
333.857	106.5
334.085	99.5
334.314	83.5
334.542	91.5
334.771	86.5
334.999	89.5
335.227	104.5
335.455	99.5
335.684	80.5
335.912	92.5
336.14	86.5
336.369	87.5
336.597	81.5
336.825	91.5
337.053	91.5
337.281	92.5
337.51	87.5
337.738	83.5
337.966	86.5
338.194	88.5
338.422	91.5
338.65	88.5
338.878	92.5
339.106	85.5
339.334	85.5
339.562	95.5
339.79	87.5
340.018	86.5
340.246	80.5
340.474	98.5
340.702	77.5
340.93	90.5
341.158	81.5
341.386	85.5
341.614	102.5
341.842	85.5
342.07	86.5
342.298	76.5
342.526	82.5
342.754	75.5
342.981	83.5
343.209	81.5
343.437	110.5
343.665	77.5
343.893	99.5
344.12	92.5
344.348	96.5
344.576	84.5
344.804	91.5
345.031	104.5
345.259	86.5
345.487	107.5
345.714	83.5
345.942	86.5
346.17	90.5
346.397	89.5
346.625	94.5
346.853	94.5
347.08	92.5
347.308	84.5
347.535	83.5
347.763	103.5
347.99	104.5
348.218	98.5
348.445	102.5
348.673	88.5
348.9	106.5
349.128	82.5
349.355	71.5
349.583	85.5
349.81	97.5
350.037	84.5
350.265	98.5
350.492	80.5
350.72	79.5
350.947	101.5
351.174	90.5
351.402	116.5
351.629	108.5
351.856	92.5
352.083	112.5
352.311	102.5
352.538	103.5
352.765	107.5
352.992	117.5
353.22	102.5
353.447	89.5
353.674	120.5
353.901	94.5
354.128	86.5
354.355	92.5
354.583	101.5
354.81	101.5
355.037	96.5
355.264	89.5
355.491	87.5
355.718	95.5
355.945	90.5
356.172	89.5
356.399	97.5
356.626	93.5
356.853	99.5
357.08	98.5
357.307	77.5
357.534	73.5
357.761	94.5
357.988	98.5
358.215	88.5
358.441	81.5
358.668	75.5
358.895	75.5
359.122	96.5
359.349	88.5
359.576	80.5
359.802	87.5
360.029	99.5
360.256	104.5
360.483	100.5
360.709	100.5
360.936	89.5
361.163	99.5
361.39	86.5
361.616	76.5
361.843	87.5
362.07	91.5
362.296	81.5
362.523	86.5
362.749	80.5
362.976	87.5
363.203	99.5
363.429	88.5
363.656	85.5
363.882	94.5
364.109	81.5
364.335	75.5
364.562	78.5
364.788	85.5
365.015	90.5
365.241	93.5
365.468	91.5
365.694	101.5
365.92	90.5
366.147	96.5
366.373	92.5
366.599	93.5
366.826	78.5
367.052	92.5
367.278	110.5
367.505	83.5
367.731	77.5
367.957	87.5
368.184	87.5
368.41	94.5
368.636	107.5
368.862	120.5
369.089	110.5
369.315	89.5
369.541	90.5
369.767	77.5
369.993	83.5
370.219	80.5
370.445	83.5
370.672	74.5
370.898	91.5
371.124	95.5
371.35	78.5
371.576	87.5
371.802	85.5
372.028	68.5
372.254	72.5
372.48	88.5
372.706	81.5
372.932	90.5
373.158	87.5
373.384	80.5
373.61	86.5
373.835	75.5
374.061	76.5
374.287	84.5
374.513	73.5
374.739	83.5
374.965	82.5
375.191	80.5
375.416	90.5
375.642	84.5
375.868	91.5
376.094	87.5
376.319	80.5
376.545	78.5
376.771	86.5
376.997	85.5
377.222	74.5
377.448	94.5
377.674	89.5
377.899	80.5
378.125	82.5
378.35	76.5
378.576	81.5
378.802	72.5
379.027	85.5
379.253	100.5
379.478	87.5
379.704	87.5
379.929	86.5
380.155	88.5
380.38	91.5
380.606	70.5
380.831	91.5
381.057	91.5
381.282	102.5
381.507	94.5
381.733	91.5
381.958	79.5
382.184	91.5
382.409	91.5
382.634	100.5
382.86	99.5
383.085	96.5
383.31	89.5
383.535	92.5
383.761	89.5
383.986	86.5
384.211	80.5
384.436	97.5
384.662	97.5
384.887	99.5
385.112	93.5
385.337	101.5
385.562	94.5
385.787	99.5
386.013	103.5
386.238	92.5
386.463	95.5
386.688	85.5
386.913	88.5
387.138	104.5
387.363	97.5
387.588	95.5
387.813	81.5
388.038	103.5
388.263	100.5
388.488	98.5
388.713	90.5
388.938	110.5
389.163	91.5
389.387	90.5
389.612	93.5
389.837	84.5
390.062	82.5
390.287	93.5
390.512	85.5
390.736	85.5
390.961	76.5
391.186	100.5
391.411	93.5
391.636	92.5
391.86	78.5
392.085	90.5
392.31	91.5
392.534	85.5
392.759	95.5
392.984	91.5
393.208	99.5
393.433	77.5
393.658	72.5
393.882	71.5
394.107	94.5
394.331	85.5
394.556	87.5
394.78	94.5
395.005	88.5
395.229	95.5
395.454	84.5
395.678	77.5
395.903	91.5
396.127	77.5
396.352	85.5
396.576	94.5
396.801	88.5
397.025	84.5
397.249	80.5
397.474	79.5
397.698	77.5
397.922	74.5
398.147	87.5
398.371	102.5
398.595	93.5
398.82	76.5
399.044	90.5
399.268	83.5
399.492	97.5
399.717	86.5
399.941	104.5
400.165	92.5
400.389	79.5
400.613	92.5
400.837	81.5
401.062	84.5
401.286	91.5
401.51	105.5
401.734	80.5
401.958	102.5
402.182	122.5
402.406	153.5
402.63	123.5
402.854	86.5
403.078	70.5
403.302	77.5
403.526	93.5
403.75	98.5
403.974	86.5
404.198	89.5
404.422	78.5
404.645	90.5
404.869	94.5
405.093	96.5
405.317	87.5
405.541	93.5
405.765	99.5
405.988	102.5
406.212	164.5
406.436	217.5
406.66	134.5
406.883	89.5
407.107	92.5
407.331	96.5
407.555	99.5
407.778	87.5
408.002	98.5
408.226	100.5
408.449	85.5
408.673	102.5
408.896	96.5
409.12	92.5
409.344	81.5
409.567	82.5
409.791	102.5
410.014	91.5
410.238	88.5
410.461	102.5
410.685	96.5
410.908	98.5
411.132	89.5
411.355	105.5
411.578	106.5
411.802	74.5
412.025	93.5
412.249	81.5
412.472	91.5
412.695	88.5
412.919	87.5
413.142	80.5
413.365	86.5
413.589	87.5
413.812	88.5
414.035	82.5
414.258	80.5
414.482	84.5
414.705	93.5
414.928	80.5
415.151	99.5
415.374	99.5
415.597	89.5
415.821	90.5
416.044	78.5
416.267	85.5
416.49	79.5
416.713	85.5
416.936	83.5
417.159	87.5
417.382	92.5
417.605	77.5
417.828	101.5
418.051	104.5
418.274	93.5
418.497	79.5
418.72	85.5
418.943	85.5
419.166	93.5
419.389	97.5
419.611	103.5
419.834	80.5
420.057	97.5
420.28	75.5
420.503	86.5
420.726	77.5
420.948	82.5
421.171	96.5
421.394	97.5
421.617	88.5
421.839	88.5
422.062	84.5
422.285	89.5
422.507	94.5
422.73	98.5
422.953	88.5
423.175	86.5
423.398	91.5
423.621	93.5
423.843	81.5
424.066	77.5
424.288	88.5
424.511	96.5
424.733	90.5
424.956	92.5
425.178	98.5
425.401	104.5
425.623	105.5
425.846	94.5
426.068	88.5
426.291	87.5
426.513	76.5
426.735	84.5
426.958	80.5
427.18	95.5
427.402	137.5
427.625	153.5
427.847	129.5
428.069	87.5
428.292	85.5
428.514	89.5
428.736	79.5
428.958	86.5
429.181	93.5
429.403	86.5
429.625	85.5
429.847	74.5
430.069	93.5
430.292	85.5
430.514	78.5
430.736	89.5
430.958	77.5
431.18	83.5
431.402	85.5
431.624	85.5
431.846	83.5
432.068	90.5
432.29	86.5
432.512	91.5
432.734	81.5
432.956	85.5
433.178	93.5
433.4	106.5
433.622	85.5
433.844	97.5
434.066	81.5
434.287	84.5
434.509	99.5
434.731	91.5
434.953	96.5
435.175	96.5
435.397	110.5
435.618	96.5
435.84	93.5
436.062	121.5
436.284	111.5
436.505	107.5
436.727	107.5
436.949	97.5
437.17	100.5
437.392	80.5
437.614	102.5
437.835	106.5
438.057	123.5
438.278	116.5
438.5	105.5
438.721	121.5
438.943	93.5
439.165	81.5
439.386	82.5
439.608	92.5
439.829	99.5
440.05	128.5
440.272	141.5
440.493	93.5
440.715	74.5
440.936	99.5
441.158	89.5
441.379	89.5
441.6	95.5
441.822	94.5
442.043	94.5
442.264	106.5
442.486	90.5
442.707	95.5
442.928	108.5
443.149	117.5
443.371	114.5
443.592	116.5
443.813	99.5
444.034	105.5
444.255	82.5
444.476	96.5
444.698	85.5
444.919	86.5
445.14	138.5
445.361	112.5
445.582	97.5
445.803	135.5
446.024	119.5
446.245	131.5
446.466	107.5
446.687	81.5
446.908	86.5
447.129	79.5
447.35	87.5
447.571	87.5
447.792	87.5
448.013	101.5
448.234	111.5
448.455	99.5
448.675	111.5
448.896	120.5
449.117	109.5
449.338	102.5
449.559	122.5
449.779	116.5
450	91.5
450.221	73.5
450.442	91.5
450.662	102.5
450.883	104.5
451.104	102.5
451.324	75.5
451.545	98.5
451.766	86.5
451.986	92.5
452.207	85.5
452.428	92.5
452.648	104.5
452.869	110.5
453.089	111.5
453.31	110.5
453.53	87.5
453.751	79.5
453.971	100.5
454.192	115.5
454.412	89.5
454.633	73.5
454.853	71.5
455.073	93.5
455.294	93.5
455.514	93.5
455.734	85.5
455.955	72.5
456.175	91.5
456.395	85.5
456.616	95.5
456.836	81.5
457.056	72.5
457.276	90.5
457.497	75.5
457.717	84.5
457.937	77.5
458.157	90.5
458.377	76.5
458.598	77.5
458.818	137.5
459.038	152.5
459.258	119.5
459.478	80.5
459.698	83.5
459.918	90.5
460.138	78.5
460.358	78.5
460.578	81.5
460.798	87.5
461.018	92.5
461.238	92.5
461.458	89.5
461.678	83.5
461.898	89.5
462.118	93.5
462.338	80.5
462.558	94.5
462.777	81.5
462.997	90.5
463.217	87.5
463.437	69.5
463.657	79.5
463.876	91.5
464.096	83.5
464.316	77.5
464.536	82.5
464.755	99.5
464.975	98.5
465.195	166.5
465.414	151.5
465.634	75.5
465.854	76.5
466.073	80.5
466.293	69.5
466.512	80.5
466.732	86.5
466.951	83.5
467.171	88.5
467.391	90.5
467.61	96.5
467.829	91.5
468.049	83.5
468.268	86.5
468.488	79.5
468.707	80.5
468.927	82.5
469.146	89.5
469.365	88.5
469.585	88.5
469.804	80.5
470.023	88.5
470.243	80.5
470.462	86.5
470.681	121.5
470.901	79.5
471.12	85.5
471.339	85.5
471.558	81.5
471.777	80.5
471.997	87.5
472.216	81.5
472.435	95.5
472.654	95.5
472.873	76.5
473.092	83.5
473.311	84.5
473.53	88.5
473.749	90.5
473.968	88.5
474.187	88.5
474.406	98.5
474.625	91.5
474.844	94.5
475.063	85.5
475.282	81.5
475.501	82.5
475.72	94.5
475.939	83.5
476.158	85.5
476.377	89.5
476.596	74.5
476.814	87.5
477.033	90.5
477.252	85.5
477.471	83.5
477.69	84.5
477.908	86.5
478.127	86.5
478.346	85.5
478.564	96.5
478.783	104.5
479.002	85.5
479.22	98.5
479.439	99.5
479.658	96.5
479.876	85.5
480.095	97.5
480.313	89.5
480.532	95.5
480.751	97.5
480.969	83.5
481.188	87.5
481.406	90.5
481.624	92.5
481.843	80.5
482.061	95.5
482.28	88.5
482.498	82.5
482.717	77.5
482.935	86.5
483.153	77.5
483.372	91.5
483.59	75.5
483.808	76.5
484.027	105.5
484.245	80.5
484.463	92.5
484.681	89.5
484.9	101.5
485.118	81.5
485.336	93.5
485.554	80.5
485.772	85.5
485.99	98.5
486.209	103.5
486.427	93.5
486.645	109.5
486.863	102.5
487.081	94.5
487.299	96.5
487.517	87.5
487.735	91.5
487.953	96.5
488.171	104.5
488.389	92.5
488.607	95.5
488.825	94.5
489.043	91.5
489.261	96.5
489.479	87.5
489.696	91.5
489.914	74.5
490.132	85.5
490.35	81.5
490.568	90.5
490.786	71.5
491.003	97.5
491.221	82.5
491.439	99.5
491.657	96.5
491.874	89.5
492.092	75.5
492.31	84.5
492.527	73.5
492.745	78.5
492.963	86.5
493.18	88.5
493.398	93.5
493.615	106.5
493.833	100.5
494.05	87.5
494.268	82.5
494.485	88.5
494.703	88.5
494.92	86.5
495.138	84.5
495.355	101.5
495.573	87.5
495.79	77.5
496.008	81.5
496.225	88.5
496.442	79.5
496.66	98.5
496.877	88.5
497.094	106.5
497.312	84.5
497.529	95.5
497.746	78.5
497.963	80.5
498.181	90.5
498.398	87.5
498.615	124.5
498.832	95.5
499.049	74.5
499.267	75.5
499.484	90.5
499.701	75.5
499.918	89.5
500.135	87.5
500.352	88.5
500.569	95.5
500.786	85.5
501.003	85.5
501.22	84.5
501.437	91.5
501.654	95.5
501.871	95.5
502.088	106.5
502.305	88.5
502.522	95.5
502.739	91.5
502.956	98.5
503.172	78.5
503.389	111.5
503.606	102.5
503.823	79.5
504.04	88.5
504.256	84.5
504.473	80.5
504.69	87.5
504.907	79.5
505.123	78.5
505.34	79.5
505.557	80.5
505.773	89.5
505.99	90.5
506.207	80.5
506.423	80.5
506.64	85.5
506.856	77.5
507.073	94.5
507.289	93.5
507.506	96.5
507.722	112.5
507.939	109.5
508.155	86.5
508.372	91.5
508.588	87.5
508.805	95.5
509.021	81.5
509.238	101.5
509.454	91.5
509.67	97.5
509.887	117.5
510.103	139.5
510.319	203.5
510.536	778.5
510.752	2499.5
510.968	688.5
511.184	148.5
511.401	95.5
511.617	96.5
511.833	95.5
512.049	90.5
512.265	91.5
512.481	93.5
512.698	90.5
512.914	102.5
513.13	91.5
513.346	103.5
513.562	96.5
513.778	93.5
513.994	80.5
514.21	97.5
514.426	111.5
514.642	127.5
514.858	121.5
515.074	167.5
515.29	451.5
515.506	1564.5
515.721	564.5
515.937	139.5
516.153	101.5
516.369	102.5
516.585	94.5
516.801	97.5
517.016	90.5
517.232	91.5
517.448	97.5
517.664	95.5
517.879	90.5
518.095	98.5
518.311	100.5
518.527	95.5
518.742	81.5
518.958	86.5
519.173	105.5
519.389	105.5
519.605	95.5
519.82	76.5
520.036	103.5
520.251	125.5
520.467	89.5
520.682	96.5
520.898	99.5
521.113	120.5
521.329	129.5
521.544	198.5
521.76	564.5
521.975	2573.5
522.19	1547.5
522.406	323.5
522.621	115.5
522.836	93.5
523.052	105.5
523.267	91.5
523.482	89.5
523.698	96.5
523.913	124.5
524.128	107.5
524.343	93.5
524.559	100.5
524.774	99.5
524.989	84.5
525.204	90.5
525.419	99.5
525.634	82.5
525.849	101.5
526.064	85.5
526.28	83.5
526.495	89.5
526.71	79.5
526.925	94.5
527.14	83.5
527.355	93.5
527.57	91.5
527.785	77.5
527.999	92.5
528.214	89.5
528.429	90.5
528.644	117.5
528.859	84.5
529.074	87.5
529.289	114.5
529.503	166.5
529.718	107.5
529.933	83.5
530.148	90.5
530.363	86.5
530.577	86.5
530.792	81.5
531.007	86.5
531.221	96.5
531.436	88.5
531.651	93.5
531.865	96.5
532.08	86.5
532.295	84.5
532.509	71.5
532.724	84.5
532.938	100.5
533.153	91.5
533.367	86.5
533.582	84.5
533.796	96.5
534.011	73.5
534.225	81.5
534.44	81.5
534.654	80.5
534.868	92.5
535.083	102.5
535.297	80.5
535.511	96.5
535.726	101.5
535.94	97.5
536.154	84.5
536.369	85.5
536.583	104.5
