Data from Uncirc_2008_H10_HRD10591_00047.txt Node
Date: Wed Jan 03 10:15:40 EST 2024
User: Yrep
Spectrometer: HR+D1059
Trigger mode: 1
Integration Time (sec): 1.000000E-1
Scans to average: 1
Electric dark correction enabled: true
Nonlinearity correction enabled: false
Boxcar width: 0
XAxis mode: Wavelengths
Number of Pixels in Spectrum: 2048
>>>>>Begin Spectral Data<<<<<
223.165	-11.75
223.4	-11.75
223.635	-11.75
223.869	-16.75
224.104	-20.75
224.338	-33.75
224.573	-11.75
224.808	-10.75
225.042	-4.75
225.277	-5.75
225.511	-2.75
225.746	2.25
225.98	18.25
226.215	5.25
226.449	11.25
226.683	20.25
226.918	28.25
227.152	33.25
227.387	45.25
227.621	42.25
227.856	53.25
228.09	49.25
228.324	57.25
228.559	66.25
228.793	162.25
229.027	446.25
229.262	523.25
229.496	575.25
229.73	804.25
229.964	805.25
230.199	534.25
230.433	477.25
230.667	454.25
230.901	452.25
231.136	428.25
231.37	438.25
231.604	447.25
231.838	437.25
232.072	431.25
232.306	453.25
232.541	458.25
232.775	459.25
233.009	452.25
233.243	463.25
233.477	474.25
233.711	474.25
233.945	502.25
234.179	479.25
234.413	491.25
234.647	506.25
234.881	492.25
235.115	529.25
235.349	534.25
235.583	561.25
235.817	566.25
236.051	594.25
236.285	604.25
236.519	611.25
236.753	682.25
236.987	891.25
237.221	1392.25
237.455	1503.25
237.689	892.25
237.922	727.25
238.156	707.25
238.39	661.25
238.624	654.25
238.858	638.25
239.091	611.25
239.325	658.25
239.559	670.25
239.793	698.25
240.027	750.25
240.26	906.25
240.494	932.25
240.728	938.25
240.961	908.25
241.195	800.25
241.429	755.25
241.662	733.25
241.896	744.25
242.13	750.25
242.363	785.25
242.597	804.25
242.83	794.25
243.064	813.25
243.298	802.25
243.531	810.25
243.765	811.25
243.998	812.25
244.232	825.25
244.465	847.25
244.699	883.25
244.932	880.25
245.166	856.25
245.399	884.25
245.633	870.25
245.866	875.25
246.099	895.25
246.333	920.25
246.566	941.25
246.8	957.25
247.033	985.25
247.266	1007.25
247.5	1097.25
247.733	1110.25
247.966	1130.25
248.2	1099.25
248.433	1136.25
248.666	1212.25
248.899	1306.25
249.133	1430.25
249.366	1370.25
249.599	1255.25
249.832	1142.25
250.066	1160.25
250.299	1181.25
250.532	1268.25
250.765	1446.25
250.998	1681.25
251.231	1617.25
251.465	1429.25
251.698	1359.25
251.931	1353.25
252.164	1355.25
252.397	1380.25
252.63	1440.25
252.863	1533.25
253.096	1622.25
253.329	1712.25
253.562	1592.25
253.795	1520.25
254.028	1516.25
254.261	1598.25
254.494	1775.25
254.727	2100.25
254.96	2196.25
255.193	1903.25
255.426	1679.25
255.659	1558.25
255.892	1544.25
256.124	1474.25
256.357	1432.25
256.59	1444.25
256.823	1443.25
257.056	1475.25
257.289	1457.25
257.521	1499.25
257.754	1498.25
257.987	1499.25
258.22	1466.25
258.452	1473.25
258.685	1512.25
258.918	1517.25
259.151	1568.25
259.383	1650.25
259.616	1652.25
259.849	1727.25
260.081	1866.25
260.314	2021.25
260.547	1995.25
260.779	1807.25
261.012	1743.25
261.244	1712.25
261.477	1633.25
261.71	1635.25
261.942	1723.25
262.175	1740.25
262.407	1657.25
262.64	1593.25
262.872	1608.25
263.105	1616.25
263.337	1640.25
263.57	1615.25
263.802	1623.25
264.035	1606.25
264.267	1661.25
264.499	1658.25
264.732	1651.25
264.964	1666.25
265.197	1676.25
265.429	1660.25
265.661	1677.25
265.894	1700.25
266.126	1707.25
266.358	1697.25
266.591	1726.25
266.823	1792.25
267.055	1848.25
267.287	1773.25
267.52	1815.25
267.752	1842.25
267.984	1811.25
268.216	1850.25
268.448	1858.25
268.681	1982.25
268.913	2100.25
269.145	2297.25
269.377	2316.25
269.609	2248.25
269.841	2260.25
270.073	2341.25
270.306	2620.25
270.538	2812.25
270.77	2604.25
271.002	2482.25
271.234	2434.25
271.466	2573.25
271.698	2731.25
271.93	2717.25
272.162	2741.25
272.394	2635.25
272.626	2459.25
272.858	2322.25
273.09	2236.25
273.322	2226.25
273.553	2177.25
273.785	2176.25
274.017	2182.25
274.249	2173.25
274.481	2224.25
274.713	2237.25
274.945	2249.25
275.176	2234.25
275.408	2245.25
275.64	2246.25
275.872	2171.25
276.104	2249.25
276.335	2221.25
276.567	2348.25
276.799	2541.25
277.031	2719.25
277.262	2848.25
277.494	2710.25
277.726	2571.25
277.957	2437.25
278.189	2338.25
278.421	2353.25
278.652	2365.25
278.884	2331.25
279.115	2347.25
279.347	2324.25
279.579	2366.25
279.81	2360.25
280.042	2302.25
280.273	2305.25
280.505	2377.25
280.736	2380.25
280.968	2352.25
281.199	2381.25
281.431	2396.25
281.662	2394.25
281.894	2439.25
282.125	2492.25
282.356	2620.25
282.588	2758.25
282.819	2645.25
283.051	2507.25
283.282	2468.25
283.513	2528.25
283.745	2582.25
283.976	2584.25
284.207	2598.25
284.439	2566.25
284.67	2578.25
284.901	2600.25
285.132	2528.25
285.364	2556.25
285.595	2558.25
285.826	2615.25
286.057	2675.25
286.288	2550.25
286.52	2628.25
286.751	2648.25
286.982	2719.25
287.213	2700.25
287.444	2684.25
287.675	2784.25
287.906	2819.25
288.138	2923.25
288.369	2928.25
288.6	2839.25
288.831	2793.25
289.062	2757.25
289.293	2792.25
289.524	2780.25
289.755	2720.25
289.986	2745.25
290.217	2738.25
290.448	2778.25
290.679	2799.25
290.91	2772.25
291.141	2750.25
291.371	2722.25
291.602	2749.25
291.833	2757.25
292.064	2804.25
292.295	2782.25
292.526	2814.25
292.757	2735.25
292.987	2771.25
293.218	2754.25
293.449	2776.25
293.68	2780.25
293.91	2801.25
294.141	2812.25
294.372	2749.25
294.603	2796.25
294.833	2841.25
295.064	2842.25
295.295	2852.25
295.525	2818.25
295.756	2906.25
295.987	2963.25
296.217	3205.25
296.448	3111.25
296.679	2940.25
296.909	2956.25
297.14	2915.25
297.37	2999.25
297.601	2939.25
297.831	2976.25
298.062	3004.25
298.292	3028.25
298.523	3078.25
298.753	3095.25
298.984	3051.25
299.214	3072.25
299.445	3093.25
299.675	3090.25
299.905	3078.25
300.136	3081.25
300.366	3096.25
300.597	3121.25
300.827	3228.25
301.057	3328.25
301.288	3380.25
301.518	3336.25
301.748	3279.25
301.979	3313.25
302.209	3334.25
302.439	3354.25
302.669	3306.25
302.9	3292.25
303.13	3240.25
303.36	3283.25
303.59	3314.25
303.82	3264.25
304.051	3340.25
304.281	3322.25
304.511	3249.25
304.741	3256.25
304.971	3277.25
305.201	3202.25
305.431	3210.25
305.661	3233.25
305.891	3245.25
306.121	3248.25
306.352	3311.25
306.582	3232.25
306.812	3200.25
307.042	3253.25
307.272	3280.25
307.502	3265.25
307.731	3256.25
307.961	3255.25
308.191	3259.25
308.421	3280.25
308.651	3297.25
308.881	3303.25
309.111	3305.25
309.341	3352.25
309.571	3437.25
309.8	3494.25
310.03	3537.25
310.26	3605.25
310.49	3513.25
310.72	3679.25
310.949	3786.25
311.179	3756.25
311.409	3585.25
311.639	3616.25
311.868	3581.25
312.098	3615.25
312.328	3765.25
312.557	3906.25
312.787	3907.25
313.017	3804.25
313.246	3763.25
313.476	3685.25
313.706	3747.25
313.935	3778.25
314.165	3925.25
314.394	3948.25
314.624	3811.25
314.853	3749.25
315.083	3772.25
315.312	3765.25
315.542	3690.25
315.771	3602.25
316.001	3648.25
316.23	3686.25
316.46	3592.25
316.689	3758.25
316.919	3708.25
317.148	3727.25
317.377	3764.25
317.607	3740.25
317.836	3673.25
318.065	3629.25
318.295	3643.25
318.524	3646.25
318.753	3660.25
318.983	3646.25
319.212	3647.25
319.441	3699.25
319.67	3739.25
319.9	3678.25
320.129	3654.25
320.358	3681.25
320.587	3788.25
320.816	3808.25
321.046	3763.25
321.275	3774.25
321.504	3862.25
321.733	3837.25
321.962	3917.25
322.191	3988.25
322.42	4051.25
322.649	4134.25
322.878	4175.25
323.108	4262.25
323.337	4551.25
323.566	4715.25
323.795	4949.25
324.024	5562.25
324.253	7398.25
324.482	11097.25
324.71	15315.25
324.939	15606.25
325.168	13140.25
325.397	6569.25
325.626	5252.25
325.855	4863.25
326.084	4719.25
326.313	4760.25
326.542	4945.25
326.77	5595.25
326.999	7053.25
327.228	10448.25
327.457	14446.25
327.686	13586.25
327.914	7255.25
328.143	5764.25
328.372	5423.25
328.6	5174.25
328.829	5159.25
329.058	5324.25
329.287	5316.25
329.515	4954.25
329.744	4722.25
329.972	4704.25
330.201	4842.25
330.43	5106.25
330.658	5388.25
330.887	5761.25
331.115	5314.25
331.344	4945.25
331.572	4828.25
331.801	4965.25
332.03	4990.25
332.258	4891.25
332.486	4918.25
332.715	5000.25
332.943	5133.25
333.172	5260.25
333.4	5388.25
333.629	5399.25
333.857	5522.25
334.085	5451.25
334.314	5341.25
334.542	5274.25
334.771	5280.25
334.999	5216.25
335.227	5173.25
335.455	5130.25
335.684	5011.25
335.912	5012.25
336.14	4899.25
336.369	4920.25
336.597	5002.25
336.825	4908.25
337.053	4837.25
337.281	4666.25
337.51	4738.25
337.738	4736.25
337.966	4637.25
338.194	4636.25
338.422	4615.25
338.65	4502.25
338.878	4522.25
339.106	4523.25
339.334	4507.25
339.562	4402.25
339.79	4318.25
340.018	4365.25
340.246	4366.25
340.474	4425.25
340.702	4418.25
340.93	4293.25
341.158	4397.25
341.386	4382.25
341.614	4367.25
341.842	4268.25
342.07	4321.25
342.298	4312.25
342.526	4263.25
342.754	4270.25
342.981	4317.25
343.209	4392.25
343.437	4629.25
343.665	4863.25
343.893	5121.25
344.12	5101.25
344.348	4925.25
344.576	4780.25
344.804	4684.25
345.031	4629.25
345.259	4607.25
345.487	4486.25
345.714	4308.25
345.942	4228.25
346.17	4213.25
346.397	4210.25
346.625	4161.25
346.853	4165.25
347.08	4156.25
347.308	4255.25
347.535	4289.25
347.763	4299.25
347.99	4269.25
348.218	4296.25
348.445	4374.25
348.673	4192.25
348.9	4183.25
349.128	4093.25
349.355	3992.25
349.583	4052.25
349.81	4036.25
350.037	4000.25
350.265	4034.25
350.492	4093.25
350.72	4027.25
350.947	4106.25
351.174	4155.25
351.402	4221.25
351.629	4163.25
351.856	4180.25
352.083	4257.25
352.311	4290.25
352.538	4212.25
352.765	4208.25
352.992	4163.25
353.22	4118.25
353.447	4072.25
353.674	3998.25
353.901	3935.25
354.128	3940.25
354.355	3886.25
354.583	3965.25
354.81	3934.25
355.037	3954.25
355.264	3950.25
355.491	3888.25
355.718	3924.25
355.945	3941.25
356.172	3943.25
356.399	3920.25
356.626	3924.25
356.853	3911.25
357.08	3928.25
357.307	3904.25
357.534	3963.25
357.761	4008.25
357.988	3997.25
358.215	3950.25
358.441	3984.25
358.668	3995.25
358.895	4040.25
359.122	4062.25
359.349	4122.25
359.576	4311.25
359.802	4462.25
360.029	4651.25
360.256	4558.25
360.483	4361.25
360.709	4175.25
360.936	4147.25
361.163	4152.25
361.39	4216.25
361.616	4252.25
361.843	4138.25
362.07	4208.25
362.296	4219.25
362.523	4140.25
362.749	4234.25
362.976	4109.25
363.203	4009.25
363.429	4011.25
363.656	4075.25
363.882	4074.25
364.109	3995.25
364.335	4040.25
364.562	4085.25
364.788	4029.25
365.015	3992.25
365.241	4018.25
365.468	4069.25
365.694	4124.25
365.92	4090.25
366.147	4045.25
366.373	3998.25
366.599	4002.25
366.826	3915.25
367.052	3995.25
367.278	4060.25
367.505	4049.25
367.731	4136.25
367.957	4052.25
368.184	4066.25
368.41	4137.25
368.636	4245.25
368.862	4257.25
369.089	4182.25
369.315	4133.25
369.541	4139.25
369.767	4156.25
369.993	4148.25
370.219	4124.25
370.445	4177.25
370.672	4162.25
370.898	4134.25
371.124	4246.25
371.35	4345.25
371.576	4259.25
371.802	4237.25
372.028	4218.25
372.254	4308.25
372.48	4372.25
372.706	4353.25
372.932	4438.25
373.158	4420.25
373.384	4345.25
373.61	4345.25
373.835	4374.25
374.061	4370.25
374.287	4378.25
374.513	4505.25
374.739	4670.25
374.965	4644.25
375.191	4766.25
375.416	4607.25
375.642	4558.25
375.868	4460.25
376.094	4419.25
376.319	4334.25
376.545	4384.25
376.771	4333.25
376.997	4245.25
377.222	4305.25
377.448	4271.25
377.674	4286.25
377.899	4334.25
378.125	4283.25
378.35	4283.25
378.576	4218.25
378.802	4267.25
379.027	4268.25
379.253	4250.25
379.478	4211.25
379.704	4225.25
379.929	4321.25
380.155	4258.25
380.38	4243.25
380.606	4342.25
380.831	4273.25
381.057	4301.25
381.282	4350.25
381.507	4353.25
381.733	4383.25
381.958	4425.25
382.184	4474.25
382.409	4496.25
382.634	4560.25
382.86	4573.25
383.085	4548.25
383.31	4630.25
383.535	4770.25
383.761	4796.25
383.986	4856.25
384.211	4959.25
384.436	5066.25
384.662	5101.25
384.887	5217.25
385.112	5181.25
385.337	5195.25
385.562	5199.25
385.787	5279.25
386.013	5276.25
386.238	5308.25
386.463	5237.25
386.688	5228.25
386.913	5133.25
387.138	5171.25
387.363	5059.25
387.588	5069.25
387.813	5117.25
388.038	5128.25
388.263	5170.25
388.488	5192.25
388.713	5170.25
388.938	5120.25
389.163	5110.25
389.387	5172.25
389.612	5030.25
389.837	5124.25
390.062	5059.25
390.287	5056.25
390.512	5042.25
390.736	5076.25
390.961	5315.25
391.186	5285.25
391.411	5428.25
391.636	5523.25
391.86	5758.25
392.085	5764.25
392.31	5769.25
392.534	5503.25
392.759	5490.25
392.984	5390.25
393.208	5311.25
393.433	5330.25
393.658	5264.25
393.882	5307.25
394.107	5378.25
394.331	5448.25
394.556	5382.25
394.78	5507.25
395.005	5492.25
395.229	5523.25
395.454	5717.25
395.678	5801.25
395.903	5828.25
396.127	5860.25
396.352	5677.25
396.576	5407.25
396.801	5438.25
397.025	5543.25
397.249	5661.25
397.474	5804.25
397.698	5868.25
397.922	5977.25
398.147	6051.25
398.371	6115.25
398.595	6178.25
398.82	6515.25
399.044	7106.25
399.268	7972.25
399.492	8970.25
399.717	9601.25
399.941	9296.25
400.165	8722.25
400.389	8007.25
400.613	7267.25
400.837	6780.25
401.062	6643.25
401.286	6522.25
401.51	6410.25
401.734	6413.25
401.958	6631.25
402.182	6691.25
402.406	6877.25
402.63	6941.25
402.854	6993.25
403.078	7108.25
403.302	7225.25
403.526	7267.25
403.75	7370.25
403.974	7364.25
404.198	7315.25
404.422	7437.25
404.645	7459.25
404.869	7295.25
405.093	7378.25
405.317	7564.25
405.541	7466.25
405.765	7272.25
405.988	7167.25
406.212	7376.25
406.436	7474.25
406.66	7674.25
406.883	7673.25
407.107	8303.25
407.331	8870.25
407.555	9412.25
407.778	8957.25
408.002	8276.25
408.226	7850.25
408.449	7737.25
408.673	7608.25
408.896	7790.25
409.12	7904.25
409.344	7441.25
409.567	7115.25
409.791	7184.25
410.014	6952.25
410.238	6916.25
410.461	6929.25
410.685	7030.25
410.908	7049.25
411.132	7299.25
411.355	7343.25
411.578	6966.25
411.802	6743.25
412.025	6661.25
412.249	6729.25
412.472	6672.25
412.695	6617.25
412.919	6472.25
413.142	6380.25
413.365	6345.25
413.589	6491.25
413.812	6281.25
414.035	6255.25
414.258	6288.25
414.482	6360.25
414.705	6463.25
414.928	6340.25
415.151	6376.25
415.374	6403.25
415.597	6350.25
415.821	6247.25
416.044	6221.25
416.267	6175.25
416.49	6227.25
416.713	6188.25
416.936	6274.25
417.159	6239.25
417.382	6348.25
417.605	6432.25
417.828	6447.25
418.051	6522.25
418.274	6524.25
418.497	6405.25
418.72	6508.25
418.943	6483.25
419.166	6841.25
419.389	7229.25
419.611	7152.25
419.834	6863.25
420.057	6756.25
420.28	6597.25
420.503	6330.25
420.726	6409.25
420.948	6587.25
421.171	7056.25
421.394	6980.25
421.617	6480.25
421.839	6492.25
422.062	6634.25
422.285	6731.25
422.507	7417.25
422.73	7936.25
422.953	7303.25
423.175	6956.25
423.398	6948.25
423.621	6938.25
423.843	7308.25
424.066	7196.25
424.288	7144.25
424.511	7373.25
424.733	7842.25
424.956	8222.25
425.178	7824.25
425.401	7952.25
425.623	7816.25
425.846	6821.25
426.068	6567.25
426.291	6518.25
426.513	6528.25
426.735	6674.25
426.958	7082.25
427.18	7941.25
427.402	9026.25
427.625	9095.25
427.847	7551.25
428.069	6757.25
428.292	6378.25
428.514	6124.25
428.736	5948.25
428.958	5983.25
429.181	5824.25
429.403	5824.25
429.625	6035.25
429.847	6349.25
430.069	6848.25
430.292	6388.25
430.514	5837.25
430.736	5794.25
430.958	5776.25
431.18	5709.25
431.402	5688.25
431.624	5581.25
431.846	5658.25
432.068	5729.25
432.29	5775.25
432.512	5685.25
432.734	5836.25
432.956	5793.25
433.178	5822.25
433.4	5793.25
433.622	5746.25
433.844	5748.25
434.066	5785.25
434.287	5852.25
434.509	6131.25
434.731	6369.25
434.953	6438.25
435.175	6606.25
435.397	6619.25
435.618	6613.25
435.84	6965.25
436.062	7819.25
436.284	7796.25
436.505	6544.25
436.727	6200.25
436.949	5933.25
437.17	5842.25
437.392	5872.25
437.614	6027.25
437.835	6428.25
438.057	7326.25
438.278	8005.25
438.5	7996.25
438.721	8847.25
438.943	7642.25
439.165	6416.25
439.386	6253.25
439.608	6282.25
439.829	6405.25
440.05	6702.25
440.272	7125.25
440.493	6525.25
440.715	6186.25
440.936	6153.25
441.158	6185.25
441.379	6267.25
441.6	6608.25
441.822	6798.25
442.043	7301.25
442.264	8169.25
442.486	7869.25
442.707	6917.25
442.928	6624.25
443.149	6885.25
443.371	7170.25
443.592	7773.25
443.813	8792.25
444.034	8678.25
444.255	7590.25
444.476	7293.25
444.698	7537.25
444.919	7682.25
445.14	7355.25
445.361	7266.25
445.582	7408.25
445.803	7968.25
446.024	8692.25
446.245	8322.25
446.466	7502.25
446.687	6402.25
446.908	6192.25
447.129	5787.25
447.35	5711.25
447.571	5617.25
447.792	5549.25
448.013	5602.25
448.234	5908.25
448.455	6571.25
448.675	7778.25
448.896	8227.25
449.117	6810.25
449.338	6988.25
449.559	8267.25
449.779	8549.25
450	6491.25
450.221	5797.25
450.442	5581.25
450.662	5452.25
450.883	5574.25
451.104	5643.25
451.324	5512.25
451.545	5317.25
451.766	5265.25
451.986	5053.25
452.207	5053.25
452.428	5060.25
452.648	5062.25
452.869	5097.25
453.089	5235.25
453.31	5297.25
453.53	5114.25
453.751	5038.25
453.971	5114.25
454.192	5198.25
454.412	4948.25
454.633	4928.25
454.853	4893.25
455.073	4970.25
455.294	5326.25
455.514	5872.25
455.734	5413.25
455.955	4798.25
456.175	4773.25
456.395	4639.25
456.616	4654.25
456.836	4662.25
457.056	4652.25
457.276	4585.25
457.497	4737.25
457.717	4721.25
457.937	4752.25
458.157	4885.25
458.377	4990.25
458.598	5294.25
458.818	5988.25
459.038	6722.25
459.258	6622.25
459.478	5985.25
459.698	5800.25
459.918	5851.25
460.138	6041.25
460.358	6203.25
460.578	6235.25
460.798	6362.25
461.018	6413.25
461.238	6281.25
461.458	6195.25
461.678	6186.25
461.898	6361.25
462.118	6377.25
462.338	6634.25
462.558	6796.25
462.777	7058.25
462.997	7747.25
463.217	8110.25
463.437	7948.25
463.657	7352.25
463.876	7142.25
464.096	7183.25
464.316	7156.25
464.536	7177.25
464.755	7028.25
464.975	6893.25
465.195	7120.25
465.414	7115.25
465.634	6265.25
465.854	5863.25
466.073	5640.25
466.293	5506.25
466.512	5295.25
466.732	5208.25
466.951	5246.25
467.171	5276.25
467.391	5317.25
467.61	5365.25
467.829	5316.25
468.049	5232.25
468.268	5049.25
468.488	4935.25
468.707	4957.25
468.927	5018.25
469.146	5010.25
469.365	5100.25
469.585	5056.25
469.804	5251.25
470.023	5387.25
470.243	5423.25
470.462	5485.25
470.681	5621.25
470.901	5521.25
471.12	5286.25
471.339	5343.25
471.558	5233.25
471.777	5182.25
471.997	5078.25
472.216	5004.25
472.435	4943.25
472.654	4954.25
472.873	4909.25
473.092	4939.25
473.311	4891.25
473.53	4966.25
473.749	5141.25
473.968	5628.25
474.187	6652.25
474.406	6194.25
474.625	5292.25
474.844	5044.25
475.063	5007.25
475.282	5053.25
475.501	5034.25
475.72	5052.25
475.939	5181.25
476.158	5209.25
476.377	5192.25
476.596	5213.25
476.814	5357.25
477.033	5327.25
477.252	5410.25
477.471	5588.25
477.69	5675.25
477.908	5761.25
478.127	5842.25
478.346	6011.25
478.564	6068.25
478.783	6108.25
479.002	6246.25
479.22	6289.25
479.439	6385.25
479.658	6486.25
479.876	6513.25
480.095	6764.25
480.313	7161.25
480.532	7100.25
480.751	6898.25
480.969	6826.25
481.188	6598.25
481.406	6392.25
481.624	6193.25
481.843	6028.25
482.061	6014.25
482.28	5931.25
482.498	5864.25
482.717	5831.25
482.935	5889.25
483.153	5806.25
483.372	5830.25
483.59	5849.25
483.808	5894.25
484.027	5861.25
484.245	5930.25
484.463	5984.25
484.681	6012.25
484.9	5969.25
485.118	6113.25
485.336	6100.25
485.554	6173.25
485.772	6215.25
485.99	6278.25
486.209	6260.25
486.427	6215.25
486.645	6297.25
486.863	6440.25
487.081	6330.25
487.299	6383.25
487.517	6305.25
487.735	6268.25
487.953	6252.25
