Data from Uncirc_2008_H10_HRD10591_00089.txt Node
Date: Wed Jan 03 10:15:48 EST 2024
User: Yrep
Spectrometer: HR+D1059
Trigger mode: 1
Integration Time (sec): 1.000000E-1
Scans to average: 1
Electric dark correction enabled: true
Nonlinearity correction enabled: false
Boxcar width: 0
XAxis mode: Wavelengths
Number of Pixels in Spectrum: 2048
>>>>>Begin Spectral Data<<<<<
223.165	-6.19
223.4	-6.19
223.635	-6.19
223.869	-3.19
224.104	-30.19
224.338	-4.19
224.573	-13.19
224.808	-17.19
225.042	-11.19
225.277	-5.19
225.511	-13.19
225.746	0.81
225.98	11.81
226.215	11.81
226.449	12.81
226.683	16.81
226.918	21.81
227.152	27.81
227.387	38.81
227.621	40.81
227.856	26.81
228.09	44.81
228.324	52.81
228.559	51.81
228.793	54.81
229.027	50.81
229.262	65.81
229.496	69.81
229.73	80.81
229.964	74.81
230.199	74.81
230.433	65.81
230.667	71.81
230.901	80.81
231.136	79.81
231.37	87.81
231.604	90.81
231.838	82.81
232.072	84.81
232.306	84.81
232.541	89.81
232.775	78.81
233.009	70.81
233.243	76.81
233.477	75.81
233.711	93.81
233.945	80.81
234.179	76.81
234.413	80.81
234.647	85.81
234.881	89.81
235.115	86.81
235.349	97.81
235.583	80.81
235.817	90.81
236.051	79.81
236.285	78.81
236.519	80.81
236.753	77.81
236.987	80.81
237.221	84.81
237.455	80.81
237.689	75.81
237.922	83.81
238.156	84.81
238.39	75.81
238.624	77.81
238.858	72.81
239.091	71.81
239.325	81.81
239.559	73.81
239.793	60.81
240.027	84.81
240.26	79.81
240.494	84.81
240.728	68.81
240.961	73.81
241.195	84.81
241.429	66.81
241.662	80.81
241.896	69.81
242.13	71.81
242.363	68.81
242.597	62.81
242.83	71.81
243.064	77.81
243.298	74.81
243.531	74.81
243.765	74.81
243.998	87.81
244.232	92.81
244.465	92.81
244.699	77.81
244.932	82.81
245.166	87.81
245.399	78.81
245.633	80.81
245.866	69.81
246.099	91.81
246.333	78.81
246.566	72.81
246.8	77.81
247.033	77.81
247.266	83.81
247.5	66.81
247.733	87.81
247.966	79.81
248.2	81.81
248.433	71.81
248.666	75.81
248.899	74.81
249.133	92.81
249.366	81.81
249.599	92.81
249.832	79.81
250.066	83.81
250.299	77.81
250.532	83.81
250.765	72.81
250.998	76.81
251.231	77.81
251.465	89.81
251.698	60.81
251.931	78.81
252.164	78.81
252.397	91.81
252.63	85.81
252.863	80.81
253.096	77.81
253.329	88.81
253.562	99.81
253.795	91.81
254.028	96.81
254.261	85.81
254.494	80.81
254.727	87.81
254.96	91.81
255.193	71.81
255.426	91.81
255.659	98.81
255.892	89.81
256.124	82.81
256.357	89.81
256.59	86.81
256.823	82.81
257.056	91.81
257.289	76.81
257.521	92.81
257.754	82.81
257.987	82.81
258.22	85.81
258.452	79.81
258.685	91.81
258.918	68.81
259.151	78.81
259.383	88.81
259.616	83.81
259.849	89.81
260.081	75.81
260.314	92.81
260.547	81.81
260.779	66.81
261.012	85.81
261.244	73.81
261.477	98.81
261.71	75.81
261.942	120.81
262.175	111.81
262.407	75.81
262.64	81.81
262.872	88.81
263.105	85.81
263.337	91.81
263.57	95.81
263.802	88.81
264.035	84.81
264.267	88.81
264.499	83.81
264.732	90.81
264.964	90.81
265.197	84.81
265.429	91.81
265.661	93.81
265.894	87.81
266.126	85.81
266.358	90.81
266.591	81.81
266.823	86.81
267.055	91.81
267.287	85.81
267.52	69.81
267.752	86.81
267.984	78.81
268.216	88.81
268.448	89.81
268.681	78.81
268.913	85.81
269.145	95.81
269.377	88.81
269.609	81.81
269.841	85.81
270.073	89.81
270.306	87.81
270.538	89.81
270.77	85.81
271.002	79.81
271.234	86.81
271.466	82.81
271.698	80.81
271.93	89.81
272.162	92.81
272.394	82.81
272.626	80.81
272.858	99.81
273.09	79.81
273.322	87.81
273.553	76.81
273.785	96.81
274.017	76.81
274.249	67.81
274.481	80.81
274.713	83.81
274.945	91.81
275.176	84.81
275.408	77.81
275.64	82.81
275.872	84.81
276.104	82.81
276.335	96.81
276.567	106.81
276.799	101.81
277.031	95.81
277.262	100.81
277.494	77.81
277.726	85.81
277.957	79.81
278.189	81.81
278.421	88.81
278.652	72.81
278.884	78.81
279.115	85.81
279.347	91.81
279.579	82.81
279.81	98.81
280.042	85.81
280.273	77.81
280.505	69.81
280.736	88.81
280.968	87.81
281.199	89.81
281.431	83.81
281.662	92.81
281.894	95.81
282.125	105.81
282.356	119.81
282.588	131.81
282.819	108.81
283.051	93.81
283.282	99.81
283.513	92.81
283.745	89.81
283.976	95.81
284.207	83.81
284.439	73.81
284.67	82.81
284.901	84.81
285.132	79.81
285.364	88.81
285.595	89.81
285.826	94.81
286.057	81.81
286.288	91.81
286.52	79.81
286.751	90.81
286.982	87.81
287.213	82.81
287.444	84.81
287.675	83.81
287.906	87.81
288.138	85.81
288.369	95.81
288.6	86.81
288.831	81.81
289.062	86.81
289.293	75.81
289.524	78.81
289.755	88.81
289.986	77.81
290.217	98.81
290.448	98.81
290.679	90.81
290.91	86.81
291.141	90.81
291.371	88.81
291.602	86.81
291.833	87.81
292.064	76.81
292.295	93.81
292.526	103.81
292.757	83.81
292.987	89.81
293.218	91.81
293.449	86.81
293.68	89.81
293.91	93.81
294.141	93.81
294.372	73.81
294.603	75.81
294.833	83.81
295.064	82.81
295.295	91.81
295.525	101.81
295.756	108.81
295.987	104.81
296.217	126.81
296.448	122.81
296.679	102.81
296.909	96.81
297.14	90.81
297.37	92.81
297.601	87.81
297.831	82.81
298.062	89.81
298.292	98.81
298.523	93.81
298.753	98.81
298.984	90.81
299.214	98.81
299.445	83.81
299.675	89.81
299.905	89.81
300.136	97.81
300.366	95.81
300.597	104.81
300.827	111.81
301.057	104.81
301.288	115.81
301.518	87.81
301.748	99.81
301.979	106.81
302.209	97.81
302.439	104.81
302.669	95.81
302.9	98.81
303.13	89.81
303.36	110.81
303.59	112.81
303.82	101.81
304.051	97.81
304.281	90.81
304.511	87.81
304.741	95.81
304.971	98.81
305.201	81.81
305.431	79.81
305.661	74.81
305.891	68.81
306.121	85.81
306.352	103.81
306.582	97.81
306.812	100.81
307.042	110.81
307.272	95.81
307.502	85.81
307.731	85.81
307.961	79.81
308.191	89.81
308.421	88.81
308.651	85.81
308.881	97.81
309.111	89.81
309.341	83.81
309.571	102.81
309.8	102.81
310.03	91.81
310.26	98.81
310.49	84.81
310.72	92.81
310.949	103.81
311.179	102.81
311.409	95.81
311.639	91.81
311.868	69.81
312.098	92.81
312.328	103.81
312.557	100.81
312.787	101.81
313.017	109.81
313.246	100.81
313.476	106.81
313.706	85.81
313.935	88.81
314.165	92.81
314.394	97.81
314.624	112.81
314.853	117.81
315.083	87.81
315.312	87.81
315.542	87.81
315.771	89.81
316.001	99.81
316.23	99.81
316.46	86.81
316.689	91.81
316.919	93.81
317.148	114.81
317.377	102.81
317.607	89.81
317.836	96.81
318.065	100.81
318.295	84.81
318.524	85.81
318.753	102.81
318.983	93.81
319.212	93.81
319.441	114.81
319.67	107.81
319.9	88.81
320.129	105.81
320.358	80.81
320.587	84.81
320.816	105.81
321.046	98.81
321.275	94.81
321.504	94.81
321.733	111.81
321.962	77.81
322.191	112.81
322.42	106.81
322.649	111.81
322.878	119.81
323.108	116.81
323.337	97.81
323.566	132.81
323.795	145.81
324.024	180.81
324.253	368.81
324.482	759.81
324.71	1513.81
324.939	1991.81
325.168	755.81
325.397	238.81
325.626	145.81
325.855	143.81
326.084	133.81
326.313	134.81
326.542	152.81
326.77	196.81
326.999	435.81
327.228	876.81
327.457	1538.81
327.686	1239.81
327.914	336.81
328.143	172.81
328.372	121.81
328.6	124.81
328.829	123.81
329.058	116.81
329.287	115.81
329.515	93.81
329.744	95.81
329.972	103.81
330.201	112.81
330.43	108.81
330.658	128.81
330.887	130.81
331.115	116.81
331.344	91.81
331.572	112.81
331.801	100.81
332.03	106.81
332.258	96.81
332.486	99.81
332.715	100.81
332.943	91.81
333.172	102.81
333.4	94.81
333.629	112.81
333.857	108.81
334.085	106.81
334.314	91.81
334.542	93.81
334.771	99.81
334.999	94.81
335.227	92.81
335.455	85.81
335.684	101.81
335.912	90.81
336.14	97.81
336.369	99.81
336.597	105.81
336.825	109.81
337.053	92.81
337.281	81.81
337.51	76.81
337.738	89.81
337.966	83.81
338.194	102.81
338.422	90.81
338.65	81.81
338.878	108.81
339.106	85.81
339.334	95.81
339.562	89.81
339.79	98.81
340.018	80.81
340.246	93.81
340.474	96.81
340.702	89.81
340.93	91.81
341.158	98.81
341.386	92.81
341.614	96.81
341.842	90.81
342.07	94.81
342.298	92.81
342.526	100.81
342.754	88.81
342.981	111.81
343.209	89.81
343.437	96.81
343.665	104.81
343.893	81.81
344.12	92.81
344.348	107.81
344.576	84.81
344.804	90.81
345.031	105.81
345.259	100.81
345.487	96.81
345.714	84.81
345.942	90.81
346.17	91.81
346.397	93.81
346.625	92.81
346.853	98.81
347.08	98.81
347.308	88.81
347.535	91.81
347.763	106.81
347.99	107.81
348.218	103.81
348.445	101.81
348.673	105.81
348.9	100.81
349.128	101.81
349.355	104.81
349.583	98.81
349.81	107.81
350.037	89.81
350.265	89.81
350.492	96.81
350.72	96.81
350.947	91.81
351.174	105.81
351.402	114.81
351.629	103.81
351.856	105.81
352.083	96.81
352.311	97.81
352.538	102.81
352.765	98.81
352.992	129.81
353.22	113.81
353.447	112.81
353.674	101.81
353.901	88.81
354.128	106.81
354.355	106.81
354.583	105.81
354.81	100.81
355.037	97.81
355.264	101.81
355.491	91.81
355.718	91.81
355.945	101.81
356.172	107.81
356.399	105.81
356.626	105.81
356.853	106.81
357.08	88.81
357.307	85.81
357.534	89.81
357.761	99.81
357.988	102.81
358.215	95.81
358.441	84.81
358.668	88.81
358.895	98.81
359.122	90.81
359.349	84.81
359.576	85.81
359.802	95.81
360.029	113.81
360.256	107.81
360.483	99.81
360.709	101.81
360.936	85.81
361.163	93.81
361.39	112.81
361.616	93.81
361.843	96.81
362.07	94.81
362.296	85.81
362.523	94.81
362.749	82.81
362.976	103.81
363.203	99.81
363.429	103.81
363.656	79.81
363.882	94.81
364.109	92.81
364.335	94.81
364.562	81.81
364.788	91.81
365.015	99.81
365.241	101.81
365.468	101.81
365.694	109.81
365.92	95.81
366.147	96.81
366.373	77.81
366.599	95.81
366.826	92.81
367.052	78.81
367.278	94.81
367.505	84.81
367.731	96.81
367.957	103.81
368.184	99.81
368.41	100.81
368.636	104.81
368.862	112.81
369.089	111.81
369.315	90.81
369.541	85.81
369.767	92.81
369.993	85.81
370.219	97.81
370.445	87.81
370.672	71.81
370.898	87.81
371.124	85.81
371.35	87.81
371.576	67.81
371.802	100.81
372.028	78.81
372.254	88.81
372.48	88.81
372.706	93.81
372.932	83.81
373.158	89.81
373.384	94.81
373.61	93.81
373.835	88.81
374.061	90.81
374.287	72.81
374.513	102.81
374.739	100.81
374.965	90.81
375.191	86.81
375.416	79.81
375.642	90.81
375.868	98.81
376.094	88.81
376.319	92.81
376.545	94.81
376.771	90.81
376.997	79.81
377.222	90.81
377.448	90.81
377.674	100.81
377.899	101.81
378.125	68.81
378.35	82.81
378.576	92.81
378.802	86.81
379.027	93.81
379.253	87.81
379.478	96.81
379.704	103.81
379.929	87.81
380.155	90.81
380.38	87.81
380.606	90.81
380.831	87.81
381.057	101.81
381.282	105.81
381.507	93.81
381.733	102.81
381.958	96.81
382.184	105.81
382.409	94.81
382.634	102.81
382.86	112.81
383.085	96.81
383.31	90.81
383.535	95.81
383.761	99.81
383.986	98.81
384.211	90.81
384.436	88.81
384.662	91.81
384.887	103.81
385.112	100.81
385.337	96.81
385.562	109.81
385.787	118.81
386.013	125.81
386.238	103.81
386.463	96.81
386.688	92.81
386.913	108.81
387.138	106.81
387.363	96.81
387.588	91.81
387.813	96.81
388.038	107.81
388.263	104.81
388.488	101.81
388.713	96.81
388.938	88.81
389.163	104.81
389.387	91.81
389.612	91.81
389.837	90.81
390.062	95.81
390.287	90.81
390.512	97.81
390.736	99.81
390.961	84.81
391.186	85.81
391.411	91.81
391.636	94.81
391.86	90.81
392.085	106.81
392.31	75.81
392.534	80.81
392.759	85.81
392.984	89.81
393.208	93.81
393.433	92.81
393.658	83.81
393.882	86.81
394.107	85.81
394.331	92.81
394.556	86.81
394.78	96.81
395.005	92.81
395.229	85.81
395.454	92.81
395.678	89.81
395.903	91.81
396.127	99.81
396.352	82.81
396.576	86.81
396.801	93.81
397.025	88.81
397.249	93.81
397.474	95.81
397.698	77.81
397.922	85.81
398.147	98.81
398.371	86.81
398.595	79.81
398.82	78.81
399.044	88.81
399.268	88.81
399.492	97.81
399.717	81.81
399.941	96.81
400.165	101.81
400.389	104.81
400.613	89.81
400.837	83.81
401.062	103.81
401.286	78.81
401.51	88.81
401.734	90.81
401.958	91.81
402.182	117.81
402.406	148.81
402.63	114.81
402.854	88.81
403.078	88.81
403.302	90.81
403.526	98.81
403.75	82.81
403.974	89.81
404.198	89.81
404.422	88.81
404.645	90.81
404.869	88.81
405.093	101.81
405.317	113.81
405.541	96.81
405.765	94.81
405.988	116.81
406.212	146.81
406.436	201.81
406.66	133.81
406.883	96.81
407.107	99.81
407.331	85.81
407.555	102.81
407.778	101.81
408.002	99.81
408.226	75.81
408.449	90.81
408.673	94.81
408.896	104.81
409.12	107.81
409.344	96.81
409.567	91.81
409.791	91.81
410.014	90.81
410.238	83.81
410.461	97.81
410.685	96.81
410.908	113.81
411.132	106.81
411.355	91.81
411.578	102.81
411.802	77.81
412.025	78.81
412.249	86.81
412.472	96.81
412.695	107.81
412.919	89.81
413.142	78.81
413.365	84.81
413.589	79.81
413.812	87.81
414.035	102.81
414.258	89.81
414.482	111.81
414.705	92.81
414.928	92.81
415.151	87.81
415.374	96.81
415.597	84.81
415.821	82.81
416.044	69.81
416.267	91.81
416.49	96.81
416.713	99.81
416.936	85.81
417.159	87.81
417.382	103.81
417.605	89.81
417.828	108.81
418.051	87.81
418.274	87.81
418.497	100.81
418.72	91.81
418.943	85.81
419.166	88.81
419.389	86.81
419.611	91.81
419.834	82.81
420.057	97.81
420.28	92.81
420.503	96.81
420.726	96.81
420.948	91.81
421.171	85.81
421.394	92.81
421.617	93.81
421.839	66.81
422.062	104.81
422.285	90.81
422.507	77.81
422.73	89.81
422.953	89.81
423.175	83.81
423.398	95.81
423.621	86.81
423.843	83.81
424.066	92.81
424.288	101.81
424.511	86.81
424.733	98.81
424.956	104.81
425.178	90.81
425.401	92.81
425.623	122.81
425.846	99.81
426.068	89.81
426.291	90.81
426.513	88.81
426.735	85.81
426.958	84.81
427.18	111.81
427.402	117.81
427.625	155.81
427.847	107.81
428.069	91.81
428.292	95.81
428.514	91.81
428.736	90.81
428.958	90.81
429.181	82.81
429.403	88.81
429.625	88.81
429.847	76.81
430.069	105.81
430.292	80.81
430.514	80.81
430.736	73.81
430.958	80.81
431.18	77.81
431.402	85.81
431.624	84.81
431.846	79.81
432.068	91.81
432.29	82.81
432.512	81.81
432.734	85.81
432.956	90.81
433.178	92.81
433.4	90.81
433.622	83.81
433.844	93.81
434.066	105.81
434.287	77.81
434.509	92.81
434.731	81.81
434.953	91.81
435.175	92.81
435.397	108.81
435.618	83.81
435.84	102.81
436.062	103.81
436.284	107.81
436.505	103.81
436.727	106.81
436.949	92.81
437.17	92.81
437.392	88.81
437.614	83.81
437.835	106.81
438.057	107.81
438.278	101.81
438.5	92.81
438.721	107.81
438.943	106.81
439.165	95.81
439.386	92.81
439.608	100.81
439.829	96.81
440.05	124.81
440.272	137.81
440.493	88.81
440.715	95.81
440.936	97.81
441.158	88.81
441.379	86.81
441.6	83.81
441.822	85.81
442.043	103.81
442.264	87.81
442.486	105.81
442.707	107.81
442.928	90.81
443.149	141.81
443.371	127.81
443.592	117.81
443.813	109.81
444.034	100.81
444.255	92.81
444.476	90.81
444.698	102.81
444.919	82.81
445.14	133.81
445.361	122.81
445.582	109.81
445.803	124.81
446.024	116.81
446.245	116.81
446.466	107.81
446.687	81.81
446.908	92.81
447.129	87.81
447.35	81.81
447.571	89.81
447.792	89.81
448.013	87.81
448.234	82.81
448.455	104.81
448.675	106.81
448.896	124.81
449.117	98.81
449.338	118.81
449.559	100.81
449.779	127.81
450	97.81
450.221	89.81
450.442	87.81
450.662	82.81
450.883	98.81
451.104	110.81
451.324	89.81
451.545	82.81
451.766	93.81
451.986	90.81
452.207	82.81
452.428	82.81
452.648	103.81
452.869	115.81
453.089	113.81
453.31	120.81
453.53	96.81
453.751	89.81
453.971	99.81
454.192	103.81
454.412	97.81
454.633	83.81
454.853	78.81
455.073	79.81
455.294	83.81
455.514	89.81
455.734	94.81
455.955	90.81
456.175	97.81
456.395	95.81
456.616	83.81
456.836	88.81
457.056	80.81
457.276	91.81
457.497	93.81
457.717	74.81
457.937	95.81
458.157	100.81
458.377	79.81
458.598	103.81
458.818	132.81
459.038	153.81
459.258	97.81
459.478	83.81
459.698	92.81
459.918	86.81
460.138	80.81
460.358	95.81
460.578	92.81
460.798	84.81
461.018	84.81
461.238	80.81
461.458	94.81
461.678	75.81
461.898	72.81
462.118	82.81
462.338	79.81
462.558	92.81
462.777	89.81
462.997	93.81
463.217	96.81
463.437	91.81
463.657	91.81
463.876	79.81
464.096	95.81
464.316	84.81
464.536	88.81
464.755	101.81
464.975	110.81
465.195	160.81
465.414	146.81
465.634	99.81
465.854	98.81
466.073	93.81
466.293	92.81
466.512	96.81
466.732	93.81
466.951	76.81
467.171	100.81
467.391	77.81
467.61	95.81
467.829	88.81
468.049	92.81
468.268	88.81
468.488	67.81
468.707	72.81
468.927	75.81
469.146	91.81
469.365	94.81
469.585	84.81
469.804	74.81
470.023	91.81
470.243	86.81
470.462	96.81
470.681	114.81
470.901	93.81
471.12	76.81
471.339	75.81
471.558	84.81
471.777	72.81
471.997	89.81
472.216	90.81
472.435	96.81
472.654	88.81
472.873	91.81
473.092	90.81
473.311	90.81
473.53	96.81
473.749	94.81
473.968	81.81
474.187	96.81
474.406	93.81
474.625	83.81
474.844	91.81
475.063	94.81
475.282	88.81
475.501	98.81
475.72	97.81
475.939	75.81
476.158	83.81
476.377	89.81
476.596	79.81
476.814	82.81
477.033	77.81
477.252	96.81
477.471	90.81
477.69	91.81
477.908	76.81
478.127	91.81
478.346	103.81
478.564	99.81
478.783	96.81
479.002	97.81
479.22	72.81
479.439	108.81
479.658	103.81
479.876	104.81
480.095	95.81
480.313	89.81
480.532	101.81
480.751	85.81
480.969	81.81
481.188	88.81
481.406	90.81
481.624	93.81
481.843	95.81
482.061	76.81
482.28	81.81
482.498	87.81
482.717	90.81
482.935	87.81
483.153	92.81
483.372	90.81
483.59	82.81
483.808	90.81
484.027	84.81
484.245	111.81
484.463	97.81
484.681	92.81
484.9	83.81
485.118	97.81
485.336	100.81
485.554	103.81
485.772	85.81
485.99	103.81
486.209	105.81
486.427	99.81
486.645	100.81
486.863	98.81
487.081	99.81
487.299	98.81
487.517	85.81
487.735	86.81
487.953	84.81
488.171	88.81
488.389	100.81
488.607	102.81
488.825	90.81
489.043	99.81
489.261	89.81
489.479	73.81
489.696	91.81
489.914	84.81
490.132	97.81
490.35	78.81
490.568	93.81
490.786	76.81
491.003	107.81
491.221	91.81
491.439	89.81
491.657	96.81
491.874	92.81
492.092	93.81
492.31	109.81
492.527	99.81
492.745	104.81
492.963	98.81
493.18	87.81
493.398	100.81
493.615	103.81
493.833	90.81
494.05	93.81
494.268	91.81
494.485	90.81
494.703	88.81
494.92	98.81
495.138	99.81
495.355	89.81
495.573	95.81
495.79	69.81
496.008	104.81
496.225	87.81
496.442	92.81
496.66	99.81
496.877	89.81
497.094	91.81
497.312	93.81
497.529	92.81
497.746	99.81
497.963	96.81
498.181	86.81
498.398	101.81
498.615	106.81
498.832	109.81
499.049	94.81
499.267	88.81
499.484	92.81
499.701	98.81
499.918	100.81
500.135	81.81
500.352	93.81
500.569	90.81
500.786	80.81
501.003	88.81
501.22	85.81
501.437	93.81
501.654	99.81
501.871	85.81
502.088	102.81
502.305	83.81
502.522	90.81
502.739	88.81
502.956	94.81
503.172	84.81
503.389	97.81
503.606	106.81
503.823	88.81
504.04	105.81
504.256	84.81
504.473	85.81
504.69	98.81
504.907	97.81
505.123	100.81
505.34	83.81
505.557	105.81
505.773	94.81
505.99	80.81
506.207	83.81
506.423	96.81
506.64	90.81
506.856	95.81
507.073	84.81
507.289	90.81
507.506	106.81
507.722	114.81
507.939	109.81
508.155	86.81
508.372	94.81
508.588	103.81
508.805	86.81
509.021	85.81
509.238	97.81
509.454	103.81
509.67	103.81
509.887	104.81
510.103	115.81
510.319	200.81
510.536	721.81
510.752	2301.81
510.968	646.81
511.184	147.81
511.401	104.81
511.617	99.81
511.833	87.81
512.049	110.81
512.265	98.81
512.481	98.81
512.698	98.81
512.914	93.81
513.13	93.81
513.346	98.81
513.562	106.81
513.778	84.81
513.994	87.81
514.21	112.81
514.426	112.81
514.642	131.81
514.858	127.81
515.074	157.81
515.29	409.81
515.506	1359.81
515.721	510.81
