Data from Uncirc_2008_H10_HRD10591_00087.txt Node
Date: Wed Jan 03 10:15:48 EST 2024
User: Yrep
Spectrometer: HR+D1059
Trigger mode: 1
Integration Time (sec): 1.000000E-1
Scans to average: 1
Electric dark correction enabled: true
Nonlinearity correction enabled: false
Boxcar width: 0
XAxis mode: Wavelengths
Number of Pixels in Spectrum: 2048
>>>>>Begin Spectral Data<<<<<
223.165	-18.56
223.4	-18.56
223.635	-18.56
223.869	-17.56
224.104	-25.56
224.338	-6.56
224.573	-13.56
224.808	-19.56
225.042	-5.56
225.277	-2.56
225.511	-4.56
225.746	-5.56
225.98	-2.56
226.215	11.44
226.449	15.44
226.683	19.44
226.918	28.44
227.152	47.44
227.387	31.44
227.621	39.44
227.856	62.44
228.09	51.44
228.324	45.44
228.559	66.44
228.793	63.44
229.027	63.44
229.262	58.44
229.496	86.44
229.73	81.44
229.964	88.44
230.199	68.44
230.433	86.44
230.667	72.44
230.901	95.44
231.136	82.44
231.37	81.44
231.604	71.44
231.838	76.44
232.072	76.44
232.306	71.44
232.541	73.44
232.775	69.44
233.009	86.44
233.243	95.44
233.477	85.44
233.711	87.44
233.945	90.44
234.179	75.44
234.413	82.44
234.647	90.44
234.881	87.44
235.115	84.44
235.349	88.44
235.583	70.44
235.817	82.44
236.051	71.44
236.285	77.44
236.519	71.44
236.753	82.44
236.987	74.44
237.221	66.44
237.455	89.44
237.689	79.44
237.922	82.44
238.156	93.44
238.39	75.44
238.624	78.44
238.858	87.44
239.091	79.44
239.325	70.44
239.559	76.44
239.793	74.44
240.027	97.44
240.26	86.44
240.494	100.44
240.728	80.44
240.961	99.44
241.195	84.44
241.429	82.44
241.662	78.44
241.896	70.44
242.13	79.44
242.363	79.44
242.597	82.44
242.83	74.44
243.064	82.44
243.298	73.44
243.531	83.44
243.765	81.44
243.998	88.44
244.232	89.44
244.465	89.44
244.699	84.44
244.932	79.44
245.166	88.44
245.399	82.44
245.633	86.44
245.866	81.44
246.099	95.44
246.333	75.44
246.566	86.44
246.8	91.44
247.033	81.44
247.266	85.44
247.5	91.44
247.733	89.44
247.966	80.44
248.2	93.44
248.433	99.44
248.666	90.44
248.899	86.44
249.133	89.44
249.366	92.44
249.599	79.44
249.832	87.44
250.066	73.44
250.299	75.44
250.532	91.44
250.765	79.44
250.998	70.44
251.231	65.44
251.465	78.44
251.698	69.44
251.931	94.44
252.164	77.44
252.397	69.44
252.63	93.44
252.863	85.44
253.096	77.44
253.329	90.44
253.562	89.44
253.795	76.44
254.028	92.44
254.261	85.44
254.494	93.44
254.727	83.44
254.96	88.44
255.193	84.44
255.426	85.44
255.659	72.44
255.892	84.44
256.124	82.44
256.357	96.44
256.59	68.44
256.823	82.44
257.056	82.44
257.289	75.44
257.521	77.44
257.754	83.44
257.987	74.44
258.22	97.44
258.452	90.44
258.685	89.44
258.918	75.44
259.151	82.44
259.383	79.44
259.616	79.44
259.849	87.44
260.081	74.44
260.314	63.44
260.547	86.44
260.779	91.44
261.012	79.44
261.244	86.44
261.477	89.44
261.71	78.44
261.942	110.44
262.175	109.44
262.407	87.44
262.64	76.44
262.872	90.44
263.105	88.44
263.337	75.44
263.57	87.44
263.802	82.44
264.035	90.44
264.267	83.44
264.499	96.44
264.732	78.44
264.964	101.44
265.197	94.44
265.429	87.44
265.661	94.44
265.894	83.44
266.126	93.44
266.358	79.44
266.591	78.44
266.823	98.44
267.055	91.44
267.287	92.44
267.52	79.44
267.752	85.44
267.984	85.44
268.216	87.44
268.448	69.44
268.681	84.44
268.913	102.44
269.145	83.44
269.377	85.44
269.609	74.44
269.841	94.44
270.073	96.44
270.306	90.44
270.538	82.44
270.77	90.44
271.002	82.44
271.234	98.44
271.466	95.44
271.698	75.44
271.93	77.44
272.162	94.44
272.394	81.44
272.626	81.44
272.858	84.44
273.09	86.44
273.322	73.44
273.553	90.44
273.785	95.44
274.017	90.44
274.249	84.44
274.481	82.44
274.713	87.44
274.945	86.44
275.176	81.44
275.408	102.44
275.64	87.44
275.872	84.44
276.104	86.44
276.335	99.44
276.567	108.44
276.799	118.44
277.031	105.44
277.262	92.44
277.494	93.44
277.726	83.44
277.957	89.44
278.189	77.44
278.421	105.44
278.652	95.44
278.884	84.44
279.115	87.44
279.347	76.44
279.579	84.44
279.81	92.44
280.042	88.44
280.273	74.44
280.505	94.44
280.736	85.44
280.968	82.44
281.199	90.44
281.431	93.44
281.662	90.44
281.894	91.44
282.125	105.44
282.356	122.44
282.588	141.44
282.819	114.44
283.051	88.44
283.282	90.44
283.513	104.44
283.745	76.44
283.976	81.44
284.207	94.44
284.439	93.44
284.67	93.44
284.901	87.44
285.132	90.44
285.364	83.44
285.595	81.44
285.826	93.44
286.057	98.44
286.288	88.44
286.52	100.44
286.751	93.44
286.982	85.44
287.213	86.44
287.444	69.44
287.675	91.44
287.906	86.44
288.138	108.44
288.369	96.44
288.6	94.44
288.831	91.44
289.062	86.44
289.293	90.44
289.524	85.44
289.755	84.44
289.986	112.44
290.217	94.44
290.448	86.44
290.679	91.44
290.91	79.44
291.141	95.44
291.371	100.44
291.602	84.44
291.833	84.44
292.064	91.44
292.295	113.44
292.526	85.44
292.757	101.44
292.987	91.44
293.218	91.44
293.449	101.44
293.68	94.44
293.91	99.44
294.141	89.44
294.372	96.44
294.603	84.44
294.833	95.44
295.064	91.44
295.295	119.44
295.525	94.44
295.756	106.44
295.987	113.44
296.217	141.44
296.448	122.44
296.679	108.44
296.909	102.44
297.14	87.44
297.37	90.44
297.601	78.44
297.831	73.44
298.062	90.44
298.292	99.44
298.523	95.44
298.753	92.44
298.984	87.44
299.214	97.44
299.445	79.44
299.675	98.44
299.905	94.44
300.136	77.44
300.366	91.44
300.597	89.44
300.827	92.44
301.057	98.44
301.288	104.44
301.518	73.44
301.748	89.44
301.979	107.44
302.209	96.44
302.439	94.44
302.669	95.44
302.9	91.44
303.13	109.44
303.36	107.44
303.59	104.44
303.82	98.44
304.051	99.44
304.281	108.44
304.511	89.44
304.741	84.44
304.971	93.44
305.201	101.44
305.431	92.44
305.661	92.44
305.891	100.44
306.121	92.44
306.352	102.44
306.582	95.44
306.812	91.44
307.042	83.44
307.272	102.44
307.502	93.44
307.731	74.44
307.961	77.44
308.191	97.44
308.421	73.44
308.651	82.44
308.881	119.44
309.111	104.44
309.341	100.44
309.571	102.44
309.8	82.44
310.03	99.44
310.26	97.44
310.49	87.44
310.72	105.44
310.949	101.44
311.179	96.44
311.409	81.44
311.639	98.44
311.868	111.44
312.098	85.44
312.328	88.44
312.557	96.44
312.787	107.44
313.017	91.44
313.246	77.44
313.476	98.44
313.706	103.44
313.935	98.44
314.165	92.44
314.394	101.44
314.624	107.44
314.853	104.44
315.083	88.44
315.312	91.44
315.542	85.44
315.771	111.44
316.001	97.44
316.23	85.44
316.46	83.44
316.689	87.44
316.919	86.44
317.148	94.44
317.377	95.44
317.607	94.44
317.836	102.44
318.065	92.44
318.295	96.44
318.524	92.44
318.753	99.44
318.983	95.44
319.212	95.44
319.441	115.44
319.67	98.44
319.9	101.44
320.129	90.44
320.358	93.44
320.587	89.44
320.816	106.44
321.046	109.44
321.275	100.44
321.504	97.44
321.733	87.44
321.962	100.44
322.191	99.44
322.42	103.44
322.649	93.44
322.878	105.44
323.108	110.44
323.337	116.44
323.566	143.44
323.795	150.44
324.024	211.44
324.253	392.44
324.482	787.44
324.71	1578.44
324.939	2087.44
325.168	788.44
325.397	236.44
325.626	148.44
325.855	131.44
326.084	124.44
326.313	122.44
326.542	158.44
326.77	230.44
326.999	432.44
327.228	913.44
327.457	1609.44
327.686	1239.44
327.914	357.44
328.143	170.44
328.372	141.44
328.6	116.44
328.829	109.44
329.058	114.44
329.287	110.44
329.515	112.44
329.744	90.44
329.972	101.44
330.201	101.44
330.43	112.44
330.658	121.44
330.887	118.44
331.115	127.44
331.344	101.44
331.572	106.44
331.801	108.44
332.03	97.44
332.258	97.44
332.486	85.44
332.715	102.44
332.943	96.44
333.172	99.44
333.4	93.44
333.629	116.44
333.857	109.44
334.085	106.44
334.314	106.44
334.542	95.44
334.771	82.44
334.999	110.44
335.227	91.44
335.455	89.44
335.684	85.44
335.912	99.44
336.14	106.44
336.369	99.44
336.597	94.44
336.825	101.44
337.053	109.44
337.281	94.44
337.51	80.44
337.738	87.44
337.966	93.44
338.194	110.44
338.422	115.44
338.65	100.44
338.878	99.44
339.106	101.44
339.334	97.44
339.562	93.44
339.79	91.44
340.018	85.44
340.246	109.44
340.474	113.44
340.702	93.44
340.93	87.44
341.158	88.44
341.386	102.44
341.614	95.44
341.842	93.44
342.07	106.44
342.298	97.44
342.526	96.44
342.754	91.44
342.981	95.44
343.209	102.44
343.437	97.44
343.665	83.44
343.893	94.44
344.12	94.44
344.348	94.44
344.576	88.44
344.804	99.44
345.031	76.44
345.259	101.44
345.487	93.44
345.714	88.44
345.942	90.44
346.17	109.44
346.397	92.44
346.625	88.44
346.853	107.44
347.08	91.44
347.308	96.44
347.535	92.44
347.763	106.44
347.99	103.44
348.218	99.44
348.445	110.44
348.673	107.44
348.9	99.44
349.128	108.44
349.355	102.44
349.583	92.44
349.81	105.44
350.037	112.44
350.265	103.44
350.492	109.44
350.72	95.44
350.947	110.44
351.174	110.44
351.402	109.44
351.629	107.44
351.856	110.44
352.083	112.44
352.311	110.44
352.538	113.44
352.765	121.44
352.992	117.44
353.22	111.44
353.447	108.44
353.674	97.44
353.901	111.44
354.128	108.44
354.355	109.44
354.583	91.44
354.81	86.44
355.037	90.44
355.264	101.44
355.491	94.44
355.718	90.44
355.945	95.44
356.172	93.44
356.399	110.44
356.626	97.44
356.853	87.44
357.08	96.44
357.307	97.44
357.534	93.44
357.761	100.44
357.988	97.44
358.215	93.44
358.441	89.44
358.668	90.44
358.895	92.44
359.122	104.44
359.349	88.44
359.576	87.44
359.802	104.44
360.029	109.44
360.256	113.44
360.483	100.44
360.709	101.44
360.936	94.44
361.163	111.44
361.39	98.44
361.616	118.44
361.843	93.44
362.07	98.44
362.296	106.44
362.523	82.44
362.749	95.44
362.976	97.44
363.203	101.44
363.429	95.44
363.656	84.44
363.882	95.44
364.109	94.44
364.335	97.44
364.562	75.44
364.788	90.44
365.015	102.44
365.241	93.44
365.468	104.44
365.694	99.44
365.92	94.44
366.147	94.44
366.373	97.44
366.599	101.44
366.826	103.44
367.052	86.44
367.278	83.44
367.505	90.44
367.731	94.44
367.957	102.44
368.184	84.44
368.41	98.44
368.636	110.44
368.862	127.44
369.089	110.44
369.315	95.44
369.541	98.44
369.767	93.44
369.993	104.44
370.219	86.44
370.445	93.44
370.672	96.44
370.898	89.44
371.124	90.44
371.35	103.44
371.576	82.44
371.802	87.44
372.028	87.44
372.254	91.44
372.48	101.44
372.706	79.44
372.932	86.44
373.158	93.44
373.384	104.44
373.61	92.44
373.835	91.44
374.061	93.44
374.287	90.44
374.513	94.44
374.739	86.44
374.965	96.44
375.191	92.44
375.416	98.44
375.642	101.44
375.868	87.44
376.094	89.44
376.319	100.44
376.545	101.44
376.771	84.44
376.997	89.44
377.222	86.44
377.448	101.44
377.674	94.44
377.899	87.44
378.125	102.44
378.35	91.44
378.576	105.44
378.802	90.44
379.027	93.44
379.253	97.44
379.478	96.44
379.704	74.44
379.929	94.44
380.155	98.44
380.38	92.44
380.606	97.44
380.831	93.44
381.057	97.44
381.282	90.44
381.507	103.44
381.733	77.44
381.958	103.44
382.184	105.44
382.409	110.44
382.634	97.44
382.86	105.44
383.085	103.44
383.31	99.44
383.535	115.44
383.761	112.44
383.986	94.44
384.211	99.44
384.436	94.44
384.662	94.44
384.887	99.44
385.112	107.44
385.337	95.44
385.562	113.44
385.787	107.44
386.013	111.44
386.238	99.44
386.463	111.44
386.688	111.44
386.913	102.44
387.138	109.44
387.363	121.44
387.588	109.44
387.813	105.44
388.038	97.44
388.263	100.44
388.488	103.44
388.713	101.44
388.938	107.44
389.163	102.44
389.387	91.44
389.612	89.44
389.837	86.44
390.062	89.44
390.287	96.44
390.512	101.44
390.736	95.44
390.961	90.44
391.186	96.44
391.411	104.44
391.636	85.44
391.86	93.44
392.085	82.44
392.31	100.44
392.534	85.44
392.759	73.44
392.984	93.44
393.208	90.44
393.433	79.44
393.658	87.44
393.882	89.44
394.107	93.44
394.331	78.44
394.556	98.44
394.78	81.44
395.005	109.44
395.229	98.44
395.454	84.44
395.678	94.44
395.903	97.44
396.127	101.44
396.352	98.44
396.576	92.44
396.801	89.44
397.025	77.44
397.249	102.44
397.474	102.44
397.698	83.44
397.922	90.44
398.147	96.44
398.371	82.44
398.595	95.44
398.82	95.44
399.044	95.44
399.268	84.44
399.492	93.44
399.717	93.44
399.941	87.44
400.165	90.44
400.389	87.44
400.613	105.44
400.837	103.44
401.062	96.44
401.286	99.44
401.51	95.44
401.734	82.44
401.958	104.44
402.182	115.44
402.406	170.44
402.63	120.44
402.854	98.44
403.078	95.44
403.302	86.44
403.526	79.44
403.75	87.44
403.974	101.44
404.198	86.44
404.422	97.44
404.645	92.44
404.869	96.44
405.093	80.44
405.317	97.44
405.541	83.44
405.765	91.44
405.988	126.44
406.212	189.44
406.436	238.44
406.66	158.44
406.883	101.44
407.107	100.44
407.331	93.44
407.555	100.44
407.778	102.44
408.002	99.44
408.226	88.44
408.449	94.44
408.673	85.44
408.896	87.44
409.12	96.44
409.344	93.44
409.567	89.44
409.791	94.44
410.014	84.44
410.238	102.44
410.461	86.44
410.685	94.44
410.908	114.44
411.132	119.44
411.355	107.44
411.578	73.44
411.802	87.44
412.025	93.44
412.249	102.44
412.472	93.44
412.695	95.44
412.919	92.44
413.142	91.44
413.365	90.44
413.589	87.44
413.812	97.44
414.035	111.44
414.258	84.44
414.482	105.44
414.705	104.44
414.928	86.44
415.151	95.44
415.374	97.44
415.597	85.44
415.821	101.44
416.044	94.44
416.267	88.44
416.49	92.44
416.713	84.44
416.936	73.44
417.159	75.44
417.382	88.44
417.605	98.44
417.828	94.44
418.051	93.44
418.274	102.44
418.497	95.44
418.72	94.44
418.943	84.44
419.166	85.44
419.389	98.44
419.611	87.44
419.834	92.44
420.057	87.44
420.28	98.44
420.503	83.44
420.726	85.44
420.948	97.44
421.171	95.44
421.394	100.44
421.617	88.44
421.839	106.44
422.062	96.44
422.285	88.44
422.507	112.44
422.73	108.44
422.953	86.44
423.175	77.44
423.398	106.44
423.621	87.44
423.843	79.44
424.066	97.44
424.288	81.44
424.511	90.44
424.733	99.44
424.956	99.44
425.178	96.44
425.401	91.44
425.623	100.44
425.846	94.44
426.068	96.44
426.291	101.44
426.513	86.44
426.735	91.44
426.958	91.44
427.18	108.44
427.402	141.44
427.625	157.44
427.847	126.44
428.069	107.44
428.292	94.44
428.514	78.44
428.736	90.44
428.958	71.44
429.181	81.44
429.403	90.44
429.625	81.44
429.847	100.44
430.069	97.44
430.292	95.44
430.514	84.44
430.736	91.44
430.958	73.44
431.18	97.44
431.402	86.44
431.624	93.44
431.846	91.44
432.068	90.44
432.29	91.44
432.512	95.44
432.734	102.44
432.956	98.44
433.178	103.44
433.4	99.44
433.622	91.44
433.844	104.44
434.066	94.44
434.287	98.44
434.509	89.44
434.731	92.44
434.953	91.44
435.175	95.44
435.397	85.44
435.618	103.44
435.84	104.44
436.062	119.44
436.284	105.44
436.505	98.44
436.727	111.44
436.949	99.44
437.17	86.44
437.392	88.44
437.614	97.44
437.835	105.44
438.057	109.44
438.278	99.44
438.5	108.44
438.721	113.44
438.943	106.44
439.165	91.44
439.386	87.44
439.608	92.44
439.829	92.44
440.05	116.44
440.272	124.44
440.493	96.44
440.715	87.44
440.936	99.44
441.158	102.44
441.379	89.44
441.6	98.44
441.822	102.44
442.043	91.44
442.264	111.44
442.486	97.44
442.707	103.44
442.928	126.44
443.149	134.44
443.371	125.44
443.592	115.44
443.813	114.44
444.034	110.44
444.255	93.44
444.476	96.44
444.698	97.44
444.919	86.44
445.14	140.44
445.361	125.44
445.582	114.44
445.803	143.44
446.024	140.44
446.245	126.44
446.466	107.44
446.687	105.44
446.908	83.44
447.129	85.44
447.35	93.44
447.571	86.44
447.792	94.44
448.013	93.44
448.234	110.44
448.455	103.44
448.675	103.44
448.896	125.44
449.117	88.44
449.338	109.44
449.559	118.44
449.779	128.44
450	97.44
450.221	83.44
450.442	89.44
450.662	102.44
450.883	118.44
451.104	114.44
451.324	104.44
451.545	86.44
451.766	95.44
451.986	91.44
452.207	84.44
452.428	90.44
452.648	93.44
452.869	123.44
453.089	121.44
453.31	119.44
453.53	87.44
453.751	93.44
453.971	115.44
454.192	123.44
454.412	87.44
454.633	93.44
454.853	85.44
455.073	93.44
455.294	83.44
455.514	107.44
455.734	109.44
455.955	87.44
456.175	91.44
456.395	84.44
456.616	88.44
456.836	83.44
457.056	95.44
457.276	89.44
457.497	75.44
457.717	87.44
457.937	85.44
458.157	87.44
458.377	100.44
458.598	108.44
458.818	155.44
459.038	146.44
459.258	115.44
459.478	86.44
459.698	91.44
459.918	87.44
460.138	94.44
460.358	96.44
460.578	100.44
460.798	97.44
461.018	99.44
461.238	93.44
461.458	81.44
461.678	94.44
461.898	87.44
462.118	81.44
462.338	101.44
462.558	89.44
462.777	84.44
462.997	90.44
463.217	98.44
463.437	80.44
463.657	82.44
463.876	79.44
464.096	88.44
464.316	89.44
464.536	97.44
464.755	97.44
464.975	115.44
465.195	154.44
465.414	146.44
465.634	92.44
465.854	94.44
466.073	94.44
466.293	85.44
466.512	73.44
466.732	84.44
466.951	80.44
467.171	103.44
467.391	92.44
467.61	108.44
467.829	102.44
468.049	84.44
468.268	90.44
468.488	82.44
468.707	95.44
468.927	82.44
469.146	99.44
469.365	89.44
469.585	99.44
469.804	115.44
470.023	94.44
470.243	95.44
470.462	98.44
470.681	113.44
470.901	97.44
471.12	96.44
471.339	85.44
471.558	76.44
471.777	85.44
471.997	91.44
472.216	96.44
472.435	101.44
472.654	92.44
472.873	92.44
473.092	88.44
473.311	95.44
473.53	93.44
473.749	94.44
473.968	97.44
474.187	101.44
474.406	120.44
474.625	92.44
474.844	88.44
475.063	90.44
475.282	93.44
475.501	96.44
475.72	93.44
475.939	91.44
476.158	94.44
476.377	87.44
476.596	89.44
476.814	98.44
477.033	89.44
477.252	94.44
477.471	102.44
477.69	81.44
477.908	80.44
478.127	101.44
478.346	95.44
478.564	93.44
478.783	93.44
479.002	90.44
479.22	93.44
479.439	105.44
479.658	95.44
479.876	99.44
480.095	90.44
480.313	95.44
480.532	95.44
480.751	93.44
480.969	96.44
481.188	99.44
481.406	96.44
481.624	103.44
481.843	93.44
482.061	87.44
482.28	92.44
482.498	85.44
482.717	99.44
482.935	100.44
483.153	101.44
483.372	91.44
483.59	82.44
483.808	90.44
484.027	109.44
484.245	82.44
484.463	82.44
484.681	102.44
484.9	103.44
485.118	90.44
485.336	86.44
485.554	93.44
485.772	102.44
485.99	116.44
486.209	108.44
486.427	104.44
486.645	111.44
486.863	106.44
487.081	102.44
487.299	81.44
487.517	99.44
487.735	91.44
487.953	90.44
488.171	100.44
488.389	114.44
488.607	102.44
488.825	88.44
489.043	93.44
489.261	104.44
489.479	93.44
489.696	86.44
489.914	79.44
490.132	88.44
490.35	103.44
490.568	86.44
490.786	86.44
491.003	84.44
491.221	86.44
491.439	92.44
491.657	104.44
491.874	104.44
492.092	91.44
492.31	87.44
492.527	90.44
492.745	94.44
492.963	87.44
493.18	91.44
493.398	100.44
493.615	99.44
493.833	93.44
494.05	80.44
494.268	85.44
494.485	114.44
494.703	86.44
494.92	91.44
495.138	93.44
495.355	99.44
495.573	110.44
495.79	91.44
496.008	96.44
496.225	90.44
496.442	93.44
496.66	69.44
496.877	89.44
497.094	113.44
497.312	99.44
497.529	105.44
497.746	96.44
497.963	82.44
498.181	101.44
498.398	89.44
498.615	113.44
498.832	93.44
499.049	94.44
499.267	90.44
499.484	86.44
499.701	81.44
499.918	81.44
500.135	105.44
500.352	108.44
500.569	92.44
500.786	107.44
501.003	94.44
501.22	99.44
501.437	86.44
501.654	107.44
501.871	117.44
502.088	90.44
502.305	99.44
502.522	89.44
502.739	93.44
502.956	93.44
503.172	100.44
503.389	94.44
503.606	107.44
503.823	79.44
504.04	87.44
504.256	104.44
504.473	85.44
504.69	83.44
504.907	92.44
505.123	85.44
505.34	107.44
505.557	93.44
505.773	79.44
505.99	77.44
506.207	86.44
506.423	94.44
506.64	84.44
506.856	83.44
507.073	106.44
507.289	102.44
507.506	91.44
507.722	97.44
507.939	135.44
508.155	99.44
508.372	95.44
508.588	98.44
508.805	94.44
509.021	97.44
509.238	106.44
509.454	85.44
509.67	104.44
509.887	112.44
510.103	140.44
510.319	221.44
510.536	772.44
510.752	2481.44
510.968	710.44
511.184	162.44
511.401	117.44
511.617	98.44
511.833	100.44
512.049	110.44
512.265	88.44
512.481	97.44
512.698	104.44
512.914	94.44
513.13	86.44
513.346	97.44
513.562	106.44
513.778	96.44
513.994	84.44
514.21	110.44
514.426	123.44
514.642	151.44
