Data from Uncirc_2008_H10_HRD10591_00030.txt Node
Date: Wed Jan 03 10:15:36 EST 2024
User: Yrep
Spectrometer: HR+D1059
Trigger mode: 1
Integration Time (sec): 1.000000E-1
Scans to average: 1
Electric dark correction enabled: true
Nonlinearity correction enabled: false
Boxcar width: 0
XAxis mode: Wavelengths
Number of Pixels in Spectrum: 2048
>>>>>Begin Spectral Data<<<<<
223.165	-3.19
223.4	-3.19
223.635	-3.19
223.869	-25.19
224.104	-24.19
224.338	-13.19
224.573	-7.19
224.808	-18.19
225.042	-4.19
225.277	-10.19
225.511	-14.19
225.746	-0.19
225.98	-2.19
226.215	11.81
226.449	20.81
226.683	23.81
226.918	34.81
227.152	30.81
227.387	29.81
227.621	35.81
227.856	47.81
228.09	44.81
228.324	54.81
228.559	63.81
228.793	47.81
229.027	73.81
229.262	66.81
229.496	64.81
229.73	62.81
229.964	77.81
230.199	73.81
230.433	76.81
230.667	83.81
230.901	72.81
231.136	79.81
231.37	67.81
231.604	89.81
231.838	69.81
232.072	74.81
232.306	93.81
232.541	93.81
232.775	72.81
233.009	87.81
233.243	65.81
233.477	77.81
233.711	77.81
233.945	81.81
234.179	71.81
234.413	96.81
234.647	86.81
234.881	81.81
235.115	75.81
235.349	74.81
235.583	82.81
235.817	74.81
236.051	71.81
236.285	82.81
236.519	80.81
236.753	84.81
236.987	83.81
237.221	87.81
237.455	81.81
237.689	72.81
237.922	64.81
238.156	79.81
238.39	80.81
238.624	74.81
238.858	75.81
239.091	67.81
239.325	77.81
239.559	77.81
239.793	81.81
240.027	78.81
240.26	72.81
240.494	79.81
240.728	80.81
240.961	81.81
241.195	72.81
241.429	84.81
241.662	77.81
241.896	67.81
242.13	80.81
242.363	63.81
242.597	72.81
242.83	82.81
243.064	80.81
243.298	80.81
243.531	89.81
243.765	85.81
243.998	85.81
244.232	83.81
244.465	79.81
244.699	91.81
244.932	89.81
245.166	83.81
245.399	99.81
245.633	57.81
245.866	76.81
246.099	67.81
246.333	67.81
246.566	72.81
246.8	85.81
247.033	75.81
247.266	66.81
247.5	82.81
247.733	82.81
247.966	72.81
248.2	67.81
248.433	83.81
248.666	68.81
248.899	80.81
249.133	79.81
249.366	84.81
249.599	97.81
249.832	70.81
250.066	66.81
250.299	73.81
250.532	88.81
250.765	65.81
250.998	90.81
251.231	55.81
251.465	80.81
251.698	76.81
251.931	71.81
252.164	80.81
252.397	64.81
252.63	83.81
252.863	83.81
253.096	70.81
253.329	80.81
253.562	86.81
253.795	79.81
254.028	96.81
254.261	70.81
254.494	85.81
254.727	89.81
254.96	83.81
255.193	85.81
255.426	76.81
255.659	78.81
255.892	79.81
256.124	75.81
256.357	71.81
256.59	84.81
256.823	70.81
257.056	61.81
257.289	91.81
257.521	74.81
257.754	70.81
257.987	85.81
258.22	88.81
258.452	76.81
258.685	80.81
258.918	91.81
259.151	79.81
259.383	73.81
259.616	70.81
259.849	77.81
260.081	73.81
260.314	84.81
260.547	93.81
260.779	68.81
261.012	99.81
261.244	73.81
261.477	65.81
261.71	82.81
261.942	90.81
262.175	97.81
262.407	82.81
262.64	89.81
262.872	85.81
263.105	87.81
263.337	82.81
263.57	91.81
263.802	86.81
264.035	80.81
264.267	82.81
264.499	87.81
264.732	84.81
264.964	89.81
265.197	80.81
265.429	73.81
265.661	84.81
265.894	87.81
266.126	68.81
266.358	85.81
266.591	85.81
266.823	89.81
267.055	83.81
267.287	74.81
267.52	68.81
267.752	87.81
267.984	81.81
268.216	74.81
268.448	85.81
268.681	86.81
268.913	79.81
269.145	73.81
269.377	85.81
269.609	82.81
269.841	80.81
270.073	75.81
270.306	86.81
270.538	97.81
270.77	72.81
271.002	80.81
271.234	88.81
271.466	70.81
271.698	59.81
271.93	79.81
272.162	85.81
272.394	82.81
272.626	98.81
272.858	86.81
273.09	93.81
273.322	83.81
273.553	75.81
273.785	82.81
274.017	91.81
274.249	94.81
274.481	84.81
274.713	85.81
274.945	81.81
275.176	82.81
275.408	80.81
275.64	63.81
275.872	96.81
276.104	95.81
276.335	76.81
276.567	91.81
276.799	98.81
277.031	88.81
277.262	87.81
277.494	82.81
277.726	102.81
277.957	81.81
278.189	94.81
278.421	76.81
278.652	95.81
278.884	92.81
279.115	94.81
279.347	81.81
279.579	97.81
279.81	87.81
280.042	84.81
280.273	79.81
280.505	86.81
280.736	81.81
280.968	83.81
281.199	77.81
281.431	87.81
281.662	86.81
281.894	94.81
282.125	83.81
282.356	109.81
282.588	128.81
282.819	112.81
283.051	84.81
283.282	79.81
283.513	75.81
283.745	87.81
283.976	71.81
284.207	82.81
284.439	88.81
284.67	89.81
284.901	95.81
285.132	85.81
285.364	91.81
285.595	88.81
285.826	82.81
286.057	87.81
286.288	96.81
286.52	80.81
286.751	77.81
286.982	75.81
287.213	86.81
287.444	77.81
287.675	84.81
287.906	82.81
288.138	107.81
288.369	92.81
288.6	89.81
288.831	88.81
289.062	71.81
289.293	80.81
289.524	78.81
289.755	86.81
289.986	80.81
290.217	93.81
290.448	91.81
290.679	82.81
290.91	84.81
291.141	83.81
291.371	83.81
291.602	94.81
291.833	88.81
292.064	87.81
292.295	105.81
292.526	80.81
292.757	82.81
292.987	85.81
293.218	71.81
293.449	80.81
293.68	79.81
293.91	87.81
294.141	96.81
294.372	96.81
294.603	88.81
294.833	88.81
295.064	86.81
295.295	89.81
295.525	80.81
295.756	108.81
295.987	103.81
296.217	116.81
296.448	104.81
296.679	98.81
296.909	81.81
297.14	101.81
297.37	85.81
297.601	82.81
297.831	87.81
298.062	83.81
298.292	79.81
298.523	82.81
298.753	85.81
298.984	86.81
299.214	88.81
299.445	78.81
299.675	92.81
299.905	97.81
300.136	85.81
300.366	80.81
300.597	85.81
300.827	81.81
301.057	107.81
301.288	111.81
301.518	85.81
301.748	97.81
301.979	97.81
302.209	83.81
302.439	92.81
302.669	80.81
302.9	98.81
303.13	82.81
303.36	96.81
303.59	93.81
303.82	96.81
304.051	72.81
304.281	90.81
304.511	84.81
304.741	79.81
304.971	93.81
305.201	94.81
305.431	70.81
305.661	81.81
305.891	79.81
306.121	102.81
306.352	86.81
306.582	101.81
306.812	90.81
307.042	94.81
307.272	94.81
307.502	77.81
307.731	97.81
307.961	67.81
308.191	79.81
308.421	91.81
308.651	90.81
308.881	90.81
309.111	101.81
309.341	93.81
309.571	100.81
309.8	90.81
310.03	102.81
310.26	97.81
310.49	90.81
310.72	103.81
310.949	87.81
311.179	101.81
311.409	118.81
311.639	100.81
311.868	99.81
312.098	93.81
312.328	84.81
312.557	97.81
312.787	86.81
313.017	105.81
313.246	87.81
313.476	94.81
313.706	97.81
313.935	84.81
314.165	91.81
314.394	81.81
314.624	92.81
314.853	94.81
315.083	105.81
315.312	112.81
315.542	81.81
315.771	74.81
316.001	97.81
316.23	82.81
316.46	93.81
316.689	75.81
316.919	90.81
317.148	89.81
317.377	81.81
317.607	89.81
317.836	104.81
318.065	91.81
318.295	87.81
318.524	97.81
318.753	91.81
318.983	104.81
319.212	97.81
319.441	98.81
319.67	105.81
319.9	95.81
320.129	92.81
320.358	93.81
320.587	89.81
320.816	91.81
321.046	108.81
321.275	89.81
321.504	96.81
321.733	88.81
321.962	98.81
322.191	88.81
322.42	86.81
322.649	110.81
322.878	119.81
323.108	114.81
323.337	135.81
323.566	131.81
323.795	143.81
324.024	197.81
324.253	387.81
324.482	773.81
324.71	1584.81
324.939	2065.81
325.168	764.81
325.397	234.81
325.626	142.81
325.855	123.81
326.084	118.81
326.313	123.81
326.542	144.81
326.77	226.81
326.999	443.81
327.228	878.81
327.457	1623.81
327.686	1277.81
327.914	350.81
328.143	178.81
328.372	144.81
328.6	125.81
328.829	104.81
329.058	110.81
329.287	128.81
329.515	107.81
329.744	95.81
329.972	99.81
330.201	92.81
330.43	105.81
330.658	108.81
330.887	128.81
331.115	124.81
331.344	86.81
331.572	96.81
331.801	116.81
332.03	105.81
332.258	109.81
332.486	97.81
332.715	97.81
332.943	96.81
333.172	85.81
333.4	97.81
333.629	94.81
333.857	99.81
334.085	102.81
334.314	104.81
334.542	90.81
334.771	93.81
334.999	92.81
335.227	100.81
335.455	91.81
335.684	93.81
335.912	97.81
336.14	102.81
336.369	84.81
336.597	108.81
336.825	87.81
337.053	85.81
337.281	84.81
337.51	86.81
337.738	88.81
337.966	89.81
338.194	90.81
338.422	91.81
338.65	88.81
338.878	106.81
339.106	84.81
339.334	96.81
339.562	90.81
339.79	94.81
340.018	79.81
340.246	95.81
340.474	95.81
340.702	89.81
340.93	89.81
341.158	87.81
341.386	85.81
341.614	91.81
341.842	97.81
342.07	81.81
342.298	90.81
342.526	98.81
342.754	89.81
342.981	94.81
343.209	84.81
343.437	93.81
343.665	107.81
343.893	76.81
344.12	98.81
344.348	99.81
344.576	98.81
344.804	94.81
345.031	102.81
345.259	103.81
345.487	101.81
345.714	107.81
345.942	111.81
346.17	90.81
346.397	94.81
346.625	93.81
346.853	92.81
347.08	87.81
347.308	96.81
347.535	86.81
347.763	79.81
347.99	94.81
348.218	111.81
348.445	96.81
348.673	94.81
348.9	93.81
349.128	97.81
349.355	93.81
349.583	109.81
349.81	102.81
350.037	98.81
350.265	106.81
350.492	108.81
350.72	98.81
350.947	101.81
351.174	107.81
351.402	102.81
351.629	104.81
351.856	103.81
352.083	99.81
352.311	108.81
352.538	97.81
352.765	101.81
352.992	108.81
353.22	102.81
353.447	109.81
353.674	101.81
353.901	108.81
354.128	101.81
354.355	97.81
354.583	102.81
354.81	103.81
355.037	104.81
355.264	91.81
355.491	95.81
355.718	88.81
355.945	89.81
356.172	98.81
356.399	104.81
356.626	94.81
356.853	112.81
357.08	89.81
357.307	96.81
357.534	102.81
357.761	103.81
357.988	105.81
358.215	103.81
358.441	98.81
358.668	92.81
358.895	96.81
359.122	102.81
359.349	96.81
359.576	90.81
359.802	91.81
360.029	87.81
360.256	109.81
360.483	90.81
360.709	93.81
360.936	92.81
361.163	102.81
361.39	96.81
361.616	88.81
361.843	99.81
362.07	97.81
362.296	88.81
362.523	96.81
362.749	85.81
362.976	82.81
363.203	95.81
363.429	83.81
363.656	87.81
363.882	84.81
364.109	98.81
364.335	97.81
364.562	98.81
364.788	105.81
365.015	87.81
365.241	102.81
365.468	114.81
365.694	91.81
365.92	83.81
366.147	84.81
366.373	87.81
366.599	93.81
366.826	88.81
367.052	87.81
367.278	86.81
367.505	75.81
367.731	89.81
367.957	85.81
368.184	96.81
368.41	82.81
368.636	89.81
368.862	122.81
369.089	124.81
369.315	103.81
369.541	89.81
369.767	86.81
369.993	91.81
370.219	88.81
370.445	81.81
370.672	74.81
370.898	83.81
371.124	92.81
371.35	78.81
371.576	89.81
371.802	96.81
372.028	95.81
372.254	96.81
372.48	83.81
372.706	89.81
372.932	89.81
373.158	101.81
373.384	106.81
373.61	88.81
373.835	81.81
374.061	93.81
374.287	98.81
374.513	93.81
374.739	89.81
374.965	91.81
375.191	83.81
375.416	88.81
375.642	82.81
375.868	92.81
376.094	83.81
376.319	93.81
376.545	90.81
376.771	96.81
376.997	75.81
377.222	87.81
377.448	94.81
377.674	101.81
377.899	96.81
378.125	76.81
378.35	76.81
378.576	86.81
378.802	86.81
379.027	96.81
379.253	104.81
379.478	95.81
379.704	83.81
379.929	81.81
380.155	89.81
380.38	101.81
380.606	91.81
380.831	87.81
381.057	109.81
381.282	95.81
381.507	100.81
381.733	102.81
381.958	98.81
382.184	93.81
382.409	97.81
382.634	103.81
382.86	112.81
383.085	106.81
383.31	94.81
383.535	106.81
383.761	102.81
383.986	102.81
384.211	105.81
384.436	104.81
384.662	99.81
384.887	104.81
385.112	84.81
385.337	113.81
385.562	117.81
385.787	119.81
386.013	116.81
386.238	128.81
386.463	107.81
386.688	114.81
386.913	102.81
387.138	106.81
387.363	99.81
387.588	104.81
387.813	104.81
388.038	101.81
388.263	119.81
388.488	107.81
388.713	91.81
388.938	98.81
389.163	106.81
389.387	104.81
389.612	95.81
389.837	87.81
390.062	101.81
390.287	85.81
390.512	90.81
390.736	87.81
390.961	90.81
391.186	87.81
391.411	92.81
391.636	87.81
391.86	86.81
392.085	91.81
392.31	81.81
392.534	87.81
392.759	91.81
392.984	71.81
393.208	93.81
393.433	121.81
393.658	112.81
393.882	85.81
394.107	93.81
394.331	94.81
394.556	101.81
394.78	96.81
395.005	91.81
395.229	85.81
395.454	88.81
395.678	94.81
395.903	97.81
396.127	74.81
396.352	97.81
396.576	78.81
396.801	100.81
397.025	98.81
397.249	89.81
397.474	76.81
397.698	97.81
397.922	82.81
398.147	101.81
398.371	81.81
398.595	75.81
398.82	76.81
399.044	95.81
399.268	90.81
399.492	82.81
399.717	104.81
399.941	95.81
400.165	97.81
400.389	95.81
400.613	92.81
400.837	92.81
401.062	72.81
401.286	89.81
401.51	76.81
401.734	98.81
401.958	97.81
402.182	109.81
402.406	138.81
402.63	108.81
402.854	89.81
403.078	78.81
403.302	83.81
403.526	100.81
403.75	83.81
403.974	85.81
404.198	94.81
404.422	81.81
404.645	94.81
404.869	101.81
405.093	82.81
405.317	93.81
405.541	96.81
405.765	87.81
405.988	120.81
406.212	173.81
406.436	205.81
406.66	149.81
406.883	91.81
407.107	93.81
407.331	101.81
407.555	95.81
407.778	103.81
408.002	103.81
408.226	97.81
408.449	102.81
408.673	90.81
408.896	93.81
409.12	94.81
409.344	91.81
409.567	94.81
409.791	94.81
410.014	98.81
410.238	97.81
410.461	89.81
410.685	88.81
410.908	101.81
411.132	105.81
411.355	91.81
411.578	95.81
411.802	98.81
412.025	76.81
412.249	85.81
412.472	82.81
412.695	95.81
412.919	86.81
413.142	98.81
413.365	103.81
413.589	96.81
413.812	86.81
414.035	94.81
414.258	86.81
414.482	88.81
414.705	88.81
414.928	103.81
415.151	94.81
415.374	91.81
415.597	91.81
415.821	90.81
416.044	94.81
416.267	87.81
416.49	83.81
416.713	74.81
416.936	80.81
417.159	76.81
417.382	81.81
417.605	88.81
417.828	88.81
418.051	92.81
418.274	96.81
418.497	90.81
418.72	92.81
418.943	91.81
419.166	88.81
419.389	88.81
419.611	100.81
419.834	86.81
420.057	94.81
420.28	92.81
420.503	89.81
420.726	76.81
420.948	85.81
421.171	92.81
421.394	104.81
421.617	89.81
421.839	69.81
422.062	80.81
422.285	89.81
422.507	93.81
422.73	110.81
422.953	89.81
423.175	89.81
423.398	97.81
423.621	89.81
423.843	81.81
424.066	88.81
424.288	89.81
424.511	83.81
424.733	99.81
424.956	96.81
425.178	97.81
425.401	109.81
425.623	95.81
425.846	86.81
426.068	101.81
426.291	99.81
426.513	94.81
426.735	98.81
426.958	98.81
427.18	104.81
427.402	149.81
427.625	149.81
427.847	122.81
428.069	89.81
428.292	90.81
428.514	77.81
428.736	83.81
428.958	76.81
429.181	73.81
429.403	82.81
429.625	85.81
429.847	85.81
430.069	107.81
430.292	97.81
430.514	78.81
430.736	89.81
430.958	89.81
431.18	79.81
431.402	85.81
431.624	98.81
431.846	77.81
432.068	79.81
432.29	86.81
432.512	97.81
432.734	89.81
432.956	95.81
433.178	94.81
433.4	106.81
433.622	91.81
433.844	66.81
434.066	87.81
434.287	98.81
434.509	86.81
434.731	87.81
434.953	81.81
435.175	84.81
435.397	91.81
435.618	95.81
435.84	103.81
436.062	109.81
436.284	119.81
436.505	98.81
436.727	102.81
436.949	93.81
437.17	78.81
437.392	77.81
437.614	93.81
437.835	94.81
438.057	107.81
438.278	109.81
438.5	109.81
438.721	108.81
438.943	105.81
439.165	83.81
439.386	85.81
439.608	98.81
439.829	94.81
440.05	126.81
440.272	148.81
440.493	98.81
440.715	91.81
440.936	82.81
441.158	81.81
441.379	80.81
441.6	100.81
441.822	93.81
442.043	84.81
442.264	98.81
442.486	92.81
442.707	92.81
442.928	97.81
443.149	134.81
443.371	118.81
443.592	118.81
443.813	118.81
444.034	100.81
444.255	85.81
444.476	82.81
444.698	90.81
444.919	89.81
445.14	131.81
445.361	103.81
445.582	99.81
445.803	111.81
446.024	133.81
446.245	125.81
446.466	112.81
446.687	87.81
446.908	87.81
447.129	99.81
447.35	77.81
447.571	97.81
447.792	88.81
448.013	90.81
448.234	92.81
448.455	104.81
448.675	99.81
448.896	112.81
449.117	101.81
449.338	97.81
449.559	117.81
449.779	145.81
450	95.81
450.221	88.81
450.442	92.81
450.662	80.81
450.883	109.81
451.104	105.81
451.324	74.81
451.545	86.81
451.766	92.81
451.986	96.81
452.207	90.81
452.428	94.81
452.648	107.81
452.869	96.81
453.089	104.81
453.31	105.81
453.53	89.81
453.751	97.81
453.971	115.81
454.192	105.81
454.412	95.81
454.633	86.81
454.853	85.81
455.073	93.81
455.294	91.81
455.514	100.81
455.734	83.81
455.955	96.81
456.175	83.81
456.395	86.81
456.616	76.81
456.836	75.81
457.056	90.81
457.276	72.81
457.497	85.81
457.717	89.81
457.937	95.81
458.157	100.81
458.377	95.81
458.598	106.81
458.818	135.81
459.038	134.81
459.258	91.81
459.478	80.81
459.698	84.81
459.918	93.81
460.138	90.81
460.358	102.81
460.578	77.81
460.798	91.81
461.018	78.81
461.238	89.81
461.458	77.81
461.678	85.81
461.898	102.81
462.118	74.81
462.338	79.81
462.558	83.81
462.777	81.81
462.997	83.81
463.217	82.81
463.437	101.81
463.657	89.81
463.876	93.81
464.096	95.81
464.316	86.81
464.536	93.81
464.755	88.81
464.975	100.81
465.195	160.81
465.414	143.81
465.634	99.81
465.854	79.81
466.073	106.81
466.293	99.81
466.512	87.81
466.732	85.81
466.951	69.81
467.171	79.81
467.391	85.81
467.61	97.81
467.829	103.81
468.049	95.81
468.268	89.81
468.488	85.81
468.707	69.81
468.927	84.81
469.146	84.81
469.365	86.81
469.585	78.81
469.804	92.81
470.023	91.81
470.243	103.81
470.462	98.81
470.681	102.81
470.901	85.81
471.12	80.81
471.339	87.81
471.558	89.81
471.777	82.81
471.997	80.81
472.216	85.81
472.435	89.81
472.654	81.81
472.873	75.81
473.092	86.81
473.311	94.81
473.53	94.81
473.749	71.81
473.968	79.81
474.187	107.81
474.406	97.81
474.625	89.81
474.844	88.81
475.063	77.81
475.282	96.81
475.501	96.81
475.72	85.81
475.939	87.81
476.158	83.81
476.377	82.81
476.596	76.81
476.814	97.81
477.033	86.81
477.252	85.81
477.471	80.81
477.69	59.81
477.908	87.81
478.127	105.81
478.346	96.81
478.564	95.81
478.783	94.81
479.002	95.81
479.22	86.81
479.439	111.81
479.658	100.81
479.876	100.81
480.095	88.81
480.313	69.81
480.532	87.81
480.751	80.81
480.969	85.81
481.188	94.81
481.406	110.81
481.624	109.81
481.843	90.81
482.061	95.81
482.28	101.81
482.498	97.81
482.717	79.81
482.935	89.81
483.153	92.81
483.372	85.81
483.59	102.81
483.808	83.81
484.027	89.81
484.245	95.81
484.463	87.81
484.681	99.81
484.9	93.81
485.118	86.81
485.336	83.81
485.554	98.81
485.772	86.81
485.99	91.81
486.209	107.81
486.427	114.81
486.645	117.81
486.863	110.81
487.081	101.81
487.299	98.81
487.517	95.81
487.735	89.81
487.953	93.81
488.171	99.81
488.389	97.81
488.607	99.81
488.825	87.81
489.043	82.81
489.261	83.81
489.479	90.81
489.696	97.81
489.914	80.81
490.132	80.81
490.35	87.81
490.568	91.81
490.786	82.81
491.003	83.81
491.221	71.81
491.439	75.81
491.657	94.81
491.874	100.81
492.092	89.81
492.31	76.81
492.527	85.81
492.745	89.81
492.963	91.81
493.18	94.81
493.398	86.81
493.615	98.81
493.833	101.81
494.05	87.81
494.268	88.81
494.485	101.81
494.703	84.81
494.92	93.81
495.138	81.81
495.355	90.81
495.573	89.81
495.79	86.81
496.008	84.81
496.225	90.81
496.442	78.81
496.66	79.81
496.877	85.81
497.094	89.81
497.312	88.81
497.529	95.81
497.746	92.81
497.963	85.81
498.181	97.81
498.398	103.81
498.615	100.81
498.832	94.81
499.049	84.81
499.267	97.81
499.484	94.81
499.701	98.81
499.918	97.81
500.135	95.81
500.352	108.81
500.569	86.81
500.786	83.81
501.003	90.81
501.22	95.81
501.437	93.81
501.654	94.81
501.871	93.81
502.088	99.81
502.305	96.81
502.522	90.81
502.739	81.81
502.956	94.81
503.172	91.81
503.389	80.81
503.606	96.81
503.823	84.81
504.04	94.81
504.256	86.81
504.473	89.81
504.69	88.81
504.907	87.81
505.123	78.81
505.34	96.81
505.557	91.81
505.773	78.81
505.99	94.81
506.207	86.81
506.423	90.81
506.64	102.81
506.856	97.81
507.073	74.81
507.289	101.81
507.506	97.81
507.722	98.81
507.939	99.81
508.155	94.81
508.372	94.81
508.588	89.81
508.805	92.81
509.021	91.81
509.238	82.81
509.454	93.81
509.67	98.81
509.887	102.81
510.103	122.81
510.319	213.81
510.536	748.81
510.752	2406.81
510.968	662.81
511.184	153.81
511.401	111.81
511.617	103.81
511.833	96.81
512.049	101.81
512.265	84.81
512.481	94.81
512.698	96.81
512.914	98.81
513.13	80.81
513.346	105.81
513.562	95.81
513.778	89.81
513.994	101.81
514.21	103.81
514.426	126.81
514.642	132.81
514.858	141.81
515.074	166.81
515.29	445.81
515.506	1465.81
515.721	542.81
515.937	157.81
516.153	101.81
