Data from Uncirc_2008_H10_HRD10591_00016.txt Node
Date: Wed Jan 03 10:15:34 EST 2024
User: Yrep
Spectrometer: HR+D1059
Trigger mode: 1
Integration Time (sec): 1.000000E-1
Scans to average: 1
Electric dark correction enabled: true
Nonlinearity correction enabled: false
Boxcar width: 0
XAxis mode: Wavelengths
Number of Pixels in Spectrum: 2048
>>>>>Begin Spectral Data<<<<<
223.165	-10.19
223.4	-10.19
223.635	-10.19
223.869	-25.19
224.104	-17.19
224.338	-12.19
224.573	-25.19
224.808	-22.19
225.042	-4.19
225.277	6.81
225.511	0.81
225.746	15.81
225.98	2.81
226.215	18.81
226.449	-6.19
226.683	16.81
226.918	30.81
227.152	29.81
227.387	33.81
227.621	30.81
227.856	45.81
228.09	50.81
228.324	43.81
228.559	51.81
228.793	66.81
229.027	57.81
229.262	62.81
229.496	67.81
229.73	63.81
229.964	93.81
230.199	81.81
230.433	65.81
230.667	64.81
230.901	55.81
231.136	76.81
231.37	74.81
231.604	84.81
231.838	78.81
232.072	88.81
232.306	88.81
232.541	81.81
232.775	78.81
233.009	84.81
233.243	79.81
233.477	76.81
233.711	83.81
233.945	69.81
234.179	79.81
234.413	87.81
234.647	92.81
234.881	64.81
235.115	78.81
235.349	69.81
235.583	80.81
235.817	87.81
236.051	82.81
236.285	78.81
236.519	74.81
236.753	83.81
236.987	75.81
237.221	69.81
237.455	82.81
237.689	73.81
237.922	72.81
238.156	76.81
238.39	61.81
238.624	70.81
238.858	74.81
239.091	63.81
239.325	79.81
239.559	80.81
239.793	77.81
240.027	91.81
240.26	78.81
240.494	72.81
240.728	81.81
240.961	84.81
241.195	83.81
241.429	59.81
241.662	71.81
241.896	77.81
242.13	74.81
242.363	76.81
242.597	58.81
242.83	77.81
243.064	73.81
243.298	87.81
243.531	72.81
243.765	74.81
243.998	79.81
244.232	92.81
244.465	79.81
244.699	82.81
244.932	75.81
245.166	80.81
245.399	76.81
245.633	80.81
245.866	72.81
246.099	71.81
246.333	63.81
246.566	80.81
246.8	63.81
247.033	61.81
247.266	80.81
247.5	73.81
247.733	73.81
247.966	62.81
248.2	71.81
248.433	83.81
248.666	71.81
248.899	62.81
249.133	64.81
249.366	79.81
249.599	78.81
249.832	83.81
250.066	71.81
250.299	83.81
250.532	74.81
250.765	89.81
250.998	69.81
251.231	79.81
251.465	79.81
251.698	88.81
251.931	73.81
252.164	66.81
252.397	63.81
252.63	80.81
252.863	91.81
253.096	84.81
253.329	76.81
253.562	70.81
253.795	82.81
254.028	63.81
254.261	83.81
254.494	88.81
254.727	65.81
254.96	69.81
255.193	70.81
255.426	69.81
255.659	77.81
255.892	93.81
256.124	55.81
256.357	92.81
256.59	75.81
256.823	86.81
257.056	79.81
257.289	72.81
257.521	83.81
257.754	64.81
257.987	79.81
258.22	84.81
258.452	68.81
258.685	76.81
258.918	72.81
259.151	67.81
259.383	90.81
259.616	93.81
259.849	84.81
260.081	69.81
260.314	74.81
260.547	72.81
260.779	85.81
261.012	97.81
261.244	80.81
261.477	84.81
261.71	101.81
261.942	101.81
262.175	115.81
262.407	62.81
262.64	67.81
262.872	76.81
263.105	69.81
263.337	80.81
263.57	72.81
263.802	92.81
264.035	81.81
264.267	82.81
264.499	78.81
264.732	76.81
264.964	89.81
265.197	88.81
265.429	85.81
265.661	72.81
265.894	88.81
266.126	73.81
266.358	88.81
266.591	80.81
266.823	71.81
267.055	70.81
267.287	79.81
267.52	79.81
267.752	71.81
267.984	80.81
268.216	74.81
268.448	78.81
268.681	76.81
268.913	75.81
269.145	80.81
269.377	73.81
269.609	69.81
269.841	77.81
270.073	85.81
270.306	85.81
270.538	77.81
270.77	81.81
271.002	71.81
271.234	73.81
271.466	85.81
271.698	86.81
271.93	80.81
272.162	89.81
272.394	89.81
272.626	86.81
272.858	90.81
273.09	79.81
273.322	82.81
273.553	71.81
273.785	72.81
274.017	77.81
274.249	72.81
274.481	70.81
274.713	79.81
274.945	96.81
275.176	82.81
275.408	74.81
275.64	84.81
275.872	91.81
276.104	89.81
276.335	77.81
276.567	89.81
276.799	111.81
277.031	87.81
277.262	70.81
277.494	66.81
277.726	84.81
277.957	71.81
278.189	89.81
278.421	88.81
278.652	85.81
278.884	84.81
279.115	72.81
279.347	78.81
279.579	82.81
279.81	95.81
280.042	90.81
280.273	97.81
280.505	78.81
280.736	77.81
280.968	85.81
281.199	78.81
281.431	77.81
281.662	88.81
281.894	93.81
282.125	89.81
282.356	83.81
282.588	117.81
282.819	103.81
283.051	80.81
283.282	92.81
283.513	90.81
283.745	91.81
283.976	82.81
284.207	70.81
284.439	78.81
284.67	104.81
284.901	86.81
285.132	84.81
285.364	80.81
285.595	75.81
285.826	78.81
286.057	88.81
286.288	90.81
286.52	89.81
286.751	84.81
286.982	73.81
287.213	79.81
287.444	77.81
287.675	70.81
287.906	87.81
288.138	89.81
288.369	92.81
288.6	98.81
288.831	95.81
289.062	92.81
289.293	78.81
289.524	87.81
289.755	78.81
289.986	86.81
290.217	74.81
290.448	77.81
290.679	71.81
290.91	75.81
291.141	69.81
291.371	88.81
291.602	90.81
291.833	89.81
292.064	90.81
292.295	95.81
292.526	91.81
292.757	78.81
292.987	85.81
293.218	85.81
293.449	90.81
293.68	80.81
293.91	90.81
294.141	99.81
294.372	76.81
294.603	76.81
294.833	100.81
295.064	85.81
295.295	70.81
295.525	96.81
295.756	98.81
295.987	110.81
296.217	135.81
296.448	108.81
296.679	80.81
296.909	69.81
297.14	84.81
297.37	96.81
297.601	79.81
297.831	79.81
298.062	95.81
298.292	89.81
298.523	80.81
298.753	86.81
298.984	67.81
299.214	100.81
299.445	104.81
299.675	73.81
299.905	90.81
300.136	83.81
300.366	85.81
300.597	92.81
300.827	83.81
301.057	94.81
301.288	78.81
301.518	89.81
301.748	84.81
301.979	91.81
302.209	89.81
302.439	93.81
302.669	96.81
302.9	91.81
303.13	89.81
303.36	92.81
303.59	88.81
303.82	106.81
304.051	91.81
304.281	80.81
304.511	67.81
304.741	70.81
304.971	87.81
305.201	90.81
305.431	91.81
305.661	83.81
305.891	86.81
306.121	93.81
306.352	97.81
306.582	87.81
306.812	94.81
307.042	100.81
307.272	85.81
307.502	91.81
307.731	81.81
307.961	92.81
308.191	95.81
308.421	82.81
308.651	90.81
308.881	108.81
309.111	94.81
309.341	83.81
309.571	83.81
309.8	89.81
310.03	100.81
310.26	83.81
310.49	82.81
310.72	90.81
310.949	92.81
311.179	76.81
311.409	94.81
311.639	75.81
311.868	75.81
312.098	90.81
312.328	86.81
312.557	92.81
312.787	87.81
313.017	77.81
313.246	89.81
313.476	87.81
313.706	77.81
313.935	79.81
314.165	92.81
314.394	79.81
314.624	105.81
314.853	99.81
315.083	98.81
315.312	89.81
315.542	99.81
315.771	85.81
316.001	85.81
316.23	100.81
316.46	90.81
316.689	90.81
316.919	97.81
317.148	90.81
317.377	101.81
317.607	95.81
317.836	85.81
318.065	79.81
318.295	95.81
318.524	93.81
318.753	100.81
318.983	89.81
319.212	107.81
319.441	106.81
319.67	107.81
319.9	87.81
320.129	77.81
320.358	100.81
320.587	99.81
320.816	90.81
321.046	105.81
321.275	96.81
321.504	95.81
321.733	83.81
321.962	90.81
322.191	91.81
322.42	98.81
322.649	105.81
322.878	105.81
323.108	100.81
323.337	116.81
323.566	115.81
323.795	134.81
324.024	177.81
324.253	319.81
324.482	673.81
324.71	1384.81
324.939	1810.81
325.168	650.81
325.397	205.81
325.626	132.81
325.855	117.81
326.084	130.81
326.313	103.81
326.542	129.81
326.77	201.81
326.999	398.81
327.228	788.81
327.457	1429.81
327.686	1129.81
327.914	295.81
328.143	151.81
328.372	126.81
328.6	134.81
328.829	123.81
329.058	118.81
329.287	109.81
329.515	99.81
329.744	99.81
329.972	79.81
330.201	91.81
330.43	90.81
330.658	126.81
330.887	115.81
331.115	114.81
331.344	97.81
331.572	96.81
331.801	104.81
332.03	97.81
332.258	103.81
332.486	82.81
332.715	78.81
332.943	99.81
333.172	92.81
333.4	89.81
333.629	103.81
333.857	119.81
334.085	83.81
334.314	82.81
334.542	88.81
334.771	83.81
334.999	89.81
335.227	99.81
335.455	86.81
335.684	96.81
335.912	91.81
336.14	95.81
336.369	103.81
336.597	88.81
336.825	83.81
337.053	93.81
337.281	89.81
337.51	87.81
337.738	74.81
337.966	89.81
338.194	97.81
338.422	69.81
338.65	93.81
338.878	71.81
339.106	88.81
339.334	90.81
339.562	91.81
339.79	74.81
340.018	75.81
340.246	84.81
340.474	71.81
340.702	90.81
340.93	97.81
341.158	76.81
341.386	86.81
341.614	79.81
341.842	87.81
342.07	98.81
342.298	75.81
342.526	88.81
342.754	90.81
342.981	83.81
343.209	94.81
343.437	78.81
343.665	91.81
343.893	67.81
344.12	77.81
344.348	87.81
344.576	87.81
344.804	82.81
345.031	94.81
345.259	83.81
345.487	86.81
345.714	78.81
345.942	92.81
346.17	84.81
346.397	82.81
346.625	80.81
346.853	95.81
347.08	88.81
347.308	98.81
347.535	89.81
347.763	109.81
347.99	86.81
348.218	100.81
348.445	89.81
348.673	78.81
348.9	90.81
349.128	93.81
349.355	74.81
349.583	88.81
349.81	102.81
350.037	79.81
350.265	93.81
350.492	102.81
350.72	98.81
350.947	101.81
351.174	100.81
351.402	106.81
351.629	89.81
351.856	87.81
352.083	89.81
352.311	102.81
352.538	105.81
352.765	104.81
352.992	95.81
353.22	109.81
353.447	102.81
353.674	86.81
353.901	96.81
354.128	99.81
354.355	102.81
354.583	92.81
354.81	82.81
355.037	93.81
355.264	77.81
355.491	91.81
355.718	91.81
355.945	94.81
356.172	98.81
356.399	109.81
356.626	94.81
356.853	91.81
357.08	87.81
357.307	84.81
357.534	95.81
357.761	84.81
357.988	96.81
358.215	91.81
358.441	76.81
358.668	95.81
358.895	87.81
359.122	91.81
359.349	89.81
359.576	93.81
359.802	94.81
360.029	86.81
360.256	104.81
360.483	93.81
360.709	80.81
360.936	83.81
361.163	94.81
361.39	92.81
361.616	86.81
361.843	64.81
362.07	83.81
362.296	101.81
362.523	91.81
362.749	74.81
362.976	78.81
363.203	88.81
363.429	75.81
363.656	74.81
363.882	72.81
364.109	80.81
364.335	89.81
364.562	84.81
364.788	76.81
365.015	92.81
365.241	82.81
365.468	92.81
365.694	82.81
365.92	99.81
366.147	72.81
366.373	88.81
366.599	81.81
366.826	92.81
367.052	89.81
367.278	84.81
367.505	90.81
367.731	87.81
367.957	78.81
368.184	83.81
368.41	83.81
368.636	110.81
368.862	97.81
369.089	92.81
369.315	98.81
369.541	95.81
369.767	77.81
369.993	72.81
370.219	82.81
370.445	67.81
370.672	98.81
370.898	86.81
371.124	82.81
371.35	87.81
371.576	91.81
371.802	83.81
372.028	91.81
372.254	97.81
372.48	83.81
372.706	91.81
372.932	87.81
373.158	85.81
373.384	99.81
373.61	93.81
373.835	92.81
374.061	86.81
374.287	77.81
374.513	89.81
374.739	74.81
374.965	93.81
375.191	90.81
375.416	93.81
375.642	84.81
375.868	86.81
376.094	79.81
376.319	78.81
376.545	88.81
376.771	87.81
376.997	94.81
377.222	80.81
377.448	90.81
377.674	81.81
377.899	88.81
378.125	73.81
378.35	88.81
378.576	90.81
378.802	94.81
379.027	88.81
379.253	88.81
379.478	96.81
379.704	84.81
379.929	86.81
380.155	111.81
380.38	109.81
380.606	105.81
380.831	94.81
381.057	88.81
381.282	82.81
381.507	95.81
381.733	99.81
381.958	96.81
382.184	100.81
382.409	101.81
382.634	89.81
382.86	90.81
383.085	92.81
383.31	93.81
383.535	90.81
383.761	91.81
383.986	106.81
384.211	95.81
384.436	95.81
384.662	87.81
384.887	101.81
385.112	94.81
385.337	103.81
385.562	99.81
385.787	91.81
386.013	101.81
386.238	121.81
386.463	118.81
386.688	109.81
386.913	88.81
387.138	115.81
387.363	106.81
387.588	103.81
387.813	99.81
388.038	109.81
388.263	116.81
388.488	125.81
388.713	102.81
388.938	86.81
389.163	98.81
389.387	90.81
389.612	103.81
389.837	94.81
390.062	86.81
390.287	99.81
390.512	100.81
390.736	85.81
390.961	83.81
391.186	98.81
391.411	98.81
391.636	92.81
391.86	80.81
392.085	89.81
392.31	84.81
392.534	86.81
392.759	86.81
392.984	75.81
393.208	84.81
393.433	92.81
393.658	87.81
393.882	85.81
394.107	93.81
394.331	87.81
394.556	75.81
394.78	85.81
395.005	88.81
395.229	86.81
395.454	98.81
395.678	84.81
395.903	83.81
396.127	90.81
396.352	80.81
396.576	90.81
396.801	85.81
397.025	105.81
397.249	80.81
397.474	86.81
397.698	80.81
397.922	70.81
398.147	86.81
398.371	82.81
398.595	92.81
398.82	94.81
399.044	87.81
399.268	87.81
399.492	91.81
399.717	93.81
399.941	77.81
400.165	78.81
400.389	96.81
400.613	86.81
400.837	70.81
401.062	91.81
401.286	87.81
401.51	97.81
401.734	88.81
401.958	87.81
402.182	92.81
402.406	131.81
402.63	91.81
402.854	94.81
403.078	80.81
403.302	83.81
403.526	83.81
403.75	75.81
403.974	81.81
404.198	80.81
404.422	86.81
404.645	79.81
404.869	77.81
405.093	74.81
405.317	81.81
405.541	70.81
405.765	77.81
405.988	101.81
406.212	154.81
406.436	184.81
406.66	119.81
406.883	87.81
407.107	82.81
407.331	91.81
407.555	104.81
407.778	94.81
408.002	75.81
408.226	78.81
408.449	86.81
408.673	91.81
408.896	87.81
409.12	78.81
409.344	83.81
409.567	67.81
409.791	87.81
410.014	103.81
410.238	95.81
410.461	82.81
410.685	84.81
410.908	95.81
411.132	110.81
411.355	89.81
411.578	83.81
411.802	75.81
412.025	93.81
412.249	82.81
412.472	71.81
412.695	75.81
412.919	101.81
413.142	90.81
413.365	82.81
413.589	84.81
413.812	93.81
414.035	89.81
414.258	66.81
414.482	79.81
414.705	98.81
414.928	104.81
415.151	83.81
415.374	98.81
415.597	88.81
415.821	86.81
416.044	79.81
416.267	80.81
416.49	88.81
416.713	97.81
416.936	105.81
417.159	89.81
417.382	90.81
417.605	77.81
417.828	79.81
418.051	86.81
418.274	92.81
418.497	84.81
418.72	80.81
418.943	87.81
419.166	90.81
419.389	93.81
419.611	79.81
419.834	91.81
420.057	88.81
420.28	76.81
420.503	86.81
420.726	85.81
420.948	89.81
421.171	88.81
421.394	81.81
421.617	88.81
421.839	83.81
422.062	85.81
422.285	93.81
422.507	99.81
422.73	96.81
422.953	96.81
423.175	85.81
423.398	89.81
423.621	79.81
423.843	93.81
424.066	74.81
424.288	87.81
424.511	90.81
424.733	90.81
424.956	95.81
425.178	88.81
425.401	93.81
425.623	92.81
425.846	89.81
426.068	100.81
426.291	96.81
426.513	88.81
426.735	77.81
426.958	92.81
427.18	101.81
427.402	116.81
427.625	132.81
427.847	107.81
428.069	88.81
428.292	72.81
428.514	88.81
428.736	76.81
428.958	76.81
429.181	90.81
429.403	89.81
429.625	84.81
429.847	77.81
430.069	85.81
430.292	80.81
430.514	89.81
430.736	99.81
430.958	72.81
431.18	82.81
431.402	86.81
431.624	87.81
431.846	66.81
432.068	87.81
432.29	74.81
432.512	80.81
432.734	91.81
432.956	80.81
433.178	91.81
433.4	96.81
433.622	90.81
433.844	87.81
434.066	84.81
434.287	89.81
434.509	86.81
434.731	82.81
434.953	100.81
435.175	77.81
435.397	74.81
435.618	95.81
435.84	90.81
436.062	117.81
436.284	103.81
436.505	105.81
436.727	91.81
436.949	81.81
437.17	89.81
437.392	83.81
437.614	92.81
437.835	103.81
438.057	101.81
438.278	93.81
438.5	105.81
438.721	108.81
438.943	96.81
439.165	84.81
439.386	85.81
439.608	80.81
439.829	92.81
440.05	111.81
440.272	122.81
440.493	92.81
440.715	79.81
440.936	79.81
441.158	83.81
441.379	80.81
441.6	85.81
441.822	86.81
442.043	93.81
442.264	84.81
442.486	89.81
442.707	105.81
442.928	95.81
443.149	111.81
443.371	109.81
443.592	100.81
443.813	93.81
444.034	97.81
444.255	85.81
444.476	72.81
444.698	76.81
444.919	90.81
445.14	130.81
445.361	106.81
445.582	102.81
445.803	108.81
446.024	122.81
446.245	122.81
446.466	111.81
446.687	95.81
446.908	83.81
447.129	78.81
447.35	75.81
447.571	89.81
447.792	88.81
448.013	96.81
448.234	110.81
448.455	92.81
448.675	97.81
448.896	101.81
449.117	90.81
449.338	94.81
449.559	115.81
449.779	109.81
450	84.81
450.221	92.81
450.442	94.81
450.662	85.81
450.883	99.81
451.104	99.81
451.324	87.81
451.545	86.81
451.766	76.81
451.986	89.81
452.207	96.81
452.428	87.81
452.648	89.81
452.869	103.81
453.089	100.81
453.31	102.81
453.53	91.81
453.751	95.81
453.971	85.81
454.192	100.81
454.412	82.81
454.633	92.81
454.853	77.81
455.073	96.81
455.294	97.81
455.514	74.81
455.734	93.81
455.955	95.81
456.175	83.81
456.395	74.81
456.616	73.81
456.836	88.81
457.056	71.81
457.276	89.81
457.497	78.81
457.717	88.81
457.937	70.81
458.157	91.81
458.377	74.81
458.598	94.81
458.818	133.81
459.038	139.81
459.258	95.81
459.478	83.81
459.698	77.81
459.918	87.81
460.138	78.81
460.358	89.81
460.578	89.81
460.798	87.81
461.018	91.81
461.238	89.81
461.458	83.81
461.678	73.81
461.898	67.81
462.118	70.81
462.338	86.81
462.558	83.81
462.777	69.81
462.997	78.81
463.217	76.81
463.437	71.81
463.657	84.81
463.876	78.81
464.096	84.81
464.316	100.81
464.536	97.81
464.755	98.81
464.975	93.81
465.195	131.81
465.414	130.81
465.634	101.81
465.854	87.81
466.073	77.81
466.293	99.81
466.512	80.81
466.732	84.81
466.951	69.81
467.171	84.81
467.391	98.81
467.61	86.81
467.829	84.81
468.049	89.81
468.268	78.81
468.488	89.81
468.707	82.81
468.927	71.81
469.146	79.81
469.365	85.81
469.585	84.81
469.804	94.81
470.023	86.81
470.243	92.81
470.462	91.81
470.681	99.81
470.901	72.81
471.12	85.81
471.339	78.81
471.558	78.81
471.777	79.81
471.997	78.81
472.216	101.81
472.435	103.81
472.654	86.81
472.873	70.81
473.092	95.81
473.311	86.81
473.53	85.81
473.749	73.81
473.968	87.81
474.187	93.81
474.406	86.81
474.625	87.81
474.844	78.81
475.063	87.81
475.282	80.81
475.501	75.81
475.72	79.81
475.939	89.81
476.158	72.81
476.377	79.81
476.596	75.81
476.814	89.81
477.033	85.81
477.252	91.81
477.471	87.81
477.69	94.81
477.908	94.81
478.127	76.81
478.346	92.81
478.564	93.81
478.783	78.81
479.002	80.81
479.22	87.81
479.439	96.81
479.658	85.81
479.876	86.81
480.095	80.81
480.313	72.81
480.532	94.81
480.751	86.81
480.969	92.81
481.188	85.81
481.406	87.81
481.624	78.81
481.843	93.81
482.061	83.81
482.28	80.81
482.498	81.81
482.717	85.81
482.935	78.81
483.153	101.81
483.372	73.81
483.59	79.81
483.808	85.81
484.027	81.81
484.245	90.81
484.463	86.81
484.681	83.81
484.9	78.81
485.118	87.81
485.336	87.81
485.554	97.81
485.772	101.81
485.99	96.81
486.209	100.81
486.427	109.81
486.645	107.81
486.863	104.81
487.081	104.81
487.299	99.81
487.517	89.81
487.735	97.81
487.953	102.81
488.171	78.81
488.389	93.81
488.607	85.81
488.825	92.81
489.043	89.81
489.261	86.81
489.479	99.81
489.696	91.81
489.914	83.81
490.132	78.81
490.35	96.81
490.568	94.81
490.786	88.81
491.003	85.81
491.221	96.81
491.439	80.81
491.657	90.81
491.874	90.81
492.092	91.81
492.31	85.81
492.527	95.81
492.745	98.81
492.963	87.81
493.18	83.81
493.398	86.81
493.615	109.81
493.833	91.81
494.05	81.81
494.268	93.81
494.485	79.81
494.703	92.81
494.92	95.81
495.138	89.81
495.355	86.81
495.573	82.81
495.79	83.81
496.008	90.81
496.225	90.81
496.442	96.81
496.66	86.81
496.877	93.81
497.094	74.81
497.312	93.81
497.529	93.81
497.746	83.81
497.963	79.81
498.181	87.81
498.398	99.81
498.615	97.81
498.832	109.81
499.049	90.81
499.267	84.81
499.484	96.81
499.701	75.81
499.918	88.81
500.135	99.81
500.352	90.81
500.569	82.81
500.786	82.81
501.003	94.81
501.22	94.81
501.437	76.81
501.654	86.81
501.871	90.81
502.088	90.81
502.305	82.81
502.522	94.81
502.739	78.81
502.956	84.81
503.172	67.81
503.389	81.81
503.606	104.81
503.823	98.81
504.04	86.81
504.256	96.81
504.473	93.81
504.69	106.81
504.907	80.81
505.123	87.81
505.34	86.81
505.557	87.81
505.773	98.81
505.99	89.81
506.207	87.81
506.423	83.81
506.64	86.81
506.856	90.81
507.073	104.81
507.289	83.81
507.506	88.81
507.722	106.81
507.939	111.81
508.155	96.81
508.372	92.81
508.588	92.81
508.805	76.81
509.021	97.81
509.238	110.81
509.454	89.81
509.67	89.81
509.887	99.81
510.103	128.81
510.319	194.81
510.536	626.81
510.752	1995.81
510.968	578.81
511.184	140.81
511.401	109.81
511.617	100.81
511.833	93.81
512.049	106.81
512.265	90.81
512.481	97.81
512.698	94.81
512.914	90.81
513.13	91.81
513.346	94.81
513.562	87.81
513.778	76.81
513.994	88.81
514.21	87.81
514.426	119.81
514.642	118.81
514.858	115.81
515.074	169.81
515.29	386.81
515.506	1223.81
515.721	463.81
515.937	146.81
516.153	103.81
516.369	88.81
516.585	80.81
516.801	89.81
517.016	96.81
517.232	85.81
517.448	96.81
