Data from Uncirc_2008_H10_HRD10591_00074.txt Node
Date: Wed Jan 03 10:15:45 EST 2024
User: Yrep
Spectrometer: HR+D1059
Trigger mode: 1
Integration Time (sec): 1.000000E-1
Scans to average: 1
Electric dark correction enabled: true
Nonlinearity correction enabled: false
Boxcar width: 0
XAxis mode: Wavelengths
Number of Pixels in Spectrum: 2048
>>>>>Begin Spectral Data<<<<<
223.165	-29.25
223.4	-29.25
223.635	-29.25
223.869	-27.25
224.104	-20.25
224.338	-17.25
224.573	-2.25
224.808	0.75
225.042	-13.25
225.277	-1.25
225.511	10.75
225.746	10.75
225.98	-7.25
226.215	0.75
226.449	5.75
226.683	21.75
226.918	30.75
227.152	36.75
227.387	31.75
227.621	44.75
227.856	57.75
228.09	36.75
228.324	49.75
228.559	48.75
228.793	63.75
229.027	59.75
229.262	64.75
229.496	57.75
229.73	80.75
229.964	84.75
230.199	68.75
230.433	74.75
230.667	59.75
230.901	76.75
231.136	62.75
231.37	82.75
231.604	78.75
231.838	62.75
232.072	71.75
232.306	76.75
232.541	90.75
232.775	78.75
233.009	91.75
233.243	72.75
233.477	79.75
233.711	78.75
233.945	82.75
234.179	70.75
234.413	74.75
234.647	62.75
234.881	72.75
235.115	93.75
235.349	68.75
235.583	76.75
235.817	78.75
236.051	86.75
236.285	80.75
236.519	81.75
236.753	83.75
236.987	75.75
237.221	81.75
237.455	88.75
237.689	80.75
237.922	77.75
238.156	72.75
238.39	82.75
238.624	70.75
238.858	73.75
239.091	75.75
239.325	73.75
239.559	76.75
239.793	91.75
240.027	66.75
240.26	74.75
240.494	79.75
240.728	72.75
240.961	63.75
241.195	73.75
241.429	69.75
241.662	65.75
241.896	71.75
242.13	78.75
242.363	76.75
242.597	70.75
242.83	82.75
243.064	75.75
243.298	77.75
243.531	62.75
243.765	59.75
243.998	76.75
244.232	75.75
244.465	80.75
244.699	75.75
244.932	64.75
245.166	70.75
245.399	77.75
245.633	76.75
245.866	74.75
246.099	73.75
246.333	82.75
246.566	73.75
246.8	81.75
247.033	75.75
247.266	80.75
247.5	87.75
247.733	63.75
247.966	72.75
248.2	82.75
248.433	87.75
248.666	80.75
248.899	71.75
249.133	64.75
249.366	95.75
249.599	98.75
249.832	73.75
250.066	78.75
250.299	79.75
250.532	69.75
250.765	74.75
250.998	69.75
251.231	64.75
251.465	72.75
251.698	80.75
251.931	65.75
252.164	85.75
252.397	85.75
252.63	74.75
252.863	86.75
253.096	84.75
253.329	73.75
253.562	72.75
253.795	88.75
254.028	88.75
254.261	79.75
254.494	82.75
254.727	74.75
254.96	70.75
255.193	79.75
255.426	80.75
255.659	75.75
255.892	88.75
256.124	81.75
256.357	86.75
256.59	76.75
256.823	88.75
257.056	70.75
257.289	86.75
257.521	75.75
257.754	79.75
257.987	89.75
258.22	82.75
258.452	85.75
258.685	97.75
258.918	81.75
259.151	79.75
259.383	74.75
259.616	74.75
259.849	82.75
260.081	65.75
260.314	66.75
260.547	74.75
260.779	81.75
261.012	89.75
261.244	94.75
261.477	94.75
261.71	76.75
261.942	93.75
262.175	95.75
262.407	105.75
262.64	75.75
262.872	79.75
263.105	71.75
263.337	68.75
263.57	79.75
263.802	82.75
264.035	82.75
264.267	76.75
264.499	86.75
264.732	94.75
264.964	73.75
265.197	77.75
265.429	86.75
265.661	84.75
265.894	80.75
266.126	75.75
266.358	64.75
266.591	92.75
266.823	90.75
267.055	81.75
267.287	77.75
267.52	89.75
267.752	79.75
267.984	75.75
268.216	73.75
268.448	87.75
268.681	77.75
268.913	81.75
269.145	65.75
269.377	91.75
269.609	80.75
269.841	82.75
270.073	78.75
270.306	90.75
270.538	81.75
270.77	77.75
271.002	73.75
271.234	91.75
271.466	87.75
271.698	91.75
271.93	86.75
272.162	81.75
272.394	98.75
272.626	81.75
272.858	69.75
273.09	83.75
273.322	86.75
273.553	76.75
273.785	81.75
274.017	74.75
274.249	87.75
274.481	83.75
274.713	78.75
274.945	72.75
275.176	90.75
275.408	76.75
275.64	78.75
275.872	85.75
276.104	88.75
276.335	95.75
276.567	101.75
276.799	90.75
277.031	95.75
277.262	81.75
277.494	89.75
277.726	88.75
277.957	88.75
278.189	85.75
278.421	78.75
278.652	72.75
278.884	89.75
279.115	89.75
279.347	86.75
279.579	89.75
279.81	88.75
280.042	99.75
280.273	81.75
280.505	70.75
280.736	76.75
280.968	81.75
281.199	74.75
281.431	91.75
281.662	80.75
281.894	90.75
282.125	73.75
282.356	117.75
282.588	118.75
282.819	108.75
283.051	84.75
283.282	80.75
283.513	81.75
283.745	83.75
283.976	87.75
284.207	78.75
284.439	71.75
284.67	88.75
284.901	87.75
285.132	82.75
285.364	90.75
285.595	81.75
285.826	82.75
286.057	88.75
286.288	96.75
286.52	76.75
286.751	85.75
286.982	83.75
287.213	78.75
287.444	74.75
287.675	92.75
287.906	89.75
288.138	86.75
288.369	89.75
288.6	97.75
288.831	76.75
289.062	87.75
289.293	94.75
289.524	81.75
289.755	85.75
289.986	79.75
290.217	100.75
290.448	74.75
290.679	79.75
290.91	95.75
291.141	81.75
291.371	83.75
291.602	85.75
291.833	85.75
292.064	76.75
292.295	86.75
292.526	88.75
292.757	88.75
292.987	93.75
293.218	68.75
293.449	81.75
293.68	86.75
293.91	81.75
294.141	89.75
294.372	85.75
294.603	92.75
294.833	82.75
295.064	82.75
295.295	74.75
295.525	93.75
295.756	98.75
295.987	107.75
296.217	123.75
296.448	113.75
296.679	83.75
296.909	81.75
297.14	87.75
297.37	85.75
297.601	82.75
297.831	75.75
298.062	94.75
298.292	100.75
298.523	93.75
298.753	82.75
298.984	78.75
299.214	70.75
299.445	92.75
299.675	93.75
299.905	91.75
300.136	89.75
300.366	75.75
300.597	93.75
300.827	79.75
301.057	102.75
301.288	92.75
301.518	84.75
301.748	74.75
301.979	93.75
302.209	97.75
302.439	65.75
302.669	103.75
302.9	90.75
303.13	76.75
303.36	100.75
303.59	102.75
303.82	103.75
304.051	91.75
304.281	86.75
304.511	89.75
304.741	79.75
304.971	89.75
305.201	90.75
305.431	91.75
305.661	97.75
305.891	85.75
306.121	97.75
306.352	98.75
306.582	92.75
306.812	86.75
307.042	90.75
307.272	82.75
307.502	97.75
307.731	88.75
307.961	85.75
308.191	95.75
308.421	90.75
308.651	99.75
308.881	93.75
309.111	89.75
309.341	98.75
309.571	97.75
309.8	94.75
310.03	101.75
310.26	90.75
310.49	98.75
310.72	89.75
310.949	94.75
311.179	99.75
311.409	90.75
311.639	92.75
311.868	105.75
312.098	95.75
312.328	86.75
312.557	98.75
312.787	88.75
313.017	85.75
313.246	95.75
313.476	75.75
313.706	71.75
313.935	76.75
314.165	102.75
314.394	107.75
314.624	77.75
314.853	84.75
315.083	80.75
315.312	98.75
315.542	88.75
315.771	96.75
316.001	91.75
316.23	86.75
316.46	80.75
316.689	99.75
316.919	101.75
317.148	86.75
317.377	78.75
317.607	89.75
317.836	103.75
318.065	109.75
318.295	82.75
318.524	82.75
318.753	81.75
318.983	93.75
319.212	102.75
319.441	93.75
319.67	104.75
319.9	74.75
320.129	81.75
320.358	97.75
320.587	95.75
320.816	98.75
321.046	91.75
321.275	118.75
321.504	78.75
321.733	103.75
321.962	102.75
322.191	98.75
322.42	114.75
322.649	112.75
322.878	91.75
323.108	117.75
323.337	100.75
323.566	125.75
323.795	152.75
324.024	192.75
324.253	341.75
324.482	695.75
324.71	1426.75
324.939	1836.75
325.168	705.75
325.397	225.75
325.626	132.75
325.855	124.75
326.084	124.75
326.313	136.75
326.542	142.75
326.77	197.75
326.999	392.75
327.228	797.75
327.457	1436.75
327.686	1170.75
327.914	309.75
328.143	169.75
328.372	138.75
328.6	102.75
328.829	95.75
329.058	101.75
329.287	100.75
329.515	106.75
329.744	101.75
329.972	91.75
330.201	94.75
330.43	109.75
330.658	108.75
330.887	134.75
331.115	113.75
331.344	96.75
331.572	89.75
331.801	85.75
332.03	97.75
332.258	95.75
332.486	105.75
332.715	91.75
332.943	92.75
333.172	110.75
333.4	98.75
333.629	100.75
333.857	116.75
334.085	100.75
334.314	79.75
334.542	103.75
334.771	95.75
334.999	101.75
335.227	73.75
335.455	104.75
335.684	81.75
335.912	101.75
336.14	103.75
336.369	88.75
336.597	107.75
336.825	79.75
337.053	79.75
337.281	83.75
337.51	99.75
337.738	95.75
337.966	78.75
338.194	97.75
338.422	81.75
338.65	88.75
338.878	90.75
339.106	82.75
339.334	84.75
339.562	105.75
339.79	95.75
340.018	88.75
340.246	93.75
340.474	71.75
340.702	77.75
340.93	77.75
341.158	89.75
341.386	92.75
341.614	89.75
341.842	93.75
342.07	100.75
342.298	96.75
342.526	84.75
342.754	93.75
342.981	69.75
343.209	95.75
343.437	90.75
343.665	94.75
343.893	93.75
344.12	93.75
344.348	82.75
344.576	82.75
344.804	80.75
345.031	88.75
345.259	87.75
345.487	100.75
345.714	96.75
345.942	91.75
346.17	84.75
346.397	82.75
346.625	92.75
346.853	99.75
347.08	89.75
347.308	92.75
347.535	88.75
347.763	94.75
347.99	97.75
348.218	104.75
348.445	89.75
348.673	89.75
348.9	75.75
349.128	88.75
349.355	89.75
349.583	83.75
349.81	98.75
350.037	92.75
350.265	93.75
350.492	75.75
350.72	92.75
350.947	90.75
351.174	109.75
351.402	100.75
351.629	98.75
351.856	106.75
352.083	102.75
352.311	89.75
352.538	98.75
352.765	89.75
352.992	102.75
353.22	95.75
353.447	88.75
353.674	108.75
353.901	85.75
354.128	89.75
354.355	105.75
354.583	106.75
354.81	91.75
355.037	93.75
355.264	97.75
355.491	93.75
355.718	107.75
355.945	98.75
356.172	88.75
356.399	100.75
356.626	88.75
356.853	99.75
357.08	105.75
357.307	81.75
357.534	103.75
357.761	88.75
357.988	93.75
358.215	88.75
358.441	91.75
358.668	85.75
358.895	85.75
359.122	88.75
359.349	89.75
359.576	101.75
359.802	101.75
360.029	100.75
360.256	88.75
360.483	82.75
360.709	82.75
360.936	79.75
361.163	100.75
361.39	92.75
361.616	95.75
361.843	68.75
362.07	65.75
362.296	80.75
362.523	77.75
362.749	90.75
362.976	90.75
363.203	101.75
363.429	89.75
363.656	95.75
363.882	92.75
364.109	87.75
364.335	82.75
364.562	100.75
364.788	79.75
365.015	91.75
365.241	109.75
365.468	99.75
365.694	102.75
365.92	80.75
366.147	83.75
366.373	76.75
366.599	91.75
366.826	95.75
367.052	99.75
367.278	80.75
367.505	77.75
367.731	91.75
367.957	92.75
368.184	86.75
368.41	86.75
368.636	105.75
368.862	115.75
369.089	103.75
369.315	79.75
369.541	102.75
369.767	78.75
369.993	84.75
370.219	80.75
370.445	97.75
370.672	97.75
370.898	101.75
371.124	82.75
371.35	99.75
371.576	92.75
371.802	84.75
372.028	81.75
372.254	83.75
372.48	85.75
372.706	84.75
372.932	79.75
373.158	76.75
373.384	100.75
373.61	81.75
373.835	88.75
374.061	95.75
374.287	89.75
374.513	86.75
374.739	91.75
374.965	97.75
375.191	87.75
375.416	86.75
375.642	91.75
375.868	87.75
376.094	88.75
376.319	79.75
376.545	86.75
376.771	71.75
376.997	88.75
377.222	86.75
377.448	82.75
377.674	87.75
377.899	86.75
378.125	76.75
378.35	90.75
378.576	96.75
378.802	82.75
379.027	82.75
379.253	93.75
379.478	77.75
379.704	89.75
379.929	86.75
380.155	87.75
380.38	98.75
380.606	103.75
380.831	82.75
381.057	80.75
381.282	77.75
381.507	82.75
381.733	100.75
381.958	103.75
382.184	93.75
382.409	112.75
382.634	102.75
382.86	96.75
383.085	92.75
383.31	97.75
383.535	87.75
383.761	87.75
383.986	93.75
384.211	97.75
384.436	78.75
384.662	92.75
384.887	100.75
385.112	99.75
385.337	105.75
385.562	96.75
385.787	95.75
386.013	99.75
386.238	101.75
386.463	93.75
386.688	96.75
386.913	102.75
387.138	97.75
387.363	88.75
387.588	98.75
387.813	89.75
388.038	92.75
388.263	96.75
388.488	99.75
388.713	86.75
388.938	108.75
389.163	88.75
389.387	104.75
389.612	100.75
389.837	79.75
390.062	97.75
390.287	92.75
390.512	88.75
390.736	97.75
390.961	88.75
391.186	93.75
391.411	95.75
391.636	80.75
391.86	86.75
392.085	73.75
392.31	86.75
392.534	84.75
392.759	78.75
392.984	84.75
393.208	88.75
393.433	104.75
393.658	80.75
393.882	87.75
394.107	82.75
394.331	85.75
394.556	78.75
394.78	80.75
395.005	93.75
395.229	79.75
395.454	91.75
395.678	91.75
395.903	87.75
396.127	95.75
396.352	81.75
396.576	80.75
396.801	82.75
397.025	80.75
397.249	83.75
397.474	89.75
397.698	81.75
397.922	85.75
398.147	72.75
398.371	89.75
398.595	81.75
398.82	92.75
399.044	97.75
399.268	81.75
399.492	72.75
399.717	96.75
399.941	98.75
400.165	92.75
400.389	77.75
400.613	91.75
400.837	74.75
401.062	89.75
401.286	86.75
401.51	82.75
401.734	91.75
401.958	92.75
402.182	105.75
402.406	151.75
402.63	127.75
402.854	89.75
403.078	80.75
403.302	99.75
403.526	87.75
403.75	88.75
403.974	89.75
404.198	86.75
404.422	89.75
404.645	93.75
404.869	73.75
405.093	88.75
405.317	84.75
405.541	73.75
405.765	76.75
405.988	113.75
406.212	170.75
406.436	198.75
406.66	139.75
406.883	96.75
407.107	88.75
407.331	92.75
407.555	87.75
407.778	95.75
408.002	95.75
408.226	93.75
408.449	89.75
408.673	73.75
408.896	85.75
409.12	85.75
409.344	88.75
409.567	94.75
409.791	90.75
410.014	79.75
410.238	90.75
410.461	89.75
410.685	89.75
410.908	101.75
411.132	89.75
411.355	93.75
411.578	85.75
411.802	85.75
412.025	95.75
412.249	79.75
412.472	78.75
412.695	100.75
412.919	83.75
413.142	91.75
413.365	91.75
413.589	88.75
413.812	69.75
414.035	95.75
414.258	108.75
414.482	75.75
414.705	73.75
414.928	88.75
415.151	88.75
415.374	82.75
415.597	87.75
415.821	80.75
416.044	90.75
416.267	90.75
416.49	81.75
416.713	93.75
416.936	86.75
417.159	78.75
417.382	80.75
417.605	101.75
417.828	81.75
418.051	98.75
418.274	90.75
418.497	84.75
418.72	82.75
418.943	99.75
419.166	80.75
419.389	93.75
419.611	86.75
419.834	81.75
420.057	69.75
420.28	96.75
420.503	83.75
420.726	85.75
420.948	83.75
421.171	88.75
421.394	90.75
421.617	85.75
421.839	101.75
422.062	82.75
422.285	81.75
422.507	89.75
422.73	87.75
422.953	80.75
423.175	96.75
423.398	83.75
423.621	88.75
423.843	87.75
424.066	69.75
424.288	97.75
424.511	85.75
424.733	85.75
424.956	89.75
425.178	95.75
425.401	107.75
425.623	85.75
425.846	98.75
426.068	79.75
426.291	85.75
426.513	92.75
426.735	90.75
426.958	96.75
427.18	96.75
427.402	129.75
427.625	150.75
427.847	113.75
428.069	94.75
428.292	92.75
428.514	84.75
428.736	92.75
428.958	72.75
429.181	86.75
429.403	72.75
429.625	77.75
429.847	70.75
430.069	100.75
430.292	94.75
430.514	85.75
430.736	98.75
430.958	84.75
431.18	87.75
431.402	91.75
431.624	80.75
431.846	80.75
432.068	87.75
432.29	81.75
432.512	90.75
432.734	99.75
432.956	88.75
433.178	86.75
433.4	100.75
433.622	68.75
433.844	77.75
434.066	77.75
434.287	82.75
434.509	95.75
434.731	100.75
434.953	84.75
435.175	71.75
435.397	94.75
435.618	77.75
435.84	101.75
436.062	106.75
436.284	112.75
436.505	93.75
436.727	96.75
436.949	80.75
437.17	85.75
437.392	85.75
437.614	75.75
437.835	96.75
438.057	111.75
438.278	96.75
438.5	87.75
438.721	101.75
438.943	105.75
439.165	83.75
439.386	92.75
439.608	82.75
439.829	93.75
440.05	112.75
440.272	121.75
440.493	90.75
440.715	84.75
440.936	74.75
441.158	93.75
441.379	68.75
441.6	101.75
441.822	91.75
442.043	93.75
442.264	108.75
442.486	95.75
442.707	86.75
442.928	87.75
443.149	103.75
443.371	114.75
443.592	105.75
443.813	89.75
444.034	102.75
444.255	84.75
444.476	93.75
444.698	87.75
444.919	84.75
445.14	119.75
445.361	112.75
445.582	105.75
445.803	103.75
446.024	114.75
446.245	128.75
446.466	104.75
446.687	73.75
446.908	92.75
447.129	96.75
447.35	89.75
447.571	98.75
447.792	92.75
448.013	100.75
448.234	97.75
448.455	89.75
448.675	109.75
448.896	116.75
449.117	96.75
449.338	91.75
449.559	105.75
449.779	123.75
450	102.75
450.221	86.75
450.442	79.75
450.662	89.75
450.883	87.75
451.104	103.75
451.324	87.75
451.545	84.75
451.766	79.75
451.986	80.75
452.207	85.75
452.428	82.75
452.648	84.75
452.869	99.75
453.089	107.75
453.31	111.75
453.53	108.75
453.751	85.75
453.971	100.75
454.192	92.75
454.412	82.75
454.633	84.75
454.853	88.75
455.073	77.75
455.294	86.75
455.514	100.75
455.734	86.75
455.955	68.75
456.175	83.75
456.395	86.75
456.616	85.75
456.836	80.75
457.056	91.75
457.276	82.75
457.497	87.75
457.717	88.75
457.937	84.75
458.157	80.75
458.377	78.75
458.598	89.75
458.818	136.75
459.038	134.75
459.258	112.75
459.478	94.75
459.698	81.75
459.918	79.75
460.138	91.75
460.358	95.75
460.578	89.75
460.798	70.75
461.018	80.75
461.238	85.75
461.458	81.75
461.678	83.75
461.898	74.75
462.118	79.75
462.338	71.75
462.558	86.75
462.777	78.75
462.997	81.75
463.217	84.75
463.437	81.75
463.657	89.75
463.876	77.75
464.096	90.75
464.316	101.75
464.536	91.75
464.755	99.75
464.975	96.75
465.195	146.75
465.414	148.75
465.634	79.75
465.854	89.75
466.073	95.75
466.293	83.75
466.512	81.75
466.732	89.75
466.951	80.75
467.171	82.75
467.391	92.75
467.61	92.75
467.829	80.75
468.049	85.75
468.268	83.75
468.488	81.75
468.707	87.75
468.927	88.75
469.146	80.75
469.365	72.75
469.585	76.75
469.804	89.75
470.023	82.75
470.243	91.75
470.462	89.75
470.681	106.75
470.901	82.75
471.12	90.75
471.339	73.75
471.558	79.75
471.777	73.75
471.997	100.75
472.216	88.75
472.435	96.75
472.654	76.75
472.873	78.75
473.092	70.75
473.311	81.75
473.53	80.75
473.749	93.75
473.968	101.75
474.187	93.75
474.406	94.75
474.625	101.75
474.844	87.75
475.063	94.75
475.282	78.75
475.501	85.75
475.72	91.75
475.939	87.75
476.158	76.75
476.377	80.75
476.596	90.75
476.814	77.75
477.033	76.75
477.252	72.75
477.471	82.75
477.69	71.75
477.908	92.75
478.127	79.75
478.346	80.75
478.564	87.75
478.783	86.75
479.002	88.75
479.22	95.75
479.439	105.75
479.658	89.75
479.876	93.75
480.095	95.75
480.313	94.75
480.532	102.75
480.751	73.75
480.969	66.75
481.188	92.75
481.406	93.75
481.624	91.75
481.843	94.75
482.061	88.75
482.28	78.75
482.498	68.75
482.717	77.75
482.935	79.75
483.153	90.75
483.372	88.75
483.59	89.75
483.808	76.75
484.027	93.75
484.245	89.75
484.463	101.75
484.681	93.75
484.9	97.75
485.118	93.75
485.336	86.75
485.554	86.75
485.772	108.75
485.99	91.75
486.209	97.75
486.427	98.75
486.645	102.75
486.863	100.75
487.081	93.75
487.299	95.75
487.517	96.75
487.735	97.75
487.953	84.75
488.171	100.75
488.389	89.75
488.607	106.75
488.825	93.75
489.043	78.75
489.261	95.75
489.479	95.75
489.696	104.75
489.914	95.75
490.132	82.75
490.35	90.75
490.568	73.75
490.786	81.75
491.003	96.75
491.221	83.75
491.439	82.75
491.657	80.75
491.874	88.75
492.092	85.75
492.31	91.75
492.527	93.75
492.745	86.75
492.963	90.75
493.18	91.75
493.398	95.75
493.615	100.75
493.833	90.75
494.05	75.75
494.268	90.75
494.485	77.75
494.703	88.75
494.92	89.75
495.138	90.75
495.355	90.75
495.573	72.75
495.79	101.75
496.008	100.75
496.225	77.75
496.442	81.75
496.66	86.75
496.877	88.75
497.094	100.75
497.312	92.75
497.529	86.75
497.746	94.75
497.963	90.75
498.181	82.75
498.398	96.75
498.615	102.75
498.832	92.75
499.049	82.75
499.267	89.75
499.484	82.75
499.701	81.75
499.918	94.75
500.135	82.75
500.352	91.75
500.569	86.75
500.786	82.75
501.003	74.75
501.22	82.75
501.437	96.75
501.654	100.75
501.871	82.75
502.088	80.75
502.305	88.75
502.522	94.75
502.739	91.75
502.956	82.75
503.172	95.75
503.389	90.75
503.606	96.75
503.823	89.75
504.04	89.75
504.256	107.75
504.473	75.75
504.69	87.75
504.907	90.75
505.123	81.75
505.34	81.75
505.557	84.75
505.773	99.75
505.99	95.75
506.207	94.75
506.423	86.75
506.64	82.75
506.856	97.75
507.073	92.75
507.289	87.75
507.506	90.75
507.722	105.75
507.939	104.75
508.155	92.75
508.372	95.75
508.588	90.75
508.805	76.75
509.021	86.75
509.238	81.75
509.454	106.75
509.67	92.75
509.887	107.75
510.103	116.75
510.319	217.75
510.536	704.75
510.752	2198.75
510.968	602.75
511.184	146.75
511.401	104.75
511.617	102.75
511.833	89.75
512.049	92.75
512.265	105.75
512.481	76.75
512.698	81.75
512.914	83.75
513.13	90.75
513.346	91.75
513.562	74.75
513.778	98.75
513.994	96.75
514.21	90.75
514.426	120.75
514.642	133.75
514.858	97.75
515.074	151.75
515.29	402.75
515.506	1311.75
515.721	493.75
515.937	137.75
516.153	103.75
516.369	103.75
516.585	87.75
516.801	82.75
517.016	98.75
