Data from Uncirc_2008_H10_HRD10591_00023.txt Node
Date: Wed Jan 03 10:15:35 EST 2024
User: Yrep
Spectrometer: HR+D1059
Trigger mode: 1
Integration Time (sec): 1.000000E-1
Scans to average: 1
Electric dark correction enabled: true
Nonlinearity correction enabled: false
Boxcar width: 0
XAxis mode: Wavelengths
Number of Pixels in Spectrum: 2048
>>>>>Begin Spectral Data<<<<<
223.165	-20.88
223.4	-20.88
223.635	-20.88
223.869	-29.88
224.104	-22.88
224.338	-15.88
224.573	-23.88
224.808	-13.88
225.042	-8.88
225.277	3.12
225.511	-9.88
225.746	6.12
225.98	9.12
226.215	12.12
226.449	20.12
226.683	16.12
226.918	39.12
227.152	40.12
227.387	19.12
227.621	33.12
227.856	49.12
228.09	48.12
228.324	55.12
228.559	54.12
228.793	47.12
229.027	70.12
229.262	65.12
229.496	61.12
229.73	68.12
229.964	69.12
230.199	75.12
230.433	92.12
230.667	76.12
230.901	90.12
231.136	61.12
231.37	83.12
231.604	74.12
231.838	70.12
232.072	82.12
232.306	87.12
232.541	82.12
232.775	74.12
233.009	89.12
233.243	90.12
233.477	73.12
233.711	87.12
233.945	78.12
234.179	80.12
234.413	61.12
234.647	84.12
234.881	82.12
235.115	78.12
235.349	70.12
235.583	66.12
235.817	69.12
236.051	69.12
236.285	72.12
236.519	86.12
236.753	86.12
236.987	76.12
237.221	80.12
237.455	79.12
237.689	55.12
237.922	80.12
238.156	71.12
238.39	64.12
238.624	77.12
238.858	79.12
239.091	72.12
239.325	76.12
239.559	72.12
239.793	61.12
240.027	90.12
240.26	80.12
240.494	82.12
240.728	85.12
240.961	78.12
241.195	82.12
241.429	79.12
241.662	71.12
241.896	72.12
242.13	70.12
242.363	66.12
242.597	73.12
242.83	79.12
243.064	75.12
243.298	78.12
243.531	78.12
243.765	77.12
243.998	79.12
244.232	80.12
244.465	84.12
244.699	79.12
244.932	70.12
245.166	77.12
245.399	75.12
245.633	80.12
245.866	63.12
246.099	71.12
246.333	83.12
246.566	82.12
246.8	79.12
247.033	78.12
247.266	74.12
247.5	69.12
247.733	74.12
247.966	85.12
248.2	81.12
248.433	76.12
248.666	76.12
248.899	85.12
249.133	81.12
249.366	98.12
249.599	86.12
249.832	77.12
250.066	90.12
250.299	70.12
250.532	77.12
250.765	79.12
250.998	91.12
251.231	80.12
251.465	79.12
251.698	75.12
251.931	80.12
252.164	89.12
252.397	67.12
252.63	78.12
252.863	74.12
253.096	84.12
253.329	87.12
253.562	61.12
253.795	78.12
254.028	88.12
254.261	76.12
254.494	71.12
254.727	81.12
254.96	76.12
255.193	87.12
255.426	81.12
255.659	81.12
255.892	79.12
256.124	73.12
256.357	75.12
256.59	69.12
256.823	93.12
257.056	83.12
257.289	84.12
257.521	86.12
257.754	87.12
257.987	74.12
258.22	89.12
258.452	76.12
258.685	82.12
258.918	79.12
259.151	86.12
259.383	79.12
259.616	74.12
259.849	58.12
260.081	82.12
260.314	77.12
260.547	75.12
260.779	76.12
261.012	85.12
261.244	80.12
261.477	72.12
261.71	100.12
261.942	111.12
262.175	120.12
262.407	91.12
262.64	73.12
262.872	70.12
263.105	86.12
263.337	86.12
263.57	72.12
263.802	90.12
264.035	85.12
264.267	88.12
264.499	76.12
264.732	90.12
264.964	86.12
265.197	73.12
265.429	94.12
265.661	93.12
265.894	86.12
266.126	83.12
266.358	86.12
266.591	85.12
266.823	89.12
267.055	78.12
267.287	89.12
267.52	92.12
267.752	70.12
267.984	74.12
268.216	82.12
268.448	74.12
268.681	100.12
268.913	89.12
269.145	76.12
269.377	90.12
269.609	70.12
269.841	63.12
270.073	60.12
270.306	86.12
270.538	77.12
270.77	73.12
271.002	78.12
271.234	84.12
271.466	77.12
271.698	91.12
271.93	81.12
272.162	84.12
272.394	82.12
272.626	73.12
272.858	76.12
273.09	88.12
273.322	80.12
273.553	82.12
273.785	71.12
274.017	80.12
274.249	82.12
274.481	79.12
274.713	85.12
274.945	88.12
275.176	101.12
275.408	70.12
275.64	92.12
275.872	95.12
276.104	104.12
276.335	73.12
276.567	93.12
276.799	108.12
277.031	97.12
277.262	90.12
277.494	77.12
277.726	86.12
277.957	92.12
278.189	70.12
278.421	82.12
278.652	88.12
278.884	88.12
279.115	81.12
279.347	76.12
279.579	91.12
279.81	85.12
280.042	86.12
280.273	84.12
280.505	83.12
280.736	92.12
280.968	77.12
281.199	81.12
281.431	89.12
281.662	95.12
281.894	84.12
282.125	101.12
282.356	117.12
282.588	134.12
282.819	119.12
283.051	99.12
283.282	96.12
283.513	86.12
283.745	72.12
283.976	87.12
284.207	100.12
284.439	80.12
284.67	83.12
284.901	81.12
285.132	80.12
285.364	86.12
285.595	81.12
285.826	77.12
286.057	90.12
286.288	83.12
286.52	76.12
286.751	82.12
286.982	94.12
287.213	90.12
287.444	82.12
287.675	81.12
287.906	74.12
288.138	86.12
288.369	94.12
288.6	95.12
288.831	86.12
289.062	84.12
289.293	90.12
289.524	89.12
289.755	68.12
289.986	77.12
290.217	78.12
290.448	89.12
290.679	80.12
290.91	80.12
291.141	85.12
291.371	82.12
291.602	76.12
291.833	77.12
292.064	85.12
292.295	105.12
292.526	101.12
292.757	91.12
292.987	90.12
293.218	79.12
293.449	89.12
293.68	97.12
293.91	91.12
294.141	81.12
294.372	86.12
294.603	90.12
294.833	85.12
295.064	77.12
295.295	90.12
295.525	83.12
295.756	103.12
295.987	124.12
296.217	120.12
296.448	110.12
296.679	93.12
296.909	83.12
297.14	82.12
297.37	86.12
297.601	88.12
297.831	79.12
298.062	76.12
298.292	83.12
298.523	107.12
298.753	95.12
298.984	91.12
299.214	81.12
299.445	77.12
299.675	86.12
299.905	84.12
300.136	77.12
300.366	82.12
300.597	90.12
300.827	104.12
301.057	97.12
301.288	102.12
301.518	91.12
301.748	101.12
301.979	106.12
302.209	87.12
302.439	81.12
302.669	80.12
302.9	84.12
303.13	90.12
303.36	78.12
303.59	100.12
303.82	109.12
304.051	79.12
304.281	84.12
304.511	91.12
304.741	93.12
304.971	82.12
305.201	90.12
305.431	85.12
305.661	100.12
305.891	88.12
306.121	91.12
306.352	102.12
306.582	94.12
306.812	95.12
307.042	68.12
307.272	90.12
307.502	101.12
307.731	101.12
307.961	99.12
308.191	89.12
308.421	93.12
308.651	82.12
308.881	94.12
309.111	88.12
309.341	79.12
309.571	89.12
309.8	85.12
310.03	92.12
310.26	104.12
310.49	87.12
310.72	98.12
310.949	100.12
311.179	88.12
311.409	86.12
311.639	82.12
311.868	81.12
312.098	98.12
312.328	82.12
312.557	94.12
312.787	89.12
313.017	102.12
313.246	88.12
313.476	86.12
313.706	86.12
313.935	98.12
314.165	89.12
314.394	104.12
314.624	100.12
314.853	97.12
315.083	97.12
315.312	82.12
315.542	96.12
315.771	88.12
316.001	80.12
316.23	83.12
316.46	90.12
316.689	81.12
316.919	97.12
317.148	92.12
317.377	105.12
317.607	100.12
317.836	93.12
318.065	84.12
318.295	93.12
318.524	89.12
318.753	107.12
318.983	102.12
319.212	96.12
319.441	96.12
319.67	119.12
319.9	88.12
320.129	83.12
320.358	95.12
320.587	98.12
320.816	94.12
321.046	98.12
321.275	106.12
321.504	101.12
321.733	92.12
321.962	102.12
322.191	90.12
322.42	115.12
322.649	106.12
322.878	103.12
323.108	114.12
323.337	113.12
323.566	126.12
323.795	148.12
324.024	198.12
324.253	364.12
324.482	732.12
324.71	1518.12
324.939	1932.12
325.168	743.12
325.397	216.12
325.626	145.12
325.855	136.12
326.084	132.12
326.313	134.12
326.542	128.12
326.77	238.12
326.999	447.12
327.228	862.12
327.457	1514.12
327.686	1236.12
327.914	350.12
328.143	203.12
328.372	150.12
328.6	119.12
328.829	113.12
329.058	136.12
329.287	113.12
329.515	102.12
329.744	91.12
329.972	107.12
330.201	94.12
330.43	105.12
330.658	120.12
330.887	126.12
331.115	111.12
331.344	100.12
331.572	96.12
331.801	103.12
332.03	106.12
332.258	94.12
332.486	81.12
332.715	87.12
332.943	100.12
333.172	102.12
333.4	97.12
333.629	89.12
333.857	105.12
334.085	94.12
334.314	102.12
334.542	105.12
334.771	95.12
334.999	100.12
335.227	89.12
335.455	91.12
335.684	93.12
335.912	88.12
336.14	94.12
336.369	85.12
336.597	94.12
336.825	96.12
337.053	85.12
337.281	89.12
337.51	80.12
337.738	79.12
337.966	81.12
338.194	94.12
338.422	97.12
338.65	81.12
338.878	93.12
339.106	88.12
339.334	100.12
339.562	78.12
339.79	94.12
340.018	105.12
340.246	90.12
340.474	96.12
340.702	96.12
340.93	107.12
341.158	90.12
341.386	100.12
341.614	89.12
341.842	91.12
342.07	95.12
342.298	97.12
342.526	88.12
342.754	83.12
342.981	91.12
343.209	71.12
343.437	95.12
343.665	92.12
343.893	99.12
344.12	89.12
344.348	92.12
344.576	91.12
344.804	85.12
345.031	100.12
345.259	101.12
345.487	82.12
345.714	91.12
345.942	85.12
346.17	88.12
346.397	100.12
346.625	97.12
346.853	92.12
347.08	106.12
347.308	77.12
347.535	102.12
347.763	94.12
347.99	106.12
348.218	106.12
348.445	102.12
348.673	96.12
348.9	105.12
349.128	91.12
349.355	87.12
349.583	95.12
349.81	90.12
350.037	96.12
350.265	86.12
350.492	98.12
350.72	107.12
350.947	99.12
351.174	120.12
351.402	98.12
351.629	88.12
351.856	88.12
352.083	108.12
352.311	109.12
352.538	112.12
352.765	108.12
352.992	119.12
353.22	113.12
353.447	98.12
353.674	103.12
353.901	90.12
354.128	107.12
354.355	109.12
354.583	106.12
354.81	93.12
355.037	87.12
355.264	87.12
355.491	97.12
355.718	85.12
355.945	93.12
356.172	102.12
356.399	108.12
356.626	80.12
356.853	107.12
357.08	101.12
357.307	91.12
357.534	95.12
357.761	105.12
357.988	92.12
358.215	89.12
358.441	89.12
358.668	82.12
358.895	88.12
359.122	82.12
359.349	88.12
359.576	96.12
359.802	107.12
360.029	99.12
360.256	103.12
360.483	99.12
360.709	80.12
360.936	90.12
361.163	93.12
361.39	98.12
361.616	92.12
361.843	90.12
362.07	102.12
362.296	80.12
362.523	86.12
362.749	88.12
362.976	83.12
363.203	76.12
363.429	91.12
363.656	98.12
363.882	93.12
364.109	93.12
364.335	99.12
364.562	85.12
364.788	86.12
365.015	105.12
365.241	86.12
365.468	102.12
365.694	106.12
365.92	101.12
366.147	85.12
366.373	93.12
366.599	91.12
366.826	102.12
367.052	86.12
367.278	97.12
367.505	103.12
367.731	89.12
367.957	96.12
368.184	105.12
368.41	97.12
368.636	102.12
368.862	99.12
369.089	109.12
369.315	94.12
369.541	101.12
369.767	86.12
369.993	80.12
370.219	88.12
370.445	96.12
370.672	83.12
370.898	94.12
371.124	87.12
371.35	88.12
371.576	88.12
371.802	98.12
372.028	78.12
372.254	87.12
372.48	92.12
372.706	94.12
372.932	97.12
373.158	105.12
373.384	84.12
373.61	80.12
373.835	92.12
374.061	89.12
374.287	85.12
374.513	93.12
374.739	88.12
374.965	77.12
375.191	94.12
375.416	97.12
375.642	91.12
375.868	94.12
376.094	80.12
376.319	90.12
376.545	90.12
376.771	78.12
376.997	94.12
377.222	95.12
377.448	101.12
377.674	97.12
377.899	93.12
378.125	92.12
378.35	70.12
378.576	82.12
378.802	100.12
379.027	84.12
379.253	86.12
379.478	87.12
379.704	98.12
379.929	88.12
380.155	67.12
380.38	86.12
380.606	94.12
380.831	81.12
381.057	85.12
381.282	95.12
381.507	102.12
381.733	81.12
381.958	89.12
382.184	96.12
382.409	94.12
382.634	110.12
382.86	101.12
383.085	93.12
383.31	99.12
383.535	103.12
383.761	111.12
383.986	102.12
384.211	101.12
384.436	99.12
384.662	99.12
384.887	85.12
385.112	114.12
385.337	103.12
385.562	113.12
385.787	103.12
386.013	104.12
386.238	107.12
386.463	107.12
386.688	103.12
386.913	120.12
387.138	103.12
387.363	113.12
387.588	93.12
387.813	94.12
388.038	114.12
388.263	98.12
388.488	111.12
388.713	112.12
388.938	88.12
389.163	79.12
389.387	93.12
389.612	101.12
389.837	94.12
390.062	96.12
390.287	97.12
390.512	86.12
390.736	92.12
390.961	92.12
391.186	97.12
391.411	114.12
391.636	88.12
391.86	80.12
392.085	75.12
392.31	86.12
392.534	85.12
392.759	88.12
392.984	86.12
393.208	94.12
393.433	74.12
393.658	67.12
393.882	89.12
394.107	95.12
394.331	81.12
394.556	74.12
394.78	87.12
395.005	99.12
395.229	88.12
395.454	87.12
395.678	81.12
395.903	86.12
396.127	88.12
396.352	76.12
396.576	88.12
396.801	92.12
397.025	89.12
397.249	76.12
397.474	82.12
397.698	81.12
397.922	81.12
398.147	92.12
398.371	80.12
398.595	93.12
398.82	88.12
399.044	97.12
399.268	74.12
399.492	88.12
399.717	88.12
399.941	98.12
400.165	94.12
400.389	82.12
400.613	94.12
400.837	81.12
401.062	82.12
401.286	89.12
401.51	78.12
401.734	99.12
401.958	102.12
402.182	108.12
402.406	154.12
402.63	123.12
402.854	87.12
403.078	90.12
403.302	82.12
403.526	76.12
403.75	92.12
403.974	72.12
404.198	80.12
404.422	77.12
404.645	67.12
404.869	84.12
405.093	85.12
405.317	95.12
405.541	88.12
405.765	82.12
405.988	125.12
406.212	154.12
406.436	199.12
406.66	139.12
406.883	106.12
407.107	90.12
407.331	88.12
407.555	87.12
407.778	90.12
408.002	94.12
408.226	93.12
408.449	101.12
408.673	92.12
408.896	82.12
409.12	89.12
409.344	94.12
409.567	85.12
409.791	86.12
410.014	105.12
410.238	97.12
410.461	91.12
410.685	92.12
410.908	102.12
411.132	113.12
411.355	108.12
411.578	97.12
411.802	98.12
412.025	86.12
412.249	87.12
412.472	77.12
412.695	80.12
412.919	91.12
413.142	87.12
413.365	87.12
413.589	92.12
413.812	86.12
414.035	87.12
414.258	95.12
414.482	89.12
414.705	102.12
414.928	97.12
415.151	93.12
415.374	91.12
415.597	84.12
415.821	92.12
416.044	84.12
416.267	93.12
416.49	87.12
416.713	86.12
416.936	82.12
417.159	78.12
417.382	104.12
417.605	92.12
417.828	91.12
418.051	90.12
418.274	100.12
418.497	87.12
418.72	91.12
418.943	92.12
419.166	76.12
419.389	85.12
419.611	82.12
419.834	89.12
420.057	89.12
420.28	79.12
420.503	80.12
420.726	70.12
420.948	90.12
421.171	82.12
421.394	85.12
421.617	78.12
421.839	92.12
422.062	94.12
422.285	85.12
422.507	98.12
422.73	99.12
422.953	85.12
423.175	100.12
423.398	76.12
423.621	92.12
423.843	94.12
424.066	97.12
424.288	81.12
424.511	80.12
424.733	91.12
424.956	101.12
425.178	93.12
425.401	93.12
425.623	96.12
425.846	94.12
426.068	92.12
426.291	97.12
426.513	105.12
426.735	82.12
426.958	75.12
427.18	100.12
427.402	119.12
427.625	145.12
427.847	116.12
428.069	98.12
428.292	74.12
428.514	85.12
428.736	73.12
428.958	79.12
429.181	84.12
429.403	74.12
429.625	76.12
429.847	84.12
430.069	82.12
430.292	77.12
430.514	91.12
430.736	81.12
430.958	81.12
431.18	70.12
431.402	86.12
431.624	77.12
431.846	89.12
432.068	85.12
432.29	77.12
432.512	87.12
432.734	86.12
432.956	80.12
433.178	77.12
433.4	104.12
433.622	98.12
433.844	92.12
434.066	82.12
434.287	88.12
434.509	70.12
434.731	97.12
434.953	93.12
435.175	86.12
435.397	89.12
435.618	84.12
435.84	103.12
436.062	110.12
436.284	97.12
436.505	106.12
436.727	94.12
436.949	86.12
437.17	89.12
437.392	80.12
437.614	89.12
437.835	106.12
438.057	103.12
438.278	104.12
438.5	101.12
438.721	118.12
438.943	93.12
439.165	97.12
439.386	91.12
439.608	92.12
439.829	94.12
440.05	108.12
440.272	134.12
440.493	100.12
440.715	90.12
440.936	84.12
441.158	92.12
441.379	81.12
441.6	98.12
441.822	98.12
442.043	108.12
442.264	81.12
442.486	88.12
442.707	99.12
442.928	101.12
443.149	110.12
443.371	112.12
443.592	97.12
443.813	102.12
444.034	118.12
444.255	97.12
444.476	95.12
444.698	89.12
444.919	77.12
445.14	119.12
445.361	119.12
445.582	105.12
445.803	137.12
446.024	128.12
446.245	124.12
446.466	105.12
446.687	89.12
446.908	97.12
447.129	82.12
447.35	100.12
447.571	84.12
447.792	94.12
448.013	105.12
448.234	100.12
448.455	110.12
448.675	128.12
448.896	106.12
449.117	95.12
449.338	98.12
449.559	120.12
449.779	128.12
450	106.12
450.221	78.12
450.442	83.12
450.662	93.12
450.883	105.12
451.104	120.12
451.324	88.12
451.545	70.12
451.766	92.12
451.986	75.12
452.207	89.12
452.428	89.12
452.648	97.12
452.869	96.12
453.089	100.12
453.31	113.12
453.53	91.12
453.751	84.12
453.971	111.12
454.192	105.12
454.412	99.12
454.633	66.12
454.853	76.12
455.073	73.12
455.294	83.12
455.514	88.12
455.734	76.12
455.955	96.12
456.175	86.12
456.395	82.12
456.616	83.12
456.836	84.12
457.056	93.12
457.276	75.12
457.497	81.12
457.717	95.12
457.937	86.12
458.157	89.12
458.377	97.12
458.598	103.12
458.818	142.12
459.038	136.12
459.258	94.12
459.478	89.12
459.698	89.12
459.918	82.12
460.138	88.12
460.358	87.12
460.578	88.12
460.798	82.12
461.018	83.12
461.238	82.12
461.458	77.12
461.678	93.12
461.898	81.12
462.118	86.12
462.338	94.12
462.558	87.12
462.777	84.12
462.997	76.12
463.217	82.12
463.437	89.12
463.657	92.12
463.876	90.12
464.096	83.12
464.316	82.12
464.536	91.12
464.755	90.12
464.975	95.12
465.195	148.12
465.414	152.12
465.634	89.12
465.854	84.12
466.073	80.12
466.293	80.12
466.512	85.12
466.732	92.12
466.951	89.12
467.171	106.12
467.391	95.12
467.61	108.12
467.829	93.12
468.049	90.12
468.268	83.12
468.488	79.12
468.707	83.12
468.927	81.12
469.146	72.12
469.365	86.12
469.585	85.12
469.804	101.12
470.023	96.12
470.243	91.12
470.462	81.12
470.681	102.12
470.901	93.12
471.12	84.12
471.339	82.12
471.558	101.12
471.777	100.12
471.997	85.12
472.216	81.12
472.435	86.12
472.654	78.12
472.873	93.12
473.092	99.12
473.311	96.12
473.53	78.12
473.749	91.12
473.968	87.12
474.187	95.12
474.406	85.12
474.625	86.12
474.844	85.12
475.063	87.12
475.282	76.12
475.501	92.12
475.72	82.12
475.939	94.12
476.158	83.12
476.377	76.12
476.596	97.12
476.814	98.12
477.033	95.12
477.252	98.12
477.471	80.12
477.69	81.12
477.908	88.12
478.127	88.12
478.346	87.12
478.564	87.12
478.783	97.12
479.002	97.12
479.22	79.12
479.439	91.12
479.658	93.12
479.876	89.12
480.095	103.12
480.313	89.12
480.532	86.12
480.751	105.12
480.969	79.12
481.188	98.12
481.406	98.12
481.624	86.12
481.843	87.12
482.061	78.12
482.28	79.12
482.498	85.12
482.717	73.12
482.935	80.12
483.153	88.12
483.372	80.12
483.59	92.12
483.808	94.12
484.027	72.12
484.245	98.12
484.463	68.12
484.681	96.12
484.9	87.12
485.118	90.12
485.336	88.12
485.554	95.12
485.772	111.12
485.99	104.12
486.209	101.12
486.427	99.12
486.645	100.12
486.863	109.12
487.081	93.12
487.299	82.12
487.517	94.12
487.735	99.12
487.953	96.12
488.171	102.12
488.389	83.12
488.607	102.12
488.825	81.12
489.043	93.12
489.261	80.12
489.479	89.12
489.696	88.12
489.914	82.12
490.132	81.12
490.35	95.12
490.568	83.12
490.786	100.12
491.003	95.12
491.221	93.12
491.439	85.12
491.657	92.12
491.874	91.12
492.092	85.12
492.31	81.12
492.527	87.12
492.745	98.12
492.963	81.12
493.18	89.12
493.398	93.12
493.615	92.12
493.833	89.12
494.05	113.12
494.268	97.12
494.485	86.12
494.703	100.12
494.92	93.12
495.138	76.12
495.355	93.12
495.573	82.12
495.79	82.12
496.008	100.12
496.225	86.12
496.442	81.12
496.66	78.12
496.877	94.12
497.094	82.12
497.312	96.12
497.529	93.12
497.746	83.12
497.963	78.12
498.181	99.12
498.398	90.12
498.615	91.12
498.832	87.12
499.049	76.12
499.267	93.12
499.484	92.12
499.701	85.12
499.918	98.12
500.135	77.12
500.352	88.12
500.569	82.12
500.786	95.12
501.003	97.12
501.22	81.12
501.437	102.12
501.654	85.12
501.871	93.12
502.088	80.12
502.305	97.12
502.522	94.12
502.739	82.12
502.956	87.12
503.172	95.12
503.389	94.12
503.606	102.12
503.823	112.12
504.04	102.12
504.256	100.12
504.473	90.12
504.69	95.12
504.907	94.12
505.123	88.12
505.34	97.12
505.557	78.12
505.773	97.12
505.99	89.12
506.207	92.12
506.423	84.12
506.64	82.12
506.856	103.12
507.073	86.12
507.289	97.12
507.506	95.12
507.722	106.12
507.939	118.12
508.155	103.12
508.372	90.12
508.588	73.12
508.805	97.12
509.021	92.12
509.238	96.12
509.454	108.12
509.67	99.12
509.887	118.12
510.103	120.12
510.319	211.12
510.536	752.12
510.752	2285.12
510.968	630.12
511.184	143.12
511.401	113.12
511.617	92.12
511.833	111.12
512.049	96.12
512.265	86.12
512.481	87.12
512.698	97.12
512.914	76.12
513.13	94.12
513.346	90.12
513.562	100.12
513.778	83.12
513.994	101.12
514.21	112.12
514.426	125.12
514.642	125.12
514.858	121.12
515.074	156.12
515.29	413.12
515.506	1363.12
515.721	503.12
515.937	153.12
516.153	110.12
