Data from Uncirc_2008_H10_HRD10591_00024.txt Node
Date: Wed Jan 03 10:15:35 EST 2024
User: Yrep
Spectrometer: HR+D1059
Trigger mode: 1
Integration Time (sec): 1.000000E-1
Scans to average: 1
Electric dark correction enabled: true
Nonlinearity correction enabled: false
Boxcar width: 0
XAxis mode: Wavelengths
Number of Pixels in Spectrum: 2048
>>>>>Begin Spectral Data<<<<<
223.165	-14.19
223.4	-14.19
223.635	-14.19
223.869	-25.19
224.104	-19.19
224.338	-20.19
224.573	-5.19
224.808	-10.19
225.042	-6.19
225.277	-16.19
225.511	-3.19
225.746	1.81
225.98	-0.19
226.215	13.81
226.449	22.81
226.683	8.81
226.918	28.81
227.152	43.81
227.387	47.81
227.621	32.81
227.856	40.81
228.09	55.81
228.324	46.81
228.559	45.81
228.793	59.81
229.027	62.81
229.262	61.81
229.496	70.81
229.73	81.81
229.964	95.81
230.199	73.81
230.433	75.81
230.667	83.81
230.901	71.81
231.136	86.81
231.37	81.81
231.604	67.81
231.838	82.81
232.072	80.81
232.306	83.81
232.541	90.81
232.775	78.81
233.009	76.81
233.243	86.81
233.477	83.81
233.711	83.81
233.945	90.81
234.179	78.81
234.413	88.81
234.647	87.81
234.881	88.81
235.115	81.81
235.349	79.81
235.583	79.81
235.817	82.81
236.051	80.81
236.285	73.81
236.519	76.81
236.753	74.81
236.987	89.81
237.221	83.81
237.455	85.81
237.689	45.81
237.922	79.81
238.156	65.81
238.39	69.81
238.624	66.81
238.858	94.81
239.091	89.81
239.325	95.81
239.559	81.81
239.793	60.81
240.027	58.81
240.26	82.81
240.494	69.81
240.728	69.81
240.961	91.81
241.195	80.81
241.429	86.81
241.662	59.81
241.896	70.81
242.13	72.81
242.363	73.81
242.597	77.81
242.83	74.81
243.064	77.81
243.298	75.81
243.531	62.81
243.765	67.81
243.998	83.81
244.232	74.81
244.465	90.81
244.699	72.81
244.932	75.81
245.166	76.81
245.399	86.81
245.633	86.81
245.866	73.81
246.099	67.81
246.333	78.81
246.566	77.81
246.8	75.81
247.033	75.81
247.266	87.81
247.5	82.81
247.733	73.81
247.966	60.81
248.2	93.81
248.433	79.81
248.666	80.81
248.899	82.81
249.133	95.81
249.366	95.81
249.599	88.81
249.832	89.81
250.066	85.81
250.299	73.81
250.532	81.81
250.765	67.81
250.998	83.81
251.231	85.81
251.465	81.81
251.698	82.81
251.931	73.81
252.164	92.81
252.397	75.81
252.63	83.81
252.863	83.81
253.096	78.81
253.329	72.81
253.562	81.81
253.795	81.81
254.028	78.81
254.261	82.81
254.494	84.81
254.727	77.81
254.96	75.81
255.193	85.81
255.426	81.81
255.659	75.81
255.892	70.81
256.124	69.81
256.357	72.81
256.59	78.81
256.823	88.81
257.056	69.81
257.289	72.81
257.521	87.81
257.754	73.81
257.987	80.81
258.22	82.81
258.452	80.81
258.685	86.81
258.918	72.81
259.151	68.81
259.383	83.81
259.616	77.81
259.849	74.81
260.081	81.81
260.314	90.81
260.547	77.81
260.779	82.81
261.012	68.81
261.244	83.81
261.477	82.81
261.71	95.81
261.942	100.81
262.175	118.81
262.407	86.81
262.64	88.81
262.872	84.81
263.105	79.81
263.337	92.81
263.57	87.81
263.802	97.81
264.035	71.81
264.267	83.81
264.499	83.81
264.732	83.81
264.964	88.81
265.197	78.81
265.429	94.81
265.661	83.81
265.894	80.81
266.126	78.81
266.358	86.81
266.591	86.81
266.823	99.81
267.055	90.81
267.287	87.81
267.52	87.81
267.752	64.81
267.984	79.81
268.216	76.81
268.448	61.81
268.681	87.81
268.913	87.81
269.145	82.81
269.377	78.81
269.609	96.81
269.841	93.81
270.073	84.81
270.306	75.81
270.538	62.81
270.77	74.81
271.002	91.81
271.234	82.81
271.466	88.81
271.698	81.81
271.93	76.81
272.162	90.81
272.394	89.81
272.626	97.81
272.858	79.81
273.09	78.81
273.322	76.81
273.553	65.81
273.785	85.81
274.017	86.81
274.249	72.81
274.481	90.81
274.713	83.81
274.945	84.81
275.176	90.81
275.408	83.81
275.64	65.81
275.872	74.81
276.104	83.81
276.335	86.81
276.567	101.81
276.799	114.81
277.031	105.81
277.262	77.81
277.494	80.81
277.726	78.81
277.957	92.81
278.189	86.81
278.421	85.81
278.652	82.81
278.884	87.81
279.115	75.81
279.347	90.81
279.579	90.81
279.81	103.81
280.042	87.81
280.273	96.81
280.505	87.81
280.736	77.81
280.968	88.81
281.199	99.81
281.431	83.81
281.662	99.81
281.894	91.81
282.125	105.81
282.356	117.81
282.588	138.81
282.819	114.81
283.051	94.81
283.282	77.81
283.513	73.81
283.745	95.81
283.976	72.81
284.207	80.81
284.439	85.81
284.67	87.81
284.901	85.81
285.132	88.81
285.364	77.81
285.595	76.81
285.826	84.81
286.057	90.81
286.288	86.81
286.52	92.81
286.751	77.81
286.982	86.81
287.213	88.81
287.444	77.81
287.675	73.81
287.906	79.81
288.138	96.81
288.369	88.81
288.6	76.81
288.831	87.81
289.062	89.81
289.293	89.81
289.524	76.81
289.755	74.81
289.986	79.81
290.217	96.81
290.448	96.81
290.679	78.81
290.91	87.81
291.141	82.81
291.371	85.81
291.602	82.81
291.833	97.81
292.064	78.81
292.295	88.81
292.526	83.81
292.757	93.81
292.987	75.81
293.218	83.81
293.449	98.81
293.68	80.81
293.91	93.81
294.141	94.81
294.372	81.81
294.603	91.81
294.833	83.81
295.064	76.81
295.295	81.81
295.525	87.81
295.756	100.81
295.987	107.81
296.217	142.81
296.448	137.81
296.679	79.81
296.909	100.81
297.14	91.81
297.37	83.81
297.601	82.81
297.831	92.81
298.062	95.81
298.292	86.81
298.523	93.81
298.753	82.81
298.984	94.81
299.214	106.81
299.445	92.81
299.675	88.81
299.905	77.81
300.136	90.81
300.366	103.81
300.597	97.81
300.827	92.81
301.057	98.81
301.288	104.81
301.518	88.81
301.748	88.81
301.979	101.81
302.209	92.81
302.439	98.81
302.669	92.81
302.9	82.81
303.13	104.81
303.36	79.81
303.59	98.81
303.82	97.81
304.051	99.81
304.281	80.81
304.511	91.81
304.741	83.81
304.971	88.81
305.201	103.81
305.431	80.81
305.661	98.81
305.891	83.81
306.121	93.81
306.352	106.81
306.582	112.81
306.812	99.81
307.042	89.81
307.272	83.81
307.502	96.81
307.731	92.81
307.961	89.81
308.191	87.81
308.421	93.81
308.651	84.81
308.881	73.81
309.111	86.81
309.341	82.81
309.571	75.81
309.8	80.81
310.03	92.81
310.26	108.81
310.49	82.81
310.72	107.81
310.949	109.81
311.179	91.81
311.409	91.81
311.639	95.81
311.868	88.81
312.098	102.81
312.328	100.81
312.557	94.81
312.787	112.81
313.017	96.81
313.246	81.81
313.476	94.81
313.706	102.81
313.935	96.81
314.165	102.81
314.394	97.81
314.624	89.81
314.853	91.81
315.083	86.81
315.312	89.81
315.542	87.81
315.771	96.81
316.001	85.81
316.23	89.81
316.46	87.81
316.689	88.81
316.919	87.81
317.148	95.81
317.377	90.81
317.607	89.81
317.836	84.81
318.065	85.81
318.295	92.81
318.524	82.81
318.753	101.81
318.983	100.81
319.212	91.81
319.441	93.81
319.67	90.81
319.9	92.81
320.129	95.81
320.358	102.81
320.587	80.81
320.816	102.81
321.046	99.81
321.275	91.81
321.504	88.81
321.733	88.81
321.962	97.81
322.191	97.81
322.42	107.81
322.649	118.81
322.878	110.81
323.108	105.81
323.337	121.81
323.566	135.81
323.795	146.81
324.024	201.81
324.253	409.81
324.482	866.81
324.71	1764.81
324.939	2209.81
325.168	842.81
325.397	251.81
325.626	151.81
325.855	138.81
326.084	132.81
326.313	145.81
326.542	161.81
326.77	251.81
326.999	468.81
327.228	984.81
327.457	1801.81
327.686	1352.81
327.914	389.81
328.143	196.81
328.372	140.81
328.6	112.81
328.829	129.81
329.058	110.81
329.287	133.81
329.515	104.81
329.744	94.81
329.972	95.81
330.201	118.81
330.43	117.81
330.658	112.81
330.887	146.81
331.115	129.81
331.344	108.81
331.572	102.81
331.801	108.81
332.03	94.81
332.258	92.81
332.486	99.81
332.715	96.81
332.943	93.81
333.172	91.81
333.4	94.81
333.629	108.81
333.857	117.81
334.085	96.81
334.314	91.81
334.542	83.81
334.771	100.81
334.999	82.81
335.227	109.81
335.455	103.81
335.684	92.81
335.912	97.81
336.14	94.81
336.369	105.81
336.597	104.81
336.825	93.81
337.053	90.81
337.281	94.81
337.51	68.81
337.738	89.81
337.966	96.81
338.194	95.81
338.422	105.81
338.65	80.81
338.878	84.81
339.106	89.81
339.334	89.81
339.562	81.81
339.79	94.81
340.018	97.81
340.246	76.81
340.474	90.81
340.702	93.81
340.93	82.81
341.158	94.81
341.386	89.81
341.614	79.81
341.842	83.81
342.07	93.81
342.298	76.81
342.526	82.81
342.754	109.81
342.981	71.81
343.209	74.81
343.437	108.81
343.665	93.81
343.893	80.81
344.12	92.81
344.348	102.81
344.576	95.81
344.804	84.81
345.031	100.81
345.259	103.81
345.487	87.81
345.714	108.81
345.942	90.81
346.17	88.81
346.397	97.81
346.625	100.81
346.853	85.81
347.08	90.81
347.308	86.81
347.535	94.81
347.763	92.81
347.99	100.81
348.218	93.81
348.445	101.81
348.673	93.81
348.9	90.81
349.128	86.81
349.355	89.81
349.583	96.81
349.81	93.81
350.037	95.81
350.265	109.81
350.492	89.81
350.72	98.81
350.947	96.81
351.174	110.81
351.402	101.81
351.629	105.81
351.856	105.81
352.083	102.81
352.311	112.81
352.538	115.81
352.765	108.81
352.992	103.81
353.22	109.81
353.447	89.81
353.674	94.81
353.901	91.81
354.128	92.81
354.355	96.81
354.583	85.81
354.81	92.81
355.037	78.81
355.264	85.81
355.491	90.81
355.718	96.81
355.945	83.81
356.172	98.81
356.399	98.81
356.626	104.81
356.853	78.81
357.08	98.81
357.307	88.81
357.534	95.81
357.761	98.81
357.988	80.81
358.215	73.81
358.441	88.81
358.668	82.81
358.895	105.81
359.122	91.81
359.349	90.81
359.576	74.81
359.802	106.81
360.029	102.81
360.256	104.81
360.483	98.81
360.709	91.81
360.936	94.81
361.163	88.81
361.39	111.81
361.616	88.81
361.843	98.81
362.07	87.81
362.296	84.81
362.523	93.81
362.749	88.81
362.976	85.81
363.203	88.81
363.429	86.81
363.656	80.81
363.882	85.81
364.109	92.81
364.335	93.81
364.562	89.81
364.788	88.81
365.015	97.81
365.241	102.81
365.468	100.81
365.694	98.81
365.92	101.81
366.147	78.81
366.373	96.81
366.599	88.81
366.826	89.81
367.052	87.81
367.278	95.81
367.505	90.81
367.731	94.81
367.957	93.81
368.184	85.81
368.41	94.81
368.636	109.81
368.862	113.81
369.089	97.81
369.315	89.81
369.541	99.81
369.767	92.81
369.993	88.81
370.219	93.81
370.445	74.81
370.672	74.81
370.898	90.81
371.124	84.81
371.35	98.81
371.576	85.81
371.802	75.81
372.028	97.81
372.254	73.81
372.48	80.81
372.706	93.81
372.932	69.81
373.158	79.81
373.384	89.81
373.61	82.81
373.835	88.81
374.061	85.81
374.287	90.81
374.513	96.81
374.739	77.81
374.965	77.81
375.191	95.81
375.416	99.81
375.642	94.81
375.868	91.81
376.094	78.81
376.319	82.81
376.545	94.81
376.771	86.81
376.997	79.81
377.222	84.81
377.448	83.81
377.674	87.81
377.899	82.81
378.125	83.81
378.35	83.81
378.576	91.81
378.802	81.81
379.027	85.81
379.253	99.81
379.478	86.81
379.704	78.81
379.929	81.81
380.155	77.81
380.38	99.81
380.606	93.81
380.831	82.81
381.057	108.81
381.282	90.81
381.507	88.81
381.733	92.81
381.958	88.81
382.184	87.81
382.409	83.81
382.634	101.81
382.86	94.81
383.085	78.81
383.31	83.81
383.535	93.81
383.761	88.81
383.986	94.81
384.211	68.81
384.436	88.81
384.662	90.81
384.887	89.81
385.112	99.81
385.337	93.81
385.562	90.81
385.787	100.81
386.013	100.81
386.238	111.81
386.463	95.81
386.688	99.81
386.913	94.81
387.138	101.81
387.363	95.81
387.588	74.81
387.813	91.81
388.038	97.81
388.263	98.81
388.488	100.81
388.713	102.81
388.938	110.81
389.163	77.81
389.387	79.81
389.612	91.81
389.837	86.81
390.062	79.81
390.287	79.81
390.512	101.81
390.736	76.81
390.961	91.81
391.186	83.81
391.411	84.81
391.636	88.81
391.86	75.81
392.085	83.81
392.31	90.81
392.534	93.81
392.759	95.81
392.984	81.81
393.208	102.81
393.433	121.81
393.658	99.81
393.882	78.81
394.107	73.81
394.331	95.81
394.556	72.81
394.78	86.81
395.005	80.81
395.229	82.81
395.454	87.81
395.678	102.81
395.903	82.81
396.127	94.81
396.352	89.81
396.576	93.81
396.801	94.81
397.025	92.81
397.249	95.81
397.474	81.81
397.698	87.81
397.922	84.81
398.147	75.81
398.371	79.81
398.595	89.81
398.82	89.81
399.044	84.81
399.268	74.81
399.492	89.81
399.717	76.81
399.941	79.81
400.165	93.81
400.389	77.81
400.613	91.81
400.837	101.81
401.062	75.81
401.286	95.81
401.51	94.81
401.734	87.81
401.958	90.81
402.182	134.81
402.406	158.81
402.63	125.81
402.854	95.81
403.078	87.81
403.302	77.81
403.526	81.81
403.75	87.81
403.974	80.81
404.198	91.81
404.422	87.81
404.645	94.81
404.869	73.81
405.093	85.81
405.317	90.81
405.541	91.81
405.765	96.81
405.988	119.81
406.212	195.81
406.436	254.81
406.66	161.81
406.883	103.81
407.107	94.81
407.331	93.81
407.555	94.81
407.778	85.81
408.002	75.81
408.226	79.81
408.449	92.81
408.673	81.81
408.896	90.81
409.12	80.81
409.344	86.81
409.567	83.81
409.791	80.81
410.014	89.81
410.238	98.81
410.461	85.81
410.685	90.81
410.908	103.81
411.132	97.81
411.355	90.81
411.578	67.81
411.802	93.81
412.025	86.81
412.249	87.81
412.472	75.81
412.695	93.81
412.919	77.81
413.142	79.81
413.365	76.81
413.589	80.81
413.812	101.81
414.035	87.81
414.258	77.81
414.482	88.81
414.705	70.81
414.928	76.81
415.151	81.81
415.374	90.81
415.597	72.81
415.821	87.81
416.044	73.81
416.267	86.81
416.49	76.81
416.713	78.81
416.936	87.81
417.159	82.81
417.382	88.81
417.605	96.81
417.828	108.81
418.051	97.81
418.274	84.81
418.497	89.81
418.72	73.81
418.943	86.81
419.166	94.81
419.389	89.81
419.611	92.81
419.834	90.81
420.057	72.81
420.28	88.81
420.503	82.81
420.726	75.81
420.948	85.81
421.171	89.81
421.394	86.81
421.617	83.81
421.839	88.81
422.062	96.81
422.285	90.81
422.507	104.81
422.73	109.81
422.953	88.81
423.175	77.81
423.398	77.81
423.621	79.81
423.843	74.81
424.066	93.81
424.288	93.81
424.511	86.81
424.733	90.81
424.956	99.81
425.178	99.81
425.401	88.81
425.623	98.81
425.846	95.81
426.068	99.81
426.291	95.81
426.513	90.81
426.735	87.81
426.958	86.81
427.18	97.81
427.402	114.81
427.625	162.81
427.847	140.81
428.069	107.81
428.292	71.81
428.514	75.81
428.736	97.81
428.958	85.81
429.181	85.81
429.403	83.81
429.625	83.81
429.847	102.81
430.069	95.81
430.292	86.81
430.514	97.81
430.736	91.81
430.958	82.81
431.18	80.81
431.402	88.81
431.624	74.81
431.846	87.81
432.068	86.81
432.29	72.81
432.512	93.81
432.734	94.81
432.956	91.81
433.178	88.81
433.4	105.81
433.622	83.81
433.844	86.81
434.066	86.81
434.287	91.81
434.509	81.81
434.731	82.81
434.953	89.81
435.175	92.81
435.397	83.81
435.618	102.81
435.84	102.81
436.062	119.81
436.284	96.81
436.505	105.81
436.727	97.81
436.949	102.81
437.17	95.81
437.392	89.81
437.614	96.81
437.835	88.81
438.057	123.81
438.278	105.81
438.5	88.81
438.721	123.81
438.943	97.81
439.165	66.81
439.386	79.81
439.608	95.81
439.829	97.81
440.05	129.81
440.272	135.81
440.493	99.81
440.715	73.81
440.936	83.81
441.158	78.81
441.379	80.81
441.6	91.81
441.822	109.81
442.043	92.81
442.264	97.81
442.486	102.81
442.707	83.81
442.928	103.81
443.149	145.81
443.371	106.81
443.592	101.81
443.813	104.81
444.034	76.81
444.255	94.81
444.476	94.81
444.698	84.81
444.919	92.81
445.14	115.81
445.361	114.81
445.582	115.81
445.803	133.81
446.024	145.81
446.245	145.81
446.466	103.81
446.687	104.81
446.908	91.81
447.129	94.81
447.35	94.81
447.571	80.81
447.792	76.81
448.013	84.81
448.234	106.81
448.455	102.81
448.675	93.81
448.896	121.81
449.117	111.81
449.338	108.81
449.559	112.81
449.779	126.81
450	87.81
450.221	79.81
450.442	81.81
450.662	101.81
450.883	117.81
451.104	107.81
451.324	93.81
451.545	85.81
451.766	82.81
451.986	82.81
452.207	96.81
452.428	97.81
452.648	102.81
452.869	106.81
453.089	124.81
453.31	121.81
453.53	95.81
453.751	95.81
453.971	95.81
454.192	124.81
454.412	105.81
454.633	97.81
454.853	103.81
455.073	82.81
455.294	94.81
455.514	89.81
455.734	89.81
455.955	83.81
456.175	92.81
456.395	85.81
456.616	78.81
456.836	88.81
457.056	78.81
457.276	80.81
457.497	81.81
457.717	77.81
457.937	74.81
458.157	81.81
458.377	98.81
458.598	106.81
458.818	175.81
459.038	165.81
459.258	117.81
459.478	92.81
459.698	74.81
459.918	85.81
460.138	92.81
460.358	83.81
460.578	95.81
460.798	81.81
461.018	85.81
461.238	93.81
461.458	100.81
461.678	83.81
461.898	90.81
462.118	82.81
462.338	89.81
462.558	69.81
462.777	84.81
462.997	90.81
463.217	80.81
463.437	72.81
463.657	78.81
463.876	101.81
464.096	96.81
464.316	79.81
464.536	77.81
464.755	79.81
464.975	110.81
465.195	194.81
465.414	177.81
465.634	111.81
465.854	91.81
466.073	82.81
466.293	86.81
466.512	73.81
466.732	75.81
466.951	102.81
467.171	101.81
467.391	89.81
467.61	104.81
467.829	96.81
468.049	85.81
468.268	81.81
468.488	81.81
468.707	87.81
468.927	80.81
469.146	87.81
469.365	83.81
469.585	95.81
469.804	97.81
470.023	95.81
470.243	83.81
470.462	90.81
470.681	104.81
470.901	88.81
471.12	78.81
471.339	90.81
471.558	81.81
471.777	82.81
471.997	79.81
472.216	92.81
472.435	87.81
472.654	80.81
472.873	69.81
473.092	76.81
473.311	87.81
473.53	91.81
473.749	78.81
473.968	91.81
474.187	103.81
474.406	86.81
474.625	97.81
474.844	91.81
475.063	93.81
475.282	98.81
475.501	95.81
475.72	67.81
475.939	71.81
476.158	82.81
476.377	75.81
476.596	117.81
476.814	79.81
477.033	84.81
477.252	81.81
477.471	69.81
477.69	88.81
477.908	92.81
478.127	87.81
478.346	84.81
478.564	92.81
478.783	93.81
479.002	83.81
479.22	93.81
479.439	97.81
479.658	89.81
479.876	95.81
480.095	89.81
480.313	95.81
480.532	88.81
480.751	96.81
480.969	88.81
481.188	87.81
481.406	90.81
481.624	81.81
481.843	90.81
482.061	90.81
482.28	82.81
482.498	92.81
482.717	76.81
482.935	83.81
483.153	90.81
483.372	86.81
483.59	88.81
483.808	79.81
484.027	90.81
484.245	101.81
484.463	85.81
484.681	94.81
484.9	96.81
485.118	89.81
485.336	83.81
485.554	85.81
485.772	86.81
485.99	92.81
486.209	94.81
486.427	75.81
486.645	100.81
486.863	89.81
487.081	89.81
487.299	87.81
487.517	81.81
487.735	86.81
487.953	98.81
488.171	94.81
488.389	95.81
488.607	103.81
488.825	82.81
489.043	81.81
489.261	73.81
489.479	99.81
489.696	85.81
489.914	89.81
490.132	87.81
490.35	82.81
490.568	79.81
490.786	86.81
491.003	80.81
491.221	85.81
491.439	89.81
491.657	75.81
491.874	94.81
492.092	76.81
492.31	92.81
492.527	87.81
492.745	86.81
492.963	93.81
493.18	83.81
493.398	79.81
493.615	91.81
493.833	75.81
494.05	82.81
494.268	86.81
494.485	79.81
494.703	92.81
494.92	96.81
495.138	86.81
495.355	92.81
495.573	91.81
495.79	82.81
496.008	89.81
496.225	80.81
496.442	90.81
496.66	86.81
496.877	94.81
497.094	95.81
497.312	93.81
497.529	84.81
497.746	86.81
497.963	80.81
498.181	90.81
498.398	77.81
498.615	107.81
498.832	104.81
499.049	84.81
499.267	95.81
499.484	100.81
499.701	87.81
499.918	73.81
500.135	79.81
500.352	80.81
500.569	86.81
500.786	86.81
501.003	90.81
501.22	88.81
501.437	82.81
501.654	98.81
501.871	105.81
502.088	91.81
502.305	87.81
502.522	80.81
502.739	92.81
502.956	79.81
503.172	87.81
503.389	74.81
503.606	109.81
503.823	94.81
504.04	74.81
504.256	92.81
504.473	84.81
504.69	86.81
504.907	97.81
505.123	90.81
505.34	71.81
505.557	81.81
505.773	92.81
505.99	80.81
506.207	78.81
506.423	80.81
506.64	87.81
506.856	94.81
507.073	93.81
507.289	83.81
507.506	89.81
507.722	99.81
507.939	105.81
508.155	89.81
508.372	88.81
508.588	94.81
508.805	105.81
509.021	100.81
509.238	92.81
509.454	99.81
509.67	96.81
509.887	106.81
510.103	135.81
510.319	245.81
510.536	864.81
510.752	2844.81
510.968	802.81
511.184	173.81
511.401	108.81
511.617	93.81
511.833	87.81
512.049	93.81
512.265	99.81
512.481	96.81
512.698	86.81
512.914	93.81
513.13	94.81
513.346	98.81
513.562	106.81
513.778	106.81
513.994	101.81
514.21	96.81
514.426	114.81
514.642	132.81
514.858	135.81
515.074	161.81
515.29	534.81
515.506	1893.81
515.721	678.81
515.937	181.81
516.153	110.81
516.369	103.81
516.585	87.81
