Data from Uncirc_2008_H10_HRD10591_00053.txt Node
Date: Wed Jan 03 10:15:41 EST 2024
User: Yrep
Spectrometer: HR+D1059
Trigger mode: 1
Integration Time (sec): 1.000000E-1
Scans to average: 1
Electric dark correction enabled: true
Nonlinearity correction enabled: false
Boxcar width: 0
XAxis mode: Wavelengths
Number of Pixels in Spectrum: 2048
>>>>>Begin Spectral Data<<<<<
223.165	-23.62
223.4	-23.62
223.635	-23.62
223.869	-29.62
224.104	-19.62
224.338	-7.62
224.573	-21.62
224.808	-3.62
225.042	-7.62
225.277	-16.62
225.511	-3.62
225.746	8.38
225.98	10.38
226.215	3.38
226.449	22.38
226.683	26.38
226.918	24.38
227.152	38.38
227.387	36.38
227.621	35.38
227.856	45.38
228.09	34.38
228.324	54.38
228.559	70.38
228.793	69.38
229.027	68.38
229.262	63.38
229.496	70.38
229.73	87.38
229.964	84.38
230.199	75.38
230.433	59.38
230.667	78.38
230.901	83.38
231.136	76.38
231.37	67.38
231.604	88.38
231.838	75.38
232.072	74.38
232.306	80.38
232.541	87.38
232.775	82.38
233.009	85.38
233.243	84.38
233.477	78.38
233.711	85.38
233.945	81.38
234.179	83.38
234.413	73.38
234.647	69.38
234.881	72.38
235.115	71.38
235.349	74.38
235.583	71.38
235.817	75.38
236.051	72.38
236.285	71.38
236.519	76.38
236.753	87.38
236.987	83.38
237.221	72.38
237.455	74.38
237.689	88.38
237.922	94.38
238.156	90.38
238.39	76.38
238.624	76.38
238.858	68.38
239.091	69.38
239.325	75.38
239.559	68.38
239.793	77.38
240.027	73.38
240.26	83.38
240.494	66.38
240.728	82.38
240.961	75.38
241.195	70.38
241.429	72.38
241.662	70.38
241.896	70.38
242.13	78.38
242.363	74.38
242.597	71.38
242.83	68.38
243.064	68.38
243.298	77.38
243.531	68.38
243.765	60.38
243.998	55.38
244.232	73.38
244.465	82.38
244.699	62.38
244.932	66.38
245.166	73.38
245.399	77.38
245.633	74.38
245.866	83.38
246.099	75.38
246.333	88.38
246.566	83.38
246.8	76.38
247.033	80.38
247.266	80.38
247.5	76.38
247.733	87.38
247.966	86.38
248.2	89.38
248.433	81.38
248.666	86.38
248.899	69.38
249.133	79.38
249.366	101.38
249.599	75.38
249.832	70.38
250.066	77.38
250.299	79.38
250.532	76.38
250.765	79.38
250.998	74.38
251.231	86.38
251.465	82.38
251.698	66.38
251.931	70.38
252.164	74.38
252.397	85.38
252.63	61.38
252.863	75.38
253.096	71.38
253.329	79.38
253.562	71.38
253.795	79.38
254.028	83.38
254.261	93.38
254.494	90.38
254.727	74.38
254.96	74.38
255.193	67.38
255.426	84.38
255.659	77.38
255.892	79.38
256.124	89.38
256.357	83.38
256.59	74.38
256.823	84.38
257.056	76.38
257.289	89.38
257.521	72.38
257.754	70.38
257.987	77.38
258.22	92.38
258.452	69.38
258.685	88.38
258.918	77.38
259.151	64.38
259.383	66.38
259.616	89.38
259.849	68.38
260.081	79.38
260.314	79.38
260.547	87.38
260.779	83.38
261.012	74.38
261.244	71.38
261.477	95.38
261.71	93.38
261.942	92.38
262.175	101.38
262.407	88.38
262.64	97.38
262.872	73.38
263.105	77.38
263.337	71.38
263.57	86.38
263.802	86.38
264.035	72.38
264.267	71.38
264.499	99.38
264.732	81.38
264.964	86.38
265.197	72.38
265.429	84.38
265.661	83.38
265.894	87.38
266.126	83.38
266.358	86.38
266.591	76.38
266.823	93.38
267.055	81.38
267.287	86.38
267.52	88.38
267.752	85.38
267.984	78.38
268.216	72.38
268.448	81.38
268.681	68.38
268.913	77.38
269.145	79.38
269.377	68.38
269.609	75.38
269.841	76.38
270.073	86.38
270.306	83.38
270.538	78.38
270.77	81.38
271.002	75.38
271.234	89.38
271.466	85.38
271.698	84.38
271.93	75.38
272.162	84.38
272.394	75.38
272.626	79.38
272.858	99.38
273.09	75.38
273.322	75.38
273.553	68.38
273.785	76.38
274.017	87.38
274.249	84.38
274.481	85.38
274.713	89.38
274.945	82.38
275.176	75.38
275.408	88.38
275.64	75.38
275.872	82.38
276.104	91.38
276.335	86.38
276.567	98.38
276.799	99.38
277.031	88.38
277.262	73.38
277.494	87.38
277.726	84.38
277.957	91.38
278.189	82.38
278.421	92.38
278.652	103.38
278.884	87.38
279.115	89.38
279.347	69.38
279.579	77.38
279.81	89.38
280.042	75.38
280.273	80.38
280.505	75.38
280.736	93.38
280.968	83.38
281.199	68.38
281.431	82.38
281.662	95.38
281.894	76.38
282.125	88.38
282.356	109.38
282.588	132.38
282.819	93.38
283.051	82.38
283.282	72.38
283.513	75.38
283.745	74.38
283.976	97.38
284.207	83.38
284.439	88.38
284.67	96.38
284.901	98.38
285.132	87.38
285.364	85.38
285.595	91.38
285.826	81.38
286.057	77.38
286.288	87.38
286.52	99.38
286.751	82.38
286.982	65.38
287.213	90.38
287.444	95.38
287.675	91.38
287.906	79.38
288.138	86.38
288.369	92.38
288.6	91.38
288.831	76.38
289.062	85.38
289.293	80.38
289.524	76.38
289.755	89.38
289.986	79.38
290.217	80.38
290.448	79.38
290.679	84.38
290.91	91.38
291.141	83.38
291.371	88.38
291.602	94.38
291.833	84.38
292.064	79.38
292.295	86.38
292.526	91.38
292.757	74.38
292.987	86.38
293.218	84.38
293.449	82.38
293.68	69.38
293.91	86.38
294.141	77.38
294.372	93.38
294.603	76.38
294.833	90.38
295.064	87.38
295.295	80.38
295.525	101.38
295.756	95.38
295.987	99.38
296.217	118.38
296.448	114.38
296.679	93.38
296.909	92.38
297.14	91.38
297.37	91.38
297.601	95.38
297.831	68.38
298.062	93.38
298.292	77.38
298.523	80.38
298.753	74.38
298.984	89.38
299.214	72.38
299.445	90.38
299.675	102.38
299.905	87.38
300.136	73.38
300.366	89.38
300.597	82.38
300.827	93.38
301.057	96.38
301.288	78.38
301.518	88.38
301.748	86.38
301.979	94.38
302.209	89.38
302.439	88.38
302.669	84.38
302.9	83.38
303.13	64.38
303.36	92.38
303.59	80.38
303.82	92.38
304.051	85.38
304.281	80.38
304.511	83.38
304.741	70.38
304.971	89.38
305.201	98.38
305.431	95.38
305.661	81.38
305.891	87.38
306.121	98.38
306.352	87.38
306.582	104.38
306.812	80.38
307.042	92.38
307.272	84.38
307.502	79.38
307.731	84.38
307.961	79.38
308.191	84.38
308.421	86.38
308.651	95.38
308.881	107.38
309.111	106.38
309.341	90.38
309.571	85.38
309.8	84.38
310.03	92.38
310.26	92.38
310.49	91.38
310.72	99.38
310.949	88.38
311.179	95.38
311.409	91.38
311.639	87.38
311.868	87.38
312.098	89.38
312.328	94.38
312.557	95.38
312.787	90.38
313.017	99.38
313.246	88.38
313.476	94.38
313.706	87.38
313.935	88.38
314.165	91.38
314.394	95.38
314.624	98.38
314.853	86.38
315.083	91.38
315.312	75.38
315.542	82.38
315.771	91.38
316.001	85.38
316.23	102.38
316.46	89.38
316.689	76.38
316.919	87.38
317.148	79.38
317.377	92.38
317.607	80.38
317.836	86.38
318.065	94.38
318.295	85.38
318.524	88.38
318.753	93.38
318.983	94.38
319.212	100.38
319.441	93.38
319.67	94.38
319.9	86.38
320.129	93.38
320.358	81.38
320.587	83.38
320.816	80.38
321.046	76.38
321.275	83.38
321.504	82.38
321.733	86.38
321.962	86.38
322.191	100.38
322.42	103.38
322.649	86.38
322.878	100.38
323.108	105.38
323.337	92.38
323.566	107.38
323.795	134.38
324.024	189.38
324.253	340.38
324.482	708.38
324.71	1464.38
324.939	1912.38
325.168	697.38
325.397	231.38
325.626	144.38
325.855	109.38
326.084	110.38
326.313	132.38
326.542	134.38
326.77	215.38
326.999	409.38
327.228	855.38
327.457	1516.38
327.686	1164.38
327.914	332.38
328.143	195.38
328.372	132.38
328.6	116.38
328.829	108.38
329.058	109.38
329.287	125.38
329.515	103.38
329.744	106.38
329.972	90.38
330.201	93.38
330.43	91.38
330.658	114.38
330.887	123.38
331.115	110.38
331.344	103.38
331.572	90.38
331.801	83.38
332.03	108.38
332.258	97.38
332.486	97.38
332.715	85.38
332.943	88.38
333.172	92.38
333.4	101.38
333.629	97.38
333.857	88.38
334.085	89.38
334.314	86.38
334.542	91.38
334.771	91.38
334.999	97.38
335.227	86.38
335.455	110.38
335.684	95.38
335.912	106.38
336.14	92.38
336.369	86.38
336.597	96.38
336.825	88.38
337.053	91.38
337.281	79.38
337.51	80.38
337.738	74.38
337.966	100.38
338.194	86.38
338.422	91.38
338.65	82.38
338.878	98.38
339.106	85.38
339.334	90.38
339.562	87.38
339.79	91.38
340.018	96.38
340.246	80.38
340.474	87.38
340.702	91.38
340.93	90.38
341.158	83.38
341.386	85.38
341.614	79.38
341.842	87.38
342.07	79.38
342.298	83.38
342.526	90.38
342.754	84.38
342.981	73.38
343.209	82.38
343.437	100.38
343.665	91.38
343.893	91.38
344.12	91.38
344.348	92.38
344.576	69.38
344.804	92.38
345.031	101.38
345.259	97.38
345.487	106.38
345.714	90.38
345.942	93.38
346.17	99.38
346.397	93.38
346.625	90.38
346.853	99.38
347.08	86.38
347.308	107.38
347.535	82.38
347.763	87.38
347.99	104.38
348.218	102.38
348.445	105.38
348.673	89.38
348.9	95.38
349.128	94.38
349.355	90.38
349.583	84.38
349.81	96.38
350.037	95.38
350.265	91.38
350.492	87.38
350.72	96.38
350.947	91.38
351.174	116.38
351.402	112.38
351.629	104.38
351.856	90.38
352.083	101.38
352.311	78.38
352.538	101.38
352.765	108.38
352.992	115.38
353.22	111.38
353.447	95.38
353.674	101.38
353.901	76.38
354.128	82.38
354.355	84.38
354.583	98.38
354.81	95.38
355.037	76.38
355.264	82.38
355.491	89.38
355.718	81.38
355.945	73.38
356.172	87.38
356.399	93.38
356.626	94.38
356.853	88.38
357.08	75.38
357.307	81.38
357.534	98.38
357.761	79.38
357.988	94.38
358.215	89.38
358.441	84.38
358.668	85.38
358.895	90.38
359.122	92.38
359.349	88.38
359.576	94.38
359.802	92.38
360.029	98.38
360.256	97.38
360.483	85.38
360.709	87.38
360.936	93.38
361.163	82.38
361.39	104.38
361.616	86.38
361.843	78.38
362.07	76.38
362.296	83.38
362.523	68.38
362.749	85.38
362.976	86.38
363.203	100.38
363.429	88.38
363.656	84.38
363.882	90.38
364.109	95.38
364.335	87.38
364.562	107.38
364.788	95.38
365.015	81.38
365.241	93.38
365.468	94.38
365.694	86.38
365.92	85.38
366.147	88.38
366.373	91.38
366.599	88.38
366.826	79.38
367.052	93.38
367.278	90.38
367.505	83.38
367.731	95.38
367.957	85.38
368.184	91.38
368.41	87.38
368.636	101.38
368.862	117.38
369.089	88.38
369.315	99.38
369.541	92.38
369.767	94.38
369.993	80.38
370.219	83.38
370.445	92.38
370.672	74.38
370.898	93.38
371.124	97.38
371.35	80.38
371.576	89.38
371.802	70.38
372.028	93.38
372.254	81.38
372.48	97.38
372.706	92.38
372.932	93.38
373.158	99.38
373.384	88.38
373.61	89.38
373.835	95.38
374.061	89.38
374.287	80.38
374.513	86.38
374.739	91.38
374.965	89.38
375.191	77.38
375.416	85.38
375.642	90.38
375.868	87.38
376.094	84.38
376.319	84.38
376.545	88.38
376.771	80.38
376.997	91.38
377.222	85.38
377.448	95.38
377.674	92.38
377.899	87.38
378.125	86.38
378.35	73.38
378.576	91.38
378.802	79.38
379.027	90.38
379.253	104.38
379.478	87.38
379.704	93.38
379.929	77.38
380.155	86.38
380.38	94.38
380.606	99.38
380.831	95.38
381.057	101.38
381.282	101.38
381.507	85.38
381.733	100.38
381.958	98.38
382.184	94.38
382.409	98.38
382.634	112.38
382.86	96.38
383.085	80.38
383.31	96.38
383.535	95.38
383.761	99.38
383.986	101.38
384.211	87.38
384.436	90.38
384.662	114.38
384.887	100.38
385.112	100.38
385.337	91.38
385.562	107.38
385.787	99.38
386.013	103.38
386.238	107.38
386.463	98.38
386.688	109.38
386.913	100.38
387.138	100.38
387.363	102.38
387.588	78.38
387.813	91.38
388.038	100.38
388.263	111.38
388.488	99.38
388.713	103.38
388.938	98.38
389.163	87.38
389.387	102.38
389.612	92.38
389.837	97.38
390.062	87.38
390.287	93.38
390.512	92.38
390.736	86.38
390.961	95.38
391.186	85.38
391.411	98.38
391.636	87.38
391.86	81.38
392.085	86.38
392.31	90.38
392.534	78.38
392.759	93.38
392.984	95.38
393.208	87.38
393.433	84.38
393.658	75.38
393.882	80.38
394.107	74.38
394.331	76.38
394.556	80.38
394.78	83.38
395.005	100.38
395.229	79.38
395.454	75.38
395.678	82.38
395.903	90.38
396.127	83.38
396.352	84.38
396.576	80.38
396.801	93.38
397.025	87.38
397.249	86.38
397.474	80.38
397.698	92.38
397.922	96.38
398.147	84.38
398.371	83.38
398.595	90.38
398.82	77.38
399.044	94.38
399.268	89.38
399.492	78.38
399.717	87.38
399.941	81.38
400.165	87.38
400.389	104.38
400.613	105.38
400.837	97.38
401.062	82.38
401.286	88.38
401.51	94.38
401.734	93.38
401.958	94.38
402.182	121.38
402.406	156.38
402.63	103.38
402.854	79.38
403.078	77.38
403.302	76.38
403.526	80.38
403.75	80.38
403.974	90.38
404.198	79.38
404.422	84.38
404.645	77.38
404.869	73.38
405.093	84.38
405.317	78.38
405.541	76.38
405.765	91.38
405.988	107.38
406.212	154.38
406.436	187.38
406.66	116.38
406.883	101.38
407.107	88.38
407.331	101.38
407.555	88.38
407.778	98.38
408.002	91.38
408.226	89.38
408.449	80.38
408.673	87.38
408.896	90.38
409.12	78.38
409.344	75.38
409.567	77.38
409.791	89.38
410.014	82.38
410.238	84.38
410.461	86.38
410.685	72.38
410.908	89.38
411.132	87.38
411.355	99.38
411.578	98.38
411.802	94.38
412.025	106.38
412.249	86.38
412.472	83.38
412.695	82.38
412.919	69.38
413.142	70.38
413.365	72.38
413.589	78.38
413.812	91.38
414.035	80.38
414.258	94.38
414.482	93.38
414.705	107.38
414.928	83.38
415.151	87.38
415.374	89.38
415.597	96.38
415.821	83.38
416.044	75.38
416.267	78.38
416.49	75.38
416.713	93.38
416.936	85.38
417.159	90.38
417.382	72.38
417.605	84.38
417.828	81.38
418.051	79.38
418.274	95.38
418.497	84.38
418.72	86.38
418.943	87.38
419.166	93.38
419.389	83.38
419.611	81.38
419.834	80.38
420.057	80.38
420.28	75.38
420.503	70.38
420.726	86.38
420.948	87.38
421.171	89.38
421.394	93.38
421.617	103.38
421.839	87.38
422.062	89.38
422.285	80.38
422.507	92.38
422.73	109.38
422.953	75.38
423.175	93.38
423.398	92.38
423.621	86.38
423.843	71.38
424.066	71.38
424.288	83.38
424.511	88.38
424.733	88.38
424.956	84.38
425.178	91.38
425.401	93.38
425.623	96.38
425.846	93.38
426.068	99.38
426.291	90.38
426.513	90.38
426.735	86.38
426.958	86.38
427.18	86.38
427.402	111.38
427.625	154.38
427.847	116.38
428.069	86.38
428.292	82.38
428.514	95.38
428.736	80.38
428.958	78.38
429.181	77.38
429.403	78.38
429.625	76.38
429.847	86.38
430.069	86.38
430.292	85.38
430.514	80.38
430.736	76.38
430.958	80.38
431.18	83.38
431.402	96.38
431.624	74.38
431.846	68.38
432.068	85.38
432.29	89.38
432.512	83.38
432.734	83.38
432.956	75.38
433.178	94.38
433.4	92.38
433.622	67.38
433.844	90.38
434.066	100.38
434.287	87.38
434.509	89.38
434.731	84.38
434.953	82.38
435.175	81.38
435.397	78.38
435.618	81.38
435.84	94.38
436.062	111.38
436.284	108.38
436.505	98.38
436.727	98.38
436.949	92.38
437.17	93.38
437.392	74.38
437.614	98.38
437.835	104.38
438.057	116.38
438.278	95.38
438.5	91.38
438.721	106.38
438.943	86.38
439.165	80.38
439.386	72.38
439.608	98.38
439.829	92.38
440.05	109.38
440.272	108.38
440.493	92.38
440.715	84.38
440.936	75.38
441.158	89.38
441.379	76.38
441.6	81.38
441.822	74.38
442.043	91.38
442.264	104.38
442.486	97.38
442.707	70.38
442.928	87.38
443.149	111.38
443.371	114.38
443.592	104.38
443.813	101.38
444.034	100.38
444.255	93.38
444.476	88.38
444.698	83.38
444.919	84.38
445.14	143.38
445.361	119.38
445.582	107.38
445.803	109.38
446.024	105.38
446.245	118.38
446.466	105.38
446.687	80.38
446.908	87.38
447.129	77.38
447.35	87.38
447.571	85.38
447.792	92.38
448.013	103.38
448.234	93.38
448.455	100.38
448.675	82.38
448.896	114.38
449.117	93.38
449.338	91.38
449.559	102.38
449.779	120.38
450	103.38
450.221	81.38
450.442	83.38
450.662	96.38
450.883	114.38
451.104	102.38
451.324	87.38
451.545	78.38
451.766	75.38
451.986	85.38
452.207	89.38
452.428	97.38
452.648	91.38
452.869	100.38
453.089	94.38
453.31	103.38
453.53	78.38
453.751	87.38
453.971	95.38
454.192	109.38
454.412	91.38
454.633	79.38
454.853	97.38
455.073	81.38
455.294	92.38
455.514	96.38
455.734	78.38
455.955	80.38
456.175	79.38
456.395	88.38
456.616	78.38
456.836	84.38
457.056	82.38
457.276	91.38
457.497	78.38
457.717	82.38
457.937	77.38
458.157	71.38
458.377	74.38
458.598	96.38
458.818	128.38
459.038	147.38
459.258	102.38
459.478	74.38
459.698	69.38
459.918	87.38
460.138	71.38
460.358	64.38
460.578	76.38
460.798	74.38
461.018	93.38
461.238	102.38
461.458	80.38
461.678	75.38
461.898	75.38
462.118	91.38
462.338	78.38
462.558	79.38
462.777	79.38
462.997	83.38
463.217	75.38
463.437	85.38
463.657	90.38
463.876	82.38
464.096	80.38
464.316	91.38
464.536	70.38
464.755	97.38
464.975	89.38
465.195	139.38
465.414	148.38
465.634	85.38
465.854	67.38
466.073	78.38
466.293	86.38
466.512	71.38
466.732	74.38
466.951	90.38
467.171	93.38
467.391	94.38
467.61	93.38
467.829	101.38
468.049	83.38
468.268	89.38
468.488	83.38
468.707	83.38
468.927	77.38
469.146	92.38
469.365	99.38
469.585	82.38
469.804	86.38
470.023	91.38
470.243	90.38
470.462	99.38
470.681	107.38
470.901	105.38
471.12	99.38
471.339	85.38
471.558	83.38
471.777	82.38
471.997	79.38
472.216	79.38
472.435	82.38
472.654	91.38
472.873	82.38
473.092	79.38
473.311	87.38
473.53	82.38
473.749	85.38
473.968	105.38
474.187	78.38
474.406	88.38
474.625	90.38
474.844	92.38
475.063	96.38
475.282	85.38
475.501	96.38
475.72	91.38
475.939	88.38
476.158	87.38
476.377	84.38
476.596	87.38
476.814	88.38
477.033	76.38
477.252	79.38
477.471	91.38
477.69	89.38
477.908	78.38
478.127	81.38
478.346	93.38
478.564	79.38
478.783	93.38
479.002	90.38
479.22	91.38
479.439	102.38
479.658	93.38
479.876	103.38
480.095	87.38
480.313	108.38
480.532	88.38
480.751	89.38
480.969	84.38
481.188	93.38
481.406	88.38
481.624	82.38
481.843	95.38
482.061	87.38
482.28	75.38
482.498	77.38
482.717	86.38
482.935	89.38
483.153	86.38
483.372	86.38
483.59	82.38
483.808	78.38
484.027	80.38
484.245	92.38
484.463	96.38
484.681	79.38
484.9	96.38
485.118	80.38
485.336	101.38
485.554	91.38
485.772	91.38
485.99	96.38
486.209	99.38
486.427	89.38
486.645	101.38
486.863	100.38
487.081	94.38
487.299	89.38
487.517	90.38
487.735	95.38
487.953	82.38
488.171	89.38
488.389	80.38
488.607	95.38
488.825	98.38
489.043	96.38
489.261	91.38
489.479	93.38
489.696	95.38
489.914	71.38
490.132	72.38
490.35	92.38
490.568	85.38
490.786	88.38
491.003	102.38
491.221	89.38
491.439	92.38
491.657	81.38
491.874	88.38
492.092	85.38
492.31	93.38
492.527	86.38
492.745	89.38
492.963	79.38
493.18	86.38
493.398	100.38
493.615	103.38
493.833	88.38
494.05	92.38
494.268	83.38
494.485	90.38
494.703	92.38
494.92	77.38
495.138	75.38
495.355	78.38
495.573	77.38
495.79	90.38
496.008	82.38
496.225	79.38
496.442	88.38
496.66	92.38
496.877	81.38
497.094	92.38
497.312	90.38
497.529	76.38
497.746	83.38
497.963	107.38
498.181	91.38
498.398	88.38
498.615	105.38
498.832	100.38
499.049	97.38
499.267	96.38
499.484	85.38
499.701	91.38
499.918	92.38
500.135	72.38
500.352	79.38
500.569	76.38
500.786	96.38
501.003	84.38
501.22	77.38
501.437	79.38
501.654	95.38
501.871	90.38
502.088	84.38
502.305	83.38
502.522	85.38
502.739	88.38
502.956	95.38
503.172	75.38
503.389	110.38
503.606	84.38
503.823	83.38
504.04	89.38
504.256	79.38
504.473	88.38
504.69	94.38
504.907	90.38
505.123	82.38
505.34	96.38
505.557	82.38
505.773	90.38
505.99	89.38
506.207	95.38
506.423	95.38
506.64	93.38
506.856	94.38
507.073	87.38
507.289	94.38
507.506	93.38
507.722	95.38
507.939	105.38
508.155	85.38
508.372	94.38
508.588	75.38
508.805	81.38
509.021	86.38
509.238	100.38
509.454	99.38
509.67	91.38
509.887	110.38
510.103	139.38
510.319	221.38
510.536	706.38
510.752	2144.38
510.968	623.38
511.184	143.38
511.401	104.38
511.617	94.38
511.833	94.38
512.049	91.38
512.265	84.38
512.481	73.38
512.698	76.38
512.914	88.38
513.13	98.38
513.346	86.38
513.562	99.38
513.778	101.38
513.994	96.38
514.21	77.38
514.426	102.38
514.642	124.38
514.858	103.38
515.074	144.38
515.29	402.38
515.506	1284.38
515.721	487.38
515.937	142.38
516.153	102.38
516.369	91.38
516.585	86.38
516.801	87.38
517.016	90.38
517.232	88.38
517.448	91.38
