Data from Uncirc_2008_H10_HRD10591_00097.txt Node
Date: Wed Jan 03 10:15:50 EST 2024
User: Yrep
Spectrometer: HR+D1059
Trigger mode: 1
Integration Time (sec): 1.000000E-1
Scans to average: 1
Electric dark correction enabled: true
Nonlinearity correction enabled: false
Boxcar width: 0
XAxis mode: Wavelengths
Number of Pixels in Spectrum: 2048
>>>>>Begin Spectral Data<<<<<
223.165	-17.38
223.4	-17.38
223.635	-17.38
223.869	-24.38
224.104	-4.38
224.338	-36.38
224.573	-20.38
224.808	0.62
225.042	1.62
225.277	-6.38
225.511	-10.38
225.746	7.62
225.98	7.62
226.215	10.62
226.449	9.62
226.683	27.62
226.918	20.62
227.152	33.62
227.387	22.62
227.621	29.62
227.856	45.62
228.09	42.62
228.324	62.62
228.559	53.62
228.793	61.62
229.027	60.62
229.262	61.62
229.496	73.62
229.73	77.62
229.964	79.62
230.199	88.62
230.433	80.62
230.667	62.62
230.901	86.62
231.136	72.62
231.37	83.62
231.604	83.62
231.838	82.62
232.072	76.62
232.306	72.62
232.541	70.62
232.775	90.62
233.009	73.62
233.243	83.62
233.477	81.62
233.711	72.62
233.945	94.62
234.179	76.62
234.413	61.62
234.647	86.62
234.881	82.62
235.115	91.62
235.349	61.62
235.583	74.62
235.817	76.62
236.051	75.62
236.285	82.62
236.519	73.62
236.753	91.62
236.987	78.62
237.221	78.62
237.455	98.62
237.689	70.62
237.922	74.62
238.156	79.62
238.39	79.62
238.624	74.62
238.858	83.62
239.091	75.62
239.325	76.62
239.559	78.62
239.793	79.62
240.027	84.62
240.26	63.62
240.494	70.62
240.728	69.62
240.961	66.62
241.195	79.62
241.429	74.62
241.662	87.62
241.896	74.62
242.13	74.62
242.363	58.62
242.597	92.62
242.83	85.62
243.064	69.62
243.298	78.62
243.531	66.62
243.765	65.62
243.998	87.62
244.232	85.62
244.465	75.62
244.699	67.62
244.932	82.62
245.166	82.62
245.399	74.62
245.633	83.62
245.866	78.62
246.099	90.62
246.333	88.62
246.566	64.62
246.8	87.62
247.033	85.62
247.266	78.62
247.5	83.62
247.733	80.62
247.966	74.62
248.2	80.62
248.433	86.62
248.666	82.62
248.899	87.62
249.133	90.62
249.366	95.62
249.599	107.62
249.832	80.62
250.066	88.62
250.299	75.62
250.532	79.62
250.765	83.62
250.998	87.62
251.231	87.62
251.465	67.62
251.698	66.62
251.931	83.62
252.164	86.62
252.397	80.62
252.63	78.62
252.863	78.62
253.096	80.62
253.329	74.62
253.562	75.62
253.795	72.62
254.028	71.62
254.261	86.62
254.494	82.62
254.727	83.62
254.96	92.62
255.193	78.62
255.426	83.62
255.659	86.62
255.892	79.62
256.124	74.62
256.357	78.62
256.59	87.62
256.823	65.62
257.056	69.62
257.289	72.62
257.521	79.62
257.754	77.62
257.987	76.62
258.22	74.62
258.452	84.62
258.685	87.62
258.918	90.62
259.151	74.62
259.383	83.62
259.616	78.62
259.849	63.62
260.081	76.62
260.314	99.62
260.547	87.62
260.779	83.62
261.012	72.62
261.244	81.62
261.477	78.62
261.71	90.62
261.942	103.62
262.175	106.62
262.407	89.62
262.64	91.62
262.872	102.62
263.105	71.62
263.337	90.62
263.57	87.62
263.802	69.62
264.035	77.62
264.267	71.62
264.499	96.62
264.732	91.62
264.964	81.62
265.197	87.62
265.429	73.62
265.661	81.62
265.894	98.62
266.126	87.62
266.358	88.62
266.591	85.62
266.823	94.62
267.055	76.62
267.287	64.62
267.52	79.62
267.752	86.62
267.984	83.62
268.216	71.62
268.448	97.62
268.681	77.62
268.913	74.62
269.145	80.62
269.377	78.62
269.609	78.62
269.841	93.62
270.073	85.62
270.306	88.62
270.538	73.62
270.77	76.62
271.002	87.62
271.234	89.62
271.466	93.62
271.698	75.62
271.93	82.62
272.162	74.62
272.394	92.62
272.626	76.62
272.858	75.62
273.09	78.62
273.322	88.62
273.553	69.62
273.785	81.62
274.017	87.62
274.249	81.62
274.481	90.62
274.713	93.62
274.945	83.62
275.176	77.62
275.408	92.62
275.64	79.62
275.872	65.62
276.104	77.62
276.335	89.62
276.567	91.62
276.799	109.62
277.031	97.62
277.262	92.62
277.494	92.62
277.726	73.62
277.957	88.62
278.189	77.62
278.421	82.62
278.652	81.62
278.884	87.62
279.115	80.62
279.347	79.62
279.579	84.62
279.81	89.62
280.042	89.62
280.273	93.62
280.505	82.62
280.736	90.62
280.968	77.62
281.199	89.62
281.431	84.62
281.662	91.62
281.894	89.62
282.125	84.62
282.356	111.62
282.588	146.62
282.819	118.62
283.051	83.62
283.282	84.62
283.513	73.62
283.745	85.62
283.976	87.62
284.207	92.62
284.439	96.62
284.67	69.62
284.901	73.62
285.132	73.62
285.364	91.62
285.595	85.62
285.826	86.62
286.057	105.62
286.288	69.62
286.52	87.62
286.751	93.62
286.982	87.62
287.213	93.62
287.444	74.62
287.675	79.62
287.906	96.62
288.138	89.62
288.369	94.62
288.6	83.62
288.831	75.62
289.062	74.62
289.293	83.62
289.524	88.62
289.755	83.62
289.986	86.62
290.217	82.62
290.448	82.62
290.679	87.62
290.91	88.62
291.141	87.62
291.371	85.62
291.602	86.62
291.833	82.62
292.064	93.62
292.295	83.62
292.526	78.62
292.757	89.62
292.987	90.62
293.218	100.62
293.449	96.62
293.68	83.62
293.91	100.62
294.141	97.62
294.372	87.62
294.603	93.62
294.833	77.62
295.064	74.62
295.295	85.62
295.525	98.62
295.756	103.62
295.987	102.62
296.217	137.62
296.448	128.62
296.679	98.62
296.909	91.62
297.14	83.62
297.37	79.62
297.601	87.62
297.831	88.62
298.062	78.62
298.292	96.62
298.523	98.62
298.753	86.62
298.984	87.62
299.214	100.62
299.445	82.62
299.675	99.62
299.905	86.62
300.136	87.62
300.366	81.62
300.597	83.62
300.827	94.62
301.057	96.62
301.288	103.62
301.518	92.62
301.748	70.62
301.979	86.62
302.209	99.62
302.439	95.62
302.669	92.62
302.9	95.62
303.13	102.62
303.36	97.62
303.59	94.62
303.82	101.62
304.051	97.62
304.281	80.62
304.511	82.62
304.741	82.62
304.971	82.62
305.201	94.62
305.431	88.62
305.661	88.62
305.891	98.62
306.121	94.62
306.352	96.62
306.582	106.62
306.812	87.62
307.042	101.62
307.272	79.62
307.502	100.62
307.731	95.62
307.961	90.62
308.191	83.62
308.421	78.62
308.651	84.62
308.881	99.62
309.111	105.62
309.341	86.62
309.571	97.62
309.8	99.62
310.03	100.62
310.26	106.62
310.49	102.62
310.72	111.62
310.949	112.62
311.179	88.62
311.409	95.62
311.639	83.62
311.868	99.62
312.098	89.62
312.328	89.62
312.557	99.62
312.787	87.62
313.017	91.62
313.246	91.62
313.476	90.62
313.706	90.62
313.935	96.62
314.165	91.62
314.394	101.62
314.624	94.62
314.853	95.62
315.083	86.62
315.312	90.62
315.542	101.62
315.771	104.62
316.001	92.62
316.23	75.62
316.46	89.62
316.689	84.62
316.919	91.62
317.148	97.62
317.377	102.62
317.607	105.62
317.836	97.62
318.065	93.62
318.295	100.62
318.524	78.62
318.753	70.62
318.983	85.62
319.212	80.62
319.441	102.62
319.67	106.62
319.9	95.62
320.129	106.62
320.358	89.62
320.587	96.62
320.816	89.62
321.046	83.62
321.275	89.62
321.504	83.62
321.733	106.62
321.962	96.62
322.191	106.62
322.42	113.62
322.649	107.62
322.878	97.62
323.108	108.62
323.337	136.62
323.566	122.62
323.795	150.62
324.024	187.62
324.253	364.62
324.482	768.62
324.71	1619.62
324.939	2027.62
325.168	736.62
325.397	227.62
325.626	154.62
325.855	123.62
326.084	110.62
326.313	137.62
326.542	143.62
326.77	235.62
326.999	411.62
327.228	890.62
327.457	1640.62
327.686	1249.62
327.914	355.62
328.143	183.62
328.372	149.62
328.6	117.62
328.829	111.62
329.058	116.62
329.287	113.62
329.515	113.62
329.744	115.62
329.972	94.62
330.201	89.62
330.43	104.62
330.658	112.62
330.887	136.62
331.115	109.62
331.344	94.62
331.572	95.62
331.801	96.62
332.03	87.62
332.258	96.62
332.486	86.62
332.715	89.62
332.943	103.62
333.172	109.62
333.4	119.62
333.629	117.62
333.857	103.62
334.085	93.62
334.314	77.62
334.542	94.62
334.771	89.62
334.999	95.62
335.227	99.62
335.455	101.62
335.684	95.62
335.912	96.62
336.14	95.62
336.369	99.62
336.597	95.62
336.825	98.62
337.053	102.62
337.281	88.62
337.51	93.62
337.738	78.62
337.966	93.62
338.194	92.62
338.422	98.62
338.65	90.62
338.878	93.62
339.106	84.62
339.334	90.62
339.562	91.62
339.79	80.62
340.018	75.62
340.246	89.62
340.474	70.62
340.702	84.62
340.93	98.62
341.158	103.62
341.386	92.62
341.614	97.62
341.842	98.62
342.07	92.62
342.298	78.62
342.526	78.62
342.754	87.62
342.981	104.62
343.209	101.62
343.437	105.62
343.665	85.62
343.893	103.62
344.12	95.62
344.348	88.62
344.576	94.62
344.804	95.62
345.031	100.62
345.259	94.62
345.487	99.62
345.714	92.62
345.942	86.62
346.17	89.62
346.397	85.62
346.625	84.62
346.853	87.62
347.08	86.62
347.308	117.62
347.535	102.62
347.763	114.62
347.99	98.62
348.218	107.62
348.445	103.62
348.673	99.62
348.9	81.62
349.128	96.62
349.355	88.62
349.583	90.62
349.81	85.62
350.037	87.62
350.265	93.62
350.492	94.62
350.72	99.62
350.947	107.62
351.174	109.62
351.402	101.62
351.629	92.62
351.856	102.62
352.083	101.62
352.311	104.62
352.538	101.62
352.765	97.62
352.992	117.62
353.22	102.62
353.447	104.62
353.674	94.62
353.901	109.62
354.128	98.62
354.355	97.62
354.583	80.62
354.81	108.62
355.037	107.62
355.264	105.62
355.491	83.62
355.718	97.62
355.945	91.62
356.172	86.62
356.399	98.62
356.626	93.62
356.853	90.62
357.08	99.62
357.307	91.62
357.534	76.62
357.761	89.62
357.988	83.62
358.215	95.62
358.441	96.62
358.668	93.62
358.895	89.62
359.122	82.62
359.349	75.62
359.576	91.62
359.802	79.62
360.029	99.62
360.256	113.62
360.483	85.62
360.709	80.62
360.936	91.62
361.163	99.62
361.39	94.62
361.616	100.62
361.843	96.62
362.07	87.62
362.296	79.62
362.523	82.62
362.749	86.62
362.976	81.62
363.203	92.62
363.429	87.62
363.656	73.62
363.882	87.62
364.109	95.62
364.335	94.62
364.562	94.62
364.788	84.62
365.015	83.62
365.241	93.62
365.468	104.62
365.694	96.62
365.92	98.62
366.147	82.62
366.373	77.62
366.599	81.62
366.826	92.62
367.052	86.62
367.278	92.62
367.505	82.62
367.731	84.62
367.957	85.62
368.184	92.62
368.41	94.62
368.636	114.62
368.862	119.62
369.089	93.62
369.315	83.62
369.541	85.62
369.767	93.62
369.993	82.62
370.219	95.62
370.445	94.62
370.672	79.62
370.898	88.62
371.124	93.62
371.35	83.62
371.576	88.62
371.802	83.62
372.028	86.62
372.254	82.62
372.48	88.62
372.706	95.62
372.932	83.62
373.158	86.62
373.384	81.62
373.61	94.62
373.835	81.62
374.061	85.62
374.287	86.62
374.513	98.62
374.739	85.62
374.965	90.62
375.191	88.62
375.416	89.62
375.642	96.62
375.868	91.62
376.094	93.62
376.319	83.62
376.545	89.62
376.771	83.62
376.997	83.62
377.222	93.62
377.448	84.62
377.674	79.62
377.899	85.62
378.125	90.62
378.35	94.62
378.576	92.62
378.802	82.62
379.027	87.62
379.253	94.62
379.478	98.62
379.704	99.62
379.929	89.62
380.155	92.62
380.38	80.62
380.606	85.62
380.831	83.62
381.057	93.62
381.282	101.62
381.507	88.62
381.733	88.62
381.958	103.62
382.184	101.62
382.409	104.62
382.634	97.62
382.86	98.62
383.085	96.62
383.31	94.62
383.535	106.62
383.761	98.62
383.986	89.62
384.211	91.62
384.436	101.62
384.662	81.62
384.887	78.62
385.112	94.62
385.337	97.62
385.562	93.62
385.787	112.62
386.013	106.62
386.238	118.62
386.463	108.62
386.688	121.62
386.913	102.62
387.138	83.62
387.363	87.62
387.588	89.62
387.813	102.62
388.038	94.62
388.263	108.62
388.488	91.62
388.713	89.62
388.938	94.62
389.163	90.62
389.387	88.62
389.612	84.62
389.837	85.62
390.062	82.62
390.287	95.62
390.512	91.62
390.736	90.62
390.961	99.62
391.186	79.62
391.411	97.62
391.636	83.62
391.86	96.62
392.085	94.62
392.31	79.62
392.534	86.62
392.759	75.62
392.984	87.62
393.208	89.62
393.433	76.62
393.658	88.62
393.882	85.62
394.107	90.62
394.331	82.62
394.556	80.62
394.78	87.62
395.005	78.62
395.229	82.62
395.454	94.62
395.678	76.62
395.903	77.62
396.127	84.62
396.352	95.62
396.576	79.62
396.801	67.62
397.025	96.62
397.249	91.62
397.474	91.62
397.698	89.62
397.922	100.62
398.147	89.62
398.371	89.62
398.595	68.62
398.82	75.62
399.044	86.62
399.268	81.62
399.492	94.62
399.717	92.62
399.941	79.62
400.165	93.62
400.389	88.62
400.613	96.62
400.837	86.62
401.062	79.62
401.286	89.62
401.51	101.62
401.734	74.62
401.958	107.62
402.182	128.62
402.406	144.62
402.63	100.62
402.854	81.62
403.078	85.62
403.302	83.62
403.526	99.62
403.75	71.62
403.974	87.62
404.198	98.62
404.422	82.62
404.645	92.62
404.869	97.62
405.093	91.62
405.317	89.62
405.541	106.62
405.765	81.62
405.988	121.62
406.212	181.62
406.436	206.62
406.66	155.62
406.883	90.62
407.107	85.62
407.331	91.62
407.555	105.62
407.778	90.62
408.002	92.62
408.226	82.62
408.449	94.62
408.673	80.62
408.896	103.62
409.12	96.62
409.344	77.62
409.567	92.62
409.791	87.62
410.014	96.62
410.238	101.62
410.461	92.62
410.685	90.62
410.908	101.62
411.132	102.62
411.355	89.62
411.578	97.62
411.802	91.62
412.025	108.62
412.249	71.62
412.472	97.62
412.695	82.62
412.919	90.62
413.142	87.62
413.365	98.62
413.589	79.62
413.812	80.62
414.035	95.62
414.258	91.62
414.482	103.62
414.705	86.62
414.928	95.62
415.151	89.62
415.374	86.62
415.597	83.62
415.821	87.62
416.044	77.62
416.267	79.62
416.49	99.62
416.713	93.62
416.936	78.62
417.159	78.62
417.382	96.62
417.605	84.62
417.828	83.62
418.051	96.62
418.274	99.62
418.497	92.62
418.72	81.62
418.943	82.62
419.166	85.62
419.389	85.62
419.611	93.62
419.834	74.62
420.057	88.62
420.28	90.62
420.503	87.62
420.726	91.62
420.948	84.62
421.171	93.62
421.394	95.62
421.617	86.62
421.839	95.62
422.062	104.62
422.285	108.62
422.507	97.62
422.73	88.62
422.953	98.62
423.175	93.62
423.398	104.62
423.621	79.62
423.843	88.62
424.066	97.62
424.288	85.62
424.511	94.62
424.733	91.62
424.956	113.62
425.178	100.62
425.401	78.62
425.623	96.62
425.846	101.62
426.068	91.62
426.291	86.62
426.513	89.62
426.735	100.62
426.958	101.62
427.18	103.62
427.402	127.62
427.625	149.62
427.847	126.62
428.069	105.62
428.292	96.62
428.514	78.62
428.736	74.62
428.958	83.62
429.181	83.62
429.403	97.62
429.625	80.62
429.847	86.62
430.069	95.62
430.292	90.62
430.514	91.62
430.736	80.62
430.958	81.62
431.18	90.62
431.402	91.62
431.624	80.62
431.846	81.62
432.068	68.62
432.29	81.62
432.512	100.62
432.734	85.62
432.956	88.62
433.178	92.62
433.4	102.62
433.622	80.62
433.844	87.62
434.066	78.62
434.287	87.62
434.509	101.62
434.731	96.62
434.953	91.62
435.175	86.62
435.397	94.62
435.618	86.62
435.84	96.62
436.062	103.62
436.284	104.62
436.505	93.62
436.727	96.62
436.949	94.62
437.17	93.62
437.392	86.62
437.614	93.62
437.835	99.62
438.057	110.62
438.278	94.62
438.5	101.62
438.721	93.62
438.943	100.62
439.165	82.62
439.386	83.62
439.608	96.62
439.829	97.62
440.05	123.62
440.272	141.62
440.493	96.62
440.715	89.62
440.936	87.62
441.158	81.62
441.379	91.62
441.6	95.62
441.822	95.62
442.043	95.62
442.264	103.62
442.486	108.62
442.707	104.62
442.928	97.62
443.149	133.62
443.371	134.62
443.592	112.62
443.813	114.62
444.034	102.62
444.255	95.62
444.476	89.62
444.698	81.62
444.919	70.62
445.14	130.62
445.361	118.62
445.582	101.62
445.803	126.62
446.024	127.62
446.245	139.62
446.466	108.62
446.687	97.62
446.908	73.62
447.129	86.62
447.35	80.62
447.571	90.62
447.792	96.62
448.013	91.62
448.234	93.62
448.455	105.62
448.675	100.62
448.896	101.62
449.117	99.62
449.338	99.62
449.559	117.62
449.779	137.62
450	82.62
450.221	98.62
450.442	79.62
450.662	106.62
450.883	113.62
451.104	103.62
451.324	102.62
451.545	80.62
451.766	90.62
451.986	98.62
452.207	99.62
452.428	94.62
452.648	94.62
452.869	103.62
453.089	118.62
453.31	116.62
453.53	102.62
453.751	79.62
453.971	93.62
454.192	98.62
454.412	92.62
454.633	86.62
454.853	96.62
455.073	77.62
455.294	91.62
455.514	90.62
455.734	88.62
455.955	77.62
456.175	89.62
456.395	90.62
456.616	77.62
456.836	82.62
457.056	87.62
457.276	77.62
457.497	92.62
457.717	73.62
457.937	93.62
458.157	78.62
458.377	86.62
458.598	102.62
458.818	163.62
459.038	166.62
459.258	103.62
459.478	81.62
459.698	100.62
459.918	82.62
460.138	79.62
460.358	76.62
460.578	92.62
460.798	83.62
461.018	84.62
461.238	71.62
461.458	89.62
461.678	87.62
461.898	83.62
462.118	77.62
462.338	70.62
462.558	89.62
462.777	95.62
462.997	92.62
463.217	95.62
463.437	90.62
463.657	85.62
463.876	87.62
464.096	91.62
464.316	89.62
464.536	89.62
464.755	86.62
464.975	107.62
465.195	149.62
465.414	167.62
465.634	90.62
465.854	82.62
466.073	86.62
466.293	93.62
466.512	88.62
466.732	98.62
466.951	88.62
467.171	92.62
467.391	96.62
467.61	99.62
467.829	96.62
468.049	93.62
468.268	89.62
468.488	82.62
468.707	101.62
468.927	89.62
469.146	86.62
469.365	93.62
469.585	82.62
469.804	95.62
470.023	105.62
470.243	102.62
470.462	94.62
470.681	101.62
470.901	93.62
471.12	87.62
471.339	83.62
471.558	91.62
471.777	91.62
471.997	92.62
472.216	71.62
472.435	78.62
472.654	94.62
472.873	93.62
473.092	80.62
473.311	79.62
473.53	85.62
473.749	94.62
473.968	101.62
474.187	112.62
474.406	90.62
474.625	85.62
474.844	85.62
475.063	76.62
475.282	69.62
475.501	84.62
475.72	86.62
475.939	91.62
476.158	95.62
476.377	82.62
476.596	75.62
476.814	92.62
477.033	77.62
477.252	93.62
477.471	82.62
477.69	95.62
477.908	86.62
478.127	95.62
478.346	95.62
478.564	84.62
478.783	99.62
479.002	83.62
479.22	86.62
479.439	86.62
479.658	112.62
479.876	85.62
480.095	101.62
480.313	88.62
480.532	93.62
480.751	88.62
480.969	82.62
481.188	99.62
481.406	124.62
481.624	87.62
481.843	83.62
482.061	86.62
482.28	99.62
482.498	88.62
482.717	94.62
482.935	89.62
483.153	87.62
483.372	92.62
483.59	85.62
483.808	80.62
484.027	99.62
484.245	85.62
484.463	102.62
484.681	100.62
484.9	93.62
485.118	97.62
485.336	90.62
485.554	82.62
485.772	102.62
485.99	106.62
486.209	103.62
486.427	96.62
486.645	96.62
486.863	100.62
487.081	106.62
487.299	92.62
487.517	99.62
487.735	88.62
487.953	95.62
488.171	101.62
488.389	114.62
488.607	100.62
488.825	96.62
489.043	75.62
489.261	102.62
489.479	81.62
489.696	93.62
489.914	90.62
490.132	89.62
490.35	93.62
490.568	97.62
490.786	99.62
491.003	92.62
491.221	82.62
491.439	96.62
491.657	81.62
491.874	87.62
492.092	82.62
492.31	90.62
492.527	98.62
492.745	83.62
492.963	100.62
493.18	96.62
493.398	99.62
493.615	98.62
493.833	86.62
494.05	98.62
494.268	100.62
494.485	82.62
494.703	81.62
494.92	77.62
495.138	90.62
495.355	93.62
495.573	105.62
495.79	76.62
496.008	100.62
496.225	96.62
496.442	93.62
496.66	102.62
496.877	95.62
497.094	103.62
497.312	91.62
497.529	91.62
497.746	102.62
497.963	96.62
498.181	91.62
498.398	95.62
498.615	104.62
498.832	104.62
499.049	95.62
499.267	91.62
499.484	78.62
499.701	74.62
499.918	85.62
500.135	79.62
500.352	82.62
500.569	79.62
500.786	102.62
501.003	99.62
501.22	90.62
501.437	92.62
501.654	97.62
501.871	101.62
502.088	96.62
502.305	98.62
502.522	98.62
502.739	83.62
502.956	101.62
503.172	96.62
503.389	104.62
503.606	118.62
503.823	89.62
504.04	87.62
504.256	93.62
504.473	80.62
504.69	88.62
504.907	91.62
505.123	85.62
505.34	94.62
505.557	94.62
505.773	89.62
505.99	88.62
506.207	99.62
506.423	79.62
506.64	87.62
506.856	98.62
507.073	103.62
507.289	93.62
507.506	95.62
507.722	104.62
507.939	115.62
508.155	91.62
508.372	90.62
508.588	97.62
508.805	96.62
509.021	102.62
509.238	93.62
509.454	109.62
509.67	107.62
509.887	101.62
510.103	136.62
510.319	215.62
510.536	785.62
510.752	2460.62
510.968	698.62
511.184	164.62
511.401	113.62
511.617	108.62
511.833	98.62
512.049	87.62
512.265	86.62
512.481	87.62
512.698	78.62
512.914	93.62
513.13	93.62
513.346	95.62
513.562	86.62
513.778	103.62
513.994	97.62
514.21	105.62
514.426	114.62
514.642	136.62
514.858	129.62
515.074	170.62
515.29	449.62
515.506	1484.62
515.721	568.62
515.937	158.62
516.153	112.62
516.369	101.62
