Data from Uncirc_2008_H10_HRD10591_00048.txt Node
Date: Wed Jan 03 10:15:40 EST 2024
User: Yrep
Spectrometer: HR+D1059
Trigger mode: 1
Integration Time (sec): 1.000000E-1
Scans to average: 1
Electric dark correction enabled: true
Nonlinearity correction enabled: false
Boxcar width: 0
XAxis mode: Wavelengths
Number of Pixels in Spectrum: 2048
>>>>>Begin Spectral Data<<<<<
223.165	-8.69
223.4	-8.69
223.635	-8.69
223.869	-17.69
224.104	-15.69
224.338	-19.69
224.573	-18.69
224.808	-17.69
225.042	-23.69
225.277	-4.69
225.511	1.31
225.746	3.31
225.98	3.31
226.215	15.31
226.449	20.31
226.683	17.31
226.918	34.31
227.152	31.31
227.387	25.31
227.621	35.31
227.856	39.31
228.09	45.31
228.324	51.31
228.559	45.31
228.793	58.31
229.027	67.31
229.262	68.31
229.496	70.31
229.73	79.31
229.964	77.31
230.199	71.31
230.433	80.31
230.667	69.31
230.901	87.31
231.136	83.31
231.37	87.31
231.604	79.31
231.838	84.31
232.072	84.31
232.306	73.31
232.541	67.31
232.775	76.31
233.009	91.31
233.243	79.31
233.477	71.31
233.711	79.31
233.945	77.31
234.179	80.31
234.413	68.31
234.647	72.31
234.881	79.31
235.115	72.31
235.349	81.31
235.583	87.31
235.817	72.31
236.051	73.31
236.285	67.31
236.519	78.31
236.753	77.31
236.987	74.31
237.221	73.31
237.455	93.31
237.689	89.31
237.922	75.31
238.156	76.31
238.39	81.31
238.624	67.31
238.858	77.31
239.091	86.31
239.325	81.31
239.559	76.31
239.793	84.31
240.027	66.31
240.26	75.31
240.494	75.31
240.728	73.31
240.961	73.31
241.195	76.31
241.429	77.31
241.662	73.31
241.896	67.31
242.13	77.31
242.363	76.31
242.597	77.31
242.83	85.31
243.064	79.31
243.298	90.31
243.531	86.31
243.765	71.31
243.998	64.31
244.232	71.31
244.465	76.31
244.699	67.31
244.932	79.31
245.166	81.31
245.399	85.31
245.633	77.31
245.866	74.31
246.099	68.31
246.333	87.31
246.566	71.31
246.8	74.31
247.033	79.31
247.266	68.31
247.5	94.31
247.733	65.31
247.966	64.31
248.2	84.31
248.433	71.31
248.666	80.31
248.899	77.31
249.133	79.31
249.366	96.31
249.599	80.31
249.832	86.31
250.066	73.31
250.299	67.31
250.532	81.31
250.765	81.31
250.998	70.31
251.231	77.31
251.465	73.31
251.698	75.31
251.931	67.31
252.164	78.31
252.397	65.31
252.63	72.31
252.863	79.31
253.096	73.31
253.329	73.31
253.562	85.31
253.795	59.31
254.028	73.31
254.261	81.31
254.494	67.31
254.727	77.31
254.96	91.31
255.193	89.31
255.426	80.31
255.659	81.31
255.892	89.31
256.124	70.31
256.357	78.31
256.59	81.31
256.823	79.31
257.056	83.31
257.289	79.31
257.521	79.31
257.754	81.31
257.987	77.31
258.22	93.31
258.452	72.31
258.685	77.31
258.918	79.31
259.151	83.31
259.383	75.31
259.616	87.31
259.849	84.31
260.081	73.31
260.314	87.31
260.547	78.31
260.779	88.31
261.012	91.31
261.244	71.31
261.477	81.31
261.71	98.31
261.942	101.31
262.175	97.31
262.407	87.31
262.64	83.31
262.872	86.31
263.105	92.31
263.337	74.31
263.57	86.31
263.802	91.31
264.035	88.31
264.267	80.31
264.499	74.31
264.732	86.31
264.964	90.31
265.197	89.31
265.429	77.31
265.661	79.31
265.894	62.31
266.126	80.31
266.358	73.31
266.591	71.31
266.823	77.31
267.055	77.31
267.287	91.31
267.52	80.31
267.752	78.31
267.984	67.31
268.216	86.31
268.448	91.31
268.681	82.31
268.913	83.31
269.145	68.31
269.377	72.31
269.609	81.31
269.841	94.31
270.073	77.31
270.306	78.31
270.538	91.31
270.77	70.31
271.002	67.31
271.234	78.31
271.466	77.31
271.698	80.31
271.93	76.31
272.162	80.31
272.394	79.31
272.626	85.31
272.858	72.31
273.09	82.31
273.322	86.31
273.553	73.31
273.785	87.31
274.017	69.31
274.249	78.31
274.481	74.31
274.713	80.31
274.945	82.31
275.176	94.31
275.408	72.31
275.64	74.31
275.872	92.31
276.104	87.31
276.335	74.31
276.567	74.31
276.799	102.31
277.031	90.31
277.262	85.31
277.494	71.31
277.726	81.31
277.957	91.31
278.189	94.31
278.421	79.31
278.652	85.31
278.884	91.31
279.115	96.31
279.347	86.31
279.579	84.31
279.81	91.31
280.042	88.31
280.273	84.31
280.505	65.31
280.736	88.31
280.968	84.31
281.199	91.31
281.431	85.31
281.662	78.31
281.894	82.31
282.125	85.31
282.356	123.31
282.588	115.31
282.819	95.31
283.051	88.31
283.282	88.31
283.513	89.31
283.745	81.31
283.976	73.31
284.207	75.31
284.439	83.31
284.67	88.31
284.901	91.31
285.132	90.31
285.364	80.31
285.595	96.31
285.826	72.31
286.057	91.31
286.288	77.31
286.52	83.31
286.751	79.31
286.982	77.31
287.213	91.31
287.444	88.31
287.675	76.31
287.906	91.31
288.138	88.31
288.369	79.31
288.6	103.31
288.831	89.31
289.062	74.31
289.293	82.31
289.524	97.31
289.755	69.31
289.986	70.31
290.217	75.31
290.448	93.31
290.679	79.31
290.91	79.31
291.141	75.31
291.371	77.31
291.602	96.31
291.833	81.31
292.064	87.31
292.295	94.31
292.526	96.31
292.757	88.31
292.987	86.31
293.218	79.31
293.449	80.31
293.68	82.31
293.91	97.31
294.141	86.31
294.372	85.31
294.603	94.31
294.833	84.31
295.064	83.31
295.295	80.31
295.525	71.31
295.756	92.31
295.987	109.31
296.217	124.31
296.448	111.31
296.679	89.31
296.909	89.31
297.14	86.31
297.37	89.31
297.601	83.31
297.831	97.31
298.062	95.31
298.292	80.31
298.523	92.31
298.753	83.31
298.984	89.31
299.214	92.31
299.445	83.31
299.675	78.31
299.905	77.31
300.136	84.31
300.366	76.31
300.597	96.31
300.827	93.31
301.057	100.31
301.288	99.31
301.518	87.31
301.748	100.31
301.979	96.31
302.209	92.31
302.439	74.31
302.669	93.31
302.9	81.31
303.13	70.31
303.36	103.31
303.59	89.31
303.82	104.31
304.051	80.31
304.281	87.31
304.511	80.31
304.741	80.31
304.971	91.31
305.201	95.31
305.431	80.31
305.661	91.31
305.891	90.31
306.121	83.31
306.352	108.31
306.582	99.31
306.812	85.31
307.042	80.31
307.272	82.31
307.502	97.31
307.731	83.31
307.961	90.31
308.191	79.31
308.421	94.31
308.651	99.31
308.881	102.31
309.111	75.31
309.341	92.31
309.571	94.31
309.8	95.31
310.03	92.31
310.26	92.31
310.49	95.31
310.72	88.31
310.949	93.31
311.179	97.31
311.409	92.31
311.639	103.31
311.868	84.31
312.098	92.31
312.328	87.31
312.557	95.31
312.787	102.31
313.017	100.31
313.246	87.31
313.476	102.31
313.706	73.31
313.935	88.31
314.165	100.31
314.394	84.31
314.624	88.31
314.853	97.31
315.083	101.31
315.312	84.31
315.542	72.31
315.771	91.31
316.001	83.31
316.23	83.31
316.46	81.31
316.689	86.31
316.919	86.31
317.148	81.31
317.377	82.31
317.607	85.31
317.836	87.31
318.065	89.31
318.295	89.31
318.524	77.31
318.753	94.31
318.983	91.31
319.212	102.31
319.441	110.31
319.67	105.31
319.9	95.31
320.129	93.31
320.358	98.31
320.587	82.31
320.816	97.31
321.046	112.31
321.275	94.31
321.504	86.31
321.733	88.31
321.962	107.31
322.191	89.31
322.42	102.31
322.649	113.31
322.878	103.31
323.108	127.31
323.337	107.31
323.566	119.31
323.795	126.31
324.024	181.31
324.253	341.31
324.482	719.31
324.71	1465.31
324.939	1925.31
325.168	713.31
325.397	220.31
325.626	133.31
325.855	130.31
326.084	119.31
326.313	144.31
326.542	143.31
326.77	204.31
326.999	415.31
327.228	847.31
327.457	1515.31
327.686	1179.31
327.914	323.31
328.143	151.31
328.372	133.31
328.6	113.31
328.829	107.31
329.058	116.31
329.287	125.31
329.515	111.31
329.744	102.31
329.972	110.31
330.201	94.31
330.43	95.31
330.658	110.31
330.887	124.31
331.115	117.31
331.344	92.31
331.572	87.31
331.801	87.31
332.03	75.31
332.258	91.31
332.486	94.31
332.715	106.31
332.943	93.31
333.172	93.31
333.4	89.31
333.629	82.31
333.857	103.31
334.085	108.31
334.314	99.31
334.542	87.31
334.771	81.31
334.999	87.31
335.227	107.31
335.455	112.31
335.684	94.31
335.912	86.31
336.14	95.31
336.369	87.31
336.597	102.31
336.825	90.31
337.053	101.31
337.281	95.31
337.51	96.31
337.738	98.31
337.966	93.31
338.194	97.31
338.422	90.31
338.65	78.31
338.878	87.31
339.106	95.31
339.334	73.31
339.562	92.31
339.79	84.31
340.018	87.31
340.246	80.31
340.474	97.31
340.702	96.31
340.93	91.31
341.158	74.31
341.386	73.31
341.614	106.31
341.842	112.31
342.07	92.31
342.298	85.31
342.526	88.31
342.754	78.31
342.981	87.31
343.209	81.31
343.437	87.31
343.665	89.31
343.893	90.31
344.12	91.31
344.348	79.31
344.576	92.31
344.804	91.31
345.031	97.31
345.259	99.31
345.487	93.31
345.714	83.31
345.942	90.31
346.17	84.31
346.397	78.31
346.625	90.31
346.853	99.31
347.08	72.31
347.308	99.31
347.535	94.31
347.763	94.31
347.99	83.31
348.218	100.31
348.445	96.31
348.673	95.31
348.9	90.31
349.128	84.31
349.355	79.31
349.583	99.31
349.81	96.31
350.037	88.31
350.265	92.31
350.492	78.31
350.72	94.31
350.947	81.31
351.174	107.31
351.402	88.31
351.629	102.31
351.856	92.31
352.083	107.31
352.311	102.31
352.538	102.31
352.765	94.31
352.992	101.31
353.22	104.31
353.447	89.31
353.674	91.31
353.901	87.31
354.128	94.31
354.355	93.31
354.583	100.31
354.81	82.31
355.037	81.31
355.264	106.31
355.491	84.31
355.718	85.31
355.945	88.31
356.172	91.31
356.399	93.31
356.626	111.31
356.853	88.31
357.08	85.31
357.307	85.31
357.534	82.31
357.761	89.31
357.988	91.31
358.215	84.31
358.441	88.31
358.668	94.31
358.895	87.31
359.122	96.31
359.349	85.31
359.576	88.31
359.802	96.31
360.029	98.31
360.256	103.31
360.483	99.31
360.709	101.31
360.936	87.31
361.163	85.31
361.39	86.31
361.616	77.31
361.843	92.31
362.07	89.31
362.296	82.31
362.523	97.31
362.749	83.31
362.976	65.31
363.203	80.31
363.429	87.31
363.656	97.31
363.882	94.31
364.109	80.31
364.335	76.31
364.562	88.31
364.788	95.31
365.015	92.31
365.241	96.31
365.468	99.31
365.694	86.31
365.92	81.31
366.147	88.31
366.373	85.31
366.599	93.31
366.826	95.31
367.052	89.31
367.278	84.31
367.505	92.31
367.731	82.31
367.957	81.31
368.184	89.31
368.41	71.31
368.636	106.31
368.862	110.31
369.089	97.31
369.315	92.31
369.541	83.31
369.767	88.31
369.993	91.31
370.219	107.31
370.445	99.31
370.672	93.31
370.898	95.31
371.124	84.31
371.35	83.31
371.576	76.31
371.802	76.31
372.028	91.31
372.254	83.31
372.48	88.31
372.706	80.31
372.932	74.31
373.158	93.31
373.384	105.31
373.61	85.31
373.835	85.31
374.061	88.31
374.287	84.31
374.513	93.31
374.739	86.31
374.965	89.31
375.191	77.31
375.416	84.31
375.642	81.31
375.868	93.31
376.094	87.31
376.319	88.31
376.545	81.31
376.771	89.31
376.997	93.31
377.222	92.31
377.448	75.31
377.674	69.31
377.899	80.31
378.125	86.31
378.35	87.31
378.576	96.31
378.802	85.31
379.027	101.31
379.253	97.31
379.478	95.31
379.704	88.31
379.929	96.31
380.155	94.31
380.38	96.31
380.606	90.31
380.831	83.31
381.057	99.31
381.282	101.31
381.507	97.31
381.733	91.31
381.958	86.31
382.184	103.31
382.409	97.31
382.634	95.31
382.86	88.31
383.085	107.31
383.31	84.31
383.535	105.31
383.761	96.31
383.986	95.31
384.211	92.31
384.436	91.31
384.662	91.31
384.887	107.31
385.112	93.31
385.337	93.31
385.562	107.31
385.787	91.31
386.013	97.31
386.238	109.31
386.463	101.31
386.688	99.31
386.913	102.31
387.138	111.31
387.363	106.31
387.588	91.31
387.813	100.31
388.038	102.31
388.263	117.31
388.488	102.31
388.713	94.31
388.938	82.31
389.163	89.31
389.387	91.31
389.612	91.31
389.837	89.31
390.062	109.31
390.287	90.31
390.512	88.31
390.736	85.31
390.961	99.31
391.186	88.31
391.411	94.31
391.636	87.31
391.86	83.31
392.085	73.31
392.31	88.31
392.534	73.31
392.759	79.31
392.984	90.31
393.208	79.31
393.433	81.31
393.658	87.31
393.882	81.31
394.107	79.31
394.331	87.31
394.556	79.31
394.78	75.31
395.005	88.31
395.229	91.31
395.454	77.31
395.678	88.31
395.903	100.31
396.127	79.31
396.352	86.31
396.576	79.31
396.801	91.31
397.025	100.31
397.249	79.31
397.474	94.31
397.698	73.31
397.922	75.31
398.147	68.31
398.371	80.31
398.595	74.31
398.82	79.31
399.044	83.31
399.268	87.31
399.492	86.31
399.717	96.31
399.941	84.31
400.165	80.31
400.389	89.31
400.613	91.31
400.837	78.31
401.062	96.31
401.286	87.31
401.51	93.31
401.734	95.31
401.958	89.31
402.182	110.31
402.406	142.31
402.63	109.31
402.854	103.31
403.078	79.31
403.302	100.31
403.526	92.31
403.75	74.31
403.974	89.31
404.198	86.31
404.422	84.31
404.645	84.31
404.869	95.31
405.093	92.31
405.317	86.31
405.541	96.31
405.765	95.31
405.988	96.31
406.212	157.31
406.436	210.31
406.66	127.31
406.883	104.31
407.107	77.31
407.331	89.31
407.555	94.31
407.778	89.31
408.002	92.31
408.226	99.31
408.449	82.31
408.673	83.31
408.896	89.31
409.12	78.31
409.344	85.31
409.567	75.31
409.791	91.31
410.014	102.31
410.238	88.31
410.461	88.31
410.685	88.31
410.908	89.31
411.132	89.31
411.355	79.31
411.578	97.31
411.802	87.31
412.025	91.31
412.249	86.31
412.472	88.31
412.695	83.31
412.919	89.31
413.142	89.31
413.365	88.31
413.589	103.31
413.812	78.31
414.035	87.31
414.258	84.31
414.482	87.31
414.705	75.31
414.928	71.31
415.151	89.31
415.374	71.31
415.597	94.31
415.821	67.31
416.044	84.31
416.267	79.31
416.49	85.31
416.713	90.31
416.936	81.31
417.159	76.31
417.382	86.31
417.605	77.31
417.828	89.31
418.051	75.31
418.274	75.31
418.497	96.31
418.72	91.31
418.943	79.31
419.166	84.31
419.389	71.31
419.611	81.31
419.834	99.31
420.057	86.31
420.28	89.31
420.503	71.31
420.726	89.31
420.948	80.31
421.171	89.31
421.394	86.31
421.617	100.31
421.839	84.31
422.062	92.31
422.285	83.31
422.507	101.31
422.73	89.31
422.953	81.31
423.175	86.31
423.398	90.31
423.621	97.31
423.843	86.31
424.066	88.31
424.288	93.31
424.511	82.31
424.733	95.31
424.956	90.31
425.178	93.31
425.401	92.31
425.623	105.31
425.846	91.31
426.068	94.31
426.291	83.31
426.513	79.31
426.735	102.31
426.958	102.31
427.18	83.31
427.402	104.31
427.625	146.31
427.847	113.31
428.069	88.31
428.292	90.31
428.514	81.31
428.736	89.31
428.958	80.31
429.181	70.31
429.403	78.31
429.625	85.31
429.847	90.31
430.069	98.31
430.292	89.31
430.514	76.31
430.736	91.31
430.958	91.31
431.18	91.31
431.402	75.31
431.624	80.31
431.846	73.31
432.068	84.31
432.29	86.31
432.512	79.31
432.734	84.31
432.956	93.31
433.178	85.31
433.4	107.31
433.622	86.31
433.844	77.31
434.066	79.31
434.287	78.31
434.509	77.31
434.731	81.31
434.953	94.31
435.175	96.31
435.397	92.31
435.618	101.31
435.84	94.31
436.062	97.31
436.284	100.31
436.505	91.31
436.727	94.31
436.949	93.31
437.17	89.31
437.392	70.31
437.614	92.31
437.835	103.31
438.057	93.31
438.278	102.31
438.5	99.31
438.721	118.31
438.943	104.31
439.165	82.31
439.386	79.31
439.608	85.31
439.829	97.31
440.05	106.31
440.272	113.31
440.493	89.31
440.715	78.31
440.936	74.31
441.158	76.31
441.379	92.31
441.6	99.31
441.822	83.31
442.043	78.31
442.264	89.31
442.486	96.31
442.707	78.31
442.928	104.31
443.149	110.31
443.371	115.31
443.592	92.31
443.813	124.31
444.034	105.31
444.255	82.31
444.476	80.31
444.698	90.31
444.919	87.31
445.14	116.31
445.361	110.31
445.582	102.31
445.803	132.31
446.024	124.31
446.245	114.31
446.466	112.31
446.687	93.31
446.908	87.31
447.129	85.31
447.35	96.31
447.571	71.31
447.792	94.31
448.013	95.31
448.234	96.31
448.455	104.31
448.675	94.31
448.896	108.31
449.117	90.31
449.338	99.31
449.559	109.31
449.779	123.31
450	91.31
450.221	85.31
450.442	102.31
450.662	103.31
450.883	89.31
451.104	104.31
451.324	89.31
451.545	79.31
451.766	80.31
451.986	91.31
452.207	81.31
452.428	78.31
452.648	90.31
452.869	107.31
453.089	109.31
453.31	95.31
453.53	97.31
453.751	72.31
453.971	102.31
454.192	106.31
454.412	83.31
454.633	88.31
454.853	87.31
455.073	84.31
455.294	82.31
455.514	94.31
455.734	85.31
455.955	96.31
456.175	71.31
456.395	82.31
456.616	77.31
456.836	78.31
457.056	82.31
457.276	86.31
457.497	84.31
457.717	87.31
457.937	93.31
458.157	91.31
458.377	82.31
458.598	97.31
458.818	133.31
459.038	128.31
459.258	113.31
459.478	90.31
459.698	94.31
459.918	96.31
460.138	84.31
460.358	85.31
460.578	95.31
460.798	84.31
461.018	92.31
461.238	81.31
461.458	85.31
461.678	92.31
461.898	91.31
462.118	87.31
462.338	86.31
462.558	86.31
462.777	89.31
462.997	76.31
463.217	71.31
463.437	78.31
463.657	76.31
463.876	86.31
464.096	91.31
464.316	86.31
464.536	87.31
464.755	89.31
464.975	96.31
465.195	136.31
465.414	154.31
465.634	115.31
465.854	92.31
466.073	83.31
466.293	76.31
466.512	74.31
466.732	81.31
466.951	88.31
467.171	89.31
467.391	76.31
467.61	93.31
467.829	92.31
468.049	81.31
468.268	96.31
468.488	83.31
468.707	86.31
468.927	80.31
469.146	82.31
469.365	87.31
469.585	80.31
469.804	92.31
470.023	92.31
470.243	78.31
470.462	102.31
470.681	106.31
470.901	83.31
471.12	91.31
471.339	81.31
471.558	80.31
471.777	73.31
471.997	76.31
472.216	85.31
472.435	83.31
472.654	86.31
472.873	83.31
473.092	81.31
473.311	94.31
473.53	87.31
473.749	99.31
473.968	89.31
474.187	109.31
474.406	99.31
474.625	92.31
474.844	90.31
475.063	81.31
475.282	69.31
475.501	99.31
475.72	91.31
475.939	78.31
476.158	83.31
476.377	85.31
476.596	86.31
476.814	76.31
477.033	97.31
477.252	81.31
477.471	80.31
477.69	86.31
477.908	91.31
478.127	87.31
478.346	100.31
478.564	92.31
478.783	92.31
479.002	109.31
479.22	84.31
479.439	92.31
479.658	108.31
479.876	94.31
480.095	86.31
480.313	72.31
480.532	71.31
480.751	94.31
480.969	81.31
481.188	90.31
481.406	81.31
481.624	74.31
481.843	77.31
482.061	92.31
482.28	85.31
482.498	91.31
482.717	91.31
482.935	77.31
483.153	81.31
483.372	71.31
483.59	81.31
483.808	91.31
484.027	88.31
484.245	71.31
484.463	91.31
484.681	96.31
484.9	85.31
485.118	89.31
485.336	98.31
485.554	100.31
485.772	103.31
485.99	91.31
486.209	108.31
486.427	84.31
486.645	102.31
486.863	108.31
487.081	95.31
487.299	77.31
487.517	87.31
487.735	73.31
487.953	86.31
488.171	91.31
488.389	91.31
488.607	78.31
488.825	98.31
489.043	78.31
489.261	87.31
489.479	92.31
489.696	89.31
489.914	85.31
490.132	83.31
490.35	82.31
490.568	96.31
490.786	87.31
491.003	76.31
491.221	72.31
491.439	100.31
491.657	87.31
491.874	87.31
492.092	96.31
492.31	95.31
492.527	98.31
492.745	94.31
492.963	81.31
493.18	93.31
493.398	88.31
493.615	101.31
493.833	85.31
494.05	87.31
494.268	81.31
494.485	89.31
494.703	91.31
494.92	93.31
495.138	73.31
495.355	89.31
495.573	79.31
495.79	85.31
496.008	84.31
496.225	99.31
496.442	80.31
496.66	87.31
496.877	81.31
497.094	91.31
497.312	92.31
497.529	78.31
497.746	90.31
497.963	84.31
498.181	76.31
498.398	96.31
498.615	92.31
498.832	91.31
499.049	84.31
499.267	86.31
499.484	87.31
499.701	96.31
499.918	86.31
500.135	101.31
500.352	86.31
500.569	74.31
500.786	88.31
501.003	80.31
501.22	91.31
501.437	90.31
501.654	103.31
501.871	92.31
502.088	104.31
502.305	85.31
502.522	85.31
502.739	87.31
502.956	97.31
503.172	95.31
503.389	97.31
503.606	104.31
503.823	97.31
504.04	79.31
504.256	90.31
504.473	91.31
504.69	86.31
504.907	105.31
505.123	84.31
505.34	84.31
505.557	81.31
505.773	104.31
505.99	81.31
506.207	92.31
506.423	83.31
506.64	89.31
506.856	86.31
507.073	84.31
507.289	66.31
507.506	91.31
507.722	108.31
507.939	103.31
508.155	93.31
508.372	112.31
508.588	85.31
508.805	96.31
509.021	89.31
509.238	96.31
509.454	95.31
509.67	94.31
509.887	89.31
510.103	128.31
510.319	206.31
510.536	741.31
510.752	2284.31
510.968	640.31
511.184	156.31
511.401	121.31
511.617	83.31
511.833	95.31
512.049	89.31
512.265	87.31
512.481	84.31
512.698	104.31
512.914	90.31
513.13	82.31
513.346	86.31
513.562	69.31
513.778	96.31
513.994	88.31
514.21	96.31
514.426	117.31
514.642	118.31
514.858	119.31
515.074	175.31
515.29	415.31
515.506	1367.31
515.721	522.31
515.937	139.31
516.153	87.31
516.369	89.31
516.585	98.31
516.801	97.31
517.016	79.31
517.232	87.31
