Data from Uncirc_2008_H10_HRD10591_00056.txt Node
Date: Wed Jan 03 10:15:42 EST 2024
User: Yrep
Spectrometer: HR+D1059
Trigger mode: 1
Integration Time (sec): 1.000000E-1
Scans to average: 1
Electric dark correction enabled: true
Nonlinearity correction enabled: false
Boxcar width: 0
XAxis mode: Wavelengths
Number of Pixels in Spectrum: 2048
>>>>>Begin Spectral Data<<<<<
223.165	-8.44
223.4	-8.44
223.635	-8.44
223.869	-22.44
224.104	-20.44
224.338	-33.44
224.573	-5.44
224.808	-22.44
225.042	-4.44
225.277	-2.44
225.511	6.56
225.746	7.56
225.98	9.56
226.215	6.56
226.449	0.56
226.683	17.56
226.918	35.56
227.152	35.56
227.387	27.56
227.621	51.56
227.856	38.56
228.09	42.56
228.324	47.56
228.559	49.56
228.793	44.56
229.027	53.56
229.262	63.56
229.496	62.56
229.73	87.56
229.964	90.56
230.199	60.56
230.433	76.56
230.667	81.56
230.901	82.56
231.136	81.56
231.37	72.56
231.604	73.56
231.838	80.56
232.072	80.56
232.306	78.56
232.541	71.56
232.775	80.56
233.009	73.56
233.243	83.56
233.477	82.56
233.711	90.56
233.945	75.56
234.179	80.56
234.413	88.56
234.647	86.56
234.881	85.56
235.115	78.56
235.349	76.56
235.583	88.56
235.817	77.56
236.051	90.56
236.285	87.56
236.519	77.56
236.753	76.56
236.987	94.56
237.221	87.56
237.455	71.56
237.689	82.56
237.922	77.56
238.156	59.56
238.39	79.56
238.624	75.56
238.858	81.56
239.091	72.56
239.325	79.56
239.559	66.56
239.793	71.56
240.027	76.56
240.26	75.56
240.494	66.56
240.728	63.56
240.961	78.56
241.195	79.56
241.429	77.56
241.662	72.56
241.896	72.56
242.13	78.56
242.363	74.56
242.597	61.56
242.83	84.56
243.064	95.56
243.298	74.56
243.531	71.56
243.765	74.56
243.998	82.56
244.232	81.56
244.465	72.56
244.699	79.56
244.932	77.56
245.166	67.56
245.399	76.56
245.633	60.56
245.866	76.56
246.099	88.56
246.333	89.56
246.566	67.56
246.8	77.56
247.033	76.56
247.266	83.56
247.5	73.56
247.733	77.56
247.966	79.56
248.2	86.56
248.433	72.56
248.666	80.56
248.899	80.56
249.133	78.56
249.366	79.56
249.599	86.56
249.832	79.56
250.066	74.56
250.299	80.56
250.532	86.56
250.765	82.56
250.998	65.56
251.231	68.56
251.465	83.56
251.698	88.56
251.931	71.56
252.164	82.56
252.397	74.56
252.63	82.56
252.863	81.56
253.096	80.56
253.329	82.56
253.562	65.56
253.795	72.56
254.028	84.56
254.261	77.56
254.494	80.56
254.727	73.56
254.96	75.56
255.193	80.56
255.426	80.56
255.659	76.56
255.892	91.56
256.124	82.56
256.357	78.56
256.59	71.56
256.823	68.56
257.056	83.56
257.289	85.56
257.521	73.56
257.754	81.56
257.987	77.56
258.22	81.56
258.452	94.56
258.685	79.56
258.918	76.56
259.151	80.56
259.383	81.56
259.616	75.56
259.849	75.56
260.081	75.56
260.314	84.56
260.547	88.56
260.779	88.56
261.012	61.56
261.244	93.56
261.477	98.56
261.71	90.56
261.942	110.56
262.175	92.56
262.407	81.56
262.64	93.56
262.872	84.56
263.105	82.56
263.337	89.56
263.57	85.56
263.802	75.56
264.035	77.56
264.267	91.56
264.499	87.56
264.732	88.56
264.964	73.56
265.197	71.56
265.429	83.56
265.661	83.56
265.894	67.56
266.126	83.56
266.358	64.56
266.591	74.56
266.823	91.56
267.055	75.56
267.287	79.56
267.52	91.56
267.752	87.56
267.984	84.56
268.216	82.56
268.448	76.56
268.681	77.56
268.913	75.56
269.145	79.56
269.377	89.56
269.609	88.56
269.841	98.56
270.073	89.56
270.306	77.56
270.538	90.56
270.77	93.56
271.002	77.56
271.234	78.56
271.466	91.56
271.698	89.56
271.93	89.56
272.162	83.56
272.394	75.56
272.626	83.56
272.858	82.56
273.09	83.56
273.322	80.56
273.553	89.56
273.785	78.56
274.017	89.56
274.249	82.56
274.481	79.56
274.713	77.56
274.945	88.56
275.176	72.56
275.408	71.56
275.64	95.56
275.872	82.56
276.104	91.56
276.335	96.56
276.567	78.56
276.799	108.56
277.031	85.56
277.262	84.56
277.494	96.56
277.726	82.56
277.957	75.56
278.189	80.56
278.421	83.56
278.652	66.56
278.884	89.56
279.115	76.56
279.347	93.56
279.579	83.56
279.81	89.56
280.042	82.56
280.273	69.56
280.505	87.56
280.736	82.56
280.968	76.56
281.199	86.56
281.431	85.56
281.662	91.56
281.894	98.56
282.125	93.56
282.356	115.56
282.588	124.56
282.819	100.56
283.051	88.56
283.282	83.56
283.513	93.56
283.745	82.56
283.976	86.56
284.207	88.56
284.439	88.56
284.67	68.56
284.901	93.56
285.132	73.56
285.364	88.56
285.595	101.56
285.826	85.56
286.057	98.56
286.288	80.56
286.52	86.56
286.751	81.56
286.982	78.56
287.213	91.56
287.444	86.56
287.675	92.56
287.906	93.56
288.138	85.56
288.369	81.56
288.6	98.56
288.831	91.56
289.062	90.56
289.293	81.56
289.524	91.56
289.755	99.56
289.986	94.56
290.217	77.56
290.448	80.56
290.679	89.56
290.91	85.56
291.141	77.56
291.371	91.56
291.602	88.56
291.833	78.56
292.064	87.56
292.295	75.56
292.526	93.56
292.757	87.56
292.987	85.56
293.218	85.56
293.449	82.56
293.68	76.56
293.91	82.56
294.141	90.56
294.372	79.56
294.603	85.56
294.833	93.56
295.064	81.56
295.295	83.56
295.525	105.56
295.756	98.56
295.987	99.56
296.217	136.56
296.448	123.56
296.679	96.56
296.909	96.56
297.14	86.56
297.37	90.56
297.601	101.56
297.831	93.56
298.062	97.56
298.292	73.56
298.523	80.56
298.753	93.56
298.984	106.56
299.214	85.56
299.445	77.56
299.675	94.56
299.905	98.56
300.136	81.56
300.366	99.56
300.597	93.56
300.827	86.56
301.057	80.56
301.288	88.56
301.518	97.56
301.748	94.56
301.979	114.56
302.209	87.56
302.439	66.56
302.669	87.56
302.9	89.56
303.13	91.56
303.36	105.56
303.59	87.56
303.82	104.56
304.051	91.56
304.281	83.56
304.511	92.56
304.741	83.56
304.971	82.56
305.201	99.56
305.431	87.56
305.661	90.56
305.891	85.56
306.121	101.56
306.352	99.56
306.582	91.56
306.812	86.56
307.042	83.56
307.272	83.56
307.502	94.56
307.731	93.56
307.961	79.56
308.191	81.56
308.421	87.56
308.651	93.56
308.881	99.56
309.111	91.56
309.341	103.56
309.571	96.56
309.8	93.56
310.03	97.56
310.26	96.56
310.49	81.56
310.72	93.56
310.949	101.56
311.179	91.56
311.409	86.56
311.639	90.56
311.868	94.56
312.098	83.56
312.328	87.56
312.557	97.56
312.787	103.56
313.017	101.56
313.246	99.56
313.476	83.56
313.706	90.56
313.935	110.56
314.165	98.56
314.394	88.56
314.624	106.56
314.853	108.56
315.083	92.56
315.312	88.56
315.542	91.56
315.771	94.56
316.001	106.56
316.23	86.56
316.46	101.56
316.689	90.56
316.919	94.56
317.148	84.56
317.377	97.56
317.607	92.56
317.836	92.56
318.065	80.56
318.295	76.56
318.524	79.56
318.753	97.56
318.983	97.56
319.212	90.56
319.441	110.56
319.67	111.56
319.9	107.56
320.129	88.56
320.358	93.56
320.587	101.56
320.816	99.56
321.046	88.56
321.275	107.56
321.504	81.56
321.733	76.56
321.962	77.56
322.191	91.56
322.42	102.56
322.649	112.56
322.878	107.56
323.108	115.56
323.337	119.56
323.566	129.56
323.795	152.56
324.024	187.56
324.253	367.56
324.482	743.56
324.71	1490.56
324.939	1905.56
325.168	722.56
325.397	223.56
325.626	135.56
325.855	141.56
326.084	115.56
326.313	129.56
326.542	149.56
326.77	225.56
326.999	411.56
327.228	837.56
327.457	1495.56
327.686	1226.56
327.914	328.56
328.143	181.56
328.372	139.56
328.6	124.56
328.829	105.56
329.058	120.56
329.287	127.56
329.515	112.56
329.744	97.56
329.972	102.56
330.201	97.56
330.43	109.56
330.658	106.56
330.887	141.56
331.115	113.56
331.344	85.56
331.572	106.56
331.801	89.56
332.03	94.56
332.258	101.56
332.486	89.56
332.715	111.56
332.943	86.56
333.172	90.56
333.4	90.56
333.629	101.56
333.857	101.56
334.085	102.56
334.314	100.56
334.542	85.56
334.771	85.56
334.999	87.56
335.227	96.56
335.455	94.56
335.684	87.56
335.912	86.56
336.14	97.56
336.369	85.56
336.597	83.56
336.825	94.56
337.053	91.56
337.281	88.56
337.51	90.56
337.738	101.56
337.966	96.56
338.194	96.56
338.422	91.56
338.65	94.56
338.878	94.56
339.106	94.56
339.334	98.56
339.562	81.56
339.79	89.56
340.018	86.56
340.246	98.56
340.474	95.56
340.702	87.56
340.93	96.56
341.158	92.56
341.386	78.56
341.614	92.56
341.842	104.56
342.07	92.56
342.298	82.56
342.526	95.56
342.754	91.56
342.981	89.56
343.209	87.56
343.437	106.56
343.665	93.56
343.893	99.56
344.12	101.56
344.348	91.56
344.576	71.56
344.804	94.56
345.031	98.56
345.259	98.56
345.487	103.56
345.714	94.56
345.942	88.56
346.17	95.56
346.397	93.56
346.625	92.56
346.853	97.56
347.08	97.56
347.308	91.56
347.535	90.56
347.763	79.56
347.99	101.56
348.218	100.56
348.445	94.56
348.673	90.56
348.9	90.56
349.128	93.56
349.355	91.56
349.583	95.56
349.81	91.56
350.037	92.56
350.265	103.56
350.492	98.56
350.72	91.56
350.947	103.56
351.174	96.56
351.402	107.56
351.629	90.56
351.856	93.56
352.083	104.56
352.311	89.56
352.538	103.56
352.765	105.56
352.992	113.56
353.22	112.56
353.447	94.56
353.674	111.56
353.901	104.56
354.128	87.56
354.355	82.56
354.583	97.56
354.81	104.56
355.037	90.56
355.264	89.56
355.491	87.56
355.718	93.56
355.945	85.56
356.172	81.56
356.399	89.56
356.626	95.56
356.853	89.56
357.08	98.56
357.307	99.56
357.534	89.56
357.761	82.56
357.988	97.56
358.215	87.56
358.441	88.56
358.668	92.56
358.895	101.56
359.122	80.56
359.349	92.56
359.576	86.56
359.802	94.56
360.029	106.56
360.256	99.56
360.483	106.56
360.709	93.56
360.936	93.56
361.163	95.56
361.39	90.56
361.616	82.56
361.843	94.56
362.07	82.56
362.296	95.56
362.523	77.56
362.749	87.56
362.976	74.56
363.203	96.56
363.429	90.56
363.656	87.56
363.882	96.56
364.109	89.56
364.335	102.56
364.562	82.56
364.788	93.56
365.015	78.56
365.241	77.56
365.468	111.56
365.694	100.56
365.92	80.56
366.147	92.56
366.373	94.56
366.599	79.56
366.826	92.56
367.052	87.56
367.278	97.56
367.505	83.56
367.731	94.56
367.957	82.56
368.184	85.56
368.41	82.56
368.636	103.56
368.862	124.56
369.089	104.56
369.315	85.56
369.541	83.56
369.767	93.56
369.993	99.56
370.219	90.56
370.445	81.56
370.672	82.56
370.898	78.56
371.124	92.56
371.35	98.56
371.576	88.56
371.802	91.56
372.028	103.56
372.254	98.56
372.48	89.56
372.706	81.56
372.932	90.56
373.158	99.56
373.384	93.56
373.61	91.56
373.835	87.56
374.061	88.56
374.287	75.56
374.513	92.56
374.739	91.56
374.965	81.56
375.191	89.56
375.416	87.56
375.642	104.56
375.868	87.56
376.094	106.56
376.319	82.56
376.545	98.56
376.771	95.56
376.997	70.56
377.222	97.56
377.448	98.56
377.674	97.56
377.899	91.56
378.125	87.56
378.35	95.56
378.576	89.56
378.802	81.56
379.027	94.56
379.253	109.56
379.478	83.56
379.704	83.56
379.929	96.56
380.155	90.56
380.38	81.56
380.606	93.56
380.831	91.56
381.057	91.56
381.282	90.56
381.507	99.56
381.733	102.56
381.958	90.56
382.184	95.56
382.409	102.56
382.634	111.56
382.86	105.56
383.085	101.56
383.31	92.56
383.535	81.56
383.761	100.56
383.986	88.56
384.211	102.56
384.436	88.56
384.662	101.56
384.887	104.56
385.112	108.56
385.337	121.56
385.562	108.56
385.787	91.56
386.013	93.56
386.238	100.56
386.463	103.56
386.688	110.56
386.913	100.56
387.138	88.56
387.363	102.56
387.588	93.56
387.813	101.56
388.038	109.56
388.263	122.56
388.488	102.56
388.713	97.56
388.938	87.56
389.163	98.56
389.387	102.56
389.612	98.56
389.837	108.56
390.062	104.56
390.287	94.56
390.512	89.56
390.736	85.56
390.961	88.56
391.186	106.56
391.411	101.56
391.636	99.56
391.86	92.56
392.085	76.56
392.31	84.56
392.534	75.56
392.759	79.56
392.984	101.56
393.208	87.56
393.433	79.56
393.658	82.56
393.882	86.56
394.107	81.56
394.331	78.56
394.556	85.56
394.78	96.56
395.005	83.56
395.229	77.56
395.454	90.56
395.678	83.56
395.903	91.56
396.127	92.56
396.352	71.56
396.576	89.56
396.801	74.56
397.025	78.56
397.249	99.56
397.474	94.56
397.698	89.56
397.922	95.56
398.147	92.56
398.371	78.56
398.595	84.56
398.82	89.56
399.044	82.56
399.268	97.56
399.492	98.56
399.717	92.56
399.941	84.56
400.165	93.56
400.389	89.56
400.613	87.56
400.837	90.56
401.062	91.56
401.286	89.56
401.51	98.56
401.734	78.56
401.958	93.56
402.182	122.56
402.406	147.56
402.63	112.56
402.854	100.56
403.078	91.56
403.302	85.56
403.526	96.56
403.75	93.56
403.974	82.56
404.198	83.56
404.422	78.56
404.645	96.56
404.869	92.56
405.093	94.56
405.317	90.56
405.541	96.56
405.765	92.56
405.988	111.56
406.212	162.56
406.436	185.56
406.66	138.56
406.883	107.56
407.107	93.56
407.331	101.56
407.555	112.56
407.778	99.56
408.002	97.56
408.226	97.56
408.449	90.56
408.673	90.56
408.896	90.56
409.12	101.56
409.344	91.56
409.567	99.56
409.791	94.56
410.014	104.56
410.238	88.56
410.461	80.56
410.685	106.56
410.908	94.56
411.132	91.56
411.355	102.56
411.578	93.56
411.802	97.56
412.025	89.56
412.249	105.56
412.472	92.56
412.695	101.56
412.919	83.56
413.142	85.56
413.365	80.56
413.589	81.56
413.812	83.56
414.035	86.56
414.258	89.56
414.482	86.56
414.705	91.56
414.928	106.56
415.151	98.56
415.374	94.56
415.597	80.56
415.821	81.56
416.044	77.56
416.267	95.56
416.49	85.56
416.713	88.56
416.936	90.56
417.159	91.56
417.382	90.56
417.605	88.56
417.828	91.56
418.051	90.56
418.274	74.56
418.497	89.56
418.72	80.56
418.943	92.56
419.166	98.56
419.389	89.56
419.611	82.56
419.834	92.56
420.057	76.56
420.28	95.56
420.503	91.56
420.726	99.56
420.948	90.56
421.171	101.56
421.394	102.56
421.617	86.56
421.839	76.56
422.062	97.56
422.285	93.56
422.507	92.56
422.73	87.56
422.953	94.56
423.175	93.56
423.398	91.56
423.621	90.56
423.843	84.56
424.066	82.56
424.288	80.56
424.511	88.56
424.733	85.56
424.956	82.56
425.178	97.56
425.401	105.56
425.623	100.56
425.846	78.56
426.068	87.56
426.291	100.56
426.513	80.56
426.735	85.56
426.958	85.56
427.18	91.56
427.402	111.56
427.625	155.56
427.847	125.56
428.069	89.56
428.292	99.56
428.514	93.56
428.736	80.56
428.958	77.56
429.181	102.56
429.403	84.56
429.625	68.56
429.847	94.56
430.069	74.56
430.292	93.56
430.514	82.56
430.736	91.56
430.958	82.56
431.18	83.56
431.402	80.56
431.624	87.56
431.846	98.56
432.068	102.56
432.29	93.56
432.512	87.56
432.734	89.56
432.956	93.56
433.178	87.56
433.4	89.56
433.622	74.56
433.844	85.56
434.066	83.56
434.287	86.56
434.509	100.56
434.731	98.56
434.953	95.56
435.175	93.56
435.397	89.56
435.618	91.56
435.84	90.56
436.062	117.56
436.284	118.56
436.505	102.56
436.727	87.56
436.949	97.56
437.17	80.56
437.392	91.56
437.614	90.56
437.835	100.56
438.057	105.56
438.278	103.56
438.5	95.56
438.721	115.56
438.943	106.56
439.165	91.56
439.386	85.56
439.608	98.56
439.829	107.56
440.05	112.56
440.272	137.56
440.493	98.56
440.715	89.56
440.936	94.56
441.158	82.56
441.379	93.56
441.6	102.56
441.822	90.56
442.043	83.56
442.264	86.56
442.486	102.56
442.707	86.56
442.928	93.56
443.149	114.56
443.371	123.56
443.592	117.56
443.813	111.56
444.034	110.56
444.255	85.56
444.476	96.56
444.698	86.56
444.919	89.56
445.14	133.56
445.361	122.56
445.582	109.56
445.803	122.56
446.024	112.56
446.245	114.56
446.466	99.56
446.687	92.56
446.908	100.56
447.129	94.56
447.35	87.56
447.571	94.56
447.792	82.56
448.013	94.56
448.234	109.56
448.455	101.56
448.675	114.56
448.896	106.56
449.117	101.56
449.338	105.56
449.559	123.56
449.779	135.56
450	88.56
450.221	88.56
450.442	79.56
450.662	97.56
450.883	104.56
451.104	120.56
451.324	88.56
451.545	96.56
451.766	83.56
451.986	79.56
452.207	76.56
452.428	77.56
452.648	84.56
452.869	100.56
453.089	104.56
453.31	126.56
453.53	73.56
453.751	96.56
453.971	94.56
454.192	96.56
454.412	101.56
454.633	86.56
454.853	82.56
455.073	95.56
455.294	97.56
455.514	86.56
455.734	89.56
455.955	82.56
456.175	89.56
456.395	89.56
456.616	80.56
456.836	85.56
457.056	87.56
457.276	91.56
457.497	87.56
457.717	90.56
457.937	97.56
458.157	89.56
458.377	82.56
458.598	109.56
458.818	146.56
459.038	147.56
459.258	98.56
459.478	107.56
459.698	77.56
459.918	81.56
460.138	89.56
460.358	95.56
460.578	81.56
460.798	93.56
461.018	92.56
461.238	76.56
461.458	86.56
461.678	87.56
461.898	95.56
462.118	85.56
462.338	74.56
462.558	74.56
462.777	84.56
462.997	101.56
463.217	78.56
463.437	91.56
463.657	79.56
463.876	82.56
464.096	88.56
464.316	90.56
464.536	102.56
464.755	92.56
464.975	104.56
465.195	137.56
465.414	151.56
465.634	97.56
465.854	87.56
466.073	83.56
466.293	88.56
466.512	82.56
466.732	95.56
466.951	78.56
467.171	82.56
467.391	77.56
467.61	110.56
467.829	103.56
468.049	89.56
468.268	85.56
468.488	83.56
468.707	90.56
468.927	81.56
469.146	83.56
469.365	81.56
469.585	81.56
469.804	97.56
470.023	104.56
470.243	100.56
470.462	101.56
470.681	97.56
470.901	98.56
471.12	90.56
471.339	91.56
471.558	77.56
471.777	91.56
471.997	82.56
472.216	89.56
472.435	85.56
472.654	87.56
472.873	76.56
473.092	99.56
473.311	90.56
473.53	101.56
473.749	92.56
473.968	101.56
474.187	101.56
474.406	83.56
474.625	82.56
474.844	97.56
475.063	86.56
475.282	89.56
475.501	87.56
475.72	83.56
475.939	83.56
476.158	82.56
476.377	92.56
476.596	88.56
476.814	91.56
477.033	110.56
477.252	101.56
477.471	97.56
477.69	77.56
477.908	84.56
478.127	77.56
478.346	79.56
478.564	96.56
478.783	83.56
479.002	107.56
479.22	92.56
479.439	94.56
479.658	89.56
479.876	83.56
480.095	99.56
480.313	105.56
480.532	88.56
480.751	67.56
480.969	103.56
481.188	92.56
481.406	83.56
481.624	88.56
481.843	86.56
482.061	88.56
482.28	81.56
482.498	70.56
482.717	97.56
482.935	105.56
483.153	74.56
483.372	83.56
483.59	87.56
483.808	94.56
484.027	102.56
484.245	73.56
484.463	102.56
484.681	92.56
484.9	93.56
485.118	96.56
485.336	94.56
485.554	95.56
485.772	95.56
485.99	94.56
486.209	103.56
486.427	97.56
486.645	99.56
486.863	111.56
487.081	100.56
487.299	97.56
487.517	92.56
487.735	96.56
487.953	103.56
488.171	105.56
488.389	96.56
488.607	97.56
488.825	94.56
489.043	95.56
489.261	101.56
489.479	92.56
489.696	84.56
489.914	80.56
490.132	90.56
490.35	96.56
490.568	89.56
490.786	87.56
491.003	81.56
491.221	93.56
491.439	82.56
491.657	88.56
491.874	86.56
492.092	98.56
492.31	91.56
492.527	89.56
492.745	104.56
492.963	83.56
493.18	94.56
493.398	92.56
493.615	91.56
493.833	92.56
494.05	85.56
494.268	83.56
494.485	101.56
494.703	82.56
494.92	88.56
495.138	94.56
495.355	81.56
495.573	95.56
495.79	104.56
496.008	87.56
496.225	82.56
496.442	83.56
496.66	90.56
496.877	78.56
497.094	82.56
497.312	90.56
497.529	87.56
497.746	94.56
497.963	90.56
498.181	91.56
498.398	89.56
498.615	97.56
498.832	101.56
499.049	88.56
499.267	95.56
499.484	80.56
499.701	85.56
499.918	98.56
500.135	96.56
500.352	88.56
500.569	82.56
500.786	103.56
501.003	98.56
501.22	101.56
501.437	75.56
501.654	91.56
501.871	110.56
502.088	87.56
502.305	99.56
502.522	97.56
502.739	90.56
502.956	95.56
503.172	97.56
503.389	86.56
503.606	100.56
503.823	101.56
504.04	99.56
504.256	82.56
504.473	82.56
504.69	76.56
504.907	94.56
505.123	83.56
505.34	80.56
505.557	92.56
505.773	85.56
505.99	93.56
506.207	87.56
506.423	85.56
506.64	95.56
506.856	86.56
507.073	92.56
507.289	83.56
507.506	95.56
507.722	98.56
507.939	105.56
508.155	98.56
508.372	96.56
508.588	88.56
508.805	110.56
509.021	93.56
509.238	98.56
509.454	103.56
509.67	106.56
509.887	112.56
510.103	128.56
510.319	217.56
510.536	701.56
510.752	2138.56
510.968	606.56
511.184	160.56
511.401	105.56
511.617	88.56
511.833	76.56
512.049	95.56
512.265	105.56
512.481	93.56
512.698	88.56
512.914	90.56
513.13	109.56
513.346	91.56
513.562	98.56
513.778	92.56
513.994	99.56
514.21	96.56
514.426	120.56
514.642	126.56
514.858	120.56
515.074	153.56
515.29	396.56
515.506	1313.56
515.721	496.56
515.937	134.56
516.153	115.56
516.369	96.56
