Data from Uncirc_2008_H10_HRD10591_00039.txt Node
Date: Wed Jan 03 10:15:38 EST 2024
User: Yrep
Spectrometer: HR+D1059
Trigger mode: 1
Integration Time (sec): 1.000000E-1
Scans to average: 1
Electric dark correction enabled: true
Nonlinearity correction enabled: false
Boxcar width: 0
XAxis mode: Wavelengths
Number of Pixels in Spectrum: 2048
>>>>>Begin Spectral Data<<<<<
223.165	-11.38
223.4	-11.38
223.635	-11.38
223.869	-17.38
224.104	-21.38
224.338	-4.38
224.573	-17.38
224.808	-7.38
225.042	-6.38
225.277	-15.38
225.511	-1.38
225.746	2.62
225.98	8.62
226.215	9.62
226.449	9.62
226.683	27.62
226.918	29.62
227.152	14.62
227.387	29.62
227.621	44.62
227.856	39.62
228.09	56.62
228.324	52.62
228.559	67.62
228.793	58.62
229.027	65.62
229.262	71.62
229.496	72.62
229.73	68.62
229.964	81.62
230.199	68.62
230.433	72.62
230.667	61.62
230.901	60.62
231.136	82.62
231.37	75.62
231.604	86.62
231.838	70.62
232.072	79.62
232.306	93.62
232.541	63.62
232.775	79.62
233.009	78.62
233.243	85.62
233.477	80.62
233.711	70.62
233.945	86.62
234.179	92.62
234.413	77.62
234.647	69.62
234.881	73.62
235.115	80.62
235.349	72.62
235.583	73.62
235.817	71.62
236.051	81.62
236.285	69.62
236.519	74.62
236.753	76.62
236.987	68.62
237.221	87.62
237.455	72.62
237.689	74.62
237.922	69.62
238.156	93.62
238.39	72.62
238.624	82.62
238.858	74.62
239.091	88.62
239.325	82.62
239.559	83.62
239.793	74.62
240.027	78.62
240.26	74.62
240.494	71.62
240.728	54.62
240.961	63.62
241.195	78.62
241.429	73.62
241.662	74.62
241.896	70.62
242.13	65.62
242.363	81.62
242.597	70.62
242.83	81.62
243.064	77.62
243.298	85.62
243.531	84.62
243.765	83.62
243.998	84.62
244.232	68.62
244.465	73.62
244.699	75.62
244.932	86.62
245.166	61.62
245.399	65.62
245.633	74.62
245.866	77.62
246.099	68.62
246.333	67.62
246.566	80.62
246.8	77.62
247.033	84.62
247.266	92.62
247.5	89.62
247.733	87.62
247.966	91.62
248.2	79.62
248.433	77.62
248.666	77.62
248.899	87.62
249.133	85.62
249.366	75.62
249.599	85.62
249.832	80.62
250.066	74.62
250.299	61.62
250.532	73.62
250.765	79.62
250.998	81.62
251.231	92.62
251.465	79.62
251.698	77.62
251.931	77.62
252.164	69.62
252.397	60.62
252.63	75.62
252.863	70.62
253.096	71.62
253.329	84.62
253.562	74.62
253.795	77.62
254.028	69.62
254.261	66.62
254.494	68.62
254.727	81.62
254.96	80.62
255.193	70.62
255.426	75.62
255.659	69.62
255.892	86.62
256.124	77.62
256.357	80.62
256.59	64.62
256.823	77.62
257.056	79.62
257.289	80.62
257.521	72.62
257.754	76.62
257.987	82.62
258.22	77.62
258.452	80.62
258.685	75.62
258.918	81.62
259.151	58.62
259.383	81.62
259.616	85.62
259.849	81.62
260.081	77.62
260.314	68.62
260.547	85.62
260.779	68.62
261.012	76.62
261.244	79.62
261.477	85.62
261.71	95.62
261.942	93.62
262.175	90.62
262.407	80.62
262.64	87.62
262.872	68.62
263.105	93.62
263.337	83.62
263.57	70.62
263.802	81.62
264.035	77.62
264.267	65.62
264.499	77.62
264.732	86.62
264.964	71.62
265.197	58.62
265.429	87.62
265.661	66.62
265.894	72.62
266.126	89.62
266.358	81.62
266.591	81.62
266.823	81.62
267.055	91.62
267.287	96.62
267.52	88.62
267.752	80.62
267.984	84.62
268.216	88.62
268.448	76.62
268.681	85.62
268.913	75.62
269.145	89.62
269.377	77.62
269.609	81.62
269.841	83.62
270.073	87.62
270.306	101.62
270.538	88.62
270.77	89.62
271.002	93.62
271.234	86.62
271.466	88.62
271.698	89.62
271.93	87.62
272.162	101.62
272.394	73.62
272.626	77.62
272.858	79.62
273.09	81.62
273.322	84.62
273.553	90.62
273.785	80.62
274.017	81.62
274.249	67.62
274.481	88.62
274.713	83.62
274.945	80.62
275.176	87.62
275.408	94.62
275.64	89.62
275.872	88.62
276.104	80.62
276.335	78.62
276.567	93.62
276.799	96.62
277.031	97.62
277.262	89.62
277.494	81.62
277.726	85.62
277.957	82.62
278.189	87.62
278.421	80.62
278.652	78.62
278.884	81.62
279.115	79.62
279.347	77.62
279.579	88.62
279.81	76.62
280.042	84.62
280.273	86.62
280.505	89.62
280.736	90.62
280.968	77.62
281.199	81.62
281.431	83.62
281.662	96.62
281.894	84.62
282.125	91.62
282.356	96.62
282.588	135.62
282.819	113.62
283.051	94.62
283.282	85.62
283.513	98.62
283.745	89.62
283.976	88.62
284.207	89.62
284.439	87.62
284.67	98.62
284.901	93.62
285.132	82.62
285.364	82.62
285.595	89.62
285.826	82.62
286.057	93.62
286.288	72.62
286.52	92.62
286.751	84.62
286.982	85.62
287.213	87.62
287.444	87.62
287.675	100.62
287.906	90.62
288.138	90.62
288.369	85.62
288.6	91.62
288.831	87.62
289.062	86.62
289.293	102.62
289.524	83.62
289.755	83.62
289.986	71.62
290.217	77.62
290.448	84.62
290.679	86.62
290.91	83.62
291.141	81.62
291.371	84.62
291.602	111.62
291.833	77.62
292.064	78.62
292.295	84.62
292.526	82.62
292.757	95.62
292.987	86.62
293.218	95.62
293.449	99.62
293.68	89.62
293.91	97.62
294.141	78.62
294.372	81.62
294.603	74.62
294.833	75.62
295.064	74.62
295.295	77.62
295.525	87.62
295.756	92.62
295.987	107.62
296.217	119.62
296.448	107.62
296.679	93.62
296.909	91.62
297.14	86.62
297.37	91.62
297.601	99.62
297.831	93.62
298.062	85.62
298.292	85.62
298.523	88.62
298.753	85.62
298.984	91.62
299.214	81.62
299.445	73.62
299.675	98.62
299.905	88.62
300.136	85.62
300.366	78.62
300.597	86.62
300.827	102.62
301.057	104.62
301.288	86.62
301.518	90.62
301.748	87.62
301.979	96.62
302.209	85.62
302.439	77.62
302.669	107.62
302.9	90.62
303.13	90.62
303.36	93.62
303.59	98.62
303.82	90.62
304.051	93.62
304.281	97.62
304.511	78.62
304.741	82.62
304.971	87.62
305.201	88.62
305.431	81.62
305.661	101.62
305.891	87.62
306.121	82.62
306.352	88.62
306.582	100.62
306.812	98.62
307.042	97.62
307.272	82.62
307.502	80.62
307.731	100.62
307.961	104.62
308.191	93.62
308.421	92.62
308.651	92.62
308.881	100.62
309.111	100.62
309.341	98.62
309.571	86.62
309.8	89.62
310.03	95.62
310.26	91.62
310.49	95.62
310.72	89.62
310.949	89.62
311.179	94.62
311.409	99.62
311.639	88.62
311.868	97.62
312.098	77.62
312.328	102.62
312.557	96.62
312.787	110.62
313.017	87.62
313.246	92.62
313.476	88.62
313.706	101.62
313.935	98.62
314.165	106.62
314.394	100.62
314.624	88.62
314.853	90.62
315.083	97.62
315.312	73.62
315.542	90.62
315.771	95.62
316.001	86.62
316.23	95.62
316.46	102.62
316.689	88.62
316.919	96.62
317.148	95.62
317.377	103.62
317.607	84.62
317.836	93.62
318.065	73.62
318.295	88.62
318.524	90.62
318.753	92.62
318.983	91.62
319.212	95.62
319.441	90.62
319.67	109.62
319.9	73.62
320.129	83.62
320.358	86.62
320.587	67.62
320.816	94.62
321.046	102.62
321.275	99.62
321.504	92.62
321.733	97.62
321.962	91.62
322.191	91.62
322.42	99.62
322.649	90.62
322.878	96.62
323.108	105.62
323.337	130.62
323.566	121.62
323.795	136.62
324.024	190.62
324.253	343.62
324.482	696.62
324.71	1421.62
324.939	1835.62
325.168	696.62
325.397	223.62
325.626	117.62
325.855	114.62
326.084	118.62
326.313	120.62
326.542	127.62
326.77	190.62
326.999	410.62
327.228	803.62
327.457	1406.62
327.686	1104.62
327.914	310.62
328.143	161.62
328.372	132.62
328.6	122.62
328.829	132.62
329.058	123.62
329.287	106.62
329.515	84.62
329.744	100.62
329.972	93.62
330.201	102.62
330.43	102.62
330.658	125.62
330.887	112.62
331.115	134.62
331.344	90.62
331.572	104.62
331.801	109.62
332.03	101.62
332.258	97.62
332.486	79.62
332.715	89.62
332.943	93.62
333.172	92.62
333.4	99.62
333.629	103.62
333.857	87.62
334.085	111.62
334.314	97.62
334.542	92.62
334.771	97.62
334.999	88.62
335.227	89.62
335.455	93.62
335.684	92.62
335.912	101.62
336.14	96.62
336.369	105.62
336.597	91.62
336.825	98.62
337.053	102.62
337.281	92.62
337.51	75.62
337.738	83.62
337.966	99.62
338.194	93.62
338.422	89.62
338.65	91.62
338.878	98.62
339.106	82.62
339.334	91.62
339.562	89.62
339.79	93.62
340.018	108.62
340.246	97.62
340.474	89.62
340.702	85.62
340.93	81.62
341.158	84.62
341.386	89.62
341.614	89.62
341.842	85.62
342.07	79.62
342.298	84.62
342.526	88.62
342.754	90.62
342.981	90.62
343.209	98.62
343.437	90.62
343.665	92.62
343.893	79.62
344.12	96.62
344.348	93.62
344.576	73.62
344.804	96.62
345.031	100.62
345.259	86.62
345.487	88.62
345.714	105.62
345.942	95.62
346.17	82.62
346.397	94.62
346.625	103.62
346.853	93.62
347.08	93.62
347.308	97.62
347.535	90.62
347.763	101.62
347.99	108.62
348.218	102.62
348.445	106.62
348.673	104.62
348.9	77.62
349.128	91.62
349.355	95.62
349.583	89.62
349.81	92.62
350.037	95.62
350.265	91.62
350.492	88.62
350.72	88.62
350.947	100.62
351.174	104.62
351.402	104.62
351.629	94.62
351.856	109.62
352.083	95.62
352.311	108.62
352.538	100.62
352.765	101.62
352.992	108.62
353.22	112.62
353.447	94.62
353.674	103.62
353.901	99.62
354.128	105.62
354.355	94.62
354.583	93.62
354.81	106.62
355.037	80.62
355.264	93.62
355.491	94.62
355.718	93.62
355.945	100.62
356.172	91.62
356.399	95.62
356.626	93.62
356.853	89.62
357.08	91.62
357.307	86.62
357.534	90.62
357.761	93.62
357.988	111.62
358.215	98.62
358.441	95.62
358.668	93.62
358.895	81.62
359.122	80.62
359.349	90.62
359.576	90.62
359.802	96.62
360.029	103.62
360.256	93.62
360.483	98.62
360.709	79.62
360.936	92.62
361.163	81.62
361.39	97.62
361.616	95.62
361.843	79.62
362.07	81.62
362.296	97.62
362.523	94.62
362.749	89.62
362.976	84.62
363.203	81.62
363.429	88.62
363.656	84.62
363.882	89.62
364.109	89.62
364.335	91.62
364.562	91.62
364.788	94.62
365.015	89.62
365.241	97.62
365.468	103.62
365.694	95.62
365.92	96.62
366.147	81.62
366.373	88.62
366.599	80.62
366.826	84.62
367.052	91.62
367.278	98.62
367.505	84.62
367.731	83.62
367.957	85.62
368.184	91.62
368.41	94.62
368.636	104.62
368.862	114.62
369.089	89.62
369.315	98.62
369.541	80.62
369.767	85.62
369.993	88.62
370.219	74.62
370.445	93.62
370.672	88.62
370.898	73.62
371.124	78.62
371.35	83.62
371.576	87.62
371.802	86.62
372.028	80.62
372.254	80.62
372.48	78.62
372.706	74.62
372.932	77.62
373.158	97.62
373.384	93.62
373.61	83.62
373.835	83.62
374.061	96.62
374.287	88.62
374.513	91.62
374.739	76.62
374.965	83.62
375.191	98.62
375.416	90.62
375.642	97.62
375.868	87.62
376.094	95.62
376.319	92.62
376.545	90.62
376.771	71.62
376.997	71.62
377.222	97.62
377.448	105.62
377.674	76.62
377.899	85.62
378.125	72.62
378.35	88.62
378.576	88.62
378.802	84.62
379.027	84.62
379.253	84.62
379.478	87.62
379.704	93.62
379.929	97.62
380.155	100.62
380.38	86.62
380.606	106.62
380.831	88.62
381.057	93.62
381.282	81.62
381.507	83.62
381.733	89.62
381.958	96.62
382.184	106.62
382.409	103.62
382.634	89.62
382.86	102.62
383.085	105.62
383.31	101.62
383.535	106.62
383.761	86.62
383.986	104.62
384.211	96.62
384.436	87.62
384.662	93.62
384.887	107.62
385.112	102.62
385.337	97.62
385.562	113.62
385.787	111.62
386.013	106.62
386.238	110.62
386.463	99.62
386.688	96.62
386.913	105.62
387.138	100.62
387.363	104.62
387.588	108.62
387.813	98.62
388.038	100.62
388.263	92.62
388.488	106.62
388.713	91.62
388.938	81.62
389.163	90.62
389.387	103.62
389.612	112.62
389.837	93.62
390.062	93.62
390.287	85.62
390.512	87.62
390.736	92.62
390.961	82.62
391.186	101.62
391.411	96.62
391.636	91.62
391.86	78.62
392.085	92.62
392.31	90.62
392.534	69.62
392.759	89.62
392.984	81.62
393.208	82.62
393.433	75.62
393.658	81.62
393.882	85.62
394.107	77.62
394.331	87.62
394.556	85.62
394.78	88.62
395.005	74.62
395.229	92.62
395.454	76.62
395.678	85.62
395.903	74.62
396.127	89.62
396.352	78.62
396.576	82.62
396.801	82.62
397.025	76.62
397.249	85.62
397.474	82.62
397.698	91.62
397.922	94.62
398.147	79.62
398.371	73.62
398.595	80.62
398.82	87.62
399.044	82.62
399.268	96.62
399.492	104.62
399.717	93.62
399.941	94.62
400.165	87.62
400.389	95.62
400.613	79.62
400.837	71.62
401.062	88.62
401.286	88.62
401.51	97.62
401.734	73.62
401.958	104.62
402.182	116.62
402.406	150.62
402.63	112.62
402.854	100.62
403.078	65.62
403.302	97.62
403.526	88.62
403.75	60.62
403.974	80.62
404.198	82.62
404.422	86.62
404.645	84.62
404.869	84.62
405.093	80.62
405.317	86.62
405.541	104.62
405.765	100.62
405.988	111.62
406.212	169.62
406.436	190.62
406.66	135.62
406.883	117.62
407.107	94.62
407.331	85.62
407.555	90.62
407.778	103.62
408.002	90.62
408.226	85.62
408.449	79.62
408.673	91.62
408.896	93.62
409.12	100.62
409.344	95.62
409.567	82.62
409.791	85.62
410.014	86.62
410.238	84.62
410.461	75.62
410.685	112.62
410.908	106.62
411.132	102.62
411.355	91.62
411.578	95.62
411.802	90.62
412.025	87.62
412.249	79.62
412.472	92.62
412.695	79.62
412.919	92.62
413.142	77.62
413.365	96.62
413.589	112.62
413.812	95.62
414.035	103.62
414.258	79.62
414.482	93.62
414.705	93.62
414.928	88.62
415.151	99.62
415.374	107.62
415.597	88.62
415.821	90.62
416.044	101.62
416.267	81.62
416.49	95.62
416.713	86.62
416.936	84.62
417.159	84.62
417.382	88.62
417.605	86.62
417.828	99.62
418.051	96.62
418.274	87.62
418.497	92.62
418.72	78.62
418.943	76.62
419.166	80.62
419.389	76.62
419.611	86.62
419.834	93.62
420.057	91.62
420.28	94.62
420.503	88.62
420.726	79.62
420.948	96.62
421.171	100.62
421.394	94.62
421.617	77.62
421.839	87.62
422.062	85.62
422.285	82.62
422.507	94.62
422.73	100.62
422.953	92.62
423.175	88.62
423.398	82.62
423.621	83.62
423.843	87.62
424.066	80.62
424.288	91.62
424.511	97.62
424.733	84.62
424.956	100.62
425.178	87.62
425.401	81.62
425.623	84.62
425.846	86.62
426.068	90.62
426.291	79.62
426.513	87.62
426.735	90.62
426.958	109.62
427.18	94.62
427.402	127.62
427.625	150.62
427.847	120.62
428.069	92.62
428.292	79.62
428.514	80.62
428.736	84.62
428.958	83.62
429.181	81.62
429.403	85.62
429.625	94.62
429.847	83.62
430.069	93.62
430.292	90.62
430.514	88.62
430.736	85.62
430.958	82.62
431.18	82.62
431.402	93.62
431.624	76.62
431.846	92.62
432.068	82.62
432.29	93.62
432.512	93.62
432.734	90.62
432.956	77.62
433.178	97.62
433.4	101.62
433.622	90.62
433.844	88.62
434.066	100.62
434.287	73.62
434.509	89.62
434.731	102.62
434.953	82.62
435.175	89.62
435.397	84.62
435.618	96.62
435.84	84.62
436.062	123.62
436.284	103.62
436.505	90.62
436.727	91.62
436.949	95.62
437.17	85.62
437.392	80.62
437.614	92.62
437.835	93.62
438.057	106.62
438.278	108.62
438.5	85.62
438.721	105.62
438.943	95.62
439.165	77.62
439.386	81.62
439.608	87.62
439.829	104.62
440.05	97.62
440.272	136.62
440.493	92.62
440.715	73.62
440.936	90.62
441.158	75.62
441.379	85.62
441.6	87.62
441.822	76.62
442.043	93.62
442.264	96.62
442.486	87.62
442.707	89.62
442.928	98.62
443.149	104.62
443.371	107.62
443.592	96.62
443.813	105.62
444.034	100.62
444.255	95.62
444.476	89.62
444.698	87.62
444.919	90.62
445.14	142.62
445.361	116.62
445.582	107.62
445.803	120.62
446.024	111.62
446.245	117.62
446.466	103.62
446.687	99.62
446.908	76.62
447.129	89.62
447.35	102.62
447.571	82.62
447.792	91.62
448.013	89.62
448.234	99.62
448.455	118.62
448.675	122.62
448.896	102.62
449.117	96.62
449.338	91.62
449.559	110.62
449.779	121.62
450	106.62
450.221	87.62
450.442	92.62
450.662	97.62
450.883	109.62
451.104	108.62
451.324	100.62
451.545	87.62
451.766	90.62
451.986	85.62
452.207	82.62
452.428	94.62
452.648	84.62
452.869	100.62
453.089	109.62
453.31	113.62
453.53	105.62
453.751	97.62
453.971	96.62
454.192	113.62
454.412	87.62
454.633	92.62
454.853	89.62
455.073	93.62
455.294	95.62
455.514	89.62
455.734	90.62
455.955	100.62
456.175	90.62
456.395	82.62
456.616	68.62
456.836	91.62
457.056	93.62
457.276	78.62
457.497	82.62
457.717	88.62
457.937	86.62
458.157	78.62
458.377	93.62
458.598	103.62
458.818	128.62
459.038	138.62
459.258	110.62
459.478	72.62
459.698	74.62
459.918	96.62
460.138	80.62
460.358	84.62
460.578	86.62
460.798	76.62
461.018	89.62
461.238	83.62
461.458	84.62
461.678	78.62
461.898	95.62
462.118	93.62
462.338	90.62
462.558	104.62
462.777	77.62
462.997	80.62
463.217	77.62
463.437	84.62
463.657	94.62
463.876	86.62
464.096	93.62
464.316	78.62
464.536	95.62
464.755	89.62
464.975	95.62
465.195	150.62
465.414	140.62
465.634	96.62
465.854	74.62
466.073	99.62
466.293	88.62
466.512	79.62
466.732	100.62
466.951	81.62
467.171	89.62
467.391	94.62
467.61	86.62
467.829	87.62
468.049	96.62
468.268	90.62
468.488	83.62
468.707	93.62
468.927	82.62
469.146	89.62
469.365	89.62
469.585	81.62
469.804	93.62
470.023	80.62
470.243	90.62
470.462	90.62
470.681	99.62
470.901	73.62
471.12	77.62
471.339	91.62
471.558	75.62
471.777	85.62
471.997	97.62
472.216	87.62
472.435	97.62
472.654	81.62
472.873	92.62
473.092	88.62
473.311	93.62
473.53	95.62
473.749	82.62
473.968	90.62
474.187	104.62
474.406	90.62
474.625	80.62
474.844	77.62
475.063	86.62
475.282	81.62
475.501	80.62
475.72	82.62
475.939	84.62
476.158	76.62
476.377	89.62
476.596	78.62
476.814	82.62
477.033	96.62
477.252	97.62
477.471	87.62
477.69	89.62
477.908	102.62
478.127	82.62
478.346	81.62
478.564	97.62
478.783	87.62
479.002	94.62
479.22	94.62
479.439	90.62
479.658	92.62
479.876	87.62
480.095	72.62
480.313	77.62
480.532	103.62
480.751	86.62
480.969	93.62
481.188	79.62
481.406	98.62
481.624	84.62
481.843	95.62
482.061	93.62
482.28	89.62
482.498	96.62
482.717	85.62
482.935	89.62
483.153	81.62
483.372	85.62
483.59	92.62
483.808	82.62
484.027	109.62
484.245	88.62
484.463	84.62
484.681	98.62
484.9	99.62
485.118	96.62
485.336	89.62
485.554	98.62
485.772	104.62
485.99	96.62
486.209	112.62
486.427	91.62
486.645	92.62
486.863	110.62
487.081	89.62
487.299	108.62
487.517	100.62
487.735	96.62
487.953	79.62
488.171	82.62
488.389	88.62
488.607	101.62
488.825	89.62
489.043	92.62
489.261	86.62
489.479	104.62
489.696	73.62
489.914	83.62
490.132	85.62
490.35	85.62
490.568	95.62
490.786	85.62
491.003	92.62
491.221	105.62
491.439	93.62
491.657	102.62
491.874	76.62
492.092	97.62
492.31	95.62
492.527	96.62
492.745	89.62
492.963	96.62
493.18	91.62
493.398	94.62
493.615	98.62
493.833	86.62
494.05	81.62
494.268	85.62
494.485	91.62
494.703	85.62
494.92	87.62
495.138	89.62
495.355	94.62
495.573	86.62
495.79	86.62
496.008	88.62
496.225	94.62
496.442	90.62
496.66	97.62
496.877	84.62
497.094	86.62
497.312	90.62
497.529	80.62
497.746	87.62
497.963	82.62
498.181	88.62
498.398	85.62
498.615	103.62
498.832	102.62
499.049	90.62
499.267	90.62
499.484	87.62
499.701	83.62
499.918	87.62
500.135	91.62
500.352	97.62
500.569	88.62
500.786	82.62
501.003	94.62
501.22	80.62
501.437	81.62
501.654	89.62
501.871	92.62
502.088	92.62
502.305	96.62
502.522	87.62
502.739	81.62
502.956	97.62
503.172	85.62
503.389	87.62
503.606	112.62
503.823	99.62
504.04	92.62
504.256	80.62
504.473	86.62
504.69	94.62
504.907	90.62
505.123	89.62
505.34	86.62
505.557	79.62
505.773	83.62
505.99	102.62
506.207	100.62
506.423	79.62
506.64	85.62
506.856	84.62
507.073	94.62
507.289	106.62
507.506	93.62
507.722	104.62
507.939	109.62
508.155	90.62
508.372	103.62
508.588	88.62
508.805	101.62
509.021	101.62
509.238	103.62
509.454	94.62
509.67	125.62
509.887	110.62
510.103	134.62
510.319	200.62
510.536	704.62
510.752	2193.62
510.968	625.62
511.184	166.62
511.401	117.62
511.617	85.62
511.833	90.62
512.049	69.62
512.265	87.62
512.481	91.62
512.698	85.62
512.914	97.62
513.13	89.62
513.346	89.62
513.562	89.62
513.778	76.62
513.994	93.62
514.21	98.62
514.426	114.62
514.642	125.62
514.858	118.62
515.074	158.62
515.29	431.62
515.506	1306.62
515.721	485.62
515.937	141.62
516.153	109.62
516.369	97.62
516.585	103.62
