Data from Uncirc_2008_H10_HRD10591_00002.txt Node
Date: Wed Jan 03 10:15:31 EST 2024
User: Yrep
Spectrometer: HR+D1059
Trigger mode: 1
Integration Time (sec): 1.000000E-1
Scans to average: 1
Electric dark correction enabled: true
Nonlinearity correction enabled: false
Boxcar width: 0
XAxis mode: Wavelengths
Number of Pixels in Spectrum: 2048
>>>>>Begin Spectral Data<<<<<
223.165	-17.31
223.4	-17.31
223.635	-17.31
223.869	-7.31
224.104	-13.31
224.338	-6.31
224.573	-8.31
224.808	-7.31
225.042	-12.31
225.277	-11.31
225.511	-3.31
225.746	-5.31
225.98	-10.31
226.215	6.69
226.449	17.69
226.683	24.69
226.918	21.69
227.152	31.69
227.387	52.69
227.621	39.69
227.856	53.69
228.09	50.69
228.324	53.69
228.559	58.69
228.793	59.69
229.027	66.69
229.262	62.69
229.496	74.69
229.73	74.69
229.964	68.69
230.199	75.69
230.433	73.69
230.667	75.69
230.901	84.69
231.136	86.69
231.37	88.69
231.604	83.69
231.838	81.69
232.072	91.69
232.306	83.69
232.541	87.69
232.775	77.69
233.009	69.69
233.243	92.69
233.477	83.69
233.711	87.69
233.945	90.69
234.179	82.69
234.413	83.69
234.647	86.69
234.881	82.69
235.115	83.69
235.349	81.69
235.583	66.69
235.817	62.69
236.051	74.69
236.285	82.69
236.519	69.69
236.753	80.69
236.987	66.69
237.221	85.69
237.455	81.69
237.689	96.69
237.922	83.69
238.156	76.69
238.39	72.69
238.624	85.69
238.858	67.69
239.091	84.69
239.325	79.69
239.559	80.69
239.793	84.69
240.027	85.69
240.26	93.69
240.494	74.69
240.728	75.69
240.961	76.69
241.195	81.69
241.429	81.69
241.662	97.69
241.896	83.69
242.13	80.69
242.363	80.69
242.597	75.69
242.83	85.69
243.064	68.69
243.298	83.69
243.531	83.69
243.765	71.69
243.998	66.69
244.232	76.69
244.465	90.69
244.699	75.69
244.932	79.69
245.166	78.69
245.399	82.69
245.633	68.69
245.866	81.69
246.099	80.69
246.333	74.69
246.566	80.69
246.8	82.69
247.033	76.69
247.266	96.69
247.5	78.69
247.733	83.69
247.966	95.69
248.2	81.69
248.433	85.69
248.666	74.69
248.899	84.69
249.133	82.69
249.366	92.69
249.599	91.69
249.832	87.69
250.066	81.69
250.299	86.69
250.532	75.69
250.765	79.69
250.998	80.69
251.231	85.69
251.465	83.69
251.698	68.69
251.931	74.69
252.164	90.69
252.397	84.69
252.63	64.69
252.863	82.69
253.096	67.69
253.329	80.69
253.562	83.69
253.795	81.69
254.028	79.69
254.261	75.69
254.494	95.69
254.727	76.69
254.96	90.69
255.193	77.69
255.426	91.69
255.659	80.69
255.892	87.69
256.124	80.69
256.357	67.69
256.59	76.69
256.823	77.69
257.056	94.69
257.289	85.69
257.521	87.69
257.754	64.69
257.987	83.69
258.22	92.69
258.452	92.69
258.685	66.69
258.918	81.69
259.151	89.69
259.383	96.69
259.616	95.69
259.849	67.69
260.081	72.69
260.314	75.69
260.547	84.69
260.779	85.69
261.012	88.69
261.244	98.69
261.477	82.69
261.71	92.69
261.942	108.69
262.175	105.69
262.407	86.69
262.64	85.69
262.872	86.69
263.105	93.69
263.337	84.69
263.57	92.69
263.802	87.69
264.035	79.69
264.267	84.69
264.499	65.69
264.732	81.69
264.964	85.69
265.197	81.69
265.429	77.69
265.661	99.69
265.894	66.69
266.126	75.69
266.358	94.69
266.591	81.69
266.823	84.69
267.055	89.69
267.287	91.69
267.52	78.69
267.752	96.69
267.984	104.69
268.216	86.69
268.448	85.69
268.681	85.69
268.913	88.69
269.145	75.69
269.377	80.69
269.609	74.69
269.841	88.69
270.073	82.69
270.306	80.69
270.538	81.69
270.77	80.69
271.002	84.69
271.234	92.69
271.466	92.69
271.698	94.69
271.93	94.69
272.162	89.69
272.394	82.69
272.626	79.69
272.858	82.69
273.09	94.69
273.322	86.69
273.553	97.69
273.785	90.69
274.017	76.69
274.249	83.69
274.481	81.69
274.713	82.69
274.945	81.69
275.176	91.69
275.408	88.69
275.64	98.69
275.872	81.69
276.104	95.69
276.335	85.69
276.567	91.69
276.799	102.69
277.031	102.69
277.262	82.69
277.494	88.69
277.726	102.69
277.957	91.69
278.189	92.69
278.421	99.69
278.652	85.69
278.884	77.69
279.115	80.69
279.347	96.69
279.579	73.69
279.81	85.69
280.042	96.69
280.273	78.69
280.505	79.69
280.736	96.69
280.968	99.69
281.199	95.69
281.431	93.69
281.662	101.69
281.894	87.69
282.125	108.69
282.356	108.69
282.588	136.69
282.819	116.69
283.051	88.69
283.282	89.69
283.513	90.69
283.745	85.69
283.976	93.69
284.207	92.69
284.439	105.69
284.67	90.69
284.901	95.69
285.132	90.69
285.364	81.69
285.595	87.69
285.826	85.69
286.057	87.69
286.288	83.69
286.52	85.69
286.751	88.69
286.982	102.69
287.213	82.69
287.444	80.69
287.675	93.69
287.906	87.69
288.138	92.69
288.369	86.69
288.6	93.69
288.831	98.69
289.062	90.69
289.293	98.69
289.524	98.69
289.755	95.69
289.986	82.69
290.217	77.69
290.448	91.69
290.679	85.69
290.91	67.69
291.141	91.69
291.371	86.69
291.602	83.69
291.833	82.69
292.064	88.69
292.295	91.69
292.526	90.69
292.757	97.69
292.987	95.69
293.218	80.69
293.449	95.69
293.68	94.69
293.91	80.69
294.141	86.69
294.372	90.69
294.603	94.69
294.833	85.69
295.064	90.69
295.295	93.69
295.525	103.69
295.756	104.69
295.987	113.69
296.217	134.69
296.448	108.69
296.679	99.69
296.909	99.69
297.14	95.69
297.37	98.69
297.601	95.69
297.831	80.69
298.062	82.69
298.292	92.69
298.523	86.69
298.753	87.69
298.984	103.69
299.214	96.69
299.445	93.69
299.675	113.69
299.905	91.69
300.136	81.69
300.366	82.69
300.597	93.69
300.827	87.69
301.057	115.69
301.288	110.69
301.518	98.69
301.748	89.69
301.979	100.69
302.209	92.69
302.439	97.69
302.669	83.69
302.9	104.69
303.13	95.69
303.36	98.69
303.59	82.69
303.82	92.69
304.051	85.69
304.281	97.69
304.511	88.69
304.741	80.69
304.971	97.69
305.201	96.69
305.431	111.69
305.661	92.69
305.891	94.69
306.121	95.69
306.352	94.69
306.582	113.69
306.812	98.69
307.042	84.69
307.272	81.69
307.502	107.69
307.731	94.69
307.961	77.69
308.191	91.69
308.421	92.69
308.651	90.69
308.881	97.69
309.111	106.69
309.341	92.69
309.571	92.69
309.8	89.69
310.03	89.69
310.26	89.69
310.49	83.69
310.72	93.69
310.949	110.69
311.179	105.69
311.409	94.69
311.639	88.69
311.868	93.69
312.098	100.69
312.328	105.69
312.557	103.69
312.787	97.69
313.017	95.69
313.246	97.69
313.476	73.69
313.706	89.69
313.935	103.69
314.165	101.69
314.394	99.69
314.624	84.69
314.853	92.69
315.083	100.69
315.312	98.69
315.542	90.69
315.771	103.69
316.001	102.69
316.23	98.69
316.46	92.69
316.689	94.69
316.919	91.69
317.148	96.69
317.377	100.69
317.607	96.69
317.836	77.69
318.065	95.69
318.295	97.69
318.524	95.69
318.753	97.69
318.983	96.69
319.212	101.69
319.441	111.69
319.67	106.69
319.9	79.69
320.129	98.69
320.358	93.69
320.587	101.69
320.816	105.69
321.046	95.69
321.275	86.69
321.504	87.69
321.733	103.69
321.962	105.69
322.191	106.69
322.42	114.69
322.649	104.69
322.878	122.69
323.108	117.69
323.337	112.69
323.566	121.69
323.795	164.69
324.024	202.69
324.253	381.69
324.482	768.69
324.71	1586.69
324.939	2104.69
325.168	787.69
325.397	241.69
325.626	155.69
325.855	131.69
326.084	133.69
326.313	143.69
326.542	156.69
326.77	210.69
326.999	439.69
327.228	907.69
327.457	1645.69
327.686	1282.69
327.914	340.69
328.143	171.69
328.372	133.69
328.6	119.69
328.829	133.69
329.058	106.69
329.287	114.69
329.515	113.69
329.744	92.69
329.972	104.69
330.201	92.69
330.43	102.69
330.658	93.69
330.887	140.69
331.115	125.69
331.344	99.69
331.572	105.69
331.801	108.69
332.03	110.69
332.258	94.69
332.486	99.69
332.715	97.69
332.943	106.69
333.172	106.69
333.4	99.69
333.629	106.69
333.857	107.69
334.085	108.69
334.314	91.69
334.542	92.69
334.771	85.69
334.999	105.69
335.227	90.69
335.455	87.69
335.684	96.69
335.912	85.69
336.14	100.69
336.369	91.69
336.597	97.69
336.825	98.69
337.053	97.69
337.281	87.69
337.51	87.69
337.738	100.69
337.966	94.69
338.194	96.69
338.422	96.69
338.65	99.69
338.878	99.69
339.106	91.69
339.334	79.69
339.562	79.69
339.79	95.69
340.018	90.69
340.246	97.69
340.474	105.69
340.702	93.69
340.93	87.69
341.158	95.69
341.386	96.69
341.614	93.69
341.842	103.69
342.07	93.69
342.298	94.69
342.526	87.69
342.754	94.69
342.981	104.69
343.209	95.69
343.437	92.69
343.665	86.69
343.893	78.69
344.12	98.69
344.348	95.69
344.576	98.69
344.804	91.69
345.031	101.69
345.259	94.69
345.487	97.69
345.714	90.69
345.942	89.69
346.17	99.69
346.397	97.69
346.625	89.69
346.853	100.69
347.08	98.69
347.308	96.69
347.535	104.69
347.763	89.69
347.99	93.69
348.218	95.69
348.445	96.69
348.673	96.69
348.9	88.69
349.128	107.69
349.355	107.69
349.583	104.69
349.81	84.69
350.037	97.69
350.265	92.69
350.492	91.69
350.72	96.69
350.947	116.69
351.174	119.69
351.402	94.69
351.629	99.69
351.856	104.69
352.083	100.69
352.311	113.69
352.538	108.69
352.765	117.69
352.992	109.69
353.22	98.69
353.447	94.69
353.674	113.69
353.901	102.69
354.128	111.69
354.355	93.69
354.583	109.69
354.81	114.69
355.037	94.69
355.264	103.69
355.491	102.69
355.718	105.69
355.945	105.69
356.172	102.69
356.399	103.69
356.626	88.69
356.853	99.69
357.08	96.69
357.307	82.69
357.534	101.69
357.761	88.69
357.988	103.69
358.215	109.69
358.441	95.69
358.668	96.69
358.895	89.69
359.122	78.69
359.349	90.69
359.576	92.69
359.802	92.69
360.029	111.69
360.256	109.69
360.483	84.69
360.709	95.69
360.936	102.69
361.163	99.69
361.39	97.69
361.616	99.69
361.843	95.69
362.07	101.69
362.296	106.69
362.523	106.69
362.749	92.69
362.976	107.69
363.203	97.69
363.429	99.69
363.656	97.69
363.882	83.69
364.109	87.69
364.335	94.69
364.562	84.69
364.788	97.69
365.015	85.69
365.241	98.69
365.468	107.69
365.694	121.69
365.92	112.69
366.147	100.69
366.373	97.69
366.599	92.69
366.826	83.69
367.052	98.69
367.278	95.69
367.505	92.69
367.731	95.69
367.957	90.69
368.184	106.69
368.41	111.69
368.636	108.69
368.862	100.69
369.089	104.69
369.315	95.69
369.541	83.69
369.767	105.69
369.993	102.69
370.219	96.69
370.445	95.69
370.672	92.69
370.898	91.69
371.124	93.69
371.35	98.69
371.576	110.69
371.802	100.69
372.028	89.69
372.254	91.69
372.48	90.69
372.706	88.69
372.932	87.69
373.158	89.69
373.384	93.69
373.61	104.69
373.835	101.69
374.061	104.69
374.287	86.69
374.513	90.69
374.739	102.69
374.965	96.69
375.191	92.69
375.416	92.69
375.642	80.69
375.868	106.69
376.094	90.69
376.319	98.69
376.545	106.69
376.771	103.69
376.997	108.69
377.222	90.69
377.448	96.69
377.674	98.69
377.899	99.69
378.125	93.69
378.35	87.69
378.576	103.69
378.802	109.69
379.027	89.69
379.253	91.69
379.478	103.69
379.704	92.69
379.929	90.69
380.155	84.69
380.38	97.69
380.606	105.69
380.831	99.69
381.057	108.69
381.282	91.69
381.507	107.69
381.733	104.69
381.958	109.69
382.184	119.69
382.409	116.69
382.634	95.69
382.86	105.69
383.085	99.69
383.31	108.69
383.535	104.69
383.761	112.69
383.986	98.69
384.211	91.69
384.436	114.69
384.662	119.69
384.887	123.69
385.112	127.69
385.337	113.69
385.562	126.69
385.787	116.69
386.013	134.69
386.238	145.69
386.463	113.69
386.688	129.69
386.913	116.69
387.138	119.69
387.363	114.69
387.588	115.69
387.813	117.69
388.038	122.69
388.263	128.69
388.488	142.69
388.713	98.69
388.938	95.69
389.163	109.69
389.387	92.69
389.612	106.69
389.837	91.69
390.062	102.69
390.287	85.69
390.512	94.69
390.736	91.69
390.961	84.69
391.186	85.69
391.411	95.69
391.636	98.69
391.86	90.69
392.085	92.69
392.31	71.69
392.534	96.69
392.759	89.69
392.984	93.69
393.208	97.69
393.433	103.69
393.658	103.69
393.882	94.69
394.107	80.69
394.331	86.69
394.556	79.69
394.78	80.69
395.005	94.69
395.229	84.69
395.454	100.69
395.678	77.69
395.903	107.69
396.127	81.69
396.352	88.69
396.576	89.69
396.801	97.69
397.025	89.69
397.249	82.69
397.474	91.69
397.698	88.69
397.922	80.69
398.147	95.69
398.371	77.69
398.595	76.69
398.82	91.69
399.044	83.69
399.268	81.69
399.492	100.69
399.717	95.69
399.941	96.69
400.165	84.69
400.389	90.69
400.613	99.69
400.837	92.69
401.062	91.69
401.286	93.69
401.51	87.69
401.734	96.69
401.958	82.69
402.182	112.69
402.406	143.69
402.63	122.69
402.854	92.69
403.078	99.69
403.302	93.69
403.526	77.69
403.75	82.69
403.974	85.69
404.198	89.69
404.422	87.69
404.645	88.69
404.869	90.69
405.093	96.69
405.317	83.69
405.541	95.69
405.765	85.69
405.988	108.69
406.212	166.69
406.436	228.69
406.66	137.69
406.883	93.69
407.107	93.69
407.331	103.69
407.555	98.69
407.778	91.69
408.002	95.69
408.226	87.69
408.449	111.69
408.673	96.69
408.896	97.69
409.12	93.69
409.344	91.69
409.567	85.69
409.791	106.69
410.014	106.69
410.238	100.69
410.461	102.69
410.685	95.69
410.908	99.69
411.132	115.69
411.355	94.69
411.578	76.69
411.802	96.69
412.025	83.69
412.249	94.69
412.472	93.69
412.695	87.69
412.919	80.69
413.142	84.69
413.365	90.69
413.589	72.69
413.812	97.69
414.035	103.69
414.258	98.69
414.482	89.69
414.705	93.69
414.928	101.69
415.151	98.69
415.374	91.69
415.597	95.69
415.821	85.69
416.044	97.69
416.267	93.69
416.49	93.69
416.713	100.69
416.936	80.69
417.159	88.69
417.382	95.69
417.605	96.69
417.828	100.69
418.051	82.69
418.274	101.69
418.497	82.69
418.72	84.69
418.943	100.69
419.166	85.69
419.389	94.69
419.611	94.69
419.834	93.69
420.057	112.69
420.28	99.69
420.503	79.69
420.726	85.69
420.948	89.69
421.171	103.69
421.394	85.69
421.617	97.69
421.839	76.69
422.062	91.69
422.285	98.69
422.507	110.69
422.73	93.69
422.953	85.69
423.175	91.69
423.398	104.69
423.621	88.69
423.843	89.69
424.066	84.69
424.288	97.69
424.511	96.69
424.733	91.69
424.956	104.69
425.178	102.69
425.401	88.69
425.623	77.69
425.846	74.69
426.068	89.69
426.291	98.69
426.513	92.69
426.735	98.69
426.958	91.69
427.18	103.69
427.402	120.69
427.625	159.69
427.847	120.69
428.069	105.69
428.292	75.69
428.514	85.69
428.736	89.69
428.958	95.69
429.181	82.69
429.403	92.69
429.625	99.69
429.847	94.69
430.069	104.69
430.292	94.69
430.514	92.69
430.736	83.69
430.958	90.69
431.18	108.69
431.402	80.69
431.624	77.69
431.846	109.69
432.068	87.69
432.29	101.69
432.512	85.69
432.734	83.69
432.956	85.69
433.178	91.69
433.4	102.69
433.622	93.69
433.844	91.69
434.066	101.69
434.287	101.69
434.509	95.69
434.731	101.69
434.953	92.69
435.175	92.69
435.397	104.69
435.618	100.69
435.84	107.69
436.062	114.69
436.284	120.69
436.505	102.69
436.727	96.69
436.949	92.69
437.17	90.69
437.392	77.69
437.614	106.69
437.835	109.69
438.057	107.69
438.278	97.69
438.5	86.69
438.721	115.69
438.943	100.69
439.165	85.69
439.386	102.69
439.608	96.69
439.829	88.69
440.05	127.69
440.272	128.69
440.493	97.69
440.715	96.69
440.936	97.69
441.158	94.69
441.379	96.69
441.6	88.69
441.822	103.69
442.043	93.69
442.264	89.69
442.486	93.69
442.707	90.69
442.928	112.69
443.149	120.69
443.371	141.69
443.592	108.69
443.813	113.69
444.034	100.69
444.255	84.69
444.476	82.69
444.698	97.69
444.919	87.69
445.14	135.69
445.361	125.69
445.582	116.69
445.803	115.69
446.024	122.69
446.245	126.69
446.466	127.69
446.687	91.69
446.908	89.69
447.129	90.69
447.35	99.69
447.571	92.69
447.792	94.69
448.013	99.69
448.234	109.69
448.455	103.69
448.675	114.69
448.896	133.69
449.117	104.69
449.338	119.69
449.559	129.69
449.779	140.69
450	104.69
450.221	92.69
450.442	94.69
450.662	97.69
450.883	106.69
451.104	107.69
451.324	108.69
451.545	98.69
451.766	80.69
451.986	96.69
452.207	93.69
452.428	90.69
452.648	95.69
452.869	111.69
453.089	117.69
453.31	119.69
453.53	95.69
453.751	101.69
453.971	98.69
454.192	96.69
454.412	98.69
454.633	86.69
454.853	79.69
455.073	84.69
455.294	85.69
455.514	95.69
455.734	87.69
455.955	83.69
456.175	98.69
456.395	86.69
456.616	85.69
456.836	88.69
457.056	81.69
457.276	99.69
457.497	85.69
457.717	79.69
457.937	91.69
458.157	96.69
458.377	102.69
458.598	108.69
458.818	131.69
459.038	133.69
459.258	110.69
459.478	98.69
459.698	95.69
459.918	86.69
460.138	88.69
460.358	84.69
460.578	85.69
460.798	90.69
461.018	93.69
461.238	94.69
461.458	81.69
461.678	109.69
461.898	97.69
462.118	94.69
462.338	88.69
462.558	88.69
462.777	95.69
462.997	67.69
463.217	93.69
463.437	76.69
463.657	80.69
463.876	87.69
464.096	85.69
464.316	89.69
464.536	89.69
464.755	95.69
464.975	97.69
465.195	137.69
465.414	162.69
465.634	101.69
465.854	83.69
466.073	90.69
466.293	88.69
466.512	82.69
466.732	92.69
466.951	95.69
467.171	98.69
467.391	95.69
467.61	104.69
467.829	102.69
468.049	80.69
468.268	92.69
468.488	74.69
468.707	72.69
468.927	93.69
469.146	81.69
469.365	100.69
469.585	85.69
469.804	101.69
470.023	90.69
470.243	85.69
470.462	95.69
470.681	111.69
470.901	73.69
471.12	83.69
471.339	88.69
471.558	100.69
471.777	97.69
471.997	95.69
472.216	95.69
472.435	103.69
472.654	86.69
472.873	100.69
473.092	107.69
473.311	82.69
473.53	87.69
473.749	93.69
473.968	83.69
474.187	107.69
474.406	95.69
474.625	86.69
474.844	78.69
475.063	84.69
475.282	84.69
475.501	89.69
475.72	104.69
475.939	95.69
476.158	102.69
476.377	101.69
476.596	76.69
476.814	92.69
477.033	82.69
477.252	84.69
477.471	98.69
477.69	102.69
477.908	88.69
478.127	69.69
478.346	84.69
478.564	88.69
478.783	91.69
479.002	79.69
479.22	97.69
479.439	100.69
479.658	111.69
479.876	93.69
480.095	87.69
480.313	85.69
480.532	92.69
480.751	81.69
480.969	81.69
481.188	111.69
481.406	83.69
481.624	104.69
481.843	98.69
482.061	81.69
482.28	88.69
482.498	90.69
482.717	101.69
482.935	91.69
483.153	92.69
483.372	88.69
483.59	82.69
483.808	96.69
484.027	94.69
484.245	102.69
484.463	91.69
484.681	93.69
484.9	94.69
485.118	97.69
485.336	102.69
485.554	93.69
485.772	97.69
485.99	101.69
486.209	108.69
486.427	97.69
486.645	99.69
486.863	107.69
487.081	104.69
487.299	96.69
487.517	99.69
487.735	94.69
487.953	85.69
488.171	100.69
488.389	95.69
488.607	101.69
488.825	95.69
489.043	96.69
489.261	97.69
489.479	90.69
489.696	89.69
489.914	100.69
490.132	96.69
490.35	83.69
490.568	104.69
490.786	96.69
491.003	88.69
491.221	87.69
491.439	79.69
491.657	98.69
491.874	99.69
492.092	76.69
492.31	91.69
492.527	104.69
492.745	84.69
492.963	103.69
493.18	89.69
493.398	98.69
493.615	99.69
493.833	81.69
494.05	94.69
494.268	87.69
494.485	100.69
494.703	98.69
494.92	103.69
495.138	97.69
495.355	98.69
495.573	90.69
495.79	83.69
496.008	93.69
496.225	99.69
496.442	93.69
496.66	90.69
496.877	93.69
497.094	97.69
497.312	88.69
497.529	103.69
497.746	90.69
497.963	83.69
498.181	93.69
498.398	108.69
498.615	95.69
498.832	115.69
499.049	87.69
499.267	102.69
499.484	92.69
499.701	89.69
499.918	82.69
500.135	88.69
500.352	89.69
500.569	90.69
500.786	88.69
501.003	103.69
501.22	96.69
501.437	98.69
501.654	93.69
501.871	125.69
502.088	91.69
502.305	85.69
502.522	92.69
502.739	84.69
502.956	90.69
503.172	101.69
503.389	111.69
503.606	109.69
503.823	104.69
504.04	89.69
504.256	101.69
504.473	86.69
504.69	97.69
504.907	95.69
505.123	95.69
505.34	92.69
505.557	91.69
505.773	103.69
505.99	86.69
506.207	80.69
506.423	100.69
506.64	93.69
506.856	84.69
507.073	91.69
507.289	92.69
507.506	98.69
507.722	104.69
507.939	105.69
508.155	90.69
508.372	91.69
508.588	105.69
508.805	90.69
509.021	93.69
509.238	93.69
509.454	89.69
509.67	116.69
509.887	106.69
510.103	111.69
510.319	196.69
510.536	752.69
510.752	2327.69
510.968	667.69
511.184	160.69
511.401	111.69
511.617	97.69
511.833	95.69
512.049	100.69
512.265	96.69
512.481	94.69
512.698	101.69
512.914	100.69
513.13	93.69
513.346	84.69
513.562	105.69
513.778	107.69
513.994	97.69
514.21	89.69
514.426	114.69
514.642	141.69
514.858	113.69
515.074	149.69
