Data from Uncirc_2008_H10_HRD10591_00014.txt Node
Date: Wed Jan 03 10:15:33 EST 2024
User: Yrep
Spectrometer: HR+D1059
Trigger mode: 1
Integration Time (sec): 1.000000E-1
Scans to average: 1
Electric dark correction enabled: true
Nonlinearity correction enabled: false
Boxcar width: 0
XAxis mode: Wavelengths
Number of Pixels in Spectrum: 2048
>>>>>Begin Spectral Data<<<<<
223.165	-4.38
223.4	-4.38
223.635	-4.38
223.869	-9.38
224.104	-17.38
224.338	-23.38
224.573	-15.38
224.808	-5.38
225.042	-1.38
225.277	-10.38
225.511	-6.38
225.746	11.62
225.98	16.62
226.215	14.62
226.449	-3.38
226.683	0.62
226.918	23.62
227.152	29.62
227.387	42.62
227.621	42.62
227.856	37.62
228.09	29.62
228.324	63.62
228.559	40.62
228.793	59.62
229.027	52.62
229.262	86.62
229.496	80.62
229.73	75.62
229.964	78.62
230.199	79.62
230.433	87.62
230.667	92.62
230.901	79.62
231.136	102.62
231.37	77.62
231.604	81.62
231.838	99.62
232.072	94.62
232.306	86.62
232.541	78.62
232.775	87.62
233.009	85.62
233.243	94.62
233.477	78.62
233.711	88.62
233.945	75.62
234.179	79.62
234.413	79.62
234.647	83.62
234.881	86.62
235.115	81.62
235.349	89.62
235.583	86.62
235.817	80.62
236.051	90.62
236.285	83.62
236.519	75.62
236.753	74.62
236.987	78.62
237.221	85.62
237.455	88.62
237.689	81.62
237.922	76.62
238.156	69.62
238.39	78.62
238.624	72.62
238.858	89.62
239.091	82.62
239.325	59.62
239.559	91.62
239.793	87.62
240.027	99.62
240.26	89.62
240.494	87.62
240.728	89.62
240.961	67.62
241.195	92.62
241.429	76.62
241.662	92.62
241.896	79.62
242.13	79.62
242.363	73.62
242.597	76.62
242.83	67.62
243.064	77.62
243.298	85.62
243.531	83.62
243.765	71.62
243.998	74.62
244.232	82.62
244.465	91.62
244.699	70.62
244.932	73.62
245.166	70.62
245.399	86.62
245.633	84.62
245.866	90.62
246.099	95.62
246.333	93.62
246.566	86.62
246.8	70.62
247.033	81.62
247.266	81.62
247.5	85.62
247.733	87.62
247.966	86.62
248.2	77.62
248.433	69.62
248.666	76.62
248.899	84.62
249.133	83.62
249.366	103.62
249.599	92.62
249.832	89.62
250.066	89.62
250.299	72.62
250.532	96.62
250.765	81.62
250.998	75.62
251.231	72.62
251.465	84.62
251.698	95.62
251.931	97.62
252.164	69.62
252.397	72.62
252.63	85.62
252.863	74.62
253.096	77.62
253.329	83.62
253.562	87.62
253.795	85.62
254.028	73.62
254.261	76.62
254.494	82.62
254.727	91.62
254.96	97.62
255.193	92.62
255.426	86.62
255.659	81.62
255.892	75.62
256.124	79.62
256.357	83.62
256.59	79.62
256.823	87.62
257.056	80.62
257.289	98.62
257.521	75.62
257.754	79.62
257.987	84.62
258.22	84.62
258.452	91.62
258.685	83.62
258.918	94.62
259.151	81.62
259.383	75.62
259.616	74.62
259.849	88.62
260.081	85.62
260.314	81.62
260.547	96.62
260.779	82.62
261.012	87.62
261.244	87.62
261.477	85.62
261.71	101.62
261.942	116.62
262.175	107.62
262.407	81.62
262.64	81.62
262.872	91.62
263.105	77.62
263.337	84.62
263.57	88.62
263.802	79.62
264.035	87.62
264.267	83.62
264.499	80.62
264.732	85.62
264.964	89.62
265.197	70.62
265.429	89.62
265.661	83.62
265.894	86.62
266.126	91.62
266.358	89.62
266.591	84.62
266.823	82.62
267.055	71.62
267.287	79.62
267.52	80.62
267.752	94.62
267.984	81.62
268.216	97.62
268.448	93.62
268.681	86.62
268.913	91.62
269.145	89.62
269.377	96.62
269.609	99.62
269.841	92.62
270.073	89.62
270.306	87.62
270.538	87.62
270.77	80.62
271.002	67.62
271.234	84.62
271.466	84.62
271.698	78.62
271.93	98.62
272.162	88.62
272.394	79.62
272.626	70.62
272.858	92.62
273.09	91.62
273.322	95.62
273.553	87.62
273.785	71.62
274.017	98.62
274.249	94.62
274.481	89.62
274.713	102.62
274.945	98.62
275.176	80.62
275.408	81.62
275.64	88.62
275.872	77.62
276.104	97.62
276.335	98.62
276.567	116.62
276.799	96.62
277.031	100.62
277.262	85.62
277.494	84.62
277.726	94.62
277.957	90.62
278.189	94.62
278.421	98.62
278.652	90.62
278.884	81.62
279.115	82.62
279.347	104.62
279.579	86.62
279.81	89.62
280.042	77.62
280.273	92.62
280.505	88.62
280.736	83.62
280.968	88.62
281.199	87.62
281.431	74.62
281.662	78.62
281.894	88.62
282.125	97.62
282.356	107.62
282.588	128.62
282.819	123.62
283.051	87.62
283.282	82.62
283.513	87.62
283.745	74.62
283.976	84.62
284.207	84.62
284.439	76.62
284.67	94.62
284.901	89.62
285.132	99.62
285.364	91.62
285.595	87.62
285.826	92.62
286.057	89.62
286.288	78.62
286.52	65.62
286.751	77.62
286.982	86.62
287.213	77.62
287.444	83.62
287.675	87.62
287.906	81.62
288.138	93.62
288.369	93.62
288.6	82.62
288.831	89.62
289.062	87.62
289.293	90.62
289.524	101.62
289.755	81.62
289.986	85.62
290.217	94.62
290.448	70.62
290.679	103.62
290.91	85.62
291.141	82.62
291.371	86.62
291.602	101.62
291.833	99.62
292.064	89.62
292.295	95.62
292.526	98.62
292.757	78.62
292.987	103.62
293.218	102.62
293.449	85.62
293.68	78.62
293.91	91.62
294.141	88.62
294.372	91.62
294.603	87.62
294.833	89.62
295.064	93.62
295.295	95.62
295.525	83.62
295.756	110.62
295.987	100.62
296.217	125.62
296.448	119.62
296.679	107.62
296.909	86.62
297.14	95.62
297.37	92.62
297.601	83.62
297.831	87.62
298.062	87.62
298.292	85.62
298.523	83.62
298.753	91.62
298.984	85.62
299.214	93.62
299.445	95.62
299.675	105.62
299.905	100.62
300.136	93.62
300.366	98.62
300.597	86.62
300.827	83.62
301.057	110.62
301.288	99.62
301.518	97.62
301.748	90.62
301.979	87.62
302.209	87.62
302.439	84.62
302.669	95.62
302.9	95.62
303.13	91.62
303.36	97.62
303.59	93.62
303.82	100.62
304.051	98.62
304.281	79.62
304.511	109.62
304.741	81.62
304.971	85.62
305.201	99.62
305.431	101.62
305.661	99.62
305.891	87.62
306.121	88.62
306.352	87.62
306.582	104.62
306.812	106.62
307.042	100.62
307.272	97.62
307.502	96.62
307.731	83.62
307.961	95.62
308.191	82.62
308.421	85.62
308.651	99.62
308.881	79.62
309.111	85.62
309.341	103.62
309.571	96.62
309.8	93.62
310.03	97.62
310.26	100.62
310.49	91.62
310.72	95.62
310.949	91.62
311.179	99.62
311.409	92.62
311.639	91.62
311.868	97.62
312.098	82.62
312.328	91.62
312.557	92.62
312.787	100.62
313.017	95.62
313.246	107.62
313.476	85.62
313.706	102.62
313.935	79.62
314.165	94.62
314.394	108.62
314.624	102.62
314.853	102.62
315.083	92.62
315.312	84.62
315.542	89.62
315.771	110.62
316.001	104.62
316.23	75.62
316.46	83.62
316.689	82.62
316.919	99.62
317.148	108.62
317.377	97.62
317.607	97.62
317.836	93.62
318.065	99.62
318.295	93.62
318.524	96.62
318.753	93.62
318.983	98.62
319.212	95.62
319.441	104.62
319.67	99.62
319.9	114.62
320.129	88.62
320.358	93.62
320.587	98.62
320.816	98.62
321.046	90.62
321.275	120.62
321.504	97.62
321.733	98.62
321.962	87.62
322.191	101.62
322.42	99.62
322.649	96.62
322.878	108.62
323.108	113.62
323.337	128.62
323.566	139.62
323.795	147.62
324.024	195.62
324.253	334.62
324.482	733.62
324.71	1429.62
324.939	1837.62
325.168	691.62
325.397	226.62
325.626	135.62
325.855	131.62
326.084	127.62
326.313	126.62
326.542	135.62
326.77	218.62
326.999	401.62
327.228	806.62
327.457	1407.62
327.686	1151.62
327.914	340.62
328.143	169.62
328.372	137.62
328.6	122.62
328.829	109.62
329.058	122.62
329.287	130.62
329.515	118.62
329.744	102.62
329.972	93.62
330.201	106.62
330.43	105.62
330.658	110.62
330.887	137.62
331.115	118.62
331.344	103.62
331.572	110.62
331.801	107.62
332.03	98.62
332.258	89.62
332.486	102.62
332.715	105.62
332.943	97.62
333.172	116.62
333.4	111.62
333.629	112.62
333.857	113.62
334.085	103.62
334.314	100.62
334.542	103.62
334.771	85.62
334.999	94.62
335.227	107.62
335.455	101.62
335.684	98.62
335.912	97.62
336.14	111.62
336.369	100.62
336.597	109.62
336.825	86.62
337.053	91.62
337.281	94.62
337.51	85.62
337.738	104.62
337.966	111.62
338.194	105.62
338.422	87.62
338.65	105.62
338.878	101.62
339.106	91.62
339.334	107.62
339.562	97.62
339.79	87.62
340.018	96.62
340.246	99.62
340.474	99.62
340.702	91.62
340.93	103.62
341.158	98.62
341.386	95.62
341.614	96.62
341.842	109.62
342.07	94.62
342.298	104.62
342.526	95.62
342.754	97.62
342.981	89.62
343.209	90.62
343.437	97.62
343.665	89.62
343.893	94.62
344.12	88.62
344.348	82.62
344.576	93.62
344.804	92.62
345.031	103.62
345.259	94.62
345.487	79.62
345.714	93.62
345.942	92.62
346.17	89.62
346.397	102.62
346.625	96.62
346.853	97.62
347.08	91.62
347.308	95.62
347.535	99.62
347.763	96.62
347.99	116.62
348.218	111.62
348.445	89.62
348.673	111.62
348.9	108.62
349.128	110.62
349.355	90.62
349.583	109.62
349.81	82.62
350.037	101.62
350.265	99.62
350.492	93.62
350.72	94.62
350.947	85.62
351.174	107.62
351.402	125.62
351.629	102.62
351.856	101.62
352.083	95.62
352.311	100.62
352.538	107.62
352.765	121.62
352.992	107.62
353.22	102.62
353.447	103.62
353.674	111.62
353.901	101.62
354.128	97.62
354.355	91.62
354.583	99.62
354.81	106.62
355.037	107.62
355.264	98.62
355.491	103.62
355.718	101.62
355.945	96.62
356.172	103.62
356.399	103.62
356.626	88.62
356.853	96.62
357.08	96.62
357.307	90.62
357.534	93.62
357.761	94.62
357.988	104.62
358.215	89.62
358.441	113.62
358.668	110.62
358.895	91.62
359.122	102.62
359.349	89.62
359.576	97.62
359.802	102.62
360.029	98.62
360.256	115.62
360.483	97.62
360.709	87.62
360.936	108.62
361.163	104.62
361.39	73.62
361.616	87.62
361.843	93.62
362.07	90.62
362.296	75.62
362.523	81.62
362.749	98.62
362.976	90.62
363.203	102.62
363.429	104.62
363.656	86.62
363.882	97.62
364.109	91.62
364.335	98.62
364.562	88.62
364.788	76.62
365.015	96.62
365.241	102.62
365.468	105.62
365.694	102.62
365.92	105.62
366.147	99.62
366.373	92.62
366.599	81.62
366.826	85.62
367.052	90.62
367.278	97.62
367.505	92.62
367.731	97.62
367.957	94.62
368.184	92.62
368.41	102.62
368.636	114.62
368.862	118.62
369.089	108.62
369.315	88.62
369.541	95.62
369.767	82.62
369.993	89.62
370.219	95.62
370.445	92.62
370.672	93.62
370.898	98.62
371.124	95.62
371.35	96.62
371.576	85.62
371.802	99.62
372.028	101.62
372.254	94.62
372.48	96.62
372.706	98.62
372.932	99.62
373.158	98.62
373.384	90.62
373.61	72.62
373.835	90.62
374.061	94.62
374.287	89.62
374.513	94.62
374.739	105.62
374.965	98.62
375.191	97.62
375.416	95.62
375.642	81.62
375.868	103.62
376.094	79.62
376.319	96.62
376.545	83.62
376.771	99.62
376.997	96.62
377.222	101.62
377.448	103.62
377.674	103.62
377.899	78.62
378.125	95.62
378.35	104.62
378.576	100.62
378.802	95.62
379.027	85.62
379.253	107.62
379.478	86.62
379.704	89.62
379.929	97.62
380.155	90.62
380.38	99.62
380.606	90.62
380.831	101.62
381.057	110.62
381.282	98.62
381.507	117.62
381.733	104.62
381.958	110.62
382.184	102.62
382.409	108.62
382.634	111.62
382.86	102.62
383.085	93.62
383.31	96.62
383.535	100.62
383.761	107.62
383.986	94.62
384.211	98.62
384.436	105.62
384.662	102.62
384.887	96.62
385.112	122.62
385.337	105.62
385.562	111.62
385.787	112.62
386.013	109.62
386.238	117.62
386.463	127.62
386.688	142.62
386.913	109.62
387.138	104.62
387.363	110.62
387.588	88.62
387.813	121.62
388.038	119.62
388.263	136.62
388.488	110.62
388.713	97.62
388.938	103.62
389.163	100.62
389.387	93.62
389.612	94.62
389.837	97.62
390.062	90.62
390.287	79.62
390.512	91.62
390.736	106.62
390.961	109.62
391.186	86.62
391.411	102.62
391.636	98.62
391.86	89.62
392.085	100.62
392.31	91.62
392.534	85.62
392.759	90.62
392.984	100.62
393.208	88.62
393.433	94.62
393.658	104.62
393.882	89.62
394.107	77.62
394.331	94.62
394.556	98.62
394.78	87.62
395.005	90.62
395.229	92.62
395.454	87.62
395.678	85.62
395.903	82.62
396.127	109.62
396.352	88.62
396.576	83.62
396.801	81.62
397.025	88.62
397.249	97.62
397.474	100.62
397.698	94.62
397.922	92.62
398.147	87.62
398.371	83.62
398.595	89.62
398.82	80.62
399.044	100.62
399.268	84.62
399.492	89.62
399.717	92.62
399.941	104.62
400.165	102.62
400.389	86.62
400.613	87.62
400.837	97.62
401.062	103.62
401.286	99.62
401.51	95.62
401.734	94.62
401.958	100.62
402.182	132.62
402.406	139.62
402.63	114.62
402.854	98.62
403.078	84.62
403.302	87.62
403.526	92.62
403.75	83.62
403.974	85.62
404.198	94.62
404.422	96.62
404.645	94.62
404.869	92.62
405.093	97.62
405.317	105.62
405.541	102.62
405.765	91.62
405.988	118.62
406.212	159.62
406.436	212.62
406.66	128.62
406.883	92.62
407.107	100.62
407.331	86.62
407.555	104.62
407.778	105.62
408.002	89.62
408.226	90.62
408.449	95.62
408.673	89.62
408.896	87.62
409.12	99.62
409.344	97.62
409.567	98.62
409.791	91.62
410.014	85.62
410.238	100.62
410.461	109.62
410.685	81.62
410.908	97.62
411.132	110.62
411.355	106.62
411.578	104.62
411.802	92.62
412.025	71.62
412.249	87.62
412.472	90.62
412.695	81.62
412.919	97.62
413.142	99.62
413.365	92.62
413.589	98.62
413.812	86.62
414.035	89.62
414.258	83.62
414.482	88.62
414.705	88.62
414.928	102.62
415.151	110.62
415.374	86.62
415.597	93.62
415.821	78.62
416.044	94.62
416.267	85.62
416.49	81.62
416.713	98.62
416.936	84.62
417.159	88.62
417.382	87.62
417.605	86.62
417.828	101.62
418.051	93.62
418.274	100.62
418.497	89.62
418.72	101.62
418.943	98.62
419.166	84.62
419.389	91.62
419.611	94.62
419.834	109.62
420.057	94.62
420.28	100.62
420.503	94.62
420.726	95.62
420.948	98.62
421.171	98.62
421.394	113.62
421.617	92.62
421.839	79.62
422.062	94.62
422.285	85.62
422.507	97.62
422.73	107.62
422.953	91.62
423.175	91.62
423.398	106.62
423.621	106.62
423.843	110.62
424.066	90.62
424.288	102.62
424.511	95.62
424.733	111.62
424.956	109.62
425.178	102.62
425.401	111.62
425.623	102.62
425.846	106.62
426.068	85.62
426.291	91.62
426.513	91.62
426.735	97.62
426.958	96.62
427.18	97.62
427.402	115.62
427.625	143.62
427.847	124.62
428.069	109.62
428.292	102.62
428.514	93.62
428.736	87.62
428.958	90.62
429.181	95.62
429.403	85.62
429.625	89.62
429.847	104.62
430.069	87.62
430.292	89.62
430.514	96.62
430.736	71.62
430.958	83.62
431.18	84.62
431.402	91.62
431.624	104.62
431.846	87.62
432.068	96.62
432.29	95.62
432.512	87.62
432.734	97.62
432.956	99.62
433.178	103.62
433.4	94.62
433.622	103.62
433.844	96.62
434.066	91.62
434.287	96.62
434.509	81.62
434.731	99.62
434.953	91.62
435.175	93.62
435.397	91.62
435.618	81.62
435.84	92.62
436.062	117.62
436.284	108.62
436.505	92.62
436.727	89.62
436.949	98.62
437.17	89.62
437.392	91.62
437.614	91.62
437.835	108.62
438.057	109.62
438.278	111.62
438.5	102.62
438.721	115.62
438.943	105.62
439.165	107.62
439.386	94.62
439.608	99.62
439.829	96.62
440.05	128.62
440.272	129.62
440.493	95.62
440.715	92.62
440.936	96.62
441.158	94.62
441.379	101.62
441.6	100.62
441.822	100.62
442.043	91.62
442.264	105.62
442.486	109.62
442.707	98.62
442.928	103.62
443.149	123.62
443.371	127.62
443.592	113.62
443.813	107.62
444.034	109.62
444.255	90.62
444.476	82.62
444.698	92.62
444.919	88.62
445.14	141.62
445.361	126.62
445.582	112.62
445.803	131.62
446.024	116.62
446.245	133.62
446.466	111.62
446.687	66.62
446.908	87.62
447.129	89.62
447.35	93.62
447.571	109.62
447.792	94.62
448.013	104.62
448.234	98.62
448.455	92.62
448.675	106.62
448.896	113.62
449.117	110.62
449.338	96.62
449.559	126.62
449.779	127.62
450	96.62
450.221	77.62
450.442	94.62
450.662	93.62
450.883	112.62
451.104	129.62
451.324	116.62
451.545	86.62
451.766	85.62
451.986	84.62
452.207	89.62
452.428	93.62
452.648	106.62
452.869	111.62
453.089	113.62
453.31	114.62
453.53	94.62
453.751	101.62
453.971	109.62
454.192	108.62
454.412	86.62
454.633	91.62
454.853	89.62
455.073	91.62
455.294	91.62
455.514	90.62
455.734	73.62
455.955	84.62
456.175	86.62
456.395	97.62
456.616	88.62
456.836	91.62
457.056	98.62
457.276	91.62
457.497	78.62
457.717	94.62
457.937	89.62
458.157	90.62
458.377	91.62
458.598	116.62
458.818	141.62
459.038	159.62
459.258	103.62
459.478	100.62
459.698	81.62
459.918	76.62
460.138	79.62
460.358	95.62
460.578	90.62
460.798	98.62
461.018	94.62
461.238	92.62
461.458	83.62
461.678	90.62
461.898	80.62
462.118	91.62
462.338	81.62
462.558	75.62
462.777	81.62
462.997	87.62
463.217	86.62
463.437	80.62
463.657	78.62
463.876	91.62
464.096	93.62
464.316	87.62
464.536	92.62
464.755	97.62
464.975	114.62
465.195	153.62
465.414	156.62
465.634	97.62
465.854	89.62
466.073	91.62
466.293	93.62
466.512	71.62
466.732	83.62
466.951	97.62
467.171	105.62
467.391	115.62
467.61	121.62
467.829	109.62
468.049	91.62
468.268	76.62
468.488	82.62
468.707	84.62
468.927	91.62
469.146	87.62
469.365	98.62
469.585	87.62
469.804	93.62
470.023	98.62
470.243	91.62
470.462	96.62
470.681	112.62
470.901	94.62
471.12	70.62
471.339	92.62
471.558	95.62
471.777	94.62
471.997	83.62
472.216	91.62
472.435	96.62
472.654	98.62
472.873	86.62
473.092	95.62
473.311	85.62
473.53	79.62
473.749	92.62
473.968	111.62
474.187	103.62
474.406	93.62
474.625	105.62
474.844	94.62
475.063	97.62
475.282	85.62
475.501	89.62
475.72	91.62
475.939	85.62
476.158	97.62
476.377	109.62
476.596	75.62
476.814	87.62
477.033	86.62
477.252	84.62
477.471	97.62
477.69	89.62
477.908	90.62
478.127	98.62
478.346	86.62
478.564	79.62
478.783	101.62
479.002	94.62
479.22	102.62
479.439	105.62
479.658	96.62
479.876	91.62
480.095	87.62
480.313	86.62
480.532	93.62
480.751	91.62
480.969	96.62
481.188	95.62
481.406	92.62
481.624	87.62
481.843	95.62
482.061	87.62
482.28	91.62
482.498	86.62
482.717	92.62
482.935	94.62
483.153	90.62
483.372	89.62
483.59	101.62
483.808	94.62
484.027	101.62
484.245	96.62
484.463	90.62
484.681	91.62
484.9	90.62
485.118	95.62
485.336	99.62
485.554	94.62
485.772	115.62
485.99	99.62
486.209	101.62
486.427	95.62
486.645	106.62
486.863	121.62
487.081	117.62
487.299	100.62
487.517	104.62
487.735	96.62
487.953	103.62
488.171	94.62
488.389	104.62
488.607	108.62
488.825	94.62
489.043	90.62
489.261	83.62
489.479	93.62
489.696	97.62
489.914	97.62
490.132	92.62
490.35	98.62
490.568	84.62
490.786	91.62
491.003	92.62
491.221	95.62
491.439	97.62
491.657	109.62
491.874	68.62
492.092	84.62
492.31	90.62
492.527	93.62
492.745	111.62
492.963	99.62
493.18	106.62
493.398	93.62
493.615	102.62
493.833	102.62
494.05	90.62
494.268	89.62
494.485	92.62
494.703	101.62
494.92	102.62
495.138	95.62
495.355	102.62
495.573	102.62
495.79	103.62
496.008	102.62
496.225	95.62
496.442	94.62
496.66	99.62
496.877	95.62
497.094	98.62
497.312	92.62
497.529	92.62
497.746	84.62
497.963	90.62
498.181	97.62
498.398	97.62
498.615	116.62
498.832	100.62
499.049	86.62
499.267	110.62
499.484	103.62
499.701	86.62
499.918	94.62
500.135	77.62
500.352	96.62
500.569	92.62
500.786	87.62
501.003	88.62
501.22	87.62
501.437	95.62
501.654	96.62
501.871	102.62
502.088	102.62
502.305	94.62
502.522	82.62
502.739	77.62
502.956	79.62
503.172	84.62
503.389	79.62
503.606	108.62
503.823	101.62
504.04	97.62
504.256	96.62
504.473	92.62
504.69	105.62
504.907	98.62
505.123	98.62
505.34	95.62
505.557	95.62
505.773	98.62
505.99	96.62
506.207	98.62
506.423	93.62
506.64	99.62
506.856	96.62
507.073	110.62
507.289	91.62
507.506	99.62
507.722	109.62
507.939	116.62
508.155	95.62
508.372	93.62
508.588	82.62
508.805	98.62
509.021	91.62
509.238	98.62
509.454	111.62
509.67	115.62
509.887	125.62
510.103	131.62
510.319	209.62
510.536	741.62
510.752	2249.62
510.968	634.62
511.184	162.62
511.401	108.62
511.617	107.62
511.833	105.62
512.049	86.62
512.265	91.62
512.481	91.62
512.698	88.62
512.914	93.62
513.13	96.62
513.346	92.62
513.562	100.62
513.778	89.62
513.994	109.62
514.21	78.62
514.426	124.62
514.642	140.62
514.858	130.62
