Data from Uncirc_2008_H10_HRD10591_00010.txt Node
Date: Wed Jan 03 10:15:32 EST 2024
User: Yrep
Spectrometer: HR+D1059
Trigger mode: 1
Integration Time (sec): 1.000000E-1
Scans to average: 1
Electric dark correction enabled: true
Nonlinearity correction enabled: false
Boxcar width: 0
XAxis mode: Wavelengths
Number of Pixels in Spectrum: 2048
>>>>>Begin Spectral Data<<<<<
223.165	-6.44
223.4	-6.44
223.635	-6.44
223.869	-33.44
224.104	-9.44
224.338	-9.44
224.573	-14.44
224.808	-11.44
225.042	-3.44
225.277	0.56
225.511	-0.44
225.746	6.56
225.98	0.56
226.215	2.56
226.449	11.56
226.683	21.56
226.918	25.56
227.152	19.56
227.387	33.56
227.621	48.56
227.856	29.56
228.09	55.56
228.324	68.56
228.559	55.56
228.793	62.56
229.027	77.56
229.262	74.56
229.496	82.56
229.73	84.56
229.964	71.56
230.199	70.56
230.433	82.56
230.667	87.56
230.901	81.56
231.136	90.56
231.37	78.56
231.604	83.56
231.838	89.56
232.072	79.56
232.306	72.56
232.541	80.56
232.775	90.56
233.009	90.56
233.243	91.56
233.477	81.56
233.711	67.56
233.945	78.56
234.179	64.56
234.413	87.56
234.647	95.56
234.881	65.56
235.115	81.56
235.349	78.56
235.583	83.56
235.817	83.56
236.051	80.56
236.285	80.56
236.519	74.56
236.753	79.56
236.987	85.56
237.221	99.56
237.455	86.56
237.689	72.56
237.922	72.56
238.156	83.56
238.39	89.56
238.624	71.56
238.858	88.56
239.091	89.56
239.325	87.56
239.559	88.56
239.793	83.56
240.027	71.56
240.26	79.56
240.494	71.56
240.728	92.56
240.961	79.56
241.195	78.56
241.429	82.56
241.662	74.56
241.896	82.56
242.13	84.56
242.363	78.56
242.597	80.56
242.83	89.56
243.064	84.56
243.298	95.56
243.531	78.56
243.765	73.56
243.998	76.56
244.232	86.56
244.465	84.56
244.699	83.56
244.932	79.56
245.166	82.56
245.399	67.56
245.633	86.56
245.866	70.56
246.099	82.56
246.333	78.56
246.566	94.56
246.8	73.56
247.033	79.56
247.266	85.56
247.5	97.56
247.733	93.56
247.966	77.56
248.2	93.56
248.433	72.56
248.666	73.56
248.899	88.56
249.133	90.56
249.366	94.56
249.599	105.56
249.832	87.56
250.066	70.56
250.299	92.56
250.532	80.56
250.765	84.56
250.998	90.56
251.231	81.56
251.465	66.56
251.698	82.56
251.931	93.56
252.164	79.56
252.397	98.56
252.63	86.56
252.863	83.56
253.096	87.56
253.329	89.56
253.562	80.56
253.795	69.56
254.028	85.56
254.261	84.56
254.494	76.56
254.727	92.56
254.96	86.56
255.193	79.56
255.426	85.56
255.659	94.56
255.892	93.56
256.124	82.56
256.357	94.56
256.59	91.56
256.823	92.56
257.056	87.56
257.289	73.56
257.521	81.56
257.754	86.56
257.987	86.56
258.22	96.56
258.452	90.56
258.685	91.56
258.918	101.56
259.151	79.56
259.383	85.56
259.616	72.56
259.849	86.56
260.081	87.56
260.314	84.56
260.547	79.56
260.779	83.56
261.012	84.56
261.244	92.56
261.477	93.56
261.71	82.56
261.942	112.56
262.175	123.56
262.407	96.56
262.64	98.56
262.872	88.56
263.105	82.56
263.337	95.56
263.57	97.56
263.802	90.56
264.035	84.56
264.267	85.56
264.499	85.56
264.732	90.56
264.964	94.56
265.197	93.56
265.429	90.56
265.661	96.56
265.894	79.56
266.126	85.56
266.358	86.56
266.591	103.56
266.823	82.56
267.055	78.56
267.287	93.56
267.52	87.56
267.752	89.56
267.984	92.56
268.216	92.56
268.448	91.56
268.681	93.56
268.913	100.56
269.145	101.56
269.377	86.56
269.609	83.56
269.841	77.56
270.073	83.56
270.306	90.56
270.538	98.56
270.77	85.56
271.002	90.56
271.234	93.56
271.466	81.56
271.698	86.56
271.93	71.56
272.162	97.56
272.394	93.56
272.626	88.56
272.858	83.56
273.09	80.56
273.322	83.56
273.553	87.56
273.785	81.56
274.017	91.56
274.249	86.56
274.481	95.56
274.713	92.56
274.945	87.56
275.176	71.56
275.408	92.56
275.64	81.56
275.872	82.56
276.104	85.56
276.335	99.56
276.567	98.56
276.799	98.56
277.031	97.56
277.262	101.56
277.494	88.56
277.726	87.56
277.957	97.56
278.189	77.56
278.421	73.56
278.652	83.56
278.884	86.56
279.115	98.56
279.347	89.56
279.579	75.56
279.81	92.56
280.042	89.56
280.273	92.56
280.505	94.56
280.736	72.56
280.968	95.56
281.199	84.56
281.431	81.56
281.662	90.56
281.894	85.56
282.125	92.56
282.356	109.56
282.588	113.56
282.819	95.56
283.051	81.56
283.282	89.56
283.513	93.56
283.745	86.56
283.976	88.56
284.207	81.56
284.439	103.56
284.67	88.56
284.901	88.56
285.132	88.56
285.364	92.56
285.595	87.56
285.826	86.56
286.057	84.56
286.288	95.56
286.52	91.56
286.751	87.56
286.982	83.56
287.213	87.56
287.444	91.56
287.675	87.56
287.906	92.56
288.138	102.56
288.369	93.56
288.6	106.56
288.831	95.56
289.062	86.56
289.293	88.56
289.524	93.56
289.755	98.56
289.986	76.56
290.217	93.56
290.448	94.56
290.679	90.56
290.91	98.56
291.141	81.56
291.371	89.56
291.602	98.56
291.833	98.56
292.064	79.56
292.295	95.56
292.526	91.56
292.757	82.56
292.987	107.56
293.218	103.56
293.449	108.56
293.68	82.56
293.91	90.56
294.141	81.56
294.372	85.56
294.603	105.56
294.833	97.56
295.064	97.56
295.295	91.56
295.525	94.56
295.756	96.56
295.987	105.56
296.217	110.56
296.448	121.56
296.679	82.56
296.909	84.56
297.14	107.56
297.37	91.56
297.601	83.56
297.831	98.56
298.062	101.56
298.292	87.56
298.523	90.56
298.753	104.56
298.984	94.56
299.214	97.56
299.445	85.56
299.675	91.56
299.905	88.56
300.136	90.56
300.366	94.56
300.597	92.56
300.827	100.56
301.057	99.56
301.288	104.56
301.518	117.56
301.748	100.56
301.979	94.56
302.209	101.56
302.439	93.56
302.669	90.56
302.9	85.56
303.13	100.56
303.36	91.56
303.59	95.56
303.82	100.56
304.051	88.56
304.281	94.56
304.511	96.56
304.741	105.56
304.971	90.56
305.201	102.56
305.431	100.56
305.661	102.56
305.891	85.56
306.121	101.56
306.352	94.56
306.582	90.56
306.812	85.56
307.042	106.56
307.272	98.56
307.502	102.56
307.731	91.56
307.961	97.56
308.191	91.56
308.421	87.56
308.651	86.56
308.881	110.56
309.111	87.56
309.341	90.56
309.571	106.56
309.8	106.56
310.03	107.56
310.26	94.56
310.49	93.56
310.72	91.56
310.949	113.56
311.179	98.56
311.409	107.56
311.639	93.56
311.868	98.56
312.098	94.56
312.328	86.56
312.557	85.56
312.787	98.56
313.017	89.56
313.246	105.56
313.476	109.56
313.706	99.56
313.935	88.56
314.165	94.56
314.394	99.56
314.624	101.56
314.853	95.56
315.083	110.56
315.312	95.56
315.542	80.56
315.771	98.56
316.001	91.56
316.23	97.56
316.46	82.56
316.689	96.56
316.919	86.56
317.148	91.56
317.377	100.56
317.607	106.56
317.836	99.56
318.065	84.56
318.295	98.56
318.524	91.56
318.753	106.56
318.983	115.56
319.212	101.56
319.441	114.56
319.67	103.56
319.9	105.56
320.129	91.56
320.358	90.56
320.587	105.56
320.816	106.56
321.046	98.56
321.275	99.56
321.504	97.56
321.733	94.56
321.962	120.56
322.191	93.56
322.42	115.56
322.649	101.56
322.878	94.56
323.108	106.56
323.337	127.56
323.566	130.56
323.795	140.56
324.024	167.56
324.253	359.56
324.482	710.56
324.71	1401.56
324.939	1823.56
325.168	678.56
325.397	210.56
325.626	127.56
325.855	126.56
326.084	124.56
326.313	139.56
326.542	141.56
326.77	207.56
326.999	397.56
327.228	833.56
327.457	1427.56
327.686	1154.56
327.914	293.56
328.143	163.56
328.372	129.56
328.6	118.56
328.829	117.56
329.058	122.56
329.287	118.56
329.515	101.56
329.744	90.56
329.972	99.56
330.201	90.56
330.43	115.56
330.658	118.56
330.887	124.56
331.115	129.56
331.344	101.56
331.572	108.56
331.801	97.56
332.03	99.56
332.258	92.56
332.486	86.56
332.715	95.56
332.943	95.56
333.172	111.56
333.4	80.56
333.629	88.56
333.857	102.56
334.085	117.56
334.314	108.56
334.542	99.56
334.771	94.56
334.999	97.56
335.227	101.56
335.455	94.56
335.684	112.56
335.912	95.56
336.14	91.56
336.369	101.56
336.597	105.56
336.825	101.56
337.053	113.56
337.281	85.56
337.51	98.56
337.738	100.56
337.966	108.56
338.194	100.56
338.422	94.56
338.65	95.56
338.878	102.56
339.106	100.56
339.334	78.56
339.562	98.56
339.79	88.56
340.018	96.56
340.246	80.56
340.474	88.56
340.702	98.56
340.93	111.56
341.158	101.56
341.386	98.56
341.614	99.56
341.842	95.56
342.07	91.56
342.298	106.56
342.526	86.56
342.754	85.56
342.981	77.56
343.209	86.56
343.437	96.56
343.665	91.56
343.893	95.56
344.12	106.56
344.348	80.56
344.576	100.56
344.804	102.56
345.031	97.56
345.259	104.56
345.487	95.56
345.714	83.56
345.942	101.56
346.17	107.56
346.397	84.56
346.625	104.56
346.853	95.56
347.08	95.56
347.308	93.56
347.535	85.56
347.763	101.56
347.99	89.56
348.218	107.56
348.445	103.56
348.673	104.56
348.9	101.56
349.128	91.56
349.355	103.56
349.583	79.56
349.81	91.56
350.037	102.56
350.265	99.56
350.492	100.56
350.72	95.56
350.947	106.56
351.174	110.56
351.402	115.56
351.629	108.56
351.856	96.56
352.083	102.56
352.311	116.56
352.538	124.56
352.765	109.56
352.992	108.56
353.22	113.56
353.447	98.56
353.674	88.56
353.901	109.56
354.128	109.56
354.355	101.56
354.583	110.56
354.81	105.56
355.037	95.56
355.264	117.56
355.491	108.56
355.718	87.56
355.945	118.56
356.172	90.56
356.399	114.56
356.626	94.56
356.853	103.56
357.08	98.56
357.307	90.56
357.534	96.56
357.761	104.56
357.988	92.56
358.215	99.56
358.441	115.56
358.668	97.56
358.895	93.56
359.122	92.56
359.349	97.56
359.576	94.56
359.802	105.56
360.029	114.56
360.256	95.56
360.483	94.56
360.709	89.56
360.936	105.56
361.163	104.56
361.39	103.56
361.616	91.56
361.843	104.56
362.07	94.56
362.296	80.56
362.523	81.56
362.749	91.56
362.976	88.56
363.203	94.56
363.429	98.56
363.656	102.56
363.882	101.56
364.109	81.56
364.335	105.56
364.562	90.56
364.788	92.56
365.015	97.56
365.241	94.56
365.468	102.56
365.694	92.56
365.92	96.56
366.147	88.56
366.373	92.56
366.599	102.56
366.826	94.56
367.052	99.56
367.278	97.56
367.505	98.56
367.731	102.56
367.957	105.56
368.184	93.56
368.41	108.56
368.636	116.56
368.862	110.56
369.089	106.56
369.315	83.56
369.541	97.56
369.767	96.56
369.993	86.56
370.219	99.56
370.445	102.56
370.672	79.56
370.898	97.56
371.124	97.56
371.35	91.56
371.576	117.56
371.802	90.56
372.028	98.56
372.254	83.56
372.48	90.56
372.706	99.56
372.932	82.56
373.158	87.56
373.384	80.56
373.61	84.56
373.835	91.56
374.061	87.56
374.287	102.56
374.513	79.56
374.739	74.56
374.965	108.56
375.191	86.56
375.416	95.56
375.642	97.56
375.868	94.56
376.094	108.56
376.319	111.56
376.545	98.56
376.771	92.56
376.997	105.56
377.222	85.56
377.448	92.56
377.674	102.56
377.899	105.56
378.125	103.56
378.35	78.56
378.576	94.56
378.802	99.56
379.027	85.56
379.253	84.56
379.478	102.56
379.704	85.56
379.929	86.56
380.155	95.56
380.38	98.56
380.606	106.56
380.831	96.56
381.057	103.56
381.282	100.56
381.507	91.56
381.733	100.56
381.958	105.56
382.184	114.56
382.409	107.56
382.634	99.56
382.86	100.56
383.085	114.56
383.31	110.56
383.535	111.56
383.761	108.56
383.986	117.56
384.211	104.56
384.436	104.56
384.662	113.56
384.887	109.56
385.112	89.56
385.337	109.56
385.562	101.56
385.787	131.56
386.013	113.56
386.238	115.56
386.463	108.56
386.688	115.56
386.913	107.56
387.138	122.56
387.363	119.56
387.588	109.56
387.813	102.56
388.038	112.56
388.263	135.56
388.488	117.56
388.713	105.56
388.938	101.56
389.163	100.56
389.387	97.56
389.612	91.56
389.837	89.56
390.062	88.56
390.287	98.56
390.512	104.56
390.736	98.56
390.961	102.56
391.186	97.56
391.411	97.56
391.636	99.56
391.86	86.56
392.085	82.56
392.31	91.56
392.534	85.56
392.759	77.56
392.984	101.56
393.208	91.56
393.433	83.56
393.658	86.56
393.882	86.56
394.107	87.56
394.331	91.56
394.556	83.56
394.78	95.56
395.005	93.56
395.229	93.56
395.454	82.56
395.678	78.56
395.903	91.56
396.127	85.56
396.352	87.56
396.576	83.56
396.801	88.56
397.025	99.56
397.249	93.56
397.474	93.56
397.698	90.56
397.922	83.56
398.147	99.56
398.371	92.56
398.595	93.56
398.82	71.56
399.044	86.56
399.268	89.56
399.492	99.56
399.717	94.56
399.941	101.56
400.165	103.56
400.389	90.56
400.613	95.56
400.837	95.56
401.062	99.56
401.286	84.56
401.51	95.56
401.734	80.56
401.958	108.56
402.182	104.56
402.406	145.56
402.63	102.56
402.854	93.56
403.078	111.56
403.302	91.56
403.526	91.56
403.75	78.56
403.974	89.56
404.198	83.56
404.422	86.56
404.645	79.56
404.869	85.56
405.093	106.56
405.317	90.56
405.541	87.56
405.765	102.56
405.988	121.56
406.212	144.56
406.436	188.56
406.66	126.56
406.883	104.56
407.107	85.56
407.331	103.56
407.555	92.56
407.778	94.56
408.002	86.56
408.226	97.56
408.449	91.56
408.673	88.56
408.896	100.56
409.12	90.56
409.344	92.56
409.567	83.56
409.791	94.56
410.014	106.56
410.238	94.56
410.461	92.56
410.685	95.56
410.908	94.56
411.132	100.56
411.355	99.56
411.578	76.56
411.802	77.56
412.025	85.56
412.249	100.56
412.472	87.56
412.695	95.56
412.919	98.56
413.142	91.56
413.365	91.56
413.589	100.56
413.812	84.56
414.035	85.56
414.258	94.56
414.482	98.56
414.705	97.56
414.928	88.56
415.151	97.56
415.374	83.56
415.597	83.56
415.821	103.56
416.044	92.56
416.267	93.56
416.49	98.56
416.713	93.56
416.936	78.56
417.159	97.56
417.382	93.56
417.605	98.56
417.828	98.56
418.051	91.56
418.274	92.56
418.497	80.56
418.72	93.56
418.943	88.56
419.166	83.56
419.389	93.56
419.611	91.56
419.834	87.56
420.057	85.56
420.28	86.56
420.503	100.56
420.726	93.56
420.948	73.56
421.171	93.56
421.394	104.56
421.617	100.56
421.839	98.56
422.062	84.56
422.285	92.56
422.507	100.56
422.73	109.56
422.953	93.56
423.175	93.56
423.398	87.56
423.621	83.56
423.843	81.56
424.066	102.56
424.288	91.56
424.511	91.56
424.733	94.56
424.956	99.56
425.178	95.56
425.401	110.56
425.623	104.56
425.846	93.56
426.068	107.56
426.291	81.56
426.513	83.56
426.735	81.56
426.958	87.56
427.18	96.56
427.402	124.56
427.625	136.56
427.847	117.56
428.069	97.56
428.292	86.56
428.514	99.56
428.736	77.56
428.958	97.56
429.181	83.56
429.403	82.56
429.625	93.56
429.847	106.56
430.069	89.56
430.292	92.56
430.514	88.56
430.736	87.56
430.958	80.56
431.18	93.56
431.402	91.56
431.624	84.56
431.846	101.56
432.068	97.56
432.29	95.56
432.512	89.56
432.734	88.56
432.956	106.56
433.178	102.56
433.4	91.56
433.622	97.56
433.844	106.56
434.066	81.56
434.287	98.56
434.509	78.56
434.731	86.56
434.953	87.56
435.175	84.56
435.397	90.56
435.618	103.56
435.84	113.56
436.062	116.56
436.284	106.56
436.505	106.56
436.727	107.56
436.949	78.56
437.17	91.56
437.392	81.56
437.614	100.56
437.835	93.56
438.057	102.56
438.278	107.56
438.5	93.56
438.721	114.56
438.943	110.56
439.165	99.56
439.386	86.56
439.608	100.56
439.829	94.56
440.05	116.56
440.272	138.56
440.493	85.56
440.715	79.56
440.936	92.56
441.158	92.56
441.379	95.56
441.6	106.56
441.822	93.56
442.043	103.56
442.264	100.56
442.486	103.56
442.707	86.56
442.928	107.56
443.149	109.56
443.371	124.56
443.592	106.56
443.813	106.56
444.034	100.56
444.255	82.56
444.476	92.56
444.698	89.56
444.919	97.56
445.14	141.56
445.361	105.56
445.582	114.56
445.803	130.56
446.024	112.56
446.245	119.56
446.466	111.56
446.687	89.56
446.908	89.56
447.129	92.56
447.35	83.56
447.571	86.56
447.792	91.56
448.013	101.56
448.234	116.56
448.455	102.56
448.675	110.56
448.896	117.56
449.117	106.56
449.338	91.56
449.559	107.56
449.779	121.56
450	83.56
450.221	72.56
450.442	91.56
450.662	98.56
450.883	95.56
451.104	109.56
451.324	106.56
451.545	102.56
451.766	91.56
451.986	93.56
452.207	86.56
452.428	92.56
452.648	96.56
452.869	112.56
453.089	105.56
453.31	104.56
453.53	87.56
453.751	102.56
453.971	95.56
454.192	91.56
454.412	97.56
454.633	99.56
454.853	90.56
455.073	90.56
455.294	95.56
455.514	110.56
455.734	95.56
455.955	98.56
456.175	101.56
456.395	86.56
456.616	90.56
456.836	83.56
457.056	94.56
457.276	78.56
457.497	92.56
457.717	87.56
457.937	77.56
458.157	100.56
458.377	102.56
458.598	110.56
458.818	142.56
459.038	132.56
459.258	91.56
459.478	102.56
459.698	82.56
459.918	84.56
460.138	86.56
460.358	93.56
460.578	92.56
460.798	88.56
461.018	88.56
461.238	87.56
461.458	93.56
461.678	93.56
461.898	103.56
462.118	88.56
462.338	92.56
462.558	83.56
462.777	109.56
462.997	67.56
463.217	89.56
463.437	87.56
463.657	91.56
463.876	90.56
464.096	101.56
464.316	98.56
464.536	101.56
464.755	90.56
464.975	85.56
465.195	144.56
465.414	134.56
465.634	106.56
465.854	86.56
466.073	90.56
466.293	101.56
466.512	84.56
466.732	92.56
466.951	83.56
467.171	96.56
467.391	92.56
467.61	108.56
467.829	102.56
468.049	101.56
468.268	98.56
468.488	88.56
468.707	103.56
468.927	87.56
469.146	92.56
469.365	86.56
469.585	80.56
469.804	98.56
470.023	109.56
470.243	92.56
470.462	94.56
470.681	106.56
470.901	83.56
471.12	85.56
471.339	93.56
471.558	78.56
471.777	93.56
471.997	100.56
472.216	92.56
472.435	87.56
472.654	83.56
472.873	92.56
473.092	70.56
473.311	89.56
473.53	83.56
473.749	106.56
473.968	98.56
474.187	108.56
474.406	86.56
474.625	87.56
474.844	93.56
475.063	86.56
475.282	94.56
475.501	99.56
475.72	76.56
475.939	97.56
476.158	88.56
476.377	78.56
476.596	93.56
476.814	96.56
477.033	93.56
477.252	84.56
477.471	89.56
477.69	98.56
477.908	82.56
478.127	97.56
478.346	85.56
478.564	95.56
478.783	110.56
479.002	105.56
479.22	98.56
479.439	95.56
479.658	97.56
479.876	104.56
480.095	94.56
480.313	97.56
480.532	107.56
480.751	92.56
480.969	98.56
481.188	102.56
481.406	82.56
481.624	102.56
481.843	85.56
482.061	84.56
482.28	93.56
482.498	89.56
482.717	91.56
482.935	91.56
483.153	74.56
483.372	91.56
483.59	94.56
483.808	98.56
484.027	96.56
484.245	95.56
484.463	96.56
484.681	105.56
484.9	105.56
485.118	101.56
485.336	96.56
485.554	93.56
485.772	101.56
485.99	114.56
486.209	111.56
486.427	106.56
486.645	114.56
486.863	114.56
487.081	105.56
487.299	97.56
487.517	89.56
487.735	101.56
487.953	109.56
488.171	88.56
488.389	105.56
488.607	104.56
488.825	93.56
489.043	98.56
489.261	75.56
489.479	98.56
489.696	98.56
489.914	92.56
490.132	95.56
490.35	101.56
490.568	107.56
490.786	88.56
491.003	85.56
491.221	81.56
491.439	97.56
491.657	103.56
491.874	106.56
492.092	100.56
492.31	102.56
492.527	85.56
492.745	78.56
492.963	101.56
493.18	85.56
493.398	91.56
493.615	104.56
493.833	108.56
494.05	97.56
494.268	96.56
494.485	86.56
494.703	98.56
494.92	97.56
495.138	63.56
495.355	100.56
495.573	93.56
495.79	90.56
496.008	98.56
496.225	104.56
496.442	81.56
496.66	93.56
496.877	105.56
497.094	97.56
497.312	94.56
497.529	96.56
497.746	92.56
497.963	76.56
498.181	98.56
498.398	87.56
498.615	102.56
498.832	108.56
499.049	83.56
499.267	92.56
499.484	98.56
499.701	109.56
499.918	84.56
500.135	105.56
500.352	102.56
500.569	91.56
500.786	92.56
501.003	97.56
501.22	83.56
501.437	98.56
501.654	94.56
501.871	101.56
502.088	86.56
502.305	108.56
502.522	108.56
502.739	95.56
502.956	96.56
503.172	99.56
503.389	101.56
503.606	108.56
503.823	103.56
504.04	82.56
504.256	92.56
504.473	85.56
504.69	102.56
504.907	86.56
505.123	84.56
505.34	93.56
505.557	88.56
505.773	99.56
505.99	96.56
506.207	93.56
506.423	82.56
506.64	103.56
506.856	95.56
507.073	98.56
507.289	85.56
507.506	94.56
507.722	114.56
507.939	108.56
508.155	102.56
508.372	92.56
508.588	95.56
508.805	95.56
509.021	95.56
509.238	112.56
509.454	89.56
509.67	95.56
509.887	108.56
510.103	131.56
510.319	209.56
510.536	638.56
510.752	1970.56
510.968	583.56
511.184	147.56
511.401	111.56
511.617	109.56
511.833	86.56
512.049	98.56
512.265	96.56
512.481	94.56
512.698	83.56
512.914	88.56
513.13	90.56
513.346	98.56
513.562	97.56
513.778	92.56
513.994	100.56
514.21	101.56
514.426	117.56
514.642	129.56
