Data from Uncirc_2008_H10_HRD10591_00062.txt Node
Date: Wed Jan 03 10:15:43 EST 2024
User: Yrep
Spectrometer: HR+D1059
Trigger mode: 1
Integration Time (sec): 1.000000E-1
Scans to average: 1
Electric dark correction enabled: true
Nonlinearity correction enabled: false
Boxcar width: 0
XAxis mode: Wavelengths
Number of Pixels in Spectrum: 2048
>>>>>Begin Spectral Data<<<<<
223.165	-25.19
223.4	-25.19
223.635	-25.19
223.869	-11.19
224.104	-12.19
224.338	-8.19
224.573	-9.19
224.808	-19.19
225.042	-13.19
225.277	-8.19
225.511	-7.19
225.746	-2.19
225.98	-1.19
226.215	9.81
226.449	18.81
226.683	25.81
226.918	33.81
227.152	28.81
227.387	33.81
227.621	49.81
227.856	43.81
228.09	31.81
228.324	53.81
228.559	56.81
228.793	62.81
229.027	56.81
229.262	70.81
229.496	73.81
229.73	83.81
229.964	67.81
230.199	79.81
230.433	67.81
230.667	76.81
230.901	88.81
231.136	87.81
231.37	70.81
231.604	68.81
231.838	73.81
232.072	75.81
232.306	84.81
232.541	93.81
232.775	69.81
233.009	86.81
233.243	88.81
233.477	77.81
233.711	78.81
233.945	80.81
234.179	76.81
234.413	83.81
234.647	75.81
234.881	81.81
235.115	79.81
235.349	83.81
235.583	76.81
235.817	73.81
236.051	81.81
236.285	68.81
236.519	83.81
236.753	87.81
236.987	78.81
237.221	79.81
237.455	88.81
237.689	72.81
237.922	63.81
238.156	82.81
238.39	75.81
238.624	77.81
238.858	84.81
239.091	79.81
239.325	83.81
239.559	77.81
239.793	66.81
240.027	83.81
240.26	69.81
240.494	67.81
240.728	84.81
240.961	80.81
241.195	84.81
241.429	73.81
241.662	79.81
241.896	70.81
242.13	76.81
242.363	72.81
242.597	68.81
242.83	84.81
243.064	90.81
243.298	72.81
243.531	73.81
243.765	65.81
243.998	78.81
244.232	83.81
244.465	61.81
244.699	90.81
244.932	89.81
245.166	81.81
245.399	70.81
245.633	85.81
245.866	72.81
246.099	82.81
246.333	76.81
246.566	89.81
246.8	88.81
247.033	91.81
247.266	87.81
247.5	87.81
247.733	93.81
247.966	70.81
248.2	75.81
248.433	104.81
248.666	84.81
248.899	75.81
249.133	91.81
249.366	97.81
249.599	84.81
249.832	82.81
250.066	74.81
250.299	79.81
250.532	88.81
250.765	86.81
250.998	75.81
251.231	73.81
251.465	84.81
251.698	74.81
251.931	67.81
252.164	66.81
252.397	75.81
252.63	86.81
252.863	76.81
253.096	70.81
253.329	76.81
253.562	77.81
253.795	78.81
254.028	92.81
254.261	84.81
254.494	80.81
254.727	96.81
254.96	75.81
255.193	82.81
255.426	90.81
255.659	75.81
255.892	72.81
256.124	88.81
256.357	87.81
256.59	94.81
256.823	87.81
257.056	95.81
257.289	91.81
257.521	89.81
257.754	82.81
257.987	86.81
258.22	80.81
258.452	91.81
258.685	79.81
258.918	85.81
259.151	80.81
259.383	83.81
259.616	71.81
259.849	77.81
260.081	90.81
260.314	75.81
260.547	93.81
260.779	82.81
261.012	83.81
261.244	83.81
261.477	90.81
261.71	82.81
261.942	113.81
262.175	120.81
262.407	91.81
262.64	82.81
262.872	79.81
263.105	84.81
263.337	78.81
263.57	89.81
263.802	87.81
264.035	74.81
264.267	78.81
264.499	84.81
264.732	91.81
264.964	68.81
265.197	79.81
265.429	81.81
265.661	82.81
265.894	76.81
266.126	82.81
266.358	84.81
266.591	83.81
266.823	79.81
267.055	83.81
267.287	88.81
267.52	81.81
267.752	81.81
267.984	81.81
268.216	85.81
268.448	88.81
268.681	80.81
268.913	75.81
269.145	87.81
269.377	97.81
269.609	74.81
269.841	87.81
270.073	106.81
270.306	79.81
270.538	81.81
270.77	74.81
271.002	89.81
271.234	83.81
271.466	81.81
271.698	84.81
271.93	74.81
272.162	78.81
272.394	70.81
272.626	84.81
272.858	86.81
273.09	78.81
273.322	74.81
273.553	91.81
273.785	81.81
274.017	75.81
274.249	81.81
274.481	88.81
274.713	97.81
274.945	79.81
275.176	85.81
275.408	88.81
275.64	94.81
275.872	86.81
276.104	87.81
276.335	90.81
276.567	85.81
276.799	99.81
277.031	102.81
277.262	94.81
277.494	86.81
277.726	71.81
277.957	91.81
278.189	82.81
278.421	83.81
278.652	97.81
278.884	87.81
279.115	88.81
279.347	97.81
279.579	78.81
279.81	91.81
280.042	79.81
280.273	86.81
280.505	82.81
280.736	79.81
280.968	87.81
281.199	79.81
281.431	81.81
281.662	89.81
281.894	96.81
282.125	102.81
282.356	112.81
282.588	124.81
282.819	106.81
283.051	90.81
283.282	86.81
283.513	85.81
283.745	84.81
283.976	84.81
284.207	91.81
284.439	95.81
284.67	88.81
284.901	91.81
285.132	88.81
285.364	91.81
285.595	74.81
285.826	74.81
286.057	91.81
286.288	74.81
286.52	81.81
286.751	88.81
286.982	94.81
287.213	92.81
287.444	86.81
287.675	90.81
287.906	109.81
288.138	99.81
288.369	90.81
288.6	81.81
288.831	86.81
289.062	99.81
289.293	83.81
289.524	73.81
289.755	86.81
289.986	97.81
290.217	93.81
290.448	98.81
290.679	85.81
290.91	83.81
291.141	79.81
291.371	85.81
291.602	94.81
291.833	84.81
292.064	84.81
292.295	89.81
292.526	98.81
292.757	107.81
292.987	80.81
293.218	92.81
293.449	78.81
293.68	80.81
293.91	81.81
294.141	104.81
294.372	75.81
294.603	94.81
294.833	89.81
295.064	81.81
295.295	89.81
295.525	90.81
295.756	104.81
295.987	110.81
296.217	120.81
296.448	109.81
296.679	85.81
296.909	95.81
297.14	83.81
297.37	82.81
297.601	85.81
297.831	90.81
298.062	102.81
298.292	89.81
298.523	89.81
298.753	83.81
298.984	105.81
299.214	89.81
299.445	90.81
299.675	90.81
299.905	83.81
300.136	83.81
300.366	78.81
300.597	80.81
300.827	91.81
301.057	99.81
301.288	96.81
301.518	97.81
301.748	90.81
301.979	113.81
302.209	91.81
302.439	101.81
302.669	95.81
302.9	88.81
303.13	102.81
303.36	74.81
303.59	83.81
303.82	110.81
304.051	107.81
304.281	80.81
304.511	105.81
304.741	84.81
304.971	91.81
305.201	80.81
305.431	84.81
305.661	90.81
305.891	91.81
306.121	90.81
306.352	102.81
306.582	110.81
306.812	99.81
307.042	81.81
307.272	82.81
307.502	85.81
307.731	90.81
307.961	91.81
308.191	98.81
308.421	95.81
308.651	83.81
308.881	82.81
309.111	100.81
309.341	97.81
309.571	94.81
309.8	79.81
310.03	95.81
310.26	100.81
310.49	100.81
310.72	87.81
310.949	105.81
311.179	99.81
311.409	91.81
311.639	93.81
311.868	96.81
312.098	99.81
312.328	84.81
312.557	109.81
312.787	98.81
313.017	90.81
313.246	102.81
313.476	78.81
313.706	102.81
313.935	106.81
314.165	98.81
314.394	97.81
314.624	91.81
314.853	80.81
315.083	92.81
315.312	88.81
315.542	80.81
315.771	109.81
316.001	94.81
316.23	84.81
316.46	101.81
316.689	94.81
316.919	73.81
317.148	82.81
317.377	107.81
317.607	80.81
317.836	92.81
318.065	88.81
318.295	88.81
318.524	92.81
318.753	95.81
318.983	102.81
319.212	94.81
319.441	105.81
319.67	83.81
319.9	94.81
320.129	99.81
320.358	99.81
320.587	105.81
320.816	107.81
321.046	111.81
321.275	89.81
321.504	91.81
321.733	96.81
321.962	95.81
322.191	96.81
322.42	81.81
322.649	103.81
322.878	118.81
323.108	115.81
323.337	114.81
323.566	127.81
323.795	129.81
324.024	192.81
324.253	350.81
324.482	735.81
324.71	1490.81
324.939	1888.81
325.168	704.81
325.397	231.81
325.626	148.81
325.855	126.81
326.084	122.81
326.313	113.81
326.542	134.81
326.77	214.81
326.999	427.81
327.228	819.81
327.457	1476.81
327.686	1182.81
327.914	336.81
328.143	193.81
328.372	148.81
328.6	115.81
328.829	102.81
329.058	113.81
329.287	118.81
329.515	95.81
329.744	98.81
329.972	83.81
330.201	87.81
330.43	111.81
330.658	118.81
330.887	117.81
331.115	109.81
331.344	96.81
331.572	94.81
331.801	98.81
332.03	112.81
332.258	97.81
332.486	90.81
332.715	98.81
332.943	108.81
333.172	90.81
333.4	91.81
333.629	105.81
333.857	91.81
334.085	109.81
334.314	94.81
334.542	97.81
334.771	100.81
334.999	103.81
335.227	84.81
335.455	99.81
335.684	97.81
335.912	91.81
336.14	96.81
336.369	91.81
336.597	92.81
336.825	118.81
337.053	92.81
337.281	90.81
337.51	103.81
337.738	89.81
337.966	103.81
338.194	100.81
338.422	93.81
338.65	84.81
338.878	102.81
339.106	90.81
339.334	85.81
339.562	87.81
339.79	84.81
340.018	92.81
340.246	83.81
340.474	91.81
340.702	90.81
340.93	95.81
341.158	89.81
341.386	92.81
341.614	95.81
341.842	115.81
342.07	84.81
342.298	100.81
342.526	92.81
342.754	88.81
342.981	109.81
343.209	78.81
343.437	99.81
343.665	107.81
343.893	94.81
344.12	100.81
344.348	108.81
344.576	95.81
344.804	99.81
345.031	93.81
345.259	101.81
345.487	97.81
345.714	80.81
345.942	96.81
346.17	97.81
346.397	87.81
346.625	95.81
346.853	82.81
347.08	102.81
347.308	98.81
347.535	105.81
347.763	81.81
347.99	86.81
348.218	100.81
348.445	114.81
348.673	100.81
348.9	91.81
349.128	97.81
349.355	87.81
349.583	79.81
349.81	98.81
350.037	98.81
350.265	87.81
350.492	98.81
350.72	91.81
350.947	107.81
351.174	104.81
351.402	119.81
351.629	111.81
351.856	88.81
352.083	93.81
352.311	102.81
352.538	110.81
352.765	97.81
352.992	112.81
353.22	87.81
353.447	100.81
353.674	94.81
353.901	106.81
354.128	99.81
354.355	102.81
354.583	95.81
354.81	99.81
355.037	99.81
355.264	103.81
355.491	86.81
355.718	96.81
355.945	94.81
356.172	99.81
356.399	101.81
356.626	92.81
356.853	95.81
357.08	86.81
357.307	94.81
357.534	86.81
357.761	89.81
357.988	105.81
358.215	91.81
358.441	108.81
358.668	103.81
358.895	103.81
359.122	94.81
359.349	87.81
359.576	92.81
359.802	97.81
360.029	107.81
360.256	102.81
360.483	81.81
360.709	81.81
360.936	92.81
361.163	83.81
361.39	97.81
361.616	107.81
361.843	94.81
362.07	98.81
362.296	94.81
362.523	95.81
362.749	101.81
362.976	78.81
363.203	83.81
363.429	98.81
363.656	100.81
363.882	95.81
364.109	90.81
364.335	90.81
364.562	82.81
364.788	83.81
365.015	98.81
365.241	96.81
365.468	109.81
365.694	107.81
365.92	92.81
366.147	86.81
366.373	80.81
366.599	91.81
366.826	103.81
367.052	85.81
367.278	90.81
367.505	92.81
367.731	93.81
367.957	95.81
368.184	87.81
368.41	93.81
368.636	80.81
368.862	119.81
369.089	109.81
369.315	105.81
369.541	97.81
369.767	93.81
369.993	88.81
370.219	93.81
370.445	96.81
370.672	76.81
370.898	85.81
371.124	94.81
371.35	90.81
371.576	99.81
371.802	90.81
372.028	73.81
372.254	84.81
372.48	94.81
372.706	98.81
372.932	88.81
373.158	84.81
373.384	98.81
373.61	83.81
373.835	98.81
374.061	97.81
374.287	96.81
374.513	91.81
374.739	99.81
374.965	97.81
375.191	98.81
375.416	75.81
375.642	91.81
375.868	82.81
376.094	100.81
376.319	102.81
376.545	95.81
376.771	73.81
376.997	106.81
377.222	90.81
377.448	89.81
377.674	96.81
377.899	96.81
378.125	90.81
378.35	93.81
378.576	85.81
378.802	95.81
379.027	91.81
379.253	97.81
379.478	95.81
379.704	90.81
379.929	99.81
380.155	92.81
380.38	97.81
380.606	100.81
380.831	95.81
381.057	99.81
381.282	92.81
381.507	93.81
381.733	97.81
381.958	97.81
382.184	107.81
382.409	97.81
382.634	107.81
382.86	101.81
383.085	125.81
383.31	94.81
383.535	110.81
383.761	103.81
383.986	96.81
384.211	91.81
384.436	99.81
384.662	94.81
384.887	103.81
385.112	92.81
385.337	79.81
385.562	111.81
385.787	99.81
386.013	99.81
386.238	104.81
386.463	110.81
386.688	117.81
386.913	105.81
387.138	94.81
387.363	104.81
387.588	98.81
387.813	101.81
388.038	97.81
388.263	119.81
388.488	108.81
388.713	107.81
388.938	92.81
389.163	103.81
389.387	96.81
389.612	106.81
389.837	90.81
390.062	80.81
390.287	99.81
390.512	103.81
390.736	100.81
390.961	86.81
391.186	101.81
391.411	95.81
391.636	107.81
391.86	91.81
392.085	70.81
392.31	88.81
392.534	80.81
392.759	91.81
392.984	76.81
393.208	79.81
393.433	97.81
393.658	80.81
393.882	88.81
394.107	91.81
394.331	93.81
394.556	91.81
394.78	95.81
395.005	84.81
395.229	90.81
395.454	106.81
395.678	79.81
395.903	86.81
396.127	83.81
396.352	93.81
396.576	88.81
396.801	84.81
397.025	89.81
397.249	100.81
397.474	97.81
397.698	89.81
397.922	84.81
398.147	78.81
398.371	74.81
398.595	95.81
398.82	85.81
399.044	83.81
399.268	91.81
399.492	72.81
399.717	91.81
399.941	87.81
400.165	109.81
400.389	96.81
400.613	84.81
400.837	95.81
401.062	98.81
401.286	89.81
401.51	84.81
401.734	86.81
401.958	95.81
402.182	124.81
402.406	157.81
402.63	112.81
402.854	99.81
403.078	70.81
403.302	90.81
403.526	99.81
403.75	93.81
403.974	91.81
404.198	99.81
404.422	77.81
404.645	87.81
404.869	87.81
405.093	89.81
405.317	91.81
405.541	98.81
405.765	97.81
405.988	113.81
406.212	159.81
406.436	211.81
406.66	128.81
406.883	99.81
407.107	94.81
407.331	106.81
407.555	90.81
407.778	87.81
408.002	92.81
408.226	100.81
408.449	112.81
408.673	92.81
408.896	87.81
409.12	84.81
409.344	97.81
409.567	88.81
409.791	90.81
410.014	96.81
410.238	95.81
410.461	103.81
410.685	101.81
410.908	93.81
411.132	97.81
411.355	84.81
411.578	92.81
411.802	96.81
412.025	91.81
412.249	94.81
412.472	89.81
412.695	77.81
412.919	98.81
413.142	85.81
413.365	98.81
413.589	92.81
413.812	105.81
414.035	100.81
414.258	88.81
414.482	99.81
414.705	78.81
414.928	90.81
415.151	94.81
415.374	82.81
415.597	97.81
415.821	90.81
416.044	95.81
416.267	104.81
416.49	90.81
416.713	88.81
416.936	88.81
417.159	85.81
417.382	96.81
417.605	88.81
417.828	95.81
418.051	98.81
418.274	88.81
418.497	93.81
418.72	83.81
418.943	91.81
419.166	81.81
419.389	94.81
419.611	81.81
419.834	99.81
420.057	105.81
420.28	88.81
420.503	72.81
420.726	99.81
420.948	81.81
421.171	89.81
421.394	94.81
421.617	88.81
421.839	92.81
422.062	99.81
422.285	95.81
422.507	88.81
422.73	91.81
422.953	80.81
423.175	90.81
423.398	98.81
423.621	74.81
423.843	78.81
424.066	87.81
424.288	81.81
424.511	68.81
424.733	98.81
424.956	119.81
425.178	95.81
425.401	95.81
425.623	87.81
425.846	92.81
426.068	96.81
426.291	99.81
426.513	91.81
426.735	97.81
426.958	103.81
427.18	98.81
427.402	127.81
427.625	158.81
427.847	111.81
428.069	98.81
428.292	91.81
428.514	80.81
428.736	102.81
428.958	80.81
429.181	79.81
429.403	104.81
429.625	92.81
429.847	89.81
430.069	93.81
430.292	80.81
430.514	83.81
430.736	84.81
430.958	94.81
431.18	82.81
431.402	100.81
431.624	92.81
431.846	81.81
432.068	102.81
432.29	86.81
432.512	80.81
432.734	87.81
432.956	98.81
433.178	95.81
433.4	90.81
433.622	87.81
433.844	92.81
434.066	89.81
434.287	87.81
434.509	84.81
434.731	85.81
434.953	82.81
435.175	90.81
435.397	72.81
435.618	104.81
435.84	110.81
436.062	104.81
436.284	101.81
436.505	90.81
436.727	93.81
436.949	90.81
437.17	90.81
437.392	88.81
437.614	94.81
437.835	96.81
438.057	114.81
438.278	107.81
438.5	98.81
438.721	114.81
438.943	99.81
439.165	95.81
439.386	89.81
439.608	105.81
439.829	103.81
440.05	107.81
440.272	128.81
440.493	93.81
440.715	84.81
440.936	93.81
441.158	75.81
441.379	86.81
441.6	81.81
441.822	96.81
442.043	89.81
442.264	97.81
442.486	103.81
442.707	107.81
442.928	102.81
443.149	123.81
443.371	124.81
443.592	106.81
443.813	104.81
444.034	100.81
444.255	94.81
444.476	94.81
444.698	98.81
444.919	82.81
445.14	136.81
445.361	119.81
445.582	107.81
445.803	128.81
446.024	114.81
446.245	131.81
446.466	125.81
446.687	91.81
446.908	91.81
447.129	85.81
447.35	85.81
447.571	74.81
447.792	91.81
448.013	97.81
448.234	95.81
448.455	101.81
448.675	106.81
448.896	109.81
449.117	115.81
449.338	97.81
449.559	111.81
449.779	120.81
450	102.81
450.221	96.81
450.442	93.81
450.662	96.81
450.883	98.81
451.104	107.81
451.324	89.81
451.545	80.81
451.766	87.81
451.986	80.81
452.207	102.81
452.428	109.81
452.648	94.81
452.869	113.81
453.089	108.81
453.31	113.81
453.53	90.81
453.751	87.81
453.971	97.81
454.192	118.81
454.412	104.81
454.633	103.81
454.853	99.81
455.073	94.81
455.294	95.81
455.514	95.81
455.734	111.81
455.955	80.81
456.175	93.81
456.395	84.81
456.616	92.81
456.836	95.81
457.056	81.81
457.276	86.81
457.497	77.81
457.717	86.81
457.937	99.81
458.157	86.81
458.377	84.81
458.598	111.81
458.818	135.81
459.038	148.81
459.258	109.81
459.478	76.81
459.698	85.81
459.918	88.81
460.138	86.81
460.358	73.81
460.578	90.81
460.798	83.81
461.018	80.81
461.238	81.81
461.458	64.81
461.678	87.81
461.898	89.81
462.118	96.81
462.338	94.81
462.558	97.81
462.777	90.81
462.997	81.81
463.217	84.81
463.437	80.81
463.657	90.81
463.876	79.81
464.096	83.81
464.316	93.81
464.536	94.81
464.755	99.81
464.975	99.81
465.195	165.81
465.414	143.81
465.634	80.81
465.854	95.81
466.073	79.81
466.293	81.81
466.512	83.81
466.732	94.81
466.951	96.81
467.171	97.81
467.391	92.81
467.61	110.81
467.829	100.81
468.049	91.81
468.268	84.81
468.488	87.81
468.707	83.81
468.927	81.81
469.146	72.81
469.365	101.81
469.585	86.81
469.804	98.81
470.023	97.81
470.243	96.81
470.462	95.81
470.681	95.81
470.901	93.81
471.12	77.81
471.339	92.81
471.558	93.81
471.777	95.81
471.997	88.81
472.216	92.81
472.435	71.81
472.654	86.81
472.873	95.81
473.092	89.81
473.311	85.81
473.53	93.81
473.749	89.81
473.968	104.81
474.187	97.81
474.406	99.81
474.625	82.81
474.844	90.81
475.063	80.81
475.282	91.81
475.501	79.81
475.72	106.81
475.939	95.81
476.158	86.81
476.377	79.81
476.596	83.81
476.814	96.81
477.033	97.81
477.252	93.81
477.471	96.81
477.69	87.81
477.908	88.81
478.127	105.81
478.346	87.81
478.564	102.81
478.783	98.81
479.002	99.81
479.22	107.81
479.439	102.81
479.658	111.81
479.876	82.81
480.095	92.81
480.313	94.81
480.532	88.81
480.751	103.81
480.969	82.81
481.188	96.81
481.406	89.81
481.624	92.81
481.843	89.81
482.061	66.81
482.28	84.81
482.498	102.81
482.717	96.81
482.935	86.81
483.153	83.81
483.372	92.81
483.59	95.81
483.808	92.81
484.027	97.81
484.245	99.81
484.463	99.81
484.681	95.81
484.9	88.81
485.118	98.81
485.336	104.81
485.554	94.81
485.772	92.81
485.99	103.81
486.209	105.81
486.427	106.81
486.645	120.81
486.863	104.81
487.081	105.81
487.299	91.81
487.517	111.81
487.735	94.81
487.953	89.81
488.171	86.81
488.389	91.81
488.607	94.81
488.825	102.81
489.043	92.81
489.261	89.81
489.479	95.81
489.696	85.81
489.914	83.81
490.132	99.81
490.35	100.81
490.568	91.81
490.786	94.81
491.003	93.81
491.221	76.81
491.439	87.81
491.657	101.81
491.874	101.81
492.092	97.81
492.31	88.81
492.527	110.81
492.745	105.81
492.963	110.81
493.18	95.81
493.398	91.81
493.615	105.81
493.833	94.81
494.05	99.81
494.268	89.81
494.485	96.81
494.703	99.81
494.92	83.81
495.138	86.81
495.355	96.81
495.573	92.81
495.79	92.81
496.008	113.81
496.225	84.81
496.442	86.81
496.66	86.81
496.877	91.81
497.094	105.81
497.312	91.81
497.529	93.81
497.746	89.81
497.963	80.81
498.181	94.81
498.398	100.81
498.615	97.81
498.832	109.81
499.049	100.81
499.267	106.81
499.484	98.81
499.701	89.81
499.918	105.81
500.135	88.81
500.352	98.81
500.569	80.81
500.786	96.81
501.003	95.81
501.22	91.81
501.437	96.81
501.654	91.81
501.871	104.81
502.088	111.81
502.305	105.81
502.522	95.81
502.739	96.81
502.956	93.81
503.172	88.81
503.389	90.81
503.606	110.81
503.823	81.81
504.04	87.81
504.256	97.81
504.473	92.81
504.69	102.81
504.907	95.81
505.123	96.81
505.34	87.81
505.557	97.81
505.773	86.81
505.99	80.81
506.207	77.81
506.423	90.81
506.64	95.81
506.856	88.81
507.073	84.81
507.289	94.81
507.506	102.81
507.722	105.81
507.939	105.81
508.155	96.81
508.372	91.81
508.588	95.81
508.805	111.81
509.021	90.81
509.238	99.81
509.454	103.81
509.67	103.81
509.887	94.81
510.103	118.81
510.319	192.81
510.536	733.81
510.752	2204.81
510.968	630.81
511.184	140.81
511.401	122.81
511.617	86.81
511.833	104.81
512.049	93.81
512.265	94.81
512.481	95.81
512.698	86.81
512.914	91.81
513.13	94.81
513.346	101.81
513.562	99.81
513.778	94.81
513.994	86.81
514.21	100.81
514.426	109.81
514.642	127.81
514.858	121.81
515.074	162.81
515.29	389.81
515.506	1324.81
515.721	506.81
515.937	140.81
