Data from Uncirc_2008_H10_HRD10591_00094.txt Node
Date: Wed Jan 03 10:15:49 EST 2024
User: Yrep
Spectrometer: HR+D1059
Trigger mode: 1
Integration Time (sec): 1.000000E-1
Scans to average: 1
Electric dark correction enabled: true
Nonlinearity correction enabled: false
Boxcar width: 0
XAxis mode: Wavelengths
Number of Pixels in Spectrum: 2048
>>>>>Begin Spectral Data<<<<<
223.165	-27.25
223.4	-27.25
223.635	-27.25
223.869	-34.25
224.104	-19.25
224.338	-6.25
224.573	-4.25
224.808	-12.25
225.042	-17.25
225.277	-0.25
225.511	7.75
225.746	13.75
225.98	8.75
226.215	-3.25
226.449	8.75
226.683	16.75
226.918	31.75
227.152	36.75
227.387	37.75
227.621	39.75
227.856	46.75
228.09	43.75
228.324	55.75
228.559	64.75
228.793	60.75
229.027	62.75
229.262	63.75
229.496	70.75
229.73	95.75
229.964	73.75
230.199	69.75
230.433	77.75
230.667	84.75
230.901	74.75
231.136	87.75
231.37	63.75
231.604	75.75
231.838	81.75
232.072	71.75
232.306	71.75
232.541	75.75
232.775	84.75
233.009	88.75
233.243	75.75
233.477	74.75
233.711	76.75
233.945	74.75
234.179	79.75
234.413	87.75
234.647	77.75
234.881	87.75
235.115	72.75
235.349	74.75
235.583	73.75
235.817	75.75
236.051	68.75
236.285	81.75
236.519	66.75
236.753	71.75
236.987	82.75
237.221	89.75
237.455	67.75
237.689	66.75
237.922	67.75
238.156	62.75
238.39	79.75
238.624	73.75
238.858	74.75
239.091	87.75
239.325	78.75
239.559	63.75
239.793	68.75
240.027	73.75
240.26	70.75
240.494	73.75
240.728	81.75
240.961	76.75
241.195	77.75
241.429	84.75
241.662	70.75
241.896	91.75
242.13	84.75
242.363	76.75
242.597	84.75
242.83	87.75
243.064	82.75
243.298	75.75
243.531	75.75
243.765	81.75
243.998	80.75
244.232	84.75
244.465	80.75
244.699	96.75
244.932	82.75
245.166	65.75
245.399	63.75
245.633	74.75
245.866	89.75
246.099	77.75
246.333	72.75
246.566	72.75
246.8	70.75
247.033	83.75
247.266	79.75
247.5	83.75
247.733	83.75
247.966	70.75
248.2	65.75
248.433	89.75
248.666	85.75
248.899	84.75
249.133	80.75
249.366	98.75
249.599	89.75
249.832	86.75
250.066	76.75
250.299	89.75
250.532	86.75
250.765	73.75
250.998	70.75
251.231	76.75
251.465	83.75
251.698	73.75
251.931	75.75
252.164	80.75
252.397	77.75
252.63	82.75
252.863	78.75
253.096	81.75
253.329	86.75
253.562	78.75
253.795	76.75
254.028	73.75
254.261	70.75
254.494	99.75
254.727	80.75
254.96	87.75
255.193	96.75
255.426	89.75
255.659	70.75
255.892	71.75
256.124	76.75
256.357	87.75
256.59	80.75
256.823	78.75
257.056	84.75
257.289	88.75
257.521	85.75
257.754	82.75
257.987	90.75
258.22	80.75
258.452	74.75
258.685	74.75
258.918	92.75
259.151	81.75
259.383	81.75
259.616	72.75
259.849	89.75
260.081	76.75
260.314	80.75
260.547	97.75
260.779	85.75
261.012	89.75
261.244	79.75
261.477	80.75
261.71	88.75
261.942	106.75
262.175	111.75
262.407	67.75
262.64	76.75
262.872	98.75
263.105	71.75
263.337	82.75
263.57	79.75
263.802	87.75
264.035	82.75
264.267	91.75
264.499	71.75
264.732	93.75
264.964	85.75
265.197	84.75
265.429	84.75
265.661	84.75
265.894	79.75
266.126	94.75
266.358	79.75
266.591	90.75
266.823	64.75
267.055	88.75
267.287	75.75
267.52	73.75
267.752	71.75
267.984	85.75
268.216	84.75
268.448	99.75
268.681	80.75
268.913	91.75
269.145	82.75
269.377	78.75
269.609	80.75
269.841	89.75
270.073	101.75
270.306	74.75
270.538	76.75
270.77	89.75
271.002	74.75
271.234	94.75
271.466	85.75
271.698	72.75
271.93	79.75
272.162	92.75
272.394	85.75
272.626	84.75
272.858	98.75
273.09	72.75
273.322	83.75
273.553	94.75
273.785	89.75
274.017	86.75
274.249	89.75
274.481	89.75
274.713	91.75
274.945	94.75
275.176	84.75
275.408	90.75
275.64	79.75
275.872	102.75
276.104	95.75
276.335	99.75
276.567	113.75
276.799	107.75
277.031	116.75
277.262	101.75
277.494	88.75
277.726	79.75
277.957	69.75
278.189	88.75
278.421	94.75
278.652	87.75
278.884	101.75
279.115	83.75
279.347	85.75
279.579	63.75
279.81	82.75
280.042	75.75
280.273	94.75
280.505	93.75
280.736	89.75
280.968	105.75
281.199	100.75
281.431	93.75
281.662	89.75
281.894	100.75
282.125	104.75
282.356	110.75
282.588	130.75
282.819	113.75
283.051	88.75
283.282	81.75
283.513	85.75
283.745	68.75
283.976	73.75
284.207	90.75
284.439	92.75
284.67	82.75
284.901	92.75
285.132	73.75
285.364	82.75
285.595	94.75
285.826	97.75
286.057	82.75
286.288	84.75
286.52	93.75
286.751	85.75
286.982	105.75
287.213	92.75
287.444	91.75
287.675	89.75
287.906	90.75
288.138	100.75
288.369	101.75
288.6	99.75
288.831	98.75
289.062	83.75
289.293	98.75
289.524	75.75
289.755	85.75
289.986	74.75
290.217	79.75
290.448	94.75
290.679	99.75
290.91	81.75
291.141	83.75
291.371	83.75
291.602	85.75
291.833	90.75
292.064	92.75
292.295	93.75
292.526	81.75
292.757	96.75
292.987	95.75
293.218	99.75
293.449	98.75
293.68	83.75
293.91	79.75
294.141	92.75
294.372	80.75
294.603	80.75
294.833	95.75
295.064	84.75
295.295	95.75
295.525	85.75
295.756	94.75
295.987	109.75
296.217	124.75
296.448	107.75
296.679	96.75
296.909	62.75
297.14	89.75
297.37	77.75
297.601	92.75
297.831	81.75
298.062	89.75
298.292	82.75
298.523	87.75
298.753	90.75
298.984	89.75
299.214	77.75
299.445	71.75
299.675	90.75
299.905	96.75
300.136	90.75
300.366	95.75
300.597	74.75
300.827	96.75
301.057	87.75
301.288	104.75
301.518	97.75
301.748	94.75
301.979	94.75
302.209	95.75
302.439	92.75
302.669	92.75
302.9	85.75
303.13	84.75
303.36	114.75
303.59	102.75
303.82	94.75
304.051	93.75
304.281	105.75
304.511	90.75
304.741	97.75
304.971	97.75
305.201	96.75
305.431	95.75
305.661	86.75
305.891	92.75
306.121	100.75
306.352	108.75
306.582	95.75
306.812	98.75
307.042	97.75
307.272	80.75
307.502	95.75
307.731	91.75
307.961	91.75
308.191	95.75
308.421	92.75
308.651	96.75
308.881	101.75
309.111	85.75
309.341	94.75
309.571	96.75
309.8	88.75
310.03	96.75
310.26	95.75
310.49	86.75
310.72	94.75
310.949	96.75
311.179	103.75
311.409	90.75
311.639	94.75
311.868	105.75
312.098	92.75
312.328	92.75
312.557	97.75
312.787	96.75
313.017	111.75
313.246	103.75
313.476	89.75
313.706	100.75
313.935	96.75
314.165	99.75
314.394	104.75
314.624	120.75
314.853	99.75
315.083	89.75
315.312	103.75
315.542	84.75
315.771	78.75
316.001	92.75
316.23	90.75
316.46	91.75
316.689	98.75
316.919	91.75
317.148	105.75
317.377	104.75
317.607	97.75
317.836	69.75
318.065	84.75
318.295	88.75
318.524	102.75
318.753	90.75
318.983	92.75
319.212	90.75
319.441	105.75
319.67	96.75
319.9	85.75
320.129	82.75
320.358	91.75
320.587	87.75
320.816	94.75
321.046	108.75
321.275	97.75
321.504	106.75
321.733	112.75
321.962	102.75
322.191	107.75
322.42	106.75
322.649	108.75
322.878	112.75
323.108	109.75
323.337	116.75
323.566	135.75
323.795	139.75
324.024	202.75
324.253	364.75
324.482	794.75
324.71	1566.75
324.939	2030.75
325.168	752.75
325.397	233.75
325.626	148.75
325.855	135.75
326.084	130.75
326.313	126.75
326.542	155.75
326.77	241.75
326.999	433.75
327.228	896.75
327.457	1599.75
327.686	1259.75
327.914	345.75
328.143	176.75
328.372	146.75
328.6	127.75
328.829	120.75
329.058	133.75
329.287	126.75
329.515	97.75
329.744	101.75
329.972	107.75
330.201	102.75
330.43	102.75
330.658	114.75
330.887	135.75
331.115	120.75
331.344	107.75
331.572	100.75
331.801	99.75
332.03	105.75
332.258	94.75
332.486	106.75
332.715	99.75
332.943	105.75
333.172	100.75
333.4	89.75
333.629	119.75
333.857	122.75
334.085	108.75
334.314	107.75
334.542	104.75
334.771	103.75
334.999	108.75
335.227	97.75
335.455	99.75
335.684	95.75
335.912	91.75
336.14	103.75
336.369	96.75
336.597	105.75
336.825	94.75
337.053	80.75
337.281	93.75
337.51	91.75
337.738	99.75
337.966	114.75
338.194	91.75
338.422	93.75
338.65	96.75
338.878	87.75
339.106	91.75
339.334	99.75
339.562	97.75
339.79	107.75
340.018	85.75
340.246	91.75
340.474	108.75
340.702	95.75
340.93	87.75
341.158	93.75
341.386	95.75
341.614	84.75
341.842	94.75
342.07	95.75
342.298	94.75
342.526	76.75
342.754	77.75
342.981	85.75
343.209	93.75
343.437	93.75
343.665	91.75
343.893	83.75
344.12	100.75
344.348	103.75
344.576	98.75
344.804	90.75
345.031	100.75
345.259	106.75
345.487	106.75
345.714	76.75
345.942	107.75
346.17	91.75
346.397	108.75
346.625	88.75
346.853	107.75
347.08	93.75
347.308	96.75
347.535	83.75
347.763	100.75
347.99	97.75
348.218	95.75
348.445	108.75
348.673	92.75
348.9	108.75
349.128	107.75
349.355	103.75
349.583	98.75
349.81	106.75
350.037	98.75
350.265	108.75
350.492	103.75
350.72	98.75
350.947	110.75
351.174	109.75
351.402	111.75
351.629	95.75
351.856	119.75
352.083	105.75
352.311	95.75
352.538	110.75
352.765	95.75
352.992	106.75
353.22	111.75
353.447	113.75
353.674	99.75
353.901	103.75
354.128	100.75
354.355	85.75
354.583	111.75
354.81	88.75
355.037	107.75
355.264	108.75
355.491	96.75
355.718	96.75
355.945	100.75
356.172	96.75
356.399	85.75
356.626	103.75
356.853	84.75
357.08	96.75
357.307	99.75
357.534	88.75
357.761	85.75
357.988	103.75
358.215	89.75
358.441	99.75
358.668	102.75
358.895	93.75
359.122	88.75
359.349	94.75
359.576	96.75
359.802	93.75
360.029	117.75
360.256	101.75
360.483	89.75
360.709	94.75
360.936	95.75
361.163	101.75
361.39	105.75
361.616	92.75
361.843	92.75
362.07	102.75
362.296	108.75
362.523	89.75
362.749	82.75
362.976	90.75
363.203	99.75
363.429	92.75
363.656	96.75
363.882	103.75
364.109	104.75
364.335	98.75
364.562	89.75
364.788	83.75
365.015	86.75
365.241	99.75
365.468	103.75
365.694	124.75
365.92	89.75
366.147	89.75
366.373	92.75
366.599	88.75
366.826	85.75
367.052	99.75
367.278	112.75
367.505	103.75
367.731	90.75
367.957	85.75
368.184	96.75
368.41	103.75
368.636	101.75
368.862	106.75
369.089	116.75
369.315	103.75
369.541	83.75
369.767	99.75
369.993	93.75
370.219	88.75
370.445	90.75
370.672	98.75
370.898	97.75
371.124	76.75
371.35	96.75
371.576	84.75
371.802	100.75
372.028	91.75
372.254	85.75
372.48	71.75
372.706	85.75
372.932	87.75
373.158	88.75
373.384	95.75
373.61	89.75
373.835	94.75
374.061	96.75
374.287	93.75
374.513	80.75
374.739	89.75
374.965	82.75
375.191	97.75
375.416	88.75
375.642	81.75
375.868	80.75
376.094	96.75
376.319	90.75
376.545	89.75
376.771	89.75
376.997	83.75
377.222	77.75
377.448	82.75
377.674	95.75
377.899	93.75
378.125	92.75
378.35	108.75
378.576	96.75
378.802	85.75
379.027	88.75
379.253	89.75
379.478	103.75
379.704	85.75
379.929	108.75
380.155	84.75
380.38	104.75
380.606	87.75
380.831	95.75
381.057	92.75
381.282	90.75
381.507	94.75
381.733	106.75
381.958	87.75
382.184	116.75
382.409	91.75
382.634	110.75
382.86	97.75
383.085	114.75
383.31	97.75
383.535	104.75
383.761	102.75
383.986	104.75
384.211	105.75
384.436	99.75
384.662	93.75
384.887	116.75
385.112	109.75
385.337	104.75
385.562	106.75
385.787	97.75
386.013	100.75
386.238	97.75
386.463	96.75
386.688	106.75
386.913	112.75
387.138	112.75
387.363	109.75
387.588	111.75
387.813	100.75
388.038	102.75
388.263	113.75
388.488	97.75
388.713	96.75
388.938	101.75
389.163	84.75
389.387	94.75
389.612	93.75
389.837	95.75
390.062	89.75
390.287	82.75
390.512	89.75
390.736	84.75
390.961	89.75
391.186	95.75
391.411	82.75
391.636	86.75
391.86	91.75
392.085	95.75
392.31	95.75
392.534	78.75
392.759	89.75
392.984	96.75
393.208	82.75
393.433	85.75
393.658	104.75
393.882	70.75
394.107	93.75
394.331	93.75
394.556	89.75
394.78	99.75
395.005	91.75
395.229	88.75
395.454	95.75
395.678	84.75
395.903	103.75
396.127	80.75
396.352	85.75
396.576	95.75
396.801	104.75
397.025	84.75
397.249	88.75
397.474	97.75
397.698	83.75
397.922	89.75
398.147	92.75
398.371	96.75
398.595	84.75
398.82	71.75
399.044	82.75
399.268	78.75
399.492	80.75
399.717	90.75
399.941	84.75
400.165	98.75
400.389	98.75
400.613	92.75
400.837	71.75
401.062	87.75
401.286	84.75
401.51	98.75
401.734	94.75
401.958	89.75
402.182	126.75
402.406	151.75
402.63	103.75
402.854	97.75
403.078	78.75
403.302	101.75
403.526	89.75
403.75	89.75
403.974	92.75
404.198	103.75
404.422	91.75
404.645	74.75
404.869	91.75
405.093	92.75
405.317	103.75
405.541	85.75
405.765	105.75
405.988	121.75
406.212	169.75
406.436	202.75
406.66	139.75
406.883	109.75
407.107	86.75
407.331	91.75
407.555	95.75
407.778	87.75
408.002	87.75
408.226	89.75
408.449	91.75
408.673	104.75
408.896	90.75
409.12	98.75
409.344	89.75
409.567	78.75
409.791	77.75
410.014	92.75
410.238	94.75
410.461	98.75
410.685	91.75
410.908	116.75
411.132	117.75
411.355	113.75
411.578	97.75
411.802	103.75
412.025	108.75
412.249	85.75
412.472	90.75
412.695	91.75
412.919	84.75
413.142	83.75
413.365	102.75
413.589	91.75
413.812	104.75
414.035	89.75
414.258	87.75
414.482	114.75
414.705	89.75
414.928	81.75
415.151	104.75
415.374	109.75
415.597	83.75
415.821	81.75
416.044	97.75
416.267	84.75
416.49	91.75
416.713	110.75
416.936	93.75
417.159	81.75
417.382	89.75
417.605	85.75
417.828	96.75
418.051	92.75
418.274	88.75
418.497	82.75
418.72	94.75
418.943	78.75
419.166	83.75
419.389	85.75
419.611	85.75
419.834	107.75
420.057	87.75
420.28	84.75
420.503	85.75
420.726	93.75
420.948	86.75
421.171	104.75
421.394	105.75
421.617	92.75
421.839	85.75
422.062	103.75
422.285	94.75
422.507	100.75
422.73	124.75
422.953	96.75
423.175	88.75
423.398	108.75
423.621	96.75
423.843	103.75
424.066	94.75
424.288	85.75
424.511	95.75
424.733	85.75
424.956	107.75
425.178	110.75
425.401	94.75
425.623	104.75
425.846	81.75
426.068	92.75
426.291	95.75
426.513	100.75
426.735	91.75
426.958	90.75
427.18	98.75
427.402	148.75
427.625	158.75
427.847	135.75
428.069	103.75
428.292	91.75
428.514	79.75
428.736	93.75
428.958	91.75
429.181	100.75
429.403	103.75
429.625	86.75
429.847	87.75
430.069	103.75
430.292	107.75
430.514	82.75
430.736	88.75
430.958	89.75
431.18	90.75
431.402	92.75
431.624	80.75
431.846	95.75
432.068	84.75
432.29	92.75
432.512	75.75
432.734	98.75
432.956	99.75
433.178	90.75
433.4	80.75
433.622	96.75
433.844	89.75
434.066	91.75
434.287	92.75
434.509	95.75
434.731	87.75
434.953	83.75
435.175	83.75
435.397	92.75
435.618	99.75
435.84	99.75
436.062	135.75
436.284	125.75
436.505	97.75
436.727	93.75
436.949	91.75
437.17	87.75
437.392	108.75
437.614	84.75
437.835	96.75
438.057	106.75
438.278	110.75
438.5	101.75
438.721	125.75
438.943	98.75
439.165	85.75
439.386	72.75
439.608	105.75
439.829	96.75
440.05	121.75
440.272	136.75
440.493	111.75
440.715	79.75
440.936	101.75
441.158	97.75
441.379	101.75
441.6	91.75
441.822	96.75
442.043	94.75
442.264	95.75
442.486	86.75
442.707	108.75
442.928	108.75
443.149	124.75
443.371	131.75
443.592	113.75
443.813	102.75
444.034	111.75
444.255	86.75
444.476	81.75
444.698	89.75
444.919	77.75
445.14	137.75
445.361	112.75
445.582	113.75
445.803	153.75
446.024	144.75
446.245	137.75
446.466	109.75
446.687	104.75
446.908	104.75
447.129	89.75
447.35	83.75
447.571	73.75
447.792	88.75
448.013	88.75
448.234	112.75
448.455	98.75
448.675	105.75
448.896	106.75
449.117	98.75
449.338	103.75
449.559	112.75
449.779	114.75
450	85.75
450.221	85.75
450.442	79.75
450.662	92.75
450.883	108.75
451.104	96.75
451.324	91.75
451.545	80.75
451.766	91.75
451.986	84.75
452.207	90.75
452.428	100.75
452.648	103.75
452.869	103.75
453.089	103.75
453.31	99.75
453.53	90.75
453.751	81.75
453.971	89.75
454.192	103.75
454.412	89.75
454.633	90.75
454.853	97.75
455.073	87.75
455.294	93.75
455.514	101.75
455.734	92.75
455.955	93.75
456.175	97.75
456.395	90.75
456.616	84.75
456.836	101.75
457.056	74.75
457.276	81.75
457.497	84.75
457.717	85.75
457.937	102.75
458.157	100.75
458.377	85.75
458.598	116.75
458.818	145.75
459.038	144.75
459.258	114.75
459.478	106.75
459.698	79.75
459.918	80.75
460.138	86.75
460.358	90.75
460.578	99.75
460.798	82.75
461.018	85.75
461.238	93.75
461.458	74.75
461.678	81.75
461.898	71.75
462.118	99.75
462.338	98.75
462.558	88.75
462.777	84.75
462.997	98.75
463.217	92.75
463.437	91.75
463.657	85.75
463.876	95.75
464.096	108.75
464.316	92.75
464.536	74.75
464.755	107.75
464.975	104.75
465.195	159.75
465.414	156.75
465.634	108.75
465.854	80.75
466.073	92.75
466.293	95.75
466.512	84.75
466.732	99.75
466.951	82.75
467.171	99.75
467.391	84.75
467.61	100.75
467.829	97.75
468.049	95.75
468.268	84.75
468.488	81.75
468.707	85.75
468.927	96.75
469.146	84.75
469.365	84.75
469.585	83.75
469.804	94.75
470.023	92.75
470.243	84.75
470.462	91.75
470.681	113.75
470.901	93.75
471.12	86.75
471.339	79.75
471.558	91.75
471.777	86.75
471.997	88.75
472.216	88.75
472.435	89.75
472.654	96.75
472.873	95.75
473.092	80.75
473.311	92.75
473.53	82.75
473.749	84.75
473.968	90.75
474.187	82.75
474.406	94.75
474.625	88.75
474.844	91.75
475.063	92.75
475.282	85.75
475.501	92.75
475.72	82.75
475.939	60.75
476.158	93.75
476.377	94.75
476.596	76.75
476.814	92.75
477.033	104.75
477.252	96.75
477.471	85.75
477.69	91.75
477.908	89.75
478.127	86.75
478.346	94.75
478.564	103.75
478.783	95.75
479.002	88.75
479.22	103.75
479.439	108.75
479.658	96.75
479.876	75.75
480.095	83.75
480.313	94.75
480.532	76.75
480.751	100.75
480.969	100.75
481.188	93.75
481.406	88.75
481.624	79.75
481.843	83.75
482.061	72.75
482.28	78.75
482.498	86.75
482.717	96.75
482.935	95.75
483.153	89.75
483.372	84.75
483.59	87.75
483.808	93.75
484.027	94.75
484.245	108.75
484.463	96.75
484.681	91.75
484.9	97.75
485.118	90.75
485.336	77.75
485.554	99.75
485.772	98.75
485.99	101.75
486.209	103.75
486.427	97.75
486.645	96.75
486.863	116.75
487.081	112.75
487.299	97.75
487.517	92.75
487.735	95.75
487.953	86.75
488.171	95.75
488.389	95.75
488.607	99.75
488.825	94.75
489.043	95.75
489.261	90.75
489.479	89.75
489.696	91.75
489.914	99.75
490.132	76.75
490.35	89.75
490.568	88.75
490.786	93.75
491.003	98.75
491.221	91.75
491.439	87.75
491.657	92.75
491.874	93.75
492.092	89.75
492.31	98.75
492.527	82.75
492.745	89.75
492.963	89.75
493.18	74.75
493.398	102.75
493.615	93.75
493.833	96.75
494.05	80.75
494.268	101.75
494.485	93.75
494.703	108.75
494.92	96.75
495.138	82.75
495.355	92.75
495.573	81.75
495.79	84.75
496.008	98.75
496.225	92.75
496.442	92.75
496.66	100.75
496.877	87.75
497.094	100.75
497.312	76.75
497.529	95.75
497.746	84.75
497.963	97.75
498.181	90.75
498.398	94.75
498.615	106.75
498.832	101.75
499.049	78.75
499.267	103.75
499.484	86.75
499.701	87.75
499.918	99.75
500.135	91.75
500.352	79.75
500.569	99.75
500.786	82.75
501.003	91.75
501.22	94.75
501.437	92.75
501.654	92.75
501.871	105.75
502.088	100.75
502.305	86.75
502.522	75.75
502.739	97.75
502.956	93.75
503.172	102.75
503.389	106.75
503.606	100.75
503.823	87.75
504.04	95.75
504.256	98.75
504.473	85.75
504.69	90.75
504.907	105.75
505.123	90.75
505.34	85.75
505.557	83.75
505.773	90.75
505.99	109.75
506.207	83.75
506.423	101.75
506.64	103.75
506.856	99.75
507.073	105.75
507.289	106.75
507.506	100.75
507.722	111.75
507.939	111.75
508.155	91.75
508.372	92.75
508.588	92.75
508.805	100.75
509.021	106.75
509.238	100.75
509.454	102.75
509.67	105.75
509.887	110.75
510.103	135.75
510.319	232.75
510.536	773.75
510.752	2375.75
510.968	679.75
511.184	175.75
511.401	117.75
511.617	103.75
511.833	103.75
512.049	89.75
512.265	84.75
512.481	91.75
512.698	96.75
512.914	99.75
513.13	89.75
513.346	92.75
513.562	103.75
513.778	112.75
513.994	105.75
514.21	99.75
514.426	102.75
514.642	132.75
514.858	127.75
515.074	158.75
515.29	425.75
