Data from Uncirc_2008_H10_HRD10591_00079.txt Node
Date: Wed Jan 03 10:15:46 EST 2024
User: Yrep
Spectrometer: HR+D1059
Trigger mode: 1
Integration Time (sec): 1.000000E-1
Scans to average: 1
Electric dark correction enabled: true
Nonlinearity correction enabled: false
Boxcar width: 0
XAxis mode: Wavelengths
Number of Pixels in Spectrum: 2048
>>>>>Begin Spectral Data<<<<<
223.165	-17.94
223.4	-17.94
223.635	-17.94
223.869	-8.94
224.104	-14.94
224.338	-20.94
224.573	-1.94
224.808	-10.94
225.042	-12.94
225.277	-10.94
225.511	5.06
225.746	-0.94
225.98	0.06
226.215	9.06
226.449	18.06
226.683	13.06
226.918	13.06
227.152	42.06
227.387	37.06
227.621	47.06
227.856	46.06
228.09	45.06
228.324	57.06
228.559	57.06
228.793	62.06
229.027	74.06
229.262	78.06
229.496	80.06
229.73	88.06
229.964	86.06
230.199	83.06
230.433	70.06
230.667	73.06
230.901	69.06
231.136	86.06
231.37	84.06
231.604	80.06
231.838	69.06
232.072	90.06
232.306	83.06
232.541	73.06
232.775	80.06
233.009	75.06
233.243	69.06
233.477	74.06
233.711	75.06
233.945	74.06
234.179	80.06
234.413	77.06
234.647	86.06
234.881	87.06
235.115	83.06
235.349	83.06
235.583	92.06
235.817	83.06
236.051	77.06
236.285	82.06
236.519	89.06
236.753	83.06
236.987	74.06
237.221	82.06
237.455	74.06
237.689	95.06
237.922	89.06
238.156	72.06
238.39	68.06
238.624	78.06
238.858	83.06
239.091	77.06
239.325	63.06
239.559	78.06
239.793	80.06
240.027	76.06
240.26	77.06
240.494	79.06
240.728	79.06
240.961	86.06
241.195	74.06
241.429	81.06
241.662	72.06
241.896	83.06
242.13	68.06
242.363	78.06
242.597	78.06
242.83	70.06
243.064	65.06
243.298	69.06
243.531	65.06
243.765	65.06
243.998	79.06
244.232	80.06
244.465	73.06
244.699	83.06
244.932	73.06
245.166	81.06
245.399	76.06
245.633	72.06
245.866	66.06
246.099	89.06
246.333	82.06
246.566	76.06
246.8	82.06
247.033	70.06
247.266	62.06
247.5	72.06
247.733	80.06
247.966	71.06
248.2	79.06
248.433	61.06
248.666	89.06
248.899	98.06
249.133	83.06
249.366	93.06
249.599	85.06
249.832	96.06
250.066	88.06
250.299	77.06
250.532	84.06
250.765	86.06
250.998	90.06
251.231	72.06
251.465	77.06
251.698	89.06
251.931	75.06
252.164	81.06
252.397	78.06
252.63	73.06
252.863	80.06
253.096	77.06
253.329	95.06
253.562	79.06
253.795	84.06
254.028	76.06
254.261	95.06
254.494	67.06
254.727	65.06
254.96	90.06
255.193	62.06
255.426	76.06
255.659	86.06
255.892	94.06
256.124	89.06
256.357	83.06
256.59	80.06
256.823	79.06
257.056	80.06
257.289	83.06
257.521	89.06
257.754	76.06
257.987	83.06
258.22	89.06
258.452	71.06
258.685	69.06
258.918	79.06
259.151	81.06
259.383	76.06
259.616	81.06
259.849	76.06
260.081	94.06
260.314	76.06
260.547	86.06
260.779	74.06
261.012	82.06
261.244	81.06
261.477	86.06
261.71	86.06
261.942	106.06
262.175	91.06
262.407	72.06
262.64	87.06
262.872	82.06
263.105	82.06
263.337	82.06
263.57	82.06
263.802	90.06
264.035	81.06
264.267	77.06
264.499	99.06
264.732	93.06
264.964	86.06
265.197	76.06
265.429	71.06
265.661	94.06
265.894	81.06
266.126	72.06
266.358	82.06
266.591	84.06
266.823	87.06
267.055	95.06
267.287	82.06
267.52	71.06
267.752	89.06
267.984	75.06
268.216	79.06
268.448	91.06
268.681	82.06
268.913	79.06
269.145	77.06
269.377	80.06
269.609	82.06
269.841	80.06
270.073	73.06
270.306	84.06
270.538	86.06
270.77	95.06
271.002	81.06
271.234	87.06
271.466	75.06
271.698	89.06
271.93	82.06
272.162	89.06
272.394	102.06
272.626	89.06
272.858	89.06
273.09	103.06
273.322	87.06
273.553	77.06
273.785	79.06
274.017	83.06
274.249	88.06
274.481	76.06
274.713	87.06
274.945	89.06
275.176	90.06
275.408	99.06
275.64	86.06
275.872	70.06
276.104	76.06
276.335	83.06
276.567	82.06
276.799	90.06
277.031	96.06
277.262	98.06
277.494	73.06
277.726	86.06
277.957	85.06
278.189	72.06
278.421	84.06
278.652	82.06
278.884	87.06
279.115	70.06
279.347	107.06
279.579	110.06
279.81	94.06
280.042	103.06
280.273	74.06
280.505	96.06
280.736	89.06
280.968	95.06
281.199	82.06
281.431	93.06
281.662	85.06
281.894	84.06
282.125	84.06
282.356	110.06
282.588	128.06
282.819	104.06
283.051	96.06
283.282	77.06
283.513	79.06
283.745	90.06
283.976	97.06
284.207	100.06
284.439	79.06
284.67	93.06
284.901	99.06
285.132	96.06
285.364	76.06
285.595	80.06
285.826	90.06
286.057	91.06
286.288	72.06
286.52	88.06
286.751	86.06
286.982	79.06
287.213	73.06
287.444	85.06
287.675	98.06
287.906	80.06
288.138	92.06
288.369	91.06
288.6	79.06
288.831	95.06
289.062	91.06
289.293	90.06
289.524	81.06
289.755	76.06
289.986	90.06
290.217	83.06
290.448	83.06
290.679	83.06
290.91	78.06
291.141	75.06
291.371	82.06
291.602	94.06
291.833	97.06
292.064	65.06
292.295	72.06
292.526	82.06
292.757	78.06
292.987	78.06
293.218	75.06
293.449	82.06
293.68	89.06
293.91	100.06
294.141	101.06
294.372	101.06
294.603	94.06
294.833	89.06
295.064	80.06
295.295	81.06
295.525	95.06
295.756	92.06
295.987	123.06
296.217	151.06
296.448	120.06
296.679	89.06
296.909	87.06
297.14	88.06
297.37	85.06
297.601	74.06
297.831	84.06
298.062	95.06
298.292	68.06
298.523	92.06
298.753	88.06
298.984	91.06
299.214	90.06
299.445	91.06
299.675	99.06
299.905	108.06
300.136	116.06
300.366	88.06
300.597	101.06
300.827	100.06
301.057	93.06
301.288	103.06
301.518	91.06
301.748	89.06
301.979	100.06
302.209	106.06
302.439	93.06
302.669	90.06
302.9	86.06
303.13	81.06
303.36	82.06
303.59	87.06
303.82	97.06
304.051	99.06
304.281	86.06
304.511	77.06
304.741	90.06
304.971	83.06
305.201	83.06
305.431	93.06
305.661	83.06
305.891	80.06
306.121	82.06
306.352	98.06
306.582	117.06
306.812	95.06
307.042	91.06
307.272	90.06
307.502	103.06
307.731	94.06
307.961	87.06
308.191	87.06
308.421	100.06
308.651	101.06
308.881	95.06
309.111	97.06
309.341	86.06
309.571	109.06
309.8	97.06
310.03	85.06
310.26	103.06
310.49	95.06
310.72	79.06
310.949	105.06
311.179	98.06
311.409	97.06
311.639	80.06
311.868	103.06
312.098	101.06
312.328	84.06
312.557	92.06
312.787	111.06
313.017	96.06
313.246	91.06
313.476	90.06
313.706	91.06
313.935	78.06
314.165	106.06
314.394	91.06
314.624	97.06
314.853	105.06
315.083	93.06
315.312	97.06
315.542	100.06
315.771	101.06
316.001	99.06
316.23	94.06
316.46	97.06
316.689	100.06
316.919	86.06
317.148	101.06
317.377	95.06
317.607	99.06
317.836	85.06
318.065	75.06
318.295	98.06
318.524	67.06
318.753	96.06
318.983	81.06
319.212	98.06
319.441	108.06
319.67	93.06
319.9	87.06
320.129	95.06
320.358	81.06
320.587	95.06
320.816	100.06
321.046	95.06
321.275	110.06
321.504	82.06
321.733	89.06
321.962	98.06
322.191	96.06
322.42	112.06
322.649	113.06
322.878	115.06
323.108	125.06
323.337	133.06
323.566	131.06
323.795	153.06
324.024	209.06
324.253	398.06
324.482	799.06
324.71	1612.06
324.939	2097.06
325.168	801.06
325.397	237.06
325.626	147.06
325.855	112.06
326.084	119.06
326.313	130.06
326.542	144.06
326.77	224.06
326.999	435.06
327.228	916.06
327.457	1653.06
327.686	1296.06
327.914	348.06
328.143	173.06
328.372	143.06
328.6	126.06
328.829	105.06
329.058	137.06
329.287	120.06
329.515	117.06
329.744	101.06
329.972	97.06
330.201	99.06
330.43	101.06
330.658	112.06
330.887	123.06
331.115	118.06
331.344	91.06
331.572	98.06
331.801	102.06
332.03	114.06
332.258	109.06
332.486	81.06
332.715	73.06
332.943	102.06
333.172	87.06
333.4	99.06
333.629	94.06
333.857	112.06
334.085	93.06
334.314	90.06
334.542	107.06
334.771	88.06
334.999	100.06
335.227	86.06
335.455	101.06
335.684	96.06
335.912	91.06
336.14	90.06
336.369	83.06
336.597	97.06
336.825	98.06
337.053	98.06
337.281	96.06
337.51	100.06
337.738	99.06
337.966	94.06
338.194	110.06
338.422	79.06
338.65	80.06
338.878	105.06
339.106	89.06
339.334	79.06
339.562	91.06
339.79	84.06
340.018	103.06
340.246	103.06
340.474	88.06
340.702	95.06
340.93	79.06
341.158	100.06
341.386	97.06
341.614	93.06
341.842	73.06
342.07	92.06
342.298	92.06
342.526	101.06
342.754	88.06
342.981	88.06
343.209	94.06
343.437	97.06
343.665	77.06
343.893	101.06
344.12	81.06
344.348	87.06
344.576	101.06
344.804	94.06
345.031	101.06
345.259	96.06
345.487	98.06
345.714	105.06
345.942	95.06
346.17	90.06
346.397	101.06
346.625	84.06
346.853	91.06
347.08	90.06
347.308	80.06
347.535	86.06
347.763	101.06
347.99	87.06
348.218	95.06
348.445	112.06
348.673	110.06
348.9	97.06
349.128	104.06
349.355	93.06
349.583	91.06
349.81	96.06
350.037	89.06
350.265	107.06
350.492	93.06
350.72	87.06
350.947	101.06
351.174	106.06
351.402	108.06
351.629	105.06
351.856	106.06
352.083	97.06
352.311	104.06
352.538	117.06
352.765	113.06
352.992	121.06
353.22	99.06
353.447	97.06
353.674	108.06
353.901	83.06
354.128	97.06
354.355	107.06
354.583	93.06
354.81	93.06
355.037	88.06
355.264	96.06
355.491	93.06
355.718	107.06
355.945	82.06
356.172	98.06
356.399	96.06
356.626	96.06
356.853	97.06
357.08	88.06
357.307	105.06
357.534	82.06
357.761	100.06
357.988	89.06
358.215	80.06
358.441	79.06
358.668	88.06
358.895	78.06
359.122	83.06
359.349	76.06
359.576	93.06
359.802	95.06
360.029	111.06
360.256	103.06
360.483	99.06
360.709	81.06
360.936	99.06
361.163	85.06
361.39	90.06
361.616	99.06
361.843	115.06
362.07	104.06
362.296	94.06
362.523	98.06
362.749	80.06
362.976	87.06
363.203	87.06
363.429	92.06
363.656	82.06
363.882	68.06
364.109	75.06
364.335	96.06
364.562	94.06
364.788	93.06
365.015	104.06
365.241	86.06
365.468	89.06
365.694	88.06
365.92	100.06
366.147	90.06
366.373	90.06
366.599	82.06
366.826	90.06
367.052	74.06
367.278	88.06
367.505	82.06
367.731	85.06
367.957	82.06
368.184	85.06
368.41	117.06
368.636	112.06
368.862	119.06
369.089	107.06
369.315	76.06
369.541	94.06
369.767	97.06
369.993	90.06
370.219	92.06
370.445	89.06
370.672	80.06
370.898	91.06
371.124	83.06
371.35	75.06
371.576	89.06
371.802	81.06
372.028	70.06
372.254	89.06
372.48	93.06
372.706	88.06
372.932	94.06
373.158	90.06
373.384	82.06
373.61	82.06
373.835	78.06
374.061	82.06
374.287	81.06
374.513	85.06
374.739	78.06
374.965	96.06
375.191	95.06
375.416	91.06
375.642	88.06
375.868	94.06
376.094	95.06
376.319	83.06
376.545	95.06
376.771	85.06
376.997	90.06
377.222	89.06
377.448	86.06
377.674	105.06
377.899	87.06
378.125	83.06
378.35	96.06
378.576	93.06
378.802	90.06
379.027	81.06
379.253	81.06
379.478	77.06
379.704	87.06
379.929	100.06
380.155	106.06
380.38	95.06
380.606	86.06
380.831	92.06
381.057	95.06
381.282	98.06
381.507	103.06
381.733	77.06
381.958	93.06
382.184	87.06
382.409	94.06
382.634	97.06
382.86	80.06
383.085	86.06
383.31	89.06
383.535	81.06
383.761	94.06
383.986	85.06
384.211	83.06
384.436	81.06
384.662	93.06
384.887	101.06
385.112	107.06
385.337	91.06
385.562	95.06
385.787	97.06
386.013	102.06
386.238	117.06
386.463	98.06
386.688	93.06
386.913	102.06
387.138	93.06
387.363	101.06
387.588	87.06
387.813	93.06
388.038	83.06
388.263	103.06
388.488	90.06
388.713	84.06
388.938	92.06
389.163	89.06
389.387	102.06
389.612	83.06
389.837	90.06
390.062	88.06
390.287	95.06
390.512	87.06
390.736	91.06
390.961	94.06
391.186	82.06
391.411	96.06
391.636	95.06
391.86	77.06
392.085	99.06
392.31	80.06
392.534	85.06
392.759	84.06
392.984	93.06
393.208	90.06
393.433	92.06
393.658	90.06
393.882	70.06
394.107	82.06
394.331	90.06
394.556	95.06
394.78	94.06
395.005	89.06
395.229	96.06
395.454	84.06
395.678	96.06
395.903	102.06
396.127	69.06
396.352	106.06
396.576	89.06
396.801	89.06
397.025	80.06
397.249	89.06
397.474	70.06
397.698	66.06
397.922	77.06
398.147	85.06
398.371	72.06
398.595	75.06
398.82	78.06
399.044	96.06
399.268	90.06
399.492	87.06
399.717	91.06
399.941	92.06
400.165	95.06
400.389	85.06
400.613	99.06
400.837	89.06
401.062	85.06
401.286	84.06
401.51	75.06
401.734	89.06
401.958	87.06
402.182	117.06
402.406	123.06
402.63	106.06
402.854	94.06
403.078	87.06
403.302	89.06
403.526	96.06
403.75	78.06
403.974	78.06
404.198	77.06
404.422	97.06
404.645	87.06
404.869	91.06
405.093	103.06
405.317	91.06
405.541	90.06
405.765	84.06
405.988	105.06
406.212	175.06
406.436	216.06
406.66	150.06
406.883	98.06
407.107	110.06
407.331	99.06
407.555	102.06
407.778	98.06
408.002	81.06
408.226	88.06
408.449	84.06
408.673	95.06
408.896	101.06
409.12	101.06
409.344	97.06
409.567	103.06
409.791	103.06
410.014	102.06
410.238	91.06
410.461	97.06
410.685	85.06
410.908	100.06
411.132	97.06
411.355	89.06
411.578	93.06
411.802	93.06
412.025	65.06
412.249	83.06
412.472	96.06
412.695	101.06
412.919	67.06
413.142	83.06
413.365	94.06
413.589	84.06
413.812	71.06
414.035	94.06
414.258	103.06
414.482	77.06
414.705	83.06
414.928	84.06
415.151	98.06
415.374	89.06
415.597	85.06
415.821	79.06
416.044	79.06
416.267	105.06
416.49	77.06
416.713	84.06
416.936	92.06
417.159	85.06
417.382	95.06
417.605	95.06
417.828	94.06
418.051	94.06
418.274	80.06
418.497	76.06
418.72	66.06
418.943	100.06
419.166	101.06
419.389	79.06
419.611	92.06
419.834	76.06
420.057	89.06
420.28	88.06
420.503	83.06
420.726	96.06
420.948	77.06
421.171	103.06
421.394	90.06
421.617	80.06
421.839	80.06
422.062	89.06
422.285	106.06
422.507	95.06
422.73	96.06
422.953	87.06
423.175	92.06
423.398	86.06
423.621	89.06
423.843	90.06
424.066	87.06
424.288	83.06
424.511	96.06
424.733	92.06
424.956	89.06
425.178	101.06
425.401	98.06
425.623	97.06
425.846	83.06
426.068	95.06
426.291	92.06
426.513	83.06
426.735	90.06
426.958	102.06
427.18	99.06
427.402	135.06
427.625	154.06
427.847	118.06
428.069	101.06
428.292	83.06
428.514	78.06
428.736	80.06
428.958	83.06
429.181	87.06
429.403	95.06
429.625	83.06
429.847	82.06
430.069	109.06
430.292	87.06
430.514	78.06
430.736	86.06
430.958	80.06
431.18	77.06
431.402	88.06
431.624	92.06
431.846	69.06
432.068	81.06
432.29	88.06
432.512	101.06
432.734	72.06
432.956	89.06
433.178	107.06
433.4	99.06
433.622	98.06
433.844	95.06
434.066	96.06
434.287	108.06
434.509	92.06
434.731	89.06
434.953	94.06
435.175	84.06
435.397	99.06
435.618	81.06
435.84	99.06
436.062	114.06
436.284	107.06
436.505	93.06
436.727	94.06
436.949	94.06
437.17	92.06
437.392	88.06
437.614	102.06
437.835	96.06
438.057	114.06
438.278	98.06
438.5	80.06
438.721	118.06
438.943	108.06
439.165	92.06
439.386	79.06
439.608	87.06
439.829	106.06
440.05	109.06
440.272	136.06
440.493	93.06
440.715	74.06
440.936	87.06
441.158	83.06
441.379	77.06
441.6	90.06
441.822	94.06
442.043	98.06
442.264	110.06
442.486	107.06
442.707	93.06
442.928	87.06
443.149	121.06
443.371	115.06
443.592	114.06
443.813	103.06
444.034	101.06
444.255	96.06
444.476	96.06
444.698	94.06
444.919	82.06
445.14	123.06
445.361	119.06
445.582	119.06
445.803	141.06
446.024	125.06
446.245	132.06
446.466	97.06
446.687	83.06
446.908	85.06
447.129	95.06
447.35	77.06
447.571	91.06
447.792	98.06
448.013	95.06
448.234	97.06
448.455	103.06
448.675	112.06
448.896	106.06
449.117	106.06
449.338	92.06
449.559	128.06
449.779	133.06
450	93.06
450.221	88.06
450.442	75.06
450.662	80.06
450.883	109.06
451.104	105.06
451.324	106.06
451.545	83.06
451.766	79.06
451.986	77.06
452.207	82.06
452.428	89.06
452.648	101.06
452.869	113.06
453.089	119.06
453.31	122.06
453.53	110.06
453.751	93.06
453.971	88.06
454.192	104.06
454.412	92.06
454.633	91.06
454.853	73.06
455.073	75.06
455.294	78.06
455.514	89.06
455.734	82.06
455.955	103.06
456.175	90.06
456.395	85.06
456.616	90.06
456.836	80.06
457.056	78.06
457.276	77.06
457.497	72.06
457.717	89.06
457.937	91.06
458.157	88.06
458.377	84.06
458.598	111.06
458.818	136.06
459.038	150.06
459.258	110.06
459.478	89.06
459.698	82.06
459.918	77.06
460.138	73.06
460.358	87.06
460.578	95.06
460.798	91.06
461.018	86.06
461.238	82.06
461.458	85.06
461.678	75.06
461.898	93.06
462.118	83.06
462.338	77.06
462.558	89.06
462.777	84.06
462.997	82.06
463.217	75.06
463.437	89.06
463.657	76.06
463.876	88.06
464.096	91.06
464.316	94.06
464.536	78.06
464.755	82.06
464.975	103.06
465.195	160.06
465.414	165.06
465.634	86.06
465.854	93.06
466.073	87.06
466.293	87.06
466.512	80.06
466.732	85.06
466.951	93.06
467.171	85.06
467.391	98.06
467.61	115.06
467.829	94.06
468.049	89.06
468.268	89.06
468.488	77.06
468.707	78.06
468.927	82.06
469.146	89.06
469.365	86.06
469.585	83.06
469.804	105.06
470.023	91.06
470.243	95.06
470.462	92.06
470.681	110.06
470.901	85.06
471.12	83.06
471.339	76.06
471.558	77.06
471.777	94.06
471.997	81.06
472.216	87.06
472.435	80.06
472.654	92.06
472.873	88.06
473.092	87.06
473.311	84.06
473.53	73.06
473.749	73.06
473.968	100.06
474.187	107.06
474.406	95.06
474.625	88.06
474.844	84.06
475.063	78.06
475.282	70.06
475.501	86.06
475.72	98.06
475.939	82.06
476.158	102.06
476.377	94.06
476.596	87.06
476.814	96.06
477.033	105.06
477.252	85.06
477.471	89.06
477.69	92.06
477.908	83.06
478.127	94.06
478.346	94.06
478.564	81.06
478.783	96.06
479.002	90.06
479.22	87.06
479.439	113.06
479.658	102.06
479.876	95.06
480.095	74.06
480.313	84.06
480.532	89.06
480.751	89.06
480.969	96.06
481.188	109.06
481.406	91.06
481.624	97.06
481.843	81.06
482.061	87.06
482.28	89.06
482.498	81.06
482.717	80.06
482.935	74.06
483.153	93.06
483.372	98.06
483.59	91.06
483.808	85.06
484.027	86.06
484.245	89.06
484.463	89.06
484.681	97.06
484.9	82.06
485.118	97.06
485.336	87.06
485.554	101.06
485.772	94.06
485.99	96.06
486.209	102.06
486.427	90.06
486.645	98.06
486.863	118.06
487.081	89.06
487.299	88.06
487.517	94.06
487.735	102.06
487.953	90.06
488.171	95.06
488.389	104.06
488.607	103.06
488.825	100.06
489.043	104.06
489.261	83.06
489.479	77.06
489.696	76.06
489.914	85.06
490.132	102.06
490.35	98.06
490.568	75.06
490.786	74.06
491.003	95.06
491.221	90.06
491.439	88.06
491.657	91.06
491.874	93.06
492.092	97.06
492.31	96.06
492.527	103.06
492.745	109.06
492.963	99.06
493.18	92.06
493.398	88.06
493.615	95.06
493.833	99.06
494.05	101.06
494.268	101.06
494.485	93.06
494.703	80.06
494.92	88.06
495.138	93.06
495.355	78.06
495.573	83.06
495.79	86.06
496.008	94.06
496.225	101.06
496.442	95.06
496.66	90.06
496.877	73.06
497.094	91.06
497.312	86.06
497.529	91.06
497.746	89.06
497.963	87.06
498.181	89.06
498.398	108.06
498.615	90.06
498.832	101.06
499.049	103.06
499.267	101.06
499.484	79.06
499.701	83.06
499.918	72.06
500.135	92.06
500.352	92.06
500.569	94.06
500.786	97.06
501.003	87.06
501.22	90.06
501.437	83.06
501.654	92.06
501.871	104.06
502.088	94.06
502.305	98.06
502.522	88.06
502.739	93.06
502.956	83.06
503.172	88.06
503.389	100.06
503.606	109.06
503.823	95.06
504.04	90.06
504.256	98.06
504.473	88.06
504.69	89.06
504.907	97.06
505.123	84.06
505.34	78.06
505.557	77.06
505.773	87.06
505.99	94.06
506.207	85.06
506.423	86.06
506.64	100.06
506.856	81.06
507.073	96.06
507.289	94.06
507.506	86.06
507.722	112.06
507.939	109.06
508.155	95.06
508.372	88.06
508.588	82.06
508.805	117.06
509.021	96.06
509.238	95.06
509.454	98.06
509.67	100.06
509.887	111.06
510.103	130.06
510.319	209.06
510.536	769.06
510.752	2407.06
510.968	693.06
511.184	159.06
511.401	113.06
511.617	102.06
511.833	85.06
512.049	92.06
512.265	91.06
512.481	89.06
512.698	98.06
512.914	86.06
513.13	87.06
513.346	96.06
513.562	96.06
513.778	91.06
513.994	95.06
514.21	92.06
514.426	99.06
514.642	115.06
514.858	112.06
515.074	145.06
515.29	457.06
515.506	1488.06
515.721	547.06
515.937	151.06
516.153	120.06
