Data from Uncirc_2008_H10_HRD10591_00026.txt Node
Date: Wed Jan 03 10:15:36 EST 2024
User: Yrep
Spectrometer: HR+D1059
Trigger mode: 1
Integration Time (sec): 1.000000E-1
Scans to average: 1
Electric dark correction enabled: true
Nonlinearity correction enabled: false
Boxcar width: 0
XAxis mode: Wavelengths
Number of Pixels in Spectrum: 2048
>>>>>Begin Spectral Data<<<<<
223.165	-33.94
223.4	-33.94
223.635	-33.94
223.869	-21.94
224.104	-16.94
224.338	-22.94
224.573	-14.94
224.808	-8.94
225.042	-8.94
225.277	5.06
225.511	7.06
225.746	3.06
225.98	18.06
226.215	1.06
226.449	9.06
226.683	36.06
226.918	14.06
227.152	35.06
227.387	34.06
227.621	45.06
227.856	45.06
228.09	49.06
228.324	61.06
228.559	63.06
228.793	57.06
229.027	69.06
229.262	61.06
229.496	75.06
229.73	73.06
229.964	76.06
230.199	68.06
230.433	90.06
230.667	67.06
230.901	90.06
231.136	78.06
231.37	81.06
231.604	73.06
231.838	77.06
232.072	72.06
232.306	81.06
232.541	75.06
232.775	78.06
233.009	72.06
233.243	71.06
233.477	85.06
233.711	67.06
233.945	82.06
234.179	80.06
234.413	79.06
234.647	83.06
234.881	77.06
235.115	66.06
235.349	71.06
235.583	74.06
235.817	75.06
236.051	76.06
236.285	70.06
236.519	66.06
236.753	80.06
236.987	63.06
237.221	85.06
237.455	83.06
237.689	79.06
237.922	70.06
238.156	80.06
238.39	68.06
238.624	78.06
238.858	77.06
239.091	75.06
239.325	63.06
239.559	72.06
239.793	73.06
240.027	88.06
240.26	76.06
240.494	88.06
240.728	71.06
240.961	77.06
241.195	82.06
241.429	82.06
241.662	72.06
241.896	79.06
242.13	69.06
242.363	82.06
242.597	78.06
242.83	86.06
243.064	99.06
243.298	87.06
243.531	78.06
243.765	73.06
243.998	70.06
244.232	65.06
244.465	76.06
244.699	83.06
244.932	72.06
245.166	74.06
245.399	81.06
245.633	77.06
245.866	80.06
246.099	75.06
246.333	76.06
246.566	66.06
246.8	78.06
247.033	92.06
247.266	79.06
247.5	83.06
247.733	78.06
247.966	86.06
248.2	83.06
248.433	75.06
248.666	78.06
248.899	87.06
249.133	85.06
249.366	91.06
249.599	93.06
249.832	81.06
250.066	79.06
250.299	90.06
250.532	76.06
250.765	75.06
250.998	71.06
251.231	81.06
251.465	73.06
251.698	75.06
251.931	76.06
252.164	76.06
252.397	64.06
252.63	69.06
252.863	73.06
253.096	80.06
253.329	85.06
253.562	71.06
253.795	78.06
254.028	91.06
254.261	69.06
254.494	68.06
254.727	71.06
254.96	84.06
255.193	75.06
255.426	78.06
255.659	65.06
255.892	79.06
256.124	71.06
256.357	80.06
256.59	81.06
256.823	72.06
257.056	72.06
257.289	71.06
257.521	81.06
257.754	91.06
257.987	70.06
258.22	90.06
258.452	79.06
258.685	62.06
258.918	75.06
259.151	76.06
259.383	80.06
259.616	75.06
259.849	93.06
260.081	79.06
260.314	81.06
260.547	74.06
260.779	79.06
261.012	72.06
261.244	74.06
261.477	75.06
261.71	81.06
261.942	101.06
262.175	90.06
262.407	93.06
262.64	81.06
262.872	87.06
263.105	80.06
263.337	93.06
263.57	79.06
263.802	79.06
264.035	81.06
264.267	92.06
264.499	76.06
264.732	81.06
264.964	79.06
265.197	64.06
265.429	85.06
265.661	84.06
265.894	90.06
266.126	72.06
266.358	80.06
266.591	77.06
266.823	84.06
267.055	79.06
267.287	86.06
267.52	82.06
267.752	87.06
267.984	80.06
268.216	94.06
268.448	77.06
268.681	87.06
268.913	92.06
269.145	94.06
269.377	81.06
269.609	79.06
269.841	80.06
270.073	80.06
270.306	73.06
270.538	78.06
270.77	87.06
271.002	77.06
271.234	85.06
271.466	77.06
271.698	74.06
271.93	73.06
272.162	68.06
272.394	87.06
272.626	88.06
272.858	88.06
273.09	72.06
273.322	86.06
273.553	74.06
273.785	78.06
274.017	80.06
274.249	77.06
274.481	75.06
274.713	85.06
274.945	82.06
275.176	87.06
275.408	94.06
275.64	70.06
275.872	95.06
276.104	86.06
276.335	79.06
276.567	74.06
276.799	88.06
277.031	100.06
277.262	84.06
277.494	87.06
277.726	93.06
277.957	70.06
278.189	69.06
278.421	79.06
278.652	100.06
278.884	82.06
279.115	99.06
279.347	76.06
279.579	86.06
279.81	80.06
280.042	75.06
280.273	85.06
280.505	98.06
280.736	101.06
280.968	81.06
281.199	71.06
281.431	75.06
281.662	91.06
281.894	89.06
282.125	88.06
282.356	132.06
282.588	123.06
282.819	119.06
283.051	86.06
283.282	76.06
283.513	83.06
283.745	87.06
283.976	84.06
284.207	85.06
284.439	84.06
284.67	93.06
284.901	79.06
285.132	76.06
285.364	87.06
285.595	95.06
285.826	85.06
286.057	78.06
286.288	72.06
286.52	76.06
286.751	78.06
286.982	86.06
287.213	95.06
287.444	86.06
287.675	82.06
287.906	86.06
288.138	88.06
288.369	80.06
288.6	93.06
288.831	86.06
289.062	79.06
289.293	79.06
289.524	90.06
289.755	84.06
289.986	76.06
290.217	91.06
290.448	96.06
290.679	75.06
290.91	75.06
291.141	88.06
291.371	80.06
291.602	85.06
291.833	97.06
292.064	89.06
292.295	86.06
292.526	94.06
292.757	79.06
292.987	93.06
293.218	80.06
293.449	85.06
293.68	83.06
293.91	74.06
294.141	83.06
294.372	77.06
294.603	81.06
294.833	90.06
295.064	82.06
295.295	79.06
295.525	91.06
295.756	97.06
295.987	96.06
296.217	107.06
296.448	105.06
296.679	95.06
296.909	87.06
297.14	88.06
297.37	84.06
297.601	80.06
297.831	81.06
298.062	92.06
298.292	86.06
298.523	97.06
298.753	80.06
298.984	86.06
299.214	78.06
299.445	79.06
299.675	88.06
299.905	84.06
300.136	83.06
300.366	88.06
300.597	86.06
300.827	76.06
301.057	103.06
301.288	91.06
301.518	94.06
301.748	86.06
301.979	90.06
302.209	92.06
302.439	81.06
302.669	90.06
302.9	77.06
303.13	91.06
303.36	84.06
303.59	81.06
303.82	93.06
304.051	82.06
304.281	83.06
304.511	88.06
304.741	82.06
304.971	70.06
305.201	94.06
305.431	88.06
305.661	89.06
305.891	88.06
306.121	112.06
306.352	103.06
306.582	102.06
306.812	84.06
307.042	91.06
307.272	107.06
307.502	76.06
307.731	85.06
307.961	83.06
308.191	83.06
308.421	71.06
308.651	92.06
308.881	84.06
309.111	96.06
309.341	86.06
309.571	93.06
309.8	80.06
310.03	91.06
310.26	95.06
310.49	86.06
310.72	96.06
310.949	84.06
311.179	97.06
311.409	93.06
311.639	86.06
311.868	91.06
312.098	76.06
312.328	76.06
312.557	103.06
312.787	94.06
313.017	87.06
313.246	78.06
313.476	99.06
313.706	99.06
313.935	81.06
314.165	98.06
314.394	91.06
314.624	99.06
314.853	89.06
315.083	94.06
315.312	91.06
315.542	86.06
315.771	96.06
316.001	83.06
316.23	88.06
316.46	91.06
316.689	83.06
316.919	86.06
317.148	92.06
317.377	78.06
317.607	84.06
317.836	94.06
318.065	91.06
318.295	95.06
318.524	76.06
318.753	80.06
318.983	84.06
319.212	97.06
319.441	103.06
319.67	105.06
319.9	81.06
320.129	103.06
320.358	87.06
320.587	89.06
320.816	90.06
321.046	100.06
321.275	95.06
321.504	87.06
321.733	93.06
321.962	81.06
322.191	100.06
322.42	108.06
322.649	109.06
322.878	94.06
323.108	116.06
323.337	100.06
323.566	129.06
323.795	135.06
324.024	169.06
324.253	348.06
324.482	701.06
324.71	1404.06
324.939	1827.06
325.168	673.06
325.397	215.06
325.626	131.06
325.855	115.06
326.084	120.06
326.313	118.06
326.542	143.06
326.77	211.06
326.999	425.06
327.228	805.06
327.457	1407.06
327.686	1134.06
327.914	333.06
328.143	165.06
328.372	125.06
328.6	122.06
328.829	91.06
329.058	121.06
329.287	104.06
329.515	103.06
329.744	95.06
329.972	104.06
330.201	92.06
330.43	100.06
330.658	116.06
330.887	138.06
331.115	95.06
331.344	99.06
331.572	98.06
331.801	98.06
332.03	107.06
332.258	93.06
332.486	86.06
332.715	81.06
332.943	85.06
333.172	87.06
333.4	92.06
333.629	88.06
333.857	97.06
334.085	105.06
334.314	89.06
334.542	79.06
334.771	78.06
334.999	92.06
335.227	89.06
335.455	89.06
335.684	97.06
335.912	99.06
336.14	98.06
336.369	99.06
336.597	89.06
336.825	106.06
337.053	86.06
337.281	84.06
337.51	81.06
337.738	91.06
337.966	97.06
338.194	100.06
338.422	89.06
338.65	99.06
338.878	81.06
339.106	99.06
339.334	91.06
339.562	88.06
339.79	83.06
340.018	97.06
340.246	86.06
340.474	94.06
340.702	87.06
340.93	82.06
341.158	87.06
341.386	75.06
341.614	94.06
341.842	97.06
342.07	105.06
342.298	83.06
342.526	89.06
342.754	89.06
342.981	81.06
343.209	83.06
343.437	87.06
343.665	81.06
343.893	81.06
344.12	102.06
344.348	95.06
344.576	76.06
344.804	83.06
345.031	81.06
345.259	94.06
345.487	99.06
345.714	105.06
345.942	97.06
346.17	92.06
346.397	96.06
346.625	79.06
346.853	82.06
347.08	89.06
347.308	78.06
347.535	97.06
347.763	98.06
347.99	101.06
348.218	110.06
348.445	102.06
348.673	94.06
348.9	80.06
349.128	94.06
349.355	100.06
349.583	88.06
349.81	101.06
350.037	102.06
350.265	92.06
350.492	98.06
350.72	92.06
350.947	90.06
351.174	102.06
351.402	106.06
351.629	106.06
351.856	89.06
352.083	88.06
352.311	102.06
352.538	110.06
352.765	86.06
352.992	115.06
353.22	101.06
353.447	98.06
353.674	103.06
353.901	94.06
354.128	83.06
354.355	94.06
354.583	92.06
354.81	96.06
355.037	114.06
355.264	92.06
355.491	90.06
355.718	91.06
355.945	85.06
356.172	97.06
356.399	93.06
356.626	82.06
356.853	92.06
357.08	84.06
357.307	84.06
357.534	87.06
357.761	88.06
357.988	91.06
358.215	94.06
358.441	108.06
358.668	95.06
358.895	68.06
359.122	88.06
359.349	85.06
359.576	90.06
359.802	78.06
360.029	111.06
360.256	94.06
360.483	93.06
360.709	78.06
360.936	94.06
361.163	101.06
361.39	87.06
361.616	97.06
361.843	93.06
362.07	95.06
362.296	91.06
362.523	76.06
362.749	87.06
362.976	82.06
363.203	80.06
363.429	91.06
363.656	81.06
363.882	77.06
364.109	80.06
364.335	91.06
364.562	100.06
364.788	77.06
365.015	99.06
365.241	89.06
365.468	98.06
365.694	99.06
365.92	99.06
366.147	99.06
366.373	79.06
366.599	67.06
366.826	76.06
367.052	86.06
367.278	84.06
367.505	81.06
367.731	78.06
367.957	97.06
368.184	89.06
368.41	103.06
368.636	95.06
368.862	104.06
369.089	100.06
369.315	81.06
369.541	89.06
369.767	89.06
369.993	101.06
370.219	85.06
370.445	85.06
370.672	87.06
370.898	91.06
371.124	90.06
371.35	73.06
371.576	87.06
371.802	84.06
372.028	95.06
372.254	72.06
372.48	76.06
372.706	88.06
372.932	74.06
373.158	81.06
373.384	77.06
373.61	68.06
373.835	82.06
374.061	90.06
374.287	86.06
374.513	80.06
374.739	85.06
374.965	98.06
375.191	92.06
375.416	93.06
375.642	91.06
375.868	95.06
376.094	96.06
376.319	75.06
376.545	80.06
376.771	89.06
376.997	90.06
377.222	88.06
377.448	93.06
377.674	82.06
377.899	81.06
378.125	72.06
378.35	85.06
378.576	93.06
378.802	89.06
379.027	91.06
379.253	88.06
379.478	88.06
379.704	88.06
379.929	92.06
380.155	92.06
380.38	92.06
380.606	87.06
380.831	103.06
381.057	112.06
381.282	75.06
381.507	92.06
381.733	104.06
381.958	92.06
382.184	102.06
382.409	102.06
382.634	100.06
382.86	102.06
383.085	98.06
383.31	95.06
383.535	99.06
383.761	89.06
383.986	94.06
384.211	89.06
384.436	104.06
384.662	100.06
384.887	101.06
385.112	96.06
385.337	87.06
385.562	100.06
385.787	108.06
386.013	97.06
386.238	109.06
386.463	92.06
386.688	100.06
386.913	95.06
387.138	117.06
387.363	110.06
387.588	108.06
387.813	92.06
388.038	99.06
388.263	96.06
388.488	108.06
388.713	100.06
388.938	91.06
389.163	96.06
389.387	102.06
389.612	90.06
389.837	100.06
390.062	87.06
390.287	83.06
390.512	84.06
390.736	101.06
390.961	88.06
391.186	96.06
391.411	95.06
391.636	82.06
391.86	82.06
392.085	85.06
392.31	71.06
392.534	84.06
392.759	75.06
392.984	76.06
393.208	105.06
393.433	102.06
393.658	105.06
393.882	92.06
394.107	82.06
394.331	81.06
394.556	90.06
394.78	92.06
395.005	83.06
395.229	92.06
395.454	91.06
395.678	82.06
395.903	83.06
396.127	80.06
396.352	89.06
396.576	90.06
396.801	96.06
397.025	92.06
397.249	95.06
397.474	90.06
397.698	84.06
397.922	87.06
398.147	78.06
398.371	78.06
398.595	88.06
398.82	88.06
399.044	80.06
399.268	87.06
399.492	85.06
399.717	86.06
399.941	93.06
400.165	78.06
400.389	80.06
400.613	87.06
400.837	93.06
401.062	84.06
401.286	83.06
401.51	77.06
401.734	71.06
401.958	100.06
402.182	120.06
402.406	125.06
402.63	96.06
402.854	83.06
403.078	91.06
403.302	99.06
403.526	76.06
403.75	92.06
403.974	87.06
404.198	90.06
404.422	84.06
404.645	83.06
404.869	95.06
405.093	93.06
405.317	81.06
405.541	86.06
405.765	69.06
405.988	105.06
406.212	148.06
406.436	189.06
406.66	135.06
406.883	103.06
407.107	102.06
407.331	89.06
407.555	88.06
407.778	94.06
408.002	82.06
408.226	70.06
408.449	77.06
408.673	77.06
408.896	100.06
409.12	99.06
409.344	74.06
409.567	89.06
409.791	87.06
410.014	90.06
410.238	101.06
410.461	88.06
410.685	102.06
410.908	93.06
411.132	91.06
411.355	91.06
411.578	83.06
411.802	73.06
412.025	81.06
412.249	78.06
412.472	94.06
412.695	88.06
412.919	99.06
413.142	81.06
413.365	90.06
413.589	83.06
413.812	73.06
414.035	84.06
414.258	78.06
414.482	75.06
414.705	81.06
414.928	92.06
415.151	94.06
415.374	84.06
415.597	86.06
415.821	92.06
416.044	93.06
416.267	79.06
416.49	77.06
416.713	82.06
416.936	80.06
417.159	85.06
417.382	86.06
417.605	86.06
417.828	95.06
418.051	77.06
418.274	91.06
418.497	89.06
418.72	76.06
418.943	61.06
419.166	82.06
419.389	91.06
419.611	89.06
419.834	94.06
420.057	94.06
420.28	88.06
420.503	91.06
420.726	84.06
420.948	89.06
421.171	88.06
421.394	91.06
421.617	86.06
421.839	85.06
422.062	95.06
422.285	100.06
422.507	97.06
422.73	98.06
422.953	92.06
423.175	81.06
423.398	94.06
423.621	88.06
423.843	81.06
424.066	90.06
424.288	81.06
424.511	91.06
424.733	95.06
424.956	92.06
425.178	94.06
425.401	95.06
425.623	99.06
425.846	98.06
426.068	81.06
426.291	86.06
426.513	83.06
426.735	94.06
426.958	78.06
427.18	99.06
427.402	132.06
427.625	146.06
427.847	121.06
428.069	106.06
428.292	81.06
428.514	62.06
428.736	89.06
428.958	98.06
429.181	76.06
429.403	74.06
429.625	88.06
429.847	89.06
430.069	86.06
430.292	83.06
430.514	88.06
430.736	69.06
430.958	85.06
431.18	84.06
431.402	88.06
431.624	81.06
431.846	80.06
432.068	80.06
432.29	85.06
432.512	85.06
432.734	74.06
432.956	81.06
433.178	85.06
433.4	90.06
433.622	86.06
433.844	88.06
434.066	82.06
434.287	93.06
434.509	87.06
434.731	85.06
434.953	75.06
435.175	104.06
435.397	92.06
435.618	95.06
435.84	100.06
436.062	105.06
436.284	100.06
436.505	99.06
436.727	105.06
436.949	87.06
437.17	78.06
437.392	79.06
437.614	88.06
437.835	100.06
438.057	86.06
438.278	96.06
438.5	75.06
438.721	118.06
438.943	90.06
439.165	92.06
439.386	98.06
439.608	99.06
439.829	106.06
440.05	100.06
440.272	120.06
440.493	87.06
440.715	95.06
440.936	77.06
441.158	88.06
441.379	87.06
441.6	109.06
441.822	102.06
442.043	84.06
442.264	95.06
442.486	98.06
442.707	91.06
442.928	103.06
443.149	120.06
443.371	105.06
443.592	105.06
443.813	98.06
444.034	95.06
444.255	94.06
444.476	77.06
444.698	93.06
444.919	90.06
445.14	118.06
445.361	119.06
445.582	118.06
445.803	115.06
446.024	124.06
446.245	104.06
446.466	98.06
446.687	101.06
446.908	89.06
447.129	89.06
447.35	96.06
447.571	83.06
447.792	88.06
448.013	86.06
448.234	91.06
448.455	96.06
448.675	100.06
448.896	103.06
449.117	107.06
449.338	88.06
449.559	128.06
449.779	124.06
450	97.06
450.221	95.06
450.442	74.06
450.662	88.06
450.883	108.06
451.104	109.06
451.324	100.06
451.545	86.06
451.766	100.06
451.986	89.06
452.207	78.06
452.428	74.06
452.648	96.06
452.869	100.06
453.089	107.06
453.31	116.06
453.53	89.06
453.751	78.06
453.971	109.06
454.192	98.06
454.412	100.06
454.633	85.06
454.853	83.06
455.073	76.06
455.294	71.06
455.514	87.06
455.734	80.06
455.955	88.06
456.175	89.06
456.395	92.06
456.616	85.06
456.836	87.06
457.056	88.06
457.276	81.06
457.497	74.06
457.717	86.06
457.937	87.06
458.157	80.06
458.377	77.06
458.598	92.06
458.818	129.06
459.038	151.06
459.258	106.06
459.478	103.06
459.698	85.06
459.918	90.06
460.138	80.06
460.358	85.06
460.578	92.06
460.798	92.06
461.018	85.06
461.238	91.06
461.458	89.06
461.678	72.06
461.898	82.06
462.118	93.06
462.338	75.06
462.558	83.06
462.777	74.06
462.997	71.06
463.217	75.06
463.437	75.06
463.657	74.06
463.876	81.06
464.096	98.06
464.316	86.06
464.536	100.06
464.755	99.06
464.975	85.06
465.195	153.06
465.414	142.06
465.634	96.06
465.854	93.06
466.073	93.06
466.293	87.06
466.512	72.06
466.732	79.06
466.951	84.06
467.171	90.06
467.391	85.06
467.61	105.06
467.829	95.06
468.049	90.06
468.268	78.06
468.488	85.06
468.707	87.06
468.927	68.06
469.146	81.06
469.365	80.06
469.585	84.06
469.804	88.06
470.023	92.06
470.243	94.06
470.462	94.06
470.681	100.06
470.901	91.06
471.12	91.06
471.339	79.06
471.558	98.06
471.777	95.06
471.997	90.06
472.216	86.06
472.435	89.06
472.654	94.06
472.873	87.06
473.092	82.06
473.311	83.06
473.53	64.06
473.749	102.06
473.968	83.06
474.187	95.06
474.406	83.06
474.625	84.06
474.844	89.06
475.063	85.06
475.282	94.06
475.501	84.06
475.72	84.06
475.939	75.06
476.158	92.06
476.377	92.06
476.596	91.06
476.814	89.06
477.033	94.06
477.252	95.06
477.471	102.06
477.69	96.06
477.908	86.06
478.127	85.06
478.346	78.06
478.564	87.06
478.783	103.06
479.002	101.06
479.22	86.06
479.439	94.06
479.658	102.06
479.876	81.06
480.095	92.06
480.313	80.06
480.532	92.06
480.751	88.06
480.969	91.06
481.188	105.06
481.406	87.06
481.624	85.06
481.843	83.06
482.061	77.06
482.28	100.06
482.498	98.06
482.717	73.06
482.935	99.06
483.153	85.06
483.372	91.06
483.59	84.06
483.808	86.06
484.027	78.06
484.245	89.06
484.463	88.06
484.681	95.06
484.9	84.06
485.118	97.06
485.336	84.06
485.554	97.06
485.772	95.06
485.99	95.06
486.209	91.06
486.427	113.06
486.645	116.06
486.863	99.06
487.081	74.06
487.299	84.06
487.517	88.06
487.735	110.06
487.953	93.06
488.171	88.06
488.389	102.06
488.607	101.06
488.825	91.06
489.043	97.06
489.261	93.06
489.479	89.06
489.696	88.06
489.914	86.06
490.132	92.06
490.35	96.06
490.568	79.06
490.786	91.06
491.003	94.06
491.221	91.06
491.439	84.06
491.657	94.06
491.874	104.06
492.092	73.06
492.31	70.06
492.527	86.06
492.745	85.06
492.963	110.06
493.18	88.06
493.398	89.06
493.615	103.06
493.833	109.06
494.05	81.06
494.268	94.06
494.485	89.06
494.703	86.06
494.92	90.06
495.138	97.06
495.355	89.06
495.573	88.06
495.79	76.06
496.008	88.06
496.225	89.06
496.442	89.06
496.66	89.06
496.877	93.06
497.094	87.06
497.312	81.06
497.529	80.06
497.746	94.06
497.963	89.06
498.181	95.06
498.398	80.06
498.615	101.06
498.832	95.06
499.049	96.06
499.267	98.06
499.484	77.06
499.701	93.06
499.918	87.06
500.135	71.06
500.352	106.06
500.569	88.06
500.786	105.06
501.003	90.06
501.22	94.06
501.437	95.06
501.654	101.06
501.871	96.06
502.088	83.06
502.305	99.06
502.522	98.06
502.739	94.06
502.956	87.06
503.172	90.06
503.389	86.06
503.606	106.06
503.823	94.06
504.04	82.06
504.256	97.06
504.473	85.06
504.69	95.06
504.907	81.06
505.123	71.06
505.34	76.06
505.557	77.06
505.773	87.06
505.99	74.06
506.207	88.06
506.423	89.06
506.64	94.06
506.856	88.06
507.073	93.06
507.289	89.06
507.506	88.06
507.722	112.06
507.939	108.06
508.155	78.06
508.372	81.06
508.588	92.06
508.805	92.06
509.021	100.06
509.238	79.06
509.454	97.06
509.67	94.06
509.887	103.06
510.103	134.06
510.319	199.06
510.536	709.06
510.752	2223.06
510.968	636.06
511.184	150.06
511.401	108.06
511.617	100.06
511.833	84.06
512.049	85.06
512.265	80.06
512.481	90.06
512.698	88.06
512.914	84.06
513.13	100.06
513.346	74.06
513.562	91.06
513.778	88.06
513.994	101.06
514.21	94.06
514.426	116.06
514.642	134.06
514.858	127.06
515.074	145.06
515.29	417.06
515.506	1319.06
515.721	511.06
515.937	150.06
516.153	106.06
516.369	89.06
516.585	107.06
516.801	94.06
517.016	94.06
