Data from Uncirc_2008_H10_HRD10591_00057.txt Node
Date: Wed Jan 03 10:15:42 EST 2024
User: Yrep
Spectrometer: HR+D1059
Trigger mode: 1
Integration Time (sec): 1.000000E-1
Scans to average: 1
Electric dark correction enabled: true
Nonlinearity correction enabled: false
Boxcar width: 0
XAxis mode: Wavelengths
Number of Pixels in Spectrum: 2048
>>>>>Begin Spectral Data<<<<<
223.165	-8.62
223.4	-8.62
223.635	-8.62
223.869	-12.62
224.104	-6.62
224.338	-14.62
224.573	-11.62
224.808	-16.62
225.042	-14.62
225.277	5.38
225.511	-14.62
225.746	-6.62
225.98	0.38
226.215	2.38
226.449	20.38
226.683	19.38
226.918	30.38
227.152	28.38
227.387	33.38
227.621	52.38
227.856	47.38
228.09	37.38
228.324	37.38
228.559	59.38
228.793	42.38
229.027	61.38
229.262	53.38
229.496	77.38
229.73	81.38
229.964	92.38
230.199	73.38
230.433	67.38
230.667	93.38
230.901	91.38
231.136	88.38
231.37	83.38
231.604	87.38
231.838	93.38
232.072	81.38
232.306	88.38
232.541	76.38
232.775	81.38
233.009	81.38
233.243	83.38
233.477	90.38
233.711	85.38
233.945	78.38
234.179	76.38
234.413	92.38
234.647	83.38
234.881	85.38
235.115	82.38
235.349	75.38
235.583	74.38
235.817	82.38
236.051	83.38
236.285	75.38
236.519	89.38
236.753	94.38
236.987	87.38
237.221	87.38
237.455	86.38
237.689	79.38
237.922	69.38
238.156	63.38
238.39	74.38
238.624	68.38
238.858	64.38
239.091	70.38
239.325	76.38
239.559	76.38
239.793	83.38
240.027	79.38
240.26	87.38
240.494	77.38
240.728	77.38
240.961	83.38
241.195	87.38
241.429	66.38
241.662	82.38
241.896	91.38
242.13	86.38
242.363	89.38
242.597	82.38
242.83	76.38
243.064	84.38
243.298	79.38
243.531	74.38
243.765	74.38
243.998	83.38
244.232	72.38
244.465	76.38
244.699	88.38
244.932	70.38
245.166	75.38
245.399	77.38
245.633	73.38
245.866	88.38
246.099	77.38
246.333	67.38
246.566	80.38
246.8	74.38
247.033	80.38
247.266	65.38
247.5	91.38
247.733	77.38
247.966	81.38
248.2	76.38
248.433	80.38
248.666	86.38
248.899	85.38
249.133	83.38
249.366	102.38
249.599	97.38
249.832	77.38
250.066	71.38
250.299	83.38
250.532	89.38
250.765	74.38
250.998	69.38
251.231	76.38
251.465	84.38
251.698	90.38
251.931	72.38
252.164	84.38
252.397	100.38
252.63	86.38
252.863	75.38
253.096	83.38
253.329	71.38
253.562	91.38
253.795	90.38
254.028	78.38
254.261	86.38
254.494	74.38
254.727	92.38
254.96	79.38
255.193	82.38
255.426	69.38
255.659	79.38
255.892	89.38
256.124	72.38
256.357	83.38
256.59	89.38
256.823	90.38
257.056	83.38
257.289	96.38
257.521	85.38
257.754	78.38
257.987	91.38
258.22	91.38
258.452	81.38
258.685	97.38
258.918	100.38
259.151	95.38
259.383	81.38
259.616	80.38
259.849	82.38
260.081	87.38
260.314	74.38
260.547	75.38
260.779	98.38
261.012	75.38
261.244	86.38
261.477	83.38
261.71	88.38
261.942	99.38
262.175	104.38
262.407	88.38
262.64	79.38
262.872	79.38
263.105	97.38
263.337	80.38
263.57	90.38
263.802	90.38
264.035	93.38
264.267	89.38
264.499	79.38
264.732	81.38
264.964	79.38
265.197	89.38
265.429	89.38
265.661	81.38
265.894	88.38
266.126	78.38
266.358	87.38
266.591	107.38
266.823	85.38
267.055	81.38
267.287	84.38
267.52	89.38
267.752	76.38
267.984	81.38
268.216	91.38
268.448	87.38
268.681	74.38
268.913	91.38
269.145	89.38
269.377	78.38
269.609	82.38
269.841	98.38
270.073	100.38
270.306	81.38
270.538	96.38
270.77	94.38
271.002	80.38
271.234	93.38
271.466	99.38
271.698	83.38
271.93	75.38
272.162	89.38
272.394	89.38
272.626	88.38
272.858	82.38
273.09	79.38
273.322	81.38
273.553	86.38
273.785	77.38
274.017	89.38
274.249	79.38
274.481	95.38
274.713	100.38
274.945	100.38
275.176	83.38
275.408	90.38
275.64	82.38
275.872	83.38
276.104	79.38
276.335	87.38
276.567	102.38
276.799	103.38
277.031	91.38
277.262	88.38
277.494	109.38
277.726	92.38
277.957	91.38
278.189	80.38
278.421	86.38
278.652	95.38
278.884	82.38
279.115	92.38
279.347	82.38
279.579	76.38
279.81	70.38
280.042	96.38
280.273	80.38
280.505	83.38
280.736	89.38
280.968	95.38
281.199	80.38
281.431	102.38
281.662	106.38
281.894	89.38
282.125	86.38
282.356	100.38
282.588	112.38
282.819	106.38
283.051	86.38
283.282	99.38
283.513	85.38
283.745	93.38
283.976	86.38
284.207	89.38
284.439	97.38
284.67	95.38
284.901	83.38
285.132	96.38
285.364	92.38
285.595	95.38
285.826	88.38
286.057	92.38
286.288	93.38
286.52	89.38
286.751	93.38
286.982	92.38
287.213	76.38
287.444	85.38
287.675	97.38
287.906	99.38
288.138	88.38
288.369	97.38
288.6	86.38
288.831	96.38
289.062	82.38
289.293	100.38
289.524	90.38
289.755	100.38
289.986	86.38
290.217	93.38
290.448	89.38
290.679	108.38
290.91	88.38
291.141	90.38
291.371	92.38
291.602	83.38
291.833	93.38
292.064	91.38
292.295	84.38
292.526	94.38
292.757	88.38
292.987	87.38
293.218	89.38
293.449	82.38
293.68	96.38
293.91	86.38
294.141	88.38
294.372	90.38
294.603	86.38
294.833	84.38
295.064	100.38
295.295	107.38
295.525	86.38
295.756	106.38
295.987	112.38
296.217	108.38
296.448	120.38
296.679	87.38
296.909	99.38
297.14	92.38
297.37	95.38
297.601	85.38
297.831	91.38
298.062	88.38
298.292	79.38
298.523	98.38
298.753	93.38
298.984	99.38
299.214	102.38
299.445	101.38
299.675	83.38
299.905	100.38
300.136	99.38
300.366	90.38
300.597	97.38
300.827	97.38
301.057	107.38
301.288	84.38
301.518	101.38
301.748	84.38
301.979	101.38
302.209	87.38
302.439	85.38
302.669	103.38
302.9	87.38
303.13	91.38
303.36	100.38
303.59	95.38
303.82	79.38
304.051	100.38
304.281	82.38
304.511	84.38
304.741	91.38
304.971	88.38
305.201	84.38
305.431	82.38
305.661	90.38
305.891	92.38
306.121	90.38
306.352	97.38
306.582	98.38
306.812	95.38
307.042	86.38
307.272	109.38
307.502	109.38
307.731	97.38
307.961	91.38
308.191	102.38
308.421	85.38
308.651	98.38
308.881	95.38
309.111	93.38
309.341	94.38
309.571	94.38
309.8	103.38
310.03	87.38
310.26	105.38
310.49	100.38
310.72	95.38
310.949	88.38
311.179	98.38
311.409	95.38
311.639	97.38
311.868	100.38
312.098	99.38
312.328	111.38
312.557	100.38
312.787	100.38
313.017	98.38
313.246	84.38
313.476	84.38
313.706	92.38
313.935	88.38
314.165	104.38
314.394	95.38
314.624	95.38
314.853	89.38
315.083	80.38
315.312	89.38
315.542	90.38
315.771	109.38
316.001	97.38
316.23	91.38
316.46	79.38
316.689	89.38
316.919	98.38
317.148	94.38
317.377	107.38
317.607	107.38
317.836	85.38
318.065	94.38
318.295	95.38
318.524	94.38
318.753	80.38
318.983	82.38
319.212	89.38
319.441	108.38
319.67	120.38
319.9	87.38
320.129	102.38
320.358	96.38
320.587	96.38
320.816	96.38
321.046	89.38
321.275	97.38
321.504	101.38
321.733	110.38
321.962	101.38
322.191	105.38
322.42	88.38
322.649	98.38
322.878	112.38
323.108	103.38
323.337	107.38
323.566	130.38
323.795	140.38
324.024	188.38
324.253	348.38
324.482	675.38
324.71	1420.38
324.939	1775.38
325.168	686.38
325.397	227.38
325.626	149.38
325.855	112.38
326.084	122.38
326.313	108.38
326.542	141.38
326.77	201.38
326.999	398.38
327.228	799.38
327.457	1396.38
327.686	1113.38
327.914	308.38
328.143	175.38
328.372	135.38
328.6	122.38
328.829	114.38
329.058	137.38
329.287	129.38
329.515	99.38
329.744	103.38
329.972	95.38
330.201	100.38
330.43	103.38
330.658	113.38
330.887	136.38
331.115	113.38
331.344	79.38
331.572	96.38
331.801	111.38
332.03	101.38
332.258	112.38
332.486	99.38
332.715	105.38
332.943	102.38
333.172	94.38
333.4	95.38
333.629	93.38
333.857	117.38
334.085	107.38
334.314	104.38
334.542	105.38
334.771	97.38
334.999	104.38
335.227	96.38
335.455	89.38
335.684	108.38
335.912	87.38
336.14	80.38
336.369	99.38
336.597	104.38
336.825	87.38
337.053	85.38
337.281	114.38
337.51	103.38
337.738	92.38
337.966	95.38
338.194	97.38
338.422	108.38
338.65	96.38
338.878	87.38
339.106	92.38
339.334	103.38
339.562	98.38
339.79	87.38
340.018	91.38
340.246	97.38
340.474	101.38
340.702	97.38
340.93	101.38
341.158	80.38
341.386	111.38
341.614	91.38
341.842	95.38
342.07	96.38
342.298	83.38
342.526	101.38
342.754	89.38
342.981	82.38
343.209	87.38
343.437	102.38
343.665	87.38
343.893	93.38
344.12	90.38
344.348	79.38
344.576	79.38
344.804	90.38
345.031	91.38
345.259	84.38
345.487	94.38
345.714	96.38
345.942	90.38
346.17	100.38
346.397	91.38
346.625	92.38
346.853	97.38
347.08	94.38
347.308	90.38
347.535	94.38
347.763	104.38
347.99	97.38
348.218	99.38
348.445	96.38
348.673	96.38
348.9	95.38
349.128	94.38
349.355	98.38
349.583	81.38
349.81	90.38
350.037	95.38
350.265	100.38
350.492	85.38
350.72	93.38
350.947	105.38
351.174	114.38
351.402	108.38
351.629	98.38
351.856	100.38
352.083	100.38
352.311	98.38
352.538	111.38
352.765	103.38
352.992	100.38
353.22	100.38
353.447	100.38
353.674	96.38
353.901	88.38
354.128	108.38
354.355	116.38
354.583	112.38
354.81	109.38
355.037	108.38
355.264	94.38
355.491	89.38
355.718	84.38
355.945	85.38
356.172	101.38
356.399	90.38
356.626	92.38
356.853	101.38
357.08	98.38
357.307	93.38
357.534	86.38
357.761	98.38
357.988	98.38
358.215	104.38
358.441	95.38
358.668	96.38
358.895	88.38
359.122	100.38
359.349	98.38
359.576	100.38
359.802	96.38
360.029	111.38
360.256	97.38
360.483	97.38
360.709	96.38
360.936	91.38
361.163	96.38
361.39	85.38
361.616	93.38
361.843	91.38
362.07	82.38
362.296	84.38
362.523	86.38
362.749	93.38
362.976	92.38
363.203	80.38
363.429	92.38
363.656	105.38
363.882	93.38
364.109	94.38
364.335	93.38
364.562	87.38
364.788	90.38
365.015	93.38
365.241	104.38
365.468	100.38
365.694	91.38
365.92	108.38
366.147	89.38
366.373	103.38
366.599	85.38
366.826	84.38
367.052	82.38
367.278	91.38
367.505	97.38
367.731	100.38
367.957	96.38
368.184	105.38
368.41	110.38
368.636	113.38
368.862	109.38
369.089	106.38
369.315	99.38
369.541	95.38
369.767	85.38
369.993	77.38
370.219	81.38
370.445	98.38
370.672	85.38
370.898	81.38
371.124	76.38
371.35	80.38
371.576	92.38
371.802	74.38
372.028	82.38
372.254	84.38
372.48	79.38
372.706	97.38
372.932	97.38
373.158	80.38
373.384	82.38
373.61	73.38
373.835	83.38
374.061	80.38
374.287	99.38
374.513	100.38
374.739	82.38
374.965	80.38
375.191	69.38
375.416	100.38
375.642	87.38
375.868	88.38
376.094	92.38
376.319	75.38
376.545	70.38
376.771	97.38
376.997	99.38
377.222	83.38
377.448	80.38
377.674	97.38
377.899	88.38
378.125	98.38
378.35	96.38
378.576	83.38
378.802	83.38
379.027	95.38
379.253	98.38
379.478	85.38
379.704	88.38
379.929	84.38
380.155	83.38
380.38	99.38
380.606	103.38
380.831	90.38
381.057	100.38
381.282	99.38
381.507	88.38
381.733	107.38
381.958	99.38
382.184	100.38
382.409	105.38
382.634	108.38
382.86	88.38
383.085	98.38
383.31	87.38
383.535	101.38
383.761	108.38
383.986	97.38
384.211	100.38
384.436	83.38
384.662	90.38
384.887	93.38
385.112	88.38
385.337	111.38
385.562	112.38
385.787	107.38
386.013	117.38
386.238	115.38
386.463	116.38
386.688	122.38
386.913	93.38
387.138	115.38
387.363	98.38
387.588	99.38
387.813	106.38
388.038	122.38
388.263	118.38
388.488	116.38
388.713	119.38
388.938	90.38
389.163	103.38
389.387	90.38
389.612	89.38
389.837	90.38
390.062	84.38
390.287	101.38
390.512	89.38
390.736	82.38
390.961	92.38
391.186	93.38
391.411	103.38
391.636	99.38
391.86	87.38
392.085	85.38
392.31	100.38
392.534	87.38
392.759	93.38
392.984	92.38
393.208	83.38
393.433	98.38
393.658	79.38
393.882	93.38
394.107	93.38
394.331	82.38
394.556	77.38
394.78	95.38
395.005	105.38
395.229	80.38
395.454	94.38
395.678	93.38
395.903	89.38
396.127	85.38
396.352	93.38
396.576	95.38
396.801	89.38
397.025	83.38
397.249	83.38
397.474	94.38
397.698	82.38
397.922	87.38
398.147	99.38
398.371	86.38
398.595	85.38
398.82	93.38
399.044	80.38
399.268	83.38
399.492	81.38
399.717	96.38
399.941	93.38
400.165	92.38
400.389	105.38
400.613	95.38
400.837	108.38
401.062	98.38
401.286	77.38
401.51	90.38
401.734	98.38
401.958	100.38
402.182	119.38
402.406	147.38
402.63	100.38
402.854	83.38
403.078	74.38
403.302	86.38
403.526	107.38
403.75	94.38
403.974	90.38
404.198	85.38
404.422	102.38
404.645	94.38
404.869	93.38
405.093	86.38
405.317	91.38
405.541	90.38
405.765	101.38
405.988	118.38
406.212	160.38
406.436	199.38
406.66	135.38
406.883	95.38
407.107	85.38
407.331	88.38
407.555	105.38
407.778	98.38
408.002	101.38
408.226	81.38
408.449	92.38
408.673	111.38
408.896	103.38
409.12	98.38
409.344	95.38
409.567	80.38
409.791	102.38
410.014	92.38
410.238	92.38
410.461	98.38
410.685	108.38
410.908	110.38
411.132	100.38
411.355	107.38
411.578	102.38
411.802	79.38
412.025	92.38
412.249	93.38
412.472	79.38
412.695	91.38
412.919	106.38
413.142	83.38
413.365	91.38
413.589	95.38
413.812	85.38
414.035	97.38
414.258	97.38
414.482	96.38
414.705	95.38
414.928	100.38
415.151	71.38
415.374	106.38
415.597	102.38
415.821	85.38
416.044	80.38
416.267	84.38
416.49	85.38
416.713	93.38
416.936	97.38
417.159	87.38
417.382	78.38
417.605	99.38
417.828	85.38
418.051	92.38
418.274	97.38
418.497	84.38
418.72	68.38
418.943	99.38
419.166	82.38
419.389	79.38
419.611	89.38
419.834	94.38
420.057	82.38
420.28	77.38
420.503	93.38
420.726	90.38
420.948	91.38
421.171	91.38
421.394	85.38
421.617	101.38
421.839	98.38
422.062	89.38
422.285	104.38
422.507	103.38
422.73	107.38
422.953	106.38
423.175	80.38
423.398	78.38
423.621	94.38
423.843	92.38
424.066	81.38
424.288	95.38
424.511	93.38
424.733	109.38
424.956	106.38
425.178	104.38
425.401	108.38
425.623	102.38
425.846	91.38
426.068	106.38
426.291	93.38
426.513	84.38
426.735	96.38
426.958	95.38
427.18	107.38
427.402	110.38
427.625	144.38
427.847	110.38
428.069	104.38
428.292	96.38
428.514	93.38
428.736	78.38
428.958	84.38
429.181	89.38
429.403	75.38
429.625	98.38
429.847	103.38
430.069	99.38
430.292	108.38
430.514	93.38
430.736	78.38
430.958	89.38
431.18	82.38
431.402	90.38
431.624	77.38
431.846	87.38
432.068	88.38
432.29	93.38
432.512	104.38
432.734	91.38
432.956	84.38
433.178	95.38
433.4	99.38
433.622	102.38
433.844	88.38
434.066	97.38
434.287	96.38
434.509	94.38
434.731	99.38
434.953	93.38
435.175	104.38
435.397	90.38
435.618	90.38
435.84	115.38
436.062	105.38
436.284	108.38
436.505	108.38
436.727	97.38
436.949	85.38
437.17	84.38
437.392	83.38
437.614	89.38
437.835	96.38
438.057	127.38
438.278	98.38
438.5	85.38
438.721	107.38
438.943	92.38
439.165	94.38
439.386	84.38
439.608	90.38
439.829	109.38
440.05	112.38
440.272	141.38
440.493	96.38
440.715	76.38
440.936	75.38
441.158	83.38
441.379	86.38
441.6	81.38
441.822	91.38
442.043	96.38
442.264	84.38
442.486	93.38
442.707	101.38
442.928	94.38
443.149	107.38
443.371	106.38
443.592	113.38
443.813	121.38
444.034	108.38
444.255	102.38
444.476	92.38
444.698	73.38
444.919	101.38
445.14	141.38
445.361	117.38
445.582	106.38
445.803	149.38
446.024	121.38
446.245	126.38
446.466	106.38
446.687	100.38
446.908	78.38
447.129	79.38
447.35	81.38
447.571	101.38
447.792	87.38
448.013	107.38
448.234	106.38
448.455	97.38
448.675	99.38
448.896	111.38
449.117	122.38
449.338	101.38
449.559	124.38
449.779	131.38
450	93.38
450.221	96.38
450.442	101.38
450.662	90.38
450.883	123.38
451.104	120.38
451.324	102.38
451.545	93.38
451.766	90.38
451.986	96.38
452.207	88.38
452.428	92.38
452.648	97.38
452.869	116.38
453.089	115.38
453.31	93.38
453.53	96.38
453.751	93.38
453.971	105.38
454.192	96.38
454.412	114.38
454.633	89.38
454.853	83.38
455.073	81.38
455.294	100.38
455.514	99.38
455.734	90.38
455.955	92.38
456.175	88.38
456.395	100.38
456.616	104.38
456.836	88.38
457.056	93.38
457.276	76.38
457.497	90.38
457.717	86.38
457.937	89.38
458.157	97.38
458.377	104.38
458.598	96.38
458.818	153.38
459.038	156.38
459.258	115.38
459.478	98.38
459.698	81.38
459.918	91.38
460.138	89.38
460.358	86.38
460.578	94.38
460.798	85.38
461.018	87.38
461.238	86.38
461.458	92.38
461.678	81.38
461.898	85.38
462.118	88.38
462.338	87.38
462.558	97.38
462.777	90.38
462.997	82.38
463.217	79.38
463.437	89.38
463.657	98.38
463.876	98.38
464.096	85.38
464.316	92.38
464.536	98.38
464.755	89.38
464.975	93.38
465.195	156.38
465.414	147.38
465.634	100.38
465.854	106.38
466.073	98.38
466.293	106.38
466.512	95.38
466.732	95.38
466.951	95.38
467.171	96.38
467.391	93.38
467.61	110.38
467.829	92.38
468.049	85.38
468.268	90.38
468.488	101.38
468.707	98.38
468.927	88.38
469.146	100.38
469.365	78.38
469.585	86.38
469.804	97.38
470.023	84.38
470.243	88.38
470.462	105.38
470.681	98.38
470.901	79.38
471.12	89.38
471.339	85.38
471.558	87.38
471.777	79.38
471.997	98.38
472.216	91.38
472.435	95.38
472.654	95.38
472.873	92.38
473.092	88.38
473.311	75.38
473.53	79.38
473.749	103.38
473.968	92.38
474.187	99.38
474.406	96.38
474.625	82.38
474.844	75.38
475.063	80.38
475.282	98.38
475.501	90.38
475.72	94.38
475.939	98.38
476.158	80.38
476.377	93.38
476.596	98.38
476.814	85.38
477.033	89.38
477.252	84.38
477.471	78.38
477.69	88.38
477.908	85.38
478.127	93.38
478.346	76.38
478.564	85.38
478.783	96.38
479.002	101.38
479.22	84.38
479.439	100.38
479.658	103.38
479.876	97.38
480.095	91.38
480.313	96.38
480.532	78.38
480.751	87.38
480.969	86.38
481.188	90.38
481.406	94.38
481.624	91.38
481.843	90.38
482.061	101.38
482.28	99.38
482.498	95.38
482.717	93.38
482.935	85.38
483.153	92.38
483.372	97.38
483.59	105.38
483.808	94.38
484.027	93.38
484.245	87.38
484.463	96.38
484.681	102.38
484.9	97.38
485.118	91.38
485.336	105.38
485.554	90.38
485.772	105.38
485.99	100.38
486.209	92.38
486.427	97.38
486.645	116.38
486.863	112.38
487.081	94.38
487.299	95.38
487.517	93.38
487.735	89.38
487.953	92.38
488.171	93.38
488.389	86.38
488.607	93.38
488.825	90.38
489.043	88.38
489.261	99.38
489.479	91.38
489.696	79.38
489.914	81.38
490.132	89.38
490.35	91.38
490.568	102.38
490.786	89.38
491.003	92.38
491.221	104.38
491.439	94.38
491.657	95.38
491.874	94.38
492.092	96.38
492.31	79.38
492.527	81.38
492.745	90.38
492.963	94.38
493.18	86.38
493.398	91.38
493.615	92.38
493.833	88.38
494.05	97.38
494.268	99.38
494.485	75.38
494.703	92.38
494.92	91.38
495.138	92.38
495.355	76.38
495.573	97.38
495.79	86.38
496.008	104.38
496.225	91.38
496.442	86.38
496.66	85.38
496.877	91.38
497.094	89.38
497.312	93.38
497.529	92.38
497.746	87.38
497.963	90.38
498.181	87.38
498.398	84.38
498.615	112.38
498.832	102.38
499.049	99.38
499.267	91.38
499.484	92.38
499.701	100.38
499.918	108.38
500.135	84.38
500.352	91.38
500.569	91.38
500.786	93.38
501.003	102.38
501.22	97.38
501.437	97.38
501.654	105.38
501.871	111.38
502.088	92.38
502.305	85.38
502.522	95.38
502.739	88.38
502.956	92.38
503.172	97.38
503.389	104.38
503.606	101.38
503.823	101.38
504.04	91.38
504.256	97.38
504.473	83.38
504.69	89.38
504.907	103.38
505.123	98.38
505.34	99.38
505.557	87.38
505.773	96.38
505.99	81.38
506.207	96.38
506.423	85.38
506.64	94.38
506.856	85.38
507.073	102.38
507.289	82.38
507.506	113.38
507.722	100.38
507.939	108.38
508.155	90.38
508.372	89.38
508.588	102.38
508.805	85.38
509.021	104.38
509.238	97.38
509.454	88.38
509.67	105.38
509.887	103.38
510.103	138.38
510.319	210.38
510.536	695.38
510.752	2081.38
510.968	605.38
511.184	158.38
511.401	125.38
511.617	89.38
511.833	111.38
512.049	95.38
512.265	89.38
512.481	98.38
512.698	87.38
512.914	89.38
513.13	101.38
513.346	96.38
513.562	83.38
513.778	101.38
513.994	93.38
514.21	92.38
514.426	119.38
514.642	131.38
514.858	133.38
515.074	152.38
515.29	405.38
