Data from Uncirc_2008_H10_HRD10591_00055.txt Node
Date: Wed Jan 03 10:15:41 EST 2024
User: Yrep
Spectrometer: HR+D1059
Trigger mode: 1
Integration Time (sec): 1.000000E-1
Scans to average: 1
Electric dark correction enabled: true
Nonlinearity correction enabled: false
Boxcar width: 0
XAxis mode: Wavelengths
Number of Pixels in Spectrum: 2048
>>>>>Begin Spectral Data<<<<<
223.165	-27.56
223.4	-27.56
223.635	-27.56
223.869	-21.56
224.104	-14.56
224.338	-7.56
224.573	-12.56
224.808	-17.56
225.042	-12.56
225.277	1.44
225.511	-3.56
225.746	5.44
225.98	0.44
226.215	18.44
226.449	17.44
226.683	14.44
226.918	26.44
227.152	33.44
227.387	35.44
227.621	46.44
227.856	50.44
228.09	48.44
228.324	52.44
228.559	54.44
228.793	65.44
229.027	59.44
229.262	79.44
229.496	72.44
229.73	80.44
229.964	69.44
230.199	77.44
230.433	87.44
230.667	76.44
230.901	78.44
231.136	87.44
231.37	81.44
231.604	93.44
231.838	90.44
232.072	94.44
232.306	82.44
232.541	83.44
232.775	85.44
233.009	76.44
233.243	88.44
233.477	83.44
233.711	82.44
233.945	90.44
234.179	89.44
234.413	89.44
234.647	84.44
234.881	81.44
235.115	80.44
235.349	85.44
235.583	81.44
235.817	85.44
236.051	78.44
236.285	86.44
236.519	80.44
236.753	76.44
236.987	83.44
237.221	82.44
237.455	80.44
237.689	78.44
237.922	83.44
238.156	85.44
238.39	65.44
238.624	92.44
238.858	89.44
239.091	73.44
239.325	88.44
239.559	94.44
239.793	78.44
240.027	80.44
240.26	83.44
240.494	81.44
240.728	81.44
240.961	67.44
241.195	91.44
241.429	78.44
241.662	80.44
241.896	85.44
242.13	76.44
242.363	87.44
242.597	74.44
242.83	84.44
243.064	81.44
243.298	90.44
243.531	86.44
243.765	79.44
243.998	61.44
244.232	81.44
244.465	78.44
244.699	81.44
244.932	89.44
245.166	81.44
245.399	64.44
245.633	84.44
245.866	83.44
246.099	78.44
246.333	77.44
246.566	76.44
246.8	79.44
247.033	82.44
247.266	64.44
247.5	89.44
247.733	77.44
247.966	70.44
248.2	71.44
248.433	96.44
248.666	74.44
248.899	92.44
249.133	98.44
249.366	92.44
249.599	89.44
249.832	84.44
250.066	74.44
250.299	65.44
250.532	84.44
250.765	78.44
250.998	93.44
251.231	93.44
251.465	96.44
251.698	72.44
251.931	90.44
252.164	95.44
252.397	79.44
252.63	61.44
252.863	83.44
253.096	85.44
253.329	80.44
253.562	74.44
253.795	81.44
254.028	82.44
254.261	81.44
254.494	84.44
254.727	85.44
254.96	90.44
255.193	88.44
255.426	90.44
255.659	75.44
255.892	76.44
256.124	77.44
256.357	86.44
256.59	69.44
256.823	92.44
257.056	88.44
257.289	74.44
257.521	86.44
257.754	83.44
257.987	76.44
258.22	87.44
258.452	67.44
258.685	88.44
258.918	98.44
259.151	79.44
259.383	66.44
259.616	92.44
259.849	85.44
260.081	101.44
260.314	90.44
260.547	86.44
260.779	86.44
261.012	84.44
261.244	75.44
261.477	85.44
261.71	93.44
261.942	113.44
262.175	109.44
262.407	92.44
262.64	85.44
262.872	88.44
263.105	79.44
263.337	82.44
263.57	71.44
263.802	80.44
264.035	90.44
264.267	94.44
264.499	98.44
264.732	90.44
264.964	78.44
265.197	87.44
265.429	92.44
265.661	77.44
265.894	90.44
266.126	95.44
266.358	79.44
266.591	81.44
266.823	79.44
267.055	77.44
267.287	82.44
267.52	88.44
267.752	97.44
267.984	75.44
268.216	84.44
268.448	103.44
268.681	93.44
268.913	84.44
269.145	101.44
269.377	77.44
269.609	83.44
269.841	99.44
270.073	84.44
270.306	82.44
270.538	94.44
270.77	97.44
271.002	85.44
271.234	80.44
271.466	90.44
271.698	78.44
271.93	98.44
272.162	98.44
272.394	99.44
272.626	103.44
272.858	91.44
273.09	91.44
273.322	90.44
273.553	73.44
273.785	89.44
274.017	101.44
274.249	84.44
274.481	94.44
274.713	89.44
274.945	80.44
275.176	99.44
275.408	88.44
275.64	101.44
275.872	94.44
276.104	84.44
276.335	90.44
276.567	99.44
276.799	119.44
277.031	111.44
277.262	105.44
277.494	99.44
277.726	90.44
277.957	66.44
278.189	90.44
278.421	85.44
278.652	84.44
278.884	94.44
279.115	107.44
279.347	76.44
279.579	81.44
279.81	89.44
280.042	93.44
280.273	96.44
280.505	98.44
280.736	85.44
280.968	80.44
281.199	87.44
281.431	86.44
281.662	79.44
281.894	80.44
282.125	100.44
282.356	104.44
282.588	126.44
282.819	106.44
283.051	84.44
283.282	99.44
283.513	78.44
283.745	69.44
283.976	90.44
284.207	88.44
284.439	83.44
284.67	81.44
284.901	87.44
285.132	90.44
285.364	91.44
285.595	84.44
285.826	99.44
286.057	86.44
286.288	92.44
286.52	101.44
286.751	91.44
286.982	93.44
287.213	87.44
287.444	97.44
287.675	85.44
287.906	80.44
288.138	92.44
288.369	83.44
288.6	95.44
288.831	104.44
289.062	89.44
289.293	78.44
289.524	81.44
289.755	83.44
289.986	97.44
290.217	78.44
290.448	90.44
290.679	97.44
290.91	99.44
291.141	100.44
291.371	80.44
291.602	89.44
291.833	92.44
292.064	103.44
292.295	98.44
292.526	86.44
292.757	83.44
292.987	81.44
293.218	96.44
293.449	83.44
293.68	83.44
293.91	97.44
294.141	93.44
294.372	96.44
294.603	95.44
294.833	84.44
295.064	100.44
295.295	88.44
295.525	93.44
295.756	101.44
295.987	119.44
296.217	131.44
296.448	122.44
296.679	97.44
296.909	108.44
297.14	96.44
297.37	95.44
297.601	99.44
297.831	110.44
298.062	101.44
298.292	93.44
298.523	80.44
298.753	94.44
298.984	91.44
299.214	87.44
299.445	95.44
299.675	85.44
299.905	90.44
300.136	94.44
300.366	107.44
300.597	85.44
300.827	102.44
301.057	83.44
301.288	92.44
301.518	105.44
301.748	102.44
301.979	101.44
302.209	80.44
302.439	88.44
302.669	84.44
302.9	103.44
303.13	84.44
303.36	105.44
303.59	82.44
303.82	107.44
304.051	98.44
304.281	88.44
304.511	82.44
304.741	98.44
304.971	89.44
305.201	98.44
305.431	86.44
305.661	77.44
305.891	98.44
306.121	89.44
306.352	108.44
306.582	98.44
306.812	80.44
307.042	87.44
307.272	101.44
307.502	101.44
307.731	96.44
307.961	87.44
308.191	100.44
308.421	88.44
308.651	81.44
308.881	100.44
309.111	100.44
309.341	97.44
309.571	94.44
309.8	101.44
310.03	79.44
310.26	94.44
310.49	78.44
310.72	82.44
310.949	99.44
311.179	100.44
311.409	87.44
311.639	97.44
311.868	83.44
312.098	92.44
312.328	95.44
312.557	83.44
312.787	100.44
313.017	98.44
313.246	89.44
313.476	93.44
313.706	85.44
313.935	82.44
314.165	110.44
314.394	102.44
314.624	93.44
314.853	85.44
315.083	100.44
315.312	98.44
315.542	98.44
315.771	97.44
316.001	94.44
316.23	95.44
316.46	102.44
316.689	92.44
316.919	93.44
317.148	111.44
317.377	106.44
317.607	81.44
317.836	100.44
318.065	90.44
318.295	98.44
318.524	99.44
318.753	98.44
318.983	91.44
319.212	97.44
319.441	108.44
319.67	100.44
319.9	103.44
320.129	97.44
320.358	101.44
320.587	98.44
320.816	95.44
321.046	93.44
321.275	101.44
321.504	91.44
321.733	77.44
321.962	99.44
322.191	93.44
322.42	106.44
322.649	109.44
322.878	109.44
323.108	111.44
323.337	129.44
323.566	121.44
323.795	141.44
324.024	199.44
324.253	369.44
324.482	743.44
324.71	1458.44
324.939	1954.44
325.168	736.44
325.397	232.44
325.626	149.44
325.855	120.44
326.084	130.44
326.313	138.44
326.542	164.44
326.77	210.44
326.999	438.44
327.228	860.44
327.457	1537.44
327.686	1200.44
327.914	336.44
328.143	179.44
328.372	132.44
328.6	113.44
328.829	124.44
329.058	114.44
329.287	134.44
329.515	113.44
329.744	103.44
329.972	99.44
330.201	93.44
330.43	104.44
330.658	120.44
330.887	121.44
331.115	97.44
331.344	96.44
331.572	93.44
331.801	102.44
332.03	98.44
332.258	100.44
332.486	85.44
332.715	95.44
332.943	105.44
333.172	100.44
333.4	100.44
333.629	109.44
333.857	95.44
334.085	110.44
334.314	86.44
334.542	109.44
334.771	105.44
334.999	102.44
335.227	99.44
335.455	98.44
335.684	97.44
335.912	103.44
336.14	87.44
336.369	81.44
336.597	107.44
336.825	95.44
337.053	104.44
337.281	79.44
337.51	90.44
337.738	100.44
337.966	97.44
338.194	94.44
338.422	99.44
338.65	93.44
338.878	109.44
339.106	99.44
339.334	109.44
339.562	91.44
339.79	99.44
340.018	87.44
340.246	104.44
340.474	108.44
340.702	106.44
340.93	92.44
341.158	109.44
341.386	82.44
341.614	104.44
341.842	107.44
342.07	99.44
342.298	103.44
342.526	102.44
342.754	97.44
342.981	94.44
343.209	83.44
343.437	99.44
343.665	103.44
343.893	87.44
344.12	83.44
344.348	88.44
344.576	109.44
344.804	96.44
345.031	92.44
345.259	101.44
345.487	101.44
345.714	101.44
345.942	101.44
346.17	91.44
346.397	100.44
346.625	98.44
346.853	103.44
347.08	82.44
347.308	100.44
347.535	92.44
347.763	88.44
347.99	113.44
348.218	102.44
348.445	108.44
348.673	86.44
348.9	102.44
349.128	103.44
349.355	110.44
349.583	93.44
349.81	99.44
350.037	109.44
350.265	99.44
350.492	93.44
350.72	107.44
350.947	105.44
351.174	102.44
351.402	92.44
351.629	98.44
351.856	99.44
352.083	101.44
352.311	110.44
352.538	93.44
352.765	99.44
352.992	108.44
353.22	107.44
353.447	106.44
353.674	115.44
353.901	91.44
354.128	98.44
354.355	104.44
354.583	93.44
354.81	98.44
355.037	101.44
355.264	102.44
355.491	97.44
355.718	95.44
355.945	105.44
356.172	101.44
356.399	102.44
356.626	99.44
356.853	89.44
357.08	92.44
357.307	84.44
357.534	92.44
357.761	104.44
357.988	95.44
358.215	92.44
358.441	101.44
358.668	90.44
358.895	86.44
359.122	82.44
359.349	84.44
359.576	83.44
359.802	108.44
360.029	107.44
360.256	112.44
360.483	106.44
360.709	92.44
360.936	103.44
361.163	116.44
361.39	85.44
361.616	85.44
361.843	99.44
362.07	88.44
362.296	98.44
362.523	97.44
362.749	113.44
362.976	93.44
363.203	91.44
363.429	90.44
363.656	107.44
363.882	96.44
364.109	96.44
364.335	81.44
364.562	97.44
364.788	101.44
365.015	81.44
365.241	105.44
365.468	106.44
365.694	111.44
365.92	90.44
366.147	99.44
366.373	88.44
366.599	95.44
366.826	91.44
367.052	93.44
367.278	81.44
367.505	101.44
367.731	101.44
367.957	102.44
368.184	103.44
368.41	81.44
368.636	110.44
368.862	113.44
369.089	98.44
369.315	93.44
369.541	83.44
369.767	79.44
369.993	100.44
370.219	81.44
370.445	98.44
370.672	84.44
370.898	87.44
371.124	91.44
371.35	103.44
371.576	100.44
371.802	99.44
372.028	95.44
372.254	74.44
372.48	87.44
372.706	83.44
372.932	106.44
373.158	98.44
373.384	92.44
373.61	99.44
373.835	96.44
374.061	105.44
374.287	107.44
374.513	88.44
374.739	93.44
374.965	84.44
375.191	81.44
375.416	97.44
375.642	96.44
375.868	90.44
376.094	94.44
376.319	95.44
376.545	106.44
376.771	92.44
376.997	102.44
377.222	95.44
377.448	93.44
377.674	90.44
377.899	106.44
378.125	107.44
378.35	98.44
378.576	96.44
378.802	92.44
379.027	96.44
379.253	109.44
379.478	106.44
379.704	82.44
379.929	97.44
380.155	105.44
380.38	93.44
380.606	89.44
380.831	99.44
381.057	84.44
381.282	104.44
381.507	95.44
381.733	105.44
381.958	103.44
382.184	102.44
382.409	96.44
382.634	100.44
382.86	102.44
383.085	91.44
383.31	95.44
383.535	94.44
383.761	106.44
383.986	86.44
384.211	106.44
384.436	93.44
384.662	105.44
384.887	96.44
385.112	105.44
385.337	118.44
385.562	104.44
385.787	96.44
386.013	102.44
386.238	114.44
386.463	94.44
386.688	108.44
386.913	113.44
387.138	114.44
387.363	107.44
387.588	106.44
387.813	99.44
388.038	105.44
388.263	119.44
388.488	107.44
388.713	95.44
388.938	97.44
389.163	103.44
389.387	92.44
389.612	88.44
389.837	99.44
390.062	84.44
390.287	86.44
390.512	102.44
390.736	104.44
390.961	89.44
391.186	76.44
391.411	96.44
391.636	90.44
391.86	85.44
392.085	83.44
392.31	83.44
392.534	78.44
392.759	93.44
392.984	91.44
393.208	94.44
393.433	88.44
393.658	86.44
393.882	81.44
394.107	81.44
394.331	84.44
394.556	82.44
394.78	83.44
395.005	88.44
395.229	85.44
395.454	88.44
395.678	81.44
395.903	79.44
396.127	76.44
396.352	87.44
396.576	78.44
396.801	92.44
397.025	81.44
397.249	101.44
397.474	76.44
397.698	94.44
397.922	87.44
398.147	86.44
398.371	87.44
398.595	79.44
398.82	98.44
399.044	77.44
399.268	92.44
399.492	105.44
399.717	98.44
399.941	100.44
400.165	93.44
400.389	98.44
400.613	98.44
400.837	90.44
401.062	90.44
401.286	83.44
401.51	79.44
401.734	89.44
401.958	109.44
402.182	120.44
402.406	151.44
402.63	113.44
402.854	77.44
403.078	92.44
403.302	91.44
403.526	87.44
403.75	87.44
403.974	101.44
404.198	100.44
404.422	90.44
404.645	84.44
404.869	101.44
405.093	95.44
405.317	93.44
405.541	86.44
405.765	84.44
405.988	113.44
406.212	158.44
406.436	197.44
406.66	138.44
406.883	83.44
407.107	90.44
407.331	92.44
407.555	104.44
407.778	88.44
408.002	102.44
408.226	104.44
408.449	90.44
408.673	88.44
408.896	83.44
409.12	89.44
409.344	82.44
409.567	95.44
409.791	86.44
410.014	102.44
410.238	93.44
410.461	100.44
410.685	92.44
410.908	97.44
411.132	109.44
411.355	83.44
411.578	99.44
411.802	86.44
412.025	87.44
412.249	90.44
412.472	100.44
412.695	98.44
412.919	81.44
413.142	78.44
413.365	77.44
413.589	95.44
413.812	103.44
414.035	93.44
414.258	92.44
414.482	98.44
414.705	95.44
414.928	90.44
415.151	93.44
415.374	97.44
415.597	108.44
415.821	86.44
416.044	93.44
416.267	100.44
416.49	94.44
416.713	99.44
416.936	97.44
417.159	69.44
417.382	103.44
417.605	97.44
417.828	88.44
418.051	98.44
418.274	94.44
418.497	104.44
418.72	87.44
418.943	86.44
419.166	95.44
419.389	88.44
419.611	96.44
419.834	94.44
420.057	90.44
420.28	89.44
420.503	83.44
420.726	87.44
420.948	83.44
421.171	102.44
421.394	89.44
421.617	100.44
421.839	90.44
422.062	94.44
422.285	98.44
422.507	99.44
422.73	98.44
422.953	102.44
423.175	98.44
423.398	71.44
423.621	93.44
423.843	86.44
424.066	98.44
424.288	86.44
424.511	95.44
424.733	84.44
424.956	101.44
425.178	117.44
425.401	95.44
425.623	97.44
425.846	80.44
426.068	91.44
426.291	96.44
426.513	90.44
426.735	102.44
426.958	92.44
427.18	109.44
427.402	148.44
427.625	136.44
427.847	113.44
428.069	102.44
428.292	92.44
428.514	93.44
428.736	86.44
428.958	91.44
429.181	95.44
429.403	95.44
429.625	80.44
429.847	96.44
430.069	97.44
430.292	82.44
430.514	82.44
430.736	88.44
430.958	79.44
431.18	82.44
431.402	79.44
431.624	96.44
431.846	102.44
432.068	94.44
432.29	103.44
432.512	82.44
432.734	77.44
432.956	88.44
433.178	90.44
433.4	104.44
433.622	92.44
433.844	93.44
434.066	87.44
434.287	99.44
434.509	89.44
434.731	88.44
434.953	83.44
435.175	86.44
435.397	99.44
435.618	99.44
435.84	100.44
436.062	117.44
436.284	102.44
436.505	104.44
436.727	115.44
436.949	104.44
437.17	103.44
437.392	89.44
437.614	108.44
437.835	108.44
438.057	123.44
438.278	104.44
438.5	120.44
438.721	117.44
438.943	93.44
439.165	89.44
439.386	85.44
439.608	88.44
439.829	99.44
440.05	115.44
440.272	122.44
440.493	86.44
440.715	103.44
440.936	98.44
441.158	86.44
441.379	83.44
441.6	98.44
441.822	97.44
442.043	92.44
442.264	111.44
442.486	97.44
442.707	98.44
442.928	111.44
443.149	126.44
443.371	123.44
443.592	93.44
443.813	105.44
444.034	110.44
444.255	107.44
444.476	98.44
444.698	96.44
444.919	90.44
445.14	133.44
445.361	138.44
445.582	108.44
445.803	132.44
446.024	135.44
446.245	117.44
446.466	99.44
446.687	73.44
446.908	93.44
447.129	94.44
447.35	79.44
447.571	92.44
447.792	89.44
448.013	108.44
448.234	117.44
448.455	96.44
448.675	109.44
448.896	113.44
449.117	110.44
449.338	106.44
449.559	122.44
449.779	140.44
450	84.44
450.221	76.44
450.442	86.44
450.662	83.44
450.883	94.44
451.104	106.44
451.324	113.44
451.545	81.44
451.766	99.44
451.986	80.44
452.207	106.44
452.428	85.44
452.648	104.44
452.869	113.44
453.089	124.44
453.31	109.44
453.53	97.44
453.751	97.44
453.971	113.44
454.192	121.44
454.412	90.44
454.633	80.44
454.853	94.44
455.073	84.44
455.294	96.44
455.514	88.44
455.734	98.44
455.955	91.44
456.175	92.44
456.395	88.44
456.616	92.44
456.836	80.44
457.056	100.44
457.276	96.44
457.497	90.44
457.717	76.44
457.937	83.44
458.157	92.44
458.377	106.44
458.598	96.44
458.818	140.44
459.038	141.44
459.258	115.44
459.478	82.44
459.698	89.44
459.918	92.44
460.138	86.44
460.358	84.44
460.578	91.44
460.798	102.44
461.018	85.44
461.238	77.44
461.458	89.44
461.678	88.44
461.898	82.44
462.118	94.44
462.338	96.44
462.558	95.44
462.777	76.44
462.997	82.44
463.217	76.44
463.437	92.44
463.657	83.44
463.876	103.44
464.096	100.44
464.316	90.44
464.536	91.44
464.755	92.44
464.975	110.44
465.195	144.44
465.414	144.44
465.634	93.44
465.854	85.44
466.073	91.44
466.293	89.44
466.512	73.44
466.732	92.44
466.951	89.44
467.171	101.44
467.391	91.44
467.61	108.44
467.829	106.44
468.049	93.44
468.268	86.44
468.488	86.44
468.707	101.44
468.927	90.44
469.146	82.44
469.365	77.44
469.585	97.44
469.804	99.44
470.023	104.44
470.243	101.44
470.462	93.44
470.681	101.44
470.901	92.44
471.12	97.44
471.339	88.44
471.558	67.44
471.777	86.44
471.997	107.44
472.216	88.44
472.435	80.44
472.654	93.44
472.873	107.44
473.092	86.44
473.311	69.44
473.53	93.44
473.749	91.44
473.968	104.44
474.187	112.44
474.406	90.44
474.625	87.44
474.844	90.44
475.063	86.44
475.282	82.44
475.501	88.44
475.72	98.44
475.939	88.44
476.158	107.44
476.377	76.44
476.596	88.44
476.814	75.44
477.033	90.44
477.252	86.44
477.471	98.44
477.69	92.44
477.908	72.44
478.127	83.44
478.346	82.44
478.564	100.44
478.783	96.44
479.002	85.44
479.22	83.44
479.439	102.44
479.658	108.44
479.876	92.44
480.095	101.44
480.313	86.44
480.532	81.44
480.751	85.44
480.969	79.44
481.188	91.44
481.406	93.44
481.624	101.44
481.843	88.44
482.061	95.44
482.28	86.44
482.498	91.44
482.717	80.44
482.935	81.44
483.153	94.44
483.372	83.44
483.59	100.44
483.808	85.44
484.027	94.44
484.245	104.44
484.463	101.44
484.681	115.44
484.9	93.44
485.118	96.44
485.336	82.44
485.554	94.44
485.772	89.44
485.99	103.44
486.209	101.44
486.427	106.44
486.645	102.44
486.863	110.44
487.081	99.44
487.299	100.44
487.517	90.44
487.735	89.44
487.953	92.44
488.171	106.44
488.389	109.44
488.607	94.44
488.825	89.44
489.043	104.44
489.261	102.44
489.479	92.44
489.696	89.44
489.914	83.44
490.132	94.44
490.35	82.44
490.568	94.44
490.786	94.44
491.003	83.44
491.221	99.44
491.439	90.44
491.657	97.44
491.874	100.44
492.092	89.44
492.31	105.44
492.527	85.44
492.745	92.44
492.963	76.44
493.18	89.44
493.398	92.44
493.615	104.44
493.833	89.44
494.05	102.44
494.268	100.44
494.485	83.44
494.703	84.44
494.92	71.44
495.138	96.44
495.355	94.44
495.573	84.44
495.79	90.44
496.008	101.44
496.225	95.44
496.442	89.44
496.66	93.44
496.877	90.44
497.094	96.44
497.312	105.44
497.529	88.44
497.746	100.44
497.963	92.44
498.181	92.44
498.398	97.44
498.615	112.44
498.832	101.44
499.049	87.44
499.267	99.44
499.484	80.44
499.701	101.44
499.918	93.44
500.135	109.44
500.352	99.44
500.569	97.44
500.786	81.44
501.003	82.44
501.22	102.44
501.437	90.44
501.654	105.44
501.871	114.44
502.088	107.44
502.305	89.44
502.522	94.44
502.739	102.44
502.956	86.44
503.172	93.44
503.389	101.44
503.606	103.44
503.823	90.44
504.04	86.44
504.256	85.44
504.473	86.44
504.69	102.44
504.907	94.44
505.123	94.44
505.34	97.44
505.557	84.44
505.773	91.44
505.99	95.44
506.207	98.44
506.423	99.44
506.64	80.44
506.856	85.44
507.073	107.44
507.289	101.44
507.506	90.44
507.722	116.44
507.939	98.44
508.155	90.44
508.372	86.44
508.588	96.44
508.805	114.44
509.021	107.44
509.238	98.44
509.454	117.44
509.67	96.44
509.887	114.44
510.103	126.44
510.319	200.44
510.536	685.44
510.752	2196.44
510.968	611.44
511.184	163.44
511.401	126.44
511.617	105.44
511.833	105.44
512.049	94.44
512.265	99.44
512.481	91.44
512.698	82.44
512.914	97.44
513.13	89.44
513.346	94.44
513.562	101.44
513.778	98.44
513.994	107.44
514.21	107.44
514.426	113.44
514.642	116.44
