Data from Uncirc_2008_H10_HRD10591_00076.txt Node
Date: Wed Jan 03 10:15:46 EST 2024
User: Yrep
Spectrometer: HR+D1059
Trigger mode: 1
Integration Time (sec): 1.000000E-1
Scans to average: 1
Electric dark correction enabled: true
Nonlinearity correction enabled: false
Boxcar width: 0
XAxis mode: Wavelengths
Number of Pixels in Spectrum: 2048
>>>>>Begin Spectral Data<<<<<
223.165	-13.81
223.4	-13.81
223.635	-13.81
223.869	-11.81
224.104	-22.81
224.338	-11.81
224.573	-11.81
224.808	-18.81
225.042	-15.81
225.277	1.19
225.511	-14.81
225.746	6.19
225.98	4.19
226.215	9.19
226.449	26.19
226.683	23.19
226.918	21.19
227.152	30.19
227.387	33.19
227.621	32.19
227.856	45.19
228.09	44.19
228.324	67.19
228.559	66.19
228.793	50.19
229.027	61.19
229.262	72.19
229.496	73.19
229.73	84.19
229.964	88.19
230.199	71.19
230.433	69.19
230.667	86.19
230.901	75.19
231.136	74.19
231.37	74.19
231.604	81.19
231.838	81.19
232.072	82.19
232.306	81.19
232.541	80.19
232.775	77.19
233.009	79.19
233.243	73.19
233.477	70.19
233.711	80.19
233.945	80.19
234.179	75.19
234.413	72.19
234.647	77.19
234.881	81.19
235.115	78.19
235.349	71.19
235.583	72.19
235.817	88.19
236.051	83.19
236.285	68.19
236.519	85.19
236.753	68.19
236.987	77.19
237.221	73.19
237.455	87.19
237.689	88.19
237.922	77.19
238.156	74.19
238.39	84.19
238.624	54.19
238.858	80.19
239.091	71.19
239.325	82.19
239.559	74.19
239.793	77.19
240.027	79.19
240.26	74.19
240.494	81.19
240.728	70.19
240.961	85.19
241.195	78.19
241.429	73.19
241.662	77.19
241.896	79.19
242.13	69.19
242.363	73.19
242.597	78.19
242.83	66.19
243.064	85.19
243.298	82.19
243.531	59.19
243.765	64.19
243.998	79.19
244.232	79.19
244.465	77.19
244.699	80.19
244.932	88.19
245.166	83.19
245.399	75.19
245.633	78.19
245.866	72.19
246.099	74.19
246.333	74.19
246.566	80.19
246.8	72.19
247.033	79.19
247.266	92.19
247.5	78.19
247.733	88.19
247.966	86.19
248.2	72.19
248.433	72.19
248.666	79.19
248.899	77.19
249.133	73.19
249.366	82.19
249.599	92.19
249.832	77.19
250.066	76.19
250.299	91.19
250.532	93.19
250.765	70.19
250.998	68.19
251.231	69.19
251.465	78.19
251.698	65.19
251.931	74.19
252.164	98.19
252.397	64.19
252.63	82.19
252.863	81.19
253.096	69.19
253.329	82.19
253.562	84.19
253.795	81.19
254.028	79.19
254.261	84.19
254.494	94.19
254.727	83.19
254.96	83.19
255.193	77.19
255.426	71.19
255.659	74.19
255.892	86.19
256.124	88.19
256.357	80.19
256.59	75.19
256.823	70.19
257.056	91.19
257.289	84.19
257.521	87.19
257.754	93.19
257.987	75.19
258.22	81.19
258.452	63.19
258.685	90.19
258.918	83.19
259.151	91.19
259.383	86.19
259.616	88.19
259.849	86.19
260.081	96.19
260.314	82.19
260.547	94.19
260.779	70.19
261.012	82.19
261.244	92.19
261.477	83.19
261.71	106.19
261.942	108.19
262.175	102.19
262.407	80.19
262.64	83.19
262.872	98.19
263.105	76.19
263.337	88.19
263.57	81.19
263.802	82.19
264.035	79.19
264.267	85.19
264.499	92.19
264.732	76.19
264.964	88.19
265.197	73.19
265.429	90.19
265.661	92.19
265.894	102.19
266.126	77.19
266.358	87.19
266.591	77.19
266.823	83.19
267.055	72.19
267.287	75.19
267.52	78.19
267.752	82.19
267.984	75.19
268.216	86.19
268.448	77.19
268.681	76.19
268.913	80.19
269.145	82.19
269.377	76.19
269.609	93.19
269.841	96.19
270.073	86.19
270.306	78.19
270.538	89.19
270.77	83.19
271.002	88.19
271.234	90.19
271.466	80.19
271.698	83.19
271.93	86.19
272.162	78.19
272.394	87.19
272.626	94.19
272.858	85.19
273.09	92.19
273.322	102.19
273.553	88.19
273.785	63.19
274.017	65.19
274.249	99.19
274.481	80.19
274.713	87.19
274.945	80.19
275.176	78.19
275.408	77.19
275.64	80.19
275.872	86.19
276.104	79.19
276.335	93.19
276.567	95.19
276.799	92.19
277.031	100.19
277.262	82.19
277.494	95.19
277.726	73.19
277.957	73.19
278.189	81.19
278.421	81.19
278.652	76.19
278.884	90.19
279.115	86.19
279.347	89.19
279.579	90.19
279.81	77.19
280.042	84.19
280.273	96.19
280.505	87.19
280.736	94.19
280.968	78.19
281.199	79.19
281.431	80.19
281.662	75.19
281.894	82.19
282.125	101.19
282.356	108.19
282.588	128.19
282.819	104.19
283.051	74.19
283.282	87.19
283.513	91.19
283.745	88.19
283.976	90.19
284.207	81.19
284.439	85.19
284.67	76.19
284.901	77.19
285.132	91.19
285.364	76.19
285.595	73.19
285.826	89.19
286.057	88.19
286.288	93.19
286.52	95.19
286.751	95.19
286.982	92.19
287.213	82.19
287.444	95.19
287.675	88.19
287.906	94.19
288.138	81.19
288.369	98.19
288.6	81.19
288.831	86.19
289.062	93.19
289.293	90.19
289.524	93.19
289.755	103.19
289.986	88.19
290.217	77.19
290.448	71.19
290.679	86.19
290.91	89.19
291.141	77.19
291.371	95.19
291.602	75.19
291.833	85.19
292.064	95.19
292.295	78.19
292.526	81.19
292.757	83.19
292.987	75.19
293.218	95.19
293.449	91.19
293.68	72.19
293.91	96.19
294.141	88.19
294.372	77.19
294.603	83.19
294.833	83.19
295.064	88.19
295.295	88.19
295.525	81.19
295.756	103.19
295.987	103.19
296.217	133.19
296.448	112.19
296.679	97.19
296.909	88.19
297.14	91.19
297.37	85.19
297.601	93.19
297.831	81.19
298.062	90.19
298.292	88.19
298.523	97.19
298.753	74.19
298.984	84.19
299.214	93.19
299.445	88.19
299.675	96.19
299.905	95.19
300.136	87.19
300.366	86.19
300.597	113.19
300.827	79.19
301.057	89.19
301.288	88.19
301.518	81.19
301.748	89.19
301.979	100.19
302.209	81.19
302.439	90.19
302.669	94.19
302.9	76.19
303.13	81.19
303.36	82.19
303.59	79.19
303.82	105.19
304.051	87.19
304.281	85.19
304.511	72.19
304.741	83.19
304.971	85.19
305.201	91.19
305.431	86.19
305.661	89.19
305.891	75.19
306.121	92.19
306.352	95.19
306.582	115.19
306.812	92.19
307.042	96.19
307.272	89.19
307.502	94.19
307.731	86.19
307.961	90.19
308.191	80.19
308.421	96.19
308.651	81.19
308.881	83.19
309.111	88.19
309.341	74.19
309.571	100.19
309.8	89.19
310.03	102.19
310.26	105.19
310.49	94.19
310.72	96.19
310.949	100.19
311.179	92.19
311.409	102.19
311.639	86.19
311.868	103.19
312.098	95.19
312.328	89.19
312.557	100.19
312.787	97.19
313.017	94.19
313.246	92.19
313.476	78.19
313.706	85.19
313.935	103.19
314.165	96.19
314.394	96.19
314.624	81.19
314.853	90.19
315.083	84.19
315.312	93.19
315.542	77.19
315.771	99.19
316.001	82.19
316.23	99.19
316.46	84.19
316.689	78.19
316.919	88.19
317.148	97.19
317.377	91.19
317.607	98.19
317.836	84.19
318.065	81.19
318.295	93.19
318.524	84.19
318.753	106.19
318.983	92.19
319.212	106.19
319.441	93.19
319.67	98.19
319.9	84.19
320.129	87.19
320.358	98.19
320.587	85.19
320.816	94.19
321.046	95.19
321.275	121.19
321.504	88.19
321.733	100.19
321.962	85.19
322.191	100.19
322.42	94.19
322.649	121.19
322.878	114.19
323.108	107.19
323.337	111.19
323.566	120.19
323.795	140.19
324.024	194.19
324.253	360.19
324.482	741.19
324.71	1566.19
324.939	1999.19
325.168	732.19
325.397	230.19
325.626	154.19
325.855	116.19
326.084	111.19
326.313	113.19
326.542	146.19
326.77	236.19
326.999	429.19
327.228	855.19
327.457	1546.19
327.686	1245.19
327.914	335.19
328.143	184.19
328.372	143.19
328.6	128.19
328.829	94.19
329.058	129.19
329.287	127.19
329.515	118.19
329.744	104.19
329.972	98.19
330.201	98.19
330.43	102.19
330.658	120.19
330.887	121.19
331.115	116.19
331.344	86.19
331.572	105.19
331.801	91.19
332.03	96.19
332.258	102.19
332.486	92.19
332.715	85.19
332.943	77.19
333.172	103.19
333.4	111.19
333.629	106.19
333.857	126.19
334.085	101.19
334.314	109.19
334.542	74.19
334.771	83.19
334.999	96.19
335.227	112.19
335.455	101.19
335.684	89.19
335.912	90.19
336.14	94.19
336.369	92.19
336.597	93.19
336.825	111.19
337.053	103.19
337.281	84.19
337.51	78.19
337.738	98.19
337.966	102.19
338.194	98.19
338.422	91.19
338.65	100.19
338.878	96.19
339.106	104.19
339.334	100.19
339.562	77.19
339.79	94.19
340.018	93.19
340.246	88.19
340.474	93.19
340.702	87.19
340.93	101.19
341.158	77.19
341.386	95.19
341.614	101.19
341.842	96.19
342.07	86.19
342.298	100.19
342.526	85.19
342.754	93.19
342.981	81.19
343.209	88.19
343.437	107.19
343.665	89.19
343.893	87.19
344.12	87.19
344.348	89.19
344.576	72.19
344.804	93.19
345.031	102.19
345.259	111.19
345.487	83.19
345.714	105.19
345.942	95.19
346.17	81.19
346.397	81.19
346.625	101.19
346.853	88.19
347.08	72.19
347.308	92.19
347.535	88.19
347.763	105.19
347.99	89.19
348.218	86.19
348.445	78.19
348.673	90.19
348.9	86.19
349.128	101.19
349.355	99.19
349.583	96.19
349.81	89.19
350.037	88.19
350.265	81.19
350.492	88.19
350.72	78.19
350.947	97.19
351.174	98.19
351.402	103.19
351.629	99.19
351.856	97.19
352.083	102.19
352.311	99.19
352.538	86.19
352.765	98.19
352.992	114.19
353.22	125.19
353.447	96.19
353.674	97.19
353.901	95.19
354.128	104.19
354.355	94.19
354.583	93.19
354.81	103.19
355.037	102.19
355.264	89.19
355.491	96.19
355.718	96.19
355.945	89.19
356.172	97.19
356.399	92.19
356.626	89.19
356.853	95.19
357.08	74.19
357.307	85.19
357.534	88.19
357.761	82.19
357.988	87.19
358.215	76.19
358.441	95.19
358.668	92.19
358.895	93.19
359.122	77.19
359.349	81.19
359.576	93.19
359.802	84.19
360.029	98.19
360.256	90.19
360.483	108.19
360.709	94.19
360.936	85.19
361.163	91.19
361.39	77.19
361.616	78.19
361.843	86.19
362.07	91.19
362.296	83.19
362.523	88.19
362.749	76.19
362.976	84.19
363.203	83.19
363.429	84.19
363.656	87.19
363.882	87.19
364.109	82.19
364.335	99.19
364.562	88.19
364.788	86.19
365.015	86.19
365.241	91.19
365.468	108.19
365.694	110.19
365.92	99.19
366.147	87.19
366.373	80.19
366.599	93.19
366.826	88.19
367.052	88.19
367.278	82.19
367.505	100.19
367.731	95.19
367.957	86.19
368.184	91.19
368.41	89.19
368.636	91.19
368.862	134.19
369.089	102.19
369.315	88.19
369.541	79.19
369.767	80.19
369.993	77.19
370.219	78.19
370.445	97.19
370.672	95.19
370.898	80.19
371.124	87.19
371.35	101.19
371.576	82.19
371.802	80.19
372.028	84.19
372.254	89.19
372.48	86.19
372.706	90.19
372.932	96.19
373.158	93.19
373.384	90.19
373.61	102.19
373.835	84.19
374.061	80.19
374.287	103.19
374.513	100.19
374.739	78.19
374.965	89.19
375.191	94.19
375.416	82.19
375.642	89.19
375.868	88.19
376.094	75.19
376.319	81.19
376.545	82.19
376.771	100.19
376.997	84.19
377.222	101.19
377.448	83.19
377.674	86.19
377.899	87.19
378.125	77.19
378.35	88.19
378.576	92.19
378.802	78.19
379.027	80.19
379.253	101.19
379.478	89.19
379.704	96.19
379.929	81.19
380.155	86.19
380.38	99.19
380.606	85.19
380.831	102.19
381.057	109.19
381.282	82.19
381.507	95.19
381.733	83.19
381.958	91.19
382.184	92.19
382.409	82.19
382.634	105.19
382.86	113.19
383.085	101.19
383.31	84.19
383.535	94.19
383.761	93.19
383.986	94.19
384.211	97.19
384.436	89.19
384.662	88.19
384.887	91.19
385.112	95.19
385.337	101.19
385.562	97.19
385.787	97.19
386.013	90.19
386.238	106.19
386.463	105.19
386.688	112.19
386.913	100.19
387.138	109.19
387.363	83.19
387.588	95.19
387.813	94.19
388.038	94.19
388.263	104.19
388.488	109.19
388.713	102.19
388.938	97.19
389.163	91.19
389.387	83.19
389.612	91.19
389.837	93.19
390.062	87.19
390.287	92.19
390.512	103.19
390.736	101.19
390.961	87.19
391.186	96.19
391.411	86.19
391.636	93.19
391.86	95.19
392.085	87.19
392.31	89.19
392.534	84.19
392.759	101.19
392.984	74.19
393.208	87.19
393.433	74.19
393.658	94.19
393.882	82.19
394.107	74.19
394.331	86.19
394.556	86.19
394.78	105.19
395.005	96.19
395.229	92.19
395.454	90.19
395.678	92.19
395.903	87.19
396.127	93.19
396.352	93.19
396.576	72.19
396.801	80.19
397.025	98.19
397.249	94.19
397.474	78.19
397.698	81.19
397.922	90.19
398.147	95.19
398.371	87.19
398.595	97.19
398.82	82.19
399.044	87.19
399.268	78.19
399.492	77.19
399.717	74.19
399.941	81.19
400.165	88.19
400.389	77.19
400.613	79.19
400.837	90.19
401.062	83.19
401.286	84.19
401.51	72.19
401.734	89.19
401.958	102.19
402.182	120.19
402.406	135.19
402.63	105.19
402.854	98.19
403.078	80.19
403.302	85.19
403.526	76.19
403.75	78.19
403.974	89.19
404.198	79.19
404.422	94.19
404.645	94.19
404.869	89.19
405.093	88.19
405.317	85.19
405.541	97.19
405.765	102.19
405.988	106.19
406.212	170.19
406.436	203.19
406.66	125.19
406.883	95.19
407.107	74.19
407.331	86.19
407.555	91.19
407.778	95.19
408.002	84.19
408.226	77.19
408.449	88.19
408.673	80.19
408.896	86.19
409.12	102.19
409.344	89.19
409.567	80.19
409.791	86.19
410.014	89.19
410.238	88.19
410.461	77.19
410.685	105.19
410.908	107.19
411.132	100.19
411.355	102.19
411.578	81.19
411.802	91.19
412.025	75.19
412.249	93.19
412.472	91.19
412.695	97.19
412.919	94.19
413.142	81.19
413.365	85.19
413.589	85.19
413.812	71.19
414.035	74.19
414.258	86.19
414.482	84.19
414.705	74.19
414.928	102.19
415.151	90.19
415.374	91.19
415.597	82.19
415.821	94.19
416.044	83.19
416.267	89.19
416.49	75.19
416.713	77.19
416.936	92.19
417.159	77.19
417.382	86.19
417.605	81.19
417.828	92.19
418.051	81.19
418.274	92.19
418.497	79.19
418.72	69.19
418.943	65.19
419.166	93.19
419.389	88.19
419.611	85.19
419.834	86.19
420.057	91.19
420.28	82.19
420.503	96.19
420.726	82.19
420.948	97.19
421.171	72.19
421.394	89.19
421.617	73.19
421.839	86.19
422.062	82.19
422.285	95.19
422.507	108.19
422.73	102.19
422.953	100.19
423.175	85.19
423.398	96.19
423.621	92.19
423.843	103.19
424.066	77.19
424.288	80.19
424.511	90.19
424.733	107.19
424.956	95.19
425.178	96.19
425.401	88.19
425.623	96.19
425.846	86.19
426.068	82.19
426.291	90.19
426.513	85.19
426.735	82.19
426.958	103.19
427.18	111.19
427.402	128.19
427.625	145.19
427.847	119.19
428.069	101.19
428.292	82.19
428.514	67.19
428.736	84.19
428.958	97.19
429.181	77.19
429.403	77.19
429.625	87.19
429.847	88.19
430.069	102.19
430.292	81.19
430.514	86.19
430.736	86.19
430.958	89.19
431.18	88.19
431.402	80.19
431.624	77.19
431.846	87.19
432.068	79.19
432.29	82.19
432.512	74.19
432.734	79.19
432.956	91.19
433.178	96.19
433.4	101.19
433.622	88.19
433.844	98.19
434.066	86.19
434.287	89.19
434.509	87.19
434.731	88.19
434.953	78.19
435.175	79.19
435.397	71.19
435.618	86.19
435.84	92.19
436.062	117.19
436.284	103.19
436.505	100.19
436.727	109.19
436.949	92.19
437.17	80.19
437.392	77.19
437.614	97.19
437.835	89.19
438.057	113.19
438.278	95.19
438.5	96.19
438.721	112.19
438.943	101.19
439.165	92.19
439.386	88.19
439.608	93.19
439.829	106.19
440.05	107.19
440.272	120.19
440.493	103.19
440.715	94.19
440.936	82.19
441.158	100.19
441.379	94.19
441.6	78.19
441.822	81.19
442.043	92.19
442.264	97.19
442.486	100.19
442.707	95.19
442.928	87.19
443.149	118.19
443.371	132.19
443.592	112.19
443.813	106.19
444.034	118.19
444.255	92.19
444.476	103.19
444.698	95.19
444.919	80.19
445.14	139.19
445.361	112.19
445.582	112.19
445.803	122.19
446.024	136.19
446.245	139.19
446.466	96.19
446.687	85.19
446.908	76.19
447.129	83.19
447.35	86.19
447.571	89.19
447.792	80.19
448.013	91.19
448.234	100.19
448.455	97.19
448.675	96.19
448.896	105.19
449.117	91.19
449.338	96.19
449.559	124.19
449.779	131.19
450	101.19
450.221	92.19
450.442	88.19
450.662	79.19
450.883	94.19
451.104	110.19
451.324	96.19
451.545	90.19
451.766	82.19
451.986	82.19
452.207	86.19
452.428	93.19
452.648	88.19
452.869	108.19
453.089	114.19
453.31	113.19
453.53	82.19
453.751	85.19
453.971	96.19
454.192	103.19
454.412	94.19
454.633	86.19
454.853	87.19
455.073	92.19
455.294	88.19
455.514	112.19
455.734	88.19
455.955	84.19
456.175	88.19
456.395	77.19
456.616	82.19
456.836	90.19
457.056	93.19
457.276	80.19
457.497	89.19
457.717	92.19
457.937	91.19
458.157	74.19
458.377	71.19
458.598	102.19
458.818	128.19
459.038	145.19
459.258	108.19
459.478	89.19
459.698	83.19
459.918	70.19
460.138	90.19
460.358	88.19
460.578	89.19
460.798	89.19
461.018	87.19
461.238	104.19
461.458	93.19
461.678	85.19
461.898	80.19
462.118	79.19
462.338	80.19
462.558	74.19
462.777	81.19
462.997	78.19
463.217	89.19
463.437	87.19
463.657	90.19
463.876	93.19
464.096	80.19
464.316	76.19
464.536	96.19
464.755	98.19
464.975	118.19
465.195	160.19
465.414	159.19
465.634	95.19
465.854	85.19
466.073	90.19
466.293	101.19
466.512	84.19
466.732	84.19
466.951	89.19
467.171	94.19
467.391	97.19
467.61	93.19
467.829	82.19
468.049	89.19
468.268	92.19
468.488	70.19
468.707	87.19
468.927	84.19
469.146	87.19
469.365	86.19
469.585	92.19
469.804	92.19
470.023	89.19
470.243	74.19
470.462	88.19
470.681	92.19
470.901	98.19
471.12	80.19
471.339	91.19
471.558	95.19
471.777	81.19
471.997	81.19
472.216	81.19
472.435	81.19
472.654	94.19
472.873	81.19
473.092	81.19
473.311	75.19
473.53	86.19
473.749	90.19
473.968	98.19
474.187	102.19
474.406	89.19
474.625	75.19
474.844	91.19
475.063	87.19
475.282	95.19
475.501	93.19
475.72	87.19
475.939	88.19
476.158	79.19
476.377	76.19
476.596	94.19
476.814	100.19
477.033	89.19
477.252	85.19
477.471	73.19
477.69	92.19
477.908	100.19
478.127	81.19
478.346	96.19
478.564	91.19
478.783	95.19
479.002	82.19
479.22	94.19
479.439	91.19
479.658	88.19
479.876	79.19
480.095	86.19
480.313	99.19
480.532	86.19
480.751	80.19
480.969	79.19
481.188	75.19
481.406	85.19
481.624	96.19
481.843	99.19
482.061	77.19
482.28	90.19
482.498	94.19
482.717	84.19
482.935	85.19
483.153	80.19
483.372	82.19
483.59	88.19
483.808	80.19
484.027	81.19
484.245	80.19
484.463	87.19
484.681	92.19
484.9	98.19
485.118	98.19
485.336	97.19
485.554	106.19
485.772	92.19
485.99	98.19
486.209	117.19
486.427	103.19
486.645	74.19
486.863	90.19
487.081	90.19
487.299	89.19
487.517	99.19
487.735	85.19
487.953	81.19
488.171	95.19
488.389	88.19
488.607	98.19
488.825	104.19
489.043	92.19
489.261	86.19
489.479	84.19
489.696	109.19
489.914	102.19
490.132	75.19
490.35	91.19
490.568	88.19
490.786	81.19
491.003	101.19
491.221	98.19
491.439	102.19
491.657	106.19
491.874	99.19
492.092	89.19
492.31	83.19
492.527	72.19
492.745	81.19
492.963	90.19
493.18	86.19
493.398	100.19
493.615	86.19
493.833	86.19
494.05	83.19
494.268	82.19
494.485	80.19
494.703	86.19
494.92	94.19
495.138	96.19
495.355	90.19
495.573	100.19
495.79	105.19
496.008	92.19
496.225	93.19
496.442	96.19
496.66	98.19
496.877	84.19
497.094	92.19
497.312	93.19
497.529	101.19
497.746	93.19
497.963	84.19
498.181	89.19
498.398	89.19
498.615	110.19
498.832	99.19
499.049	89.19
499.267	88.19
499.484	97.19
499.701	79.19
499.918	78.19
500.135	89.19
500.352	86.19
500.569	79.19
500.786	83.19
501.003	90.19
501.22	76.19
501.437	94.19
501.654	104.19
501.871	106.19
502.088	98.19
502.305	106.19
502.522	90.19
502.739	104.19
502.956	95.19
503.172	78.19
503.389	86.19
503.606	101.19
503.823	82.19
504.04	90.19
504.256	111.19
504.473	74.19
504.69	101.19
504.907	96.19
505.123	80.19
505.34	68.19
505.557	89.19
505.773	80.19
505.99	101.19
506.207	84.19
506.423	98.19
506.64	104.19
506.856	87.19
507.073	101.19
507.289	89.19
507.506	95.19
507.722	116.19
507.939	119.19
508.155	101.19
508.372	81.19
508.588	100.19
508.805	97.19
509.021	96.19
509.238	103.19
509.454	93.19
509.67	95.19
509.887	108.19
510.103	116.19
510.319	202.19
510.536	729.19
510.752	2261.19
510.968	634.19
511.184	150.19
511.401	122.19
511.617	91.19
511.833	84.19
512.049	74.19
512.265	102.19
512.481	95.19
512.698	75.19
512.914	91.19
513.13	94.19
513.346	88.19
513.562	97.19
513.778	94.19
513.994	98.19
514.21	107.19
514.426	109.19
514.642	112.19
514.858	114.19
515.074	149.19
515.29	409.19
515.506	1404.19
515.721	511.19
515.937	128.19
516.153	117.19
516.369	110.19
