Data from Uncirc_2008_H10_HRD10591_00021.txt Node
Date: Wed Jan 03 10:15:35 EST 2024
User: Yrep
Spectrometer: HR+D1059
Trigger mode: 1
Integration Time (sec): 1.000000E-1
Scans to average: 1
Electric dark correction enabled: true
Nonlinearity correction enabled: false
Boxcar width: 0
XAxis mode: Wavelengths
Number of Pixels in Spectrum: 2048
>>>>>Begin Spectral Data<<<<<
223.165	-6.25
223.4	-6.25
223.635	-6.25
223.869	-30.25
224.104	-25.25
224.338	-23.25
224.573	-10.25
224.808	-21.25
225.042	1.75
225.277	-9.25
225.511	-4.25
225.746	-3.25
225.98	5.75
226.215	19.75
226.449	21.75
226.683	25.75
226.918	28.75
227.152	29.75
227.387	49.75
227.621	44.75
227.856	44.75
228.09	36.75
228.324	43.75
228.559	46.75
228.793	165.75
229.027	427.75
229.262	459.75
229.496	543.75
229.73	733.75
229.964	731.75
230.199	487.75
230.433	434.75
230.667	455.75
230.901	438.75
231.136	401.75
231.37	403.75
231.604	403.75
231.838	429.75
232.072	435.75
232.306	434.75
232.541	421.75
232.775	433.75
233.009	457.75
233.243	445.75
233.477	470.75
233.711	461.75
233.945	462.75
234.179	478.75
234.413	461.75
234.647	465.75
234.881	488.75
235.115	486.75
235.349	515.75
235.583	504.75
235.817	531.75
236.051	580.75
236.285	565.75
236.519	565.75
236.753	649.75
236.987	827.75
237.221	1224.75
237.455	1356.75
237.689	808.75
237.922	693.75
238.156	693.75
238.39	621.75
238.624	587.75
238.858	573.75
239.091	624.75
239.325	594.75
239.559	633.75
239.793	649.75
240.027	707.75
240.26	842.75
240.494	868.75
240.728	859.75
240.961	831.75
241.195	743.75
241.429	719.75
241.662	740.75
241.896	718.75
242.13	702.75
242.363	703.75
242.597	739.75
242.83	754.75
243.064	755.75
243.298	741.75
243.531	783.75
243.765	786.75
243.998	752.75
244.232	758.75
244.465	835.75
244.699	823.75
244.932	842.75
245.166	826.75
245.399	824.75
245.633	837.75
245.866	862.75
246.099	874.75
246.333	897.75
246.566	906.75
246.8	897.75
247.033	941.75
247.266	962.75
247.5	997.75
247.733	1052.75
247.966	1078.75
248.2	1054.75
248.433	1059.75
248.666	1131.75
248.899	1230.75
249.133	1279.75
249.366	1299.75
249.599	1234.75
249.832	1143.75
250.066	1112.75
250.299	1152.75
250.532	1195.75
250.765	1369.75
250.998	1533.75
251.231	1502.75
251.465	1365.75
251.698	1276.75
251.931	1302.75
252.164	1276.75
252.397	1310.75
252.63	1347.75
252.863	1418.75
253.096	1533.75
253.329	1607.75
253.562	1490.75
253.795	1454.75
254.028	1417.75
254.261	1505.75
254.494	1658.75
254.727	1945.75
254.96	2057.75
255.193	1784.75
255.426	1589.75
255.659	1502.75
255.892	1465.75
256.124	1445.75
256.357	1400.75
256.59	1377.75
256.823	1359.75
257.056	1376.75
257.289	1392.75
257.521	1412.75
257.754	1454.75
257.987	1426.75
258.22	1386.75
258.452	1430.75
258.685	1424.75
258.918	1460.75
259.151	1513.75
259.383	1576.75
259.616	1562.75
259.849	1647.75
260.081	1750.75
260.314	1932.75
260.547	1898.75
260.779	1726.75
261.012	1662.75
261.244	1567.75
261.477	1551.75
261.71	1524.75
261.942	1630.75
262.175	1634.75
262.407	1545.75
262.64	1568.75
262.872	1551.75
263.105	1550.75
263.337	1507.75
263.57	1532.75
263.802	1570.75
264.035	1551.75
264.267	1524.75
264.499	1562.75
264.732	1577.75
264.964	1581.75
265.197	1571.75
265.429	1597.75
265.661	1589.75
265.894	1621.75
266.126	1663.75
266.358	1682.75
266.591	1657.75
266.823	1754.75
267.055	1779.75
267.287	1757.75
267.52	1695.75
267.752	1686.75
267.984	1734.75
268.216	1758.75
268.448	1797.75
268.681	1857.75
268.913	1962.75
269.145	2167.75
269.377	2183.75
269.609	2091.75
269.841	2067.75
270.073	2209.75
270.306	2477.75
270.538	2590.75
270.77	2466.75
271.002	2319.75
271.234	2291.75
271.466	2413.75
271.698	2533.75
271.93	2613.75
272.162	2527.75
272.394	2451.75
272.626	2318.75
272.858	2211.75
273.09	2160.75
273.322	2105.75
273.553	2064.75
273.785	2073.75
274.017	2055.75
274.249	2101.75
274.481	2131.75
274.713	2131.75
274.945	2112.75
275.176	2101.75
275.408	2131.75
275.64	2146.75
275.872	2117.75
276.104	2108.75
276.335	2173.75
276.567	2253.75
276.799	2374.75
277.031	2579.75
277.262	2668.75
277.494	2537.75
277.726	2423.75
277.957	2319.75
278.189	2285.75
278.421	2206.75
278.652	2274.75
278.884	2244.75
279.115	2200.75
279.347	2226.75
279.579	2227.75
279.81	2201.75
280.042	2223.75
280.273	2233.75
280.505	2267.75
280.736	2229.75
280.968	2278.75
281.199	2278.75
281.431	2243.75
281.662	2308.75
281.894	2321.75
282.125	2364.75
282.356	2532.75
282.588	2645.75
282.819	2525.75
283.051	2403.75
283.282	2387.75
283.513	2398.75
283.745	2457.75
283.976	2441.75
284.207	2490.75
284.439	2454.75
284.67	2459.75
284.901	2457.75
285.132	2503.75
285.364	2467.75
285.595	2485.75
285.826	2487.75
286.057	2493.75
286.288	2537.75
286.52	2537.75
286.751	2520.75
286.982	2551.75
287.213	2556.75
287.444	2574.75
287.675	2704.75
287.906	2732.75
288.138	2769.75
288.369	2756.75
288.6	2772.75
288.831	2692.75
289.062	2685.75
289.293	2711.75
289.524	2666.75
289.755	2681.75
289.986	2609.75
290.217	2642.75
290.448	2651.75
290.679	2624.75
290.91	2648.75
291.141	2628.75
291.371	2634.75
291.602	2701.75
291.833	2636.75
292.064	2697.75
292.295	2669.75
292.526	2699.75
292.757	2660.75
292.987	2673.75
293.218	2695.75
293.449	2693.75
293.68	2651.75
293.91	2732.75
294.141	2740.75
294.372	2679.75
294.603	2726.75
294.833	2730.75
295.064	2751.75
295.295	2747.75
295.525	2699.75
295.756	2773.75
295.987	2827.75
296.217	3043.75
296.448	2970.75
296.679	2772.75
296.909	2794.75
297.14	2820.75
297.37	2867.75
297.601	2919.75
297.831	2846.75
298.062	2889.75
298.292	2906.75
298.523	2923.75
298.753	2964.75
298.984	2954.75
299.214	2923.75
299.445	2973.75
299.675	2991.75
299.905	3021.75
300.136	3012.75
300.366	2933.75
300.597	3030.75
300.827	3121.75
301.057	3174.75
301.288	3144.75
301.518	3167.75
301.748	3159.75
301.979	3206.75
302.209	3198.75
302.439	3226.75
302.669	3114.75
302.9	3126.75
303.13	3151.75
303.36	3165.75
303.59	3225.75
303.82	3227.75
304.051	3192.75
304.281	3173.75
304.511	3066.75
304.741	3132.75
304.971	3075.75
305.201	3041.75
305.431	3142.75
305.661	3121.75
305.891	3091.75
306.121	3145.75
306.352	3157.75
306.582	3141.75
306.812	3066.75
307.042	3095.75
307.272	3062.75
307.502	3097.75
307.731	3082.75
307.961	3153.75
308.191	3144.75
308.421	3095.75
308.651	3182.75
308.881	3136.75
309.111	3157.75
309.341	3211.75
309.571	3265.75
309.8	3278.75
310.03	3426.75
310.26	3420.75
310.49	3411.75
310.72	3505.75
310.949	3541.75
311.179	3549.75
311.409	3415.75
311.639	3407.75
311.868	3457.75
312.098	3521.75
312.328	3620.75
312.557	3736.75
312.787	3704.75
313.017	3647.75
313.246	3595.75
313.476	3509.75
313.706	3598.75
313.935	3715.75
314.165	3748.75
314.394	3753.75
314.624	3693.75
314.853	3610.75
315.083	3543.75
315.312	3526.75
315.542	3524.75
315.771	3498.75
316.001	3501.75
316.23	3517.75
316.46	3498.75
316.689	3477.75
316.919	3521.75
317.148	3573.75
317.377	3560.75
317.607	3537.75
317.836	3544.75
318.065	3501.75
318.295	3445.75
318.524	3507.75
318.753	3494.75
318.983	3465.75
319.212	3487.75
319.441	3552.75
319.67	3558.75
319.9	3483.75
320.129	3581.75
320.358	3561.75
320.587	3568.75
320.816	3645.75
321.046	3634.75
321.275	3617.75
321.504	3700.75
321.733	3620.75
321.962	3737.75
322.191	3779.75
322.42	3891.75
322.649	3939.75
322.878	4054.75
323.108	4090.75
323.337	4225.75
323.566	4410.75
323.795	4669.75
324.024	5249.75
324.253	6880.75
324.482	10206.75
324.71	14598.75
324.939	15599.75
325.168	11488.75
325.397	6054.75
325.626	4993.75
325.855	4522.75
326.084	4485.75
326.313	4518.75
326.542	4661.75
326.77	5179.75
326.999	6660.75
327.228	9533.75
327.457	13738.75
327.686	12777.75
327.914	6795.75
328.143	5446.75
328.372	5090.75
328.6	4905.75
328.829	4897.75
329.058	5043.75
329.287	4945.75
329.515	4652.75
329.744	4488.75
329.972	4540.75
330.201	4571.75
330.43	4790.75
330.658	5095.75
330.887	5314.75
331.115	5067.75
331.344	4676.75
331.572	4570.75
331.801	4679.75
332.03	4729.75
332.258	4715.75
332.486	4623.75
332.715	4697.75
332.943	4882.75
333.172	5078.75
333.4	5184.75
333.629	5266.75
333.857	5350.75
334.085	5207.75
334.314	5147.75
334.542	5028.75
334.771	5056.75
334.999	5043.75
335.227	4950.75
335.455	4906.75
335.684	4766.75
335.912	4742.75
336.14	4725.75
336.369	4699.75
336.597	4807.75
336.825	4743.75
337.053	4674.75
337.281	4556.75
337.51	4509.75
337.738	4488.75
337.966	4429.75
338.194	4533.75
338.422	4432.75
338.65	4303.75
338.878	4361.75
339.106	4306.75
339.334	4305.75
339.562	4249.75
339.79	4177.75
340.018	4137.75
340.246	4241.75
340.474	4218.75
340.702	4163.75
340.93	4255.75
341.158	4230.75
341.386	4194.75
341.614	4195.75
341.842	4170.75
342.07	4117.75
342.298	4138.75
342.526	4100.75
342.754	4069.75
342.981	4138.75
343.209	4250.75
343.437	4479.75
343.665	4705.75
343.893	4931.75
344.12	5011.75
344.348	4778.75
344.576	4606.75
344.804	4497.75
345.031	4429.75
345.259	4395.75
345.487	4214.75
345.714	4224.75
345.942	4084.75
346.17	4017.75
346.397	3955.75
346.625	4056.75
346.853	3980.75
347.08	3989.75
347.308	4084.75
347.535	4153.75
347.763	4138.75
347.99	4099.75
348.218	4085.75
348.445	4137.75
348.673	3995.75
348.9	3976.75
349.128	3966.75
349.355	3912.75
349.583	3859.75
349.81	3862.75
350.037	3839.75
350.265	3874.75
350.492	3893.75
350.72	3847.75
350.947	3934.75
351.174	3982.75
351.402	4039.75
351.629	4012.75
351.856	3943.75
352.083	3997.75
352.311	4085.75
352.538	4086.75
352.765	4021.75
352.992	4005.75
353.22	3907.75
353.447	3893.75
353.674	3771.75
353.901	3826.75
354.128	3782.75
354.355	3768.75
354.583	3842.75
354.81	3763.75
355.037	3751.75
355.264	3813.75
355.491	3747.75
355.718	3740.75
355.945	3737.75
356.172	3773.75
356.399	3764.75
356.626	3719.75
356.853	3783.75
357.08	3769.75
357.307	3781.75
357.534	3795.75
357.761	3765.75
357.988	3861.75
358.215	3786.75
358.441	3790.75
358.668	3829.75
358.895	3871.75
359.122	3917.75
359.349	3989.75
359.576	4064.75
359.802	4230.75
360.029	4366.75
360.256	4382.75
360.483	4214.75
360.709	4083.75
360.936	3973.75
361.163	4106.75
361.39	4051.75
361.616	4092.75
361.843	4000.75
362.07	3993.75
362.296	4065.75
362.523	4044.75
362.749	4016.75
362.976	3909.75
363.203	3903.75
363.429	3802.75
363.656	3882.75
363.882	3873.75
364.109	3865.75
364.335	3838.75
364.562	3839.75
364.788	3816.75
365.015	3844.75
365.241	3882.75
365.468	3895.75
365.694	3921.75
365.92	3899.75
366.147	3823.75
366.373	3914.75
366.599	3816.75
366.826	3847.75
367.052	3788.75
367.278	3867.75
367.505	3841.75
367.731	3844.75
367.957	3890.75
368.184	3889.75
368.41	4019.75
368.636	4083.75
368.862	4080.75
369.089	4006.75
369.315	4017.75
369.541	3985.75
369.767	3961.75
369.993	4010.75
370.219	4039.75
370.445	4052.75
370.672	4021.75
370.898	4052.75
371.124	4080.75
371.35	4135.75
371.576	4116.75
371.802	4089.75
372.028	4081.75
372.254	4140.75
372.48	4195.75
372.706	4264.75
372.932	4302.75
373.158	4197.75
373.384	4210.75
373.61	4161.75
373.835	4168.75
374.061	4251.75
374.287	4259.75
374.513	4311.75
374.739	4458.75
374.965	4518.75
375.191	4519.75
375.416	4500.75
375.642	4281.75
375.868	4266.75
376.094	4206.75
376.319	4102.75
376.545	4204.75
376.771	4154.75
376.997	4161.75
377.222	4160.75
377.448	4141.75
377.674	4141.75
377.899	4134.75
378.125	4073.75
378.35	4057.75
378.576	4029.75
378.802	4094.75
379.027	4089.75
379.253	4054.75
379.478	4108.75
379.704	4117.75
379.929	4159.75
380.155	4145.75
380.38	4172.75
380.606	4146.75
380.831	4169.75
381.057	4159.75
381.282	4147.75
381.507	4250.75
381.733	4253.75
381.958	4289.75
382.184	4257.75
382.409	4335.75
382.634	4392.75
382.86	4428.75
383.085	4443.75
383.31	4524.75
383.535	4581.75
383.761	4583.75
383.986	4714.75
384.211	4759.75
384.436	4819.75
384.662	4931.75
384.887	4979.75
385.112	4909.75
385.337	4970.75
385.562	5016.75
385.787	5067.75
386.013	5101.75
386.238	5176.75
386.463	5117.75
386.688	5055.75
386.913	4909.75
387.138	4952.75
387.363	4993.75
387.588	4968.75
387.813	4977.75
388.038	4997.75
388.263	4985.75
388.488	5052.75
388.713	5002.75
388.938	4926.75
389.163	4955.75
389.387	4949.75
389.612	4838.75
389.837	4941.75
390.062	4857.75
390.287	4871.75
390.512	4898.75
390.736	4928.75
390.961	5092.75
391.186	5094.75
391.411	5298.75
391.636	5433.75
391.86	5568.75
392.085	5579.75
392.31	5479.75
392.534	5337.75
392.759	5368.75
392.984	5184.75
393.208	5139.75
393.433	5157.75
393.658	5157.75
393.882	5117.75
394.107	5146.75
394.331	5209.75
394.556	5188.75
394.78	5276.75
395.005	5280.75
395.229	5335.75
395.454	5366.75
395.678	5659.75
395.903	5564.75
396.127	5619.75
396.352	5394.75
396.576	5333.75
396.801	5205.75
397.025	5333.75
397.249	5447.75
397.474	5542.75
397.698	5608.75
397.922	5747.75
398.147	5774.75
398.371	5924.75
398.595	5997.75
398.82	6360.75
399.044	6938.75
399.268	7546.75
399.492	8705.75
399.717	9218.75
399.941	9081.75
400.165	8307.75
400.389	7732.75
400.613	6962.75
400.837	6589.75
401.062	6414.75
401.286	6335.75
401.51	6214.75
401.734	6281.75
401.958	6347.75
402.182	6471.75
402.406	6568.75
402.63	6653.75
402.854	6750.75
403.078	6892.75
403.302	6873.75
403.526	7039.75
403.75	7154.75
403.974	7128.75
404.198	7164.75
404.422	7205.75
404.645	7028.75
404.869	6979.75
405.093	7146.75
405.317	7152.75
405.541	7131.75
405.765	6947.75
405.988	6938.75
406.212	7052.75
406.436	7273.75
406.66	7345.75
406.883	7507.75
407.107	7947.75
407.331	8518.75
407.555	8989.75
407.778	8618.75
408.002	7916.75
408.226	7571.75
408.449	7583.75
408.673	7321.75
408.896	7419.75
409.12	7646.75
409.344	7176.75
409.567	6884.75
409.791	6800.75
410.014	6663.75
410.238	6652.75
410.461	6677.75
410.685	6796.75
410.908	6854.75
411.132	7017.75
411.355	7099.75
411.578	6730.75
411.802	6408.75
412.025	6428.75
412.249	6532.75
412.472	6412.75
412.695	6388.75
412.919	6248.75
413.142	6215.75
413.365	6156.75
413.589	6188.75
413.812	6142.75
414.035	5980.75
414.258	6054.75
414.482	6179.75
414.705	6178.75
414.928	6148.75
415.151	6118.75
415.374	6115.75
415.597	6081.75
415.821	6005.75
416.044	6027.75
416.267	6016.75
416.49	5988.75
416.713	5931.75
416.936	6032.75
417.159	6013.75
417.382	6081.75
417.605	6087.75
417.828	6146.75
418.051	6367.75
418.274	6246.75
418.497	6131.75
418.72	6177.75
418.943	6327.75
419.166	6591.75
419.389	6998.75
419.611	6735.75
419.834	6618.75
420.057	6542.75
420.28	6301.75
420.503	6084.75
420.726	6132.75
420.948	6273.75
421.171	6791.75
421.394	6729.75
421.617	6285.75
421.839	6278.75
422.062	6365.75
422.285	6417.75
422.507	7083.75
422.73	7538.75
422.953	7009.75
423.175	6762.75
423.398	6696.75
423.621	6752.75
423.843	7001.75
424.066	6892.75
424.288	6795.75
424.511	6974.75
424.733	7428.75
424.956	7877.75
425.178	7430.75
425.401	7549.75
425.623	7312.75
425.846	6497.75
426.068	6301.75
426.291	6278.75
426.513	6290.75
426.735	6486.75
426.958	6861.75
427.18	7467.75
427.402	8465.75
427.625	8535.75
427.847	7180.75
428.069	6368.75
428.292	6127.75
428.514	5817.75
428.736	5738.75
428.958	5729.75
429.181	5516.75
429.403	5572.75
429.625	5738.75
429.847	5998.75
430.069	6485.75
430.292	6109.75
430.514	5513.75
430.736	5546.75
430.958	5489.75
431.18	5429.75
431.402	5393.75
431.624	5408.75
431.846	5501.75
432.068	5463.75
432.29	5556.75
432.512	5463.75
432.734	5623.75
432.956	5545.75
433.178	5599.75
433.4	5576.75
433.622	5496.75
433.844	5574.75
434.066	5582.75
434.287	5658.75
434.509	5881.75
434.731	6097.75
434.953	6249.75
435.175	6390.75
435.397	6309.75
435.618	6297.75
435.84	6649.75
436.062	7466.75
436.284	7395.75
436.505	6263.75
436.727	5980.75
436.949	5762.75
437.17	5650.75
437.392	5610.75
437.614	5755.75
437.835	6029.75
438.057	6943.75
438.278	7555.75
438.5	7543.75
438.721	8209.75
438.943	7208.75
439.165	6130.75
439.386	5947.75
439.608	5935.75
439.829	6060.75
440.05	6440.75
440.272	6740.75
440.493	6169.75
440.715	5941.75
440.936	5821.75
441.158	5862.75
441.379	6116.75
441.6	6360.75
441.822	6650.75
442.043	6965.75
442.264	7659.75
442.486	7432.75
442.707	6579.75
442.928	6441.75
443.149	6585.75
443.371	6848.75
443.592	7318.75
443.813	8339.75
444.034	8295.75
444.255	7162.75
444.476	7049.75
444.698	7185.75
444.919	7354.75
445.14	7155.75
445.361	6950.75
445.582	7045.75
445.803	7535.75
446.024	8211.75
446.245	7753.75
446.466	7059.75
446.687	6117.75
446.908	5841.75
447.129	5577.75
447.35	5509.75
447.571	5415.75
447.792	5290.75
448.013	5421.75
448.234	5631.75
448.455	6202.75
448.675	7337.75
448.896	7793.75
449.117	6332.75
449.338	6565.75
449.559	7819.75
449.779	7846.75
450	6091.75
450.221	5562.75
450.442	5302.75
450.662	5225.75
450.883	5327.75
451.104	5404.75
451.324	5211.75
451.545	5129.75
451.766	5004.75
451.986	4918.75
452.207	4885.75
452.428	4821.75
452.648	4869.75
452.869	4893.75
453.089	5036.75
453.31	5055.75
453.53	4933.75
453.751	4897.75
453.971	4932.75
454.192	4964.75
454.412	4818.75
454.633	4727.75
454.853	4644.75
455.073	4749.75
455.294	5101.75
455.514	5592.75
455.734	5125.75
455.955	4617.75
456.175	4531.75
456.395	4462.75
456.616	4463.75
456.836	4428.75
457.056	4453.75
457.276	4403.75
457.497	4469.75
457.717	4463.75
457.937	4619.75
458.157	4689.75
458.377	4797.75
458.598	5141.75
458.818	5704.75
459.038	6462.75
459.258	6235.75
459.478	5733.75
459.698	5626.75
459.918	5685.75
460.138	5937.75
460.358	6063.75
460.578	6104.75
460.798	6226.75
461.018	6110.75
461.238	6019.75
461.458	5966.75
461.678	5972.75
461.898	6058.75
462.118	6135.75
462.338	6360.75
462.558	6638.75
462.777	6858.75
462.997	7443.75
463.217	7915.75
463.437	7616.75
463.657	7039.75
463.876	6900.75
464.096	6941.75
464.316	6946.75
464.536	6969.75
464.755	6759.75
464.975	6679.75
465.195	6737.75
465.414	6726.75
465.634	5994.75
465.854	5717.75
466.073	5425.75
466.293	5251.75
466.512	5137.75
466.732	5014.75
466.951	4985.75
467.171	5052.75
467.391	5098.75
467.61	5118.75
467.829	5098.75
468.049	5018.75
468.268	4848.75
468.488	4807.75
468.707	4769.75
468.927	4797.75
469.146	4776.75
469.365	4838.75
469.585	4870.75
469.804	5130.75
470.023	5296.75
470.243	5195.75
470.462	5310.75
470.681	5439.75
470.901	5289.75
471.12	5102.75
471.339	5104.75
471.558	5097.75
471.777	5004.75
471.997	4855.75
472.216	4832.75
472.435	4803.75
472.654	4758.75
472.873	4681.75
473.092	4754.75
473.311	4737.75
473.53	4761.75
473.749	4950.75
473.968	5403.75
474.187	6261.75
474.406	5868.75
474.625	5127.75
474.844	4803.75
475.063	4828.75
475.282	4791.75
475.501	4869.75
475.72	4904.75
475.939	4931.75
476.158	5016.75
476.377	5015.75
476.596	4966.75
476.814	5101.75
477.033	5160.75
477.252	5209.75
477.471	5272.75
477.69	5442.75
477.908	5592.75
478.127	5705.75
478.346	5721.75
478.564	5816.75
478.783	5870.75
479.002	6019.75
479.22	6050.75
479.439	6173.75
479.658	6222.75
479.876	6306.75
480.095	6507.75
480.313	6860.75
480.532	6775.75
480.751	6644.75
480.969	6508.75
481.188	6292.75
481.406	6121.75
481.624	5931.75
481.843	5773.75
482.061	5717.75
482.28	5675.75
482.498	5615.75
482.717	5632.75
482.935	5627.75
483.153	5631.75
483.372	5610.75
483.59	5648.75
483.808	5605.75
484.027	5615.75
484.245	5684.75
484.463	5695.75
484.681	5772.75
484.9	5788.75
485.118	5934.75
485.336	5841.75
485.554	5961.75
485.772	5992.75
485.99	5939.75
486.209	6019.75
486.427	5994.75
486.645	6132.75
486.863	6233.75
487.081	6080.75
487.299	6043.75
487.517	6038.75
487.735	6003.75
487.953	6036.75
