Data from Uncirc_2008_H10_HRD10591_00050.txt Node
Date: Wed Jan 03 10:15:40 EST 2024
User: Yrep
Spectrometer: HR+D1059
Trigger mode: 1
Integration Time (sec): 1.000000E-1
Scans to average: 1
Electric dark correction enabled: true
Nonlinearity correction enabled: false
Boxcar width: 0
XAxis mode: Wavelengths
Number of Pixels in Spectrum: 2048
>>>>>Begin Spectral Data<<<<<
223.165	-11.06
223.4	-11.06
223.635	-11.06
223.869	-13.06
224.104	-43.06
224.338	-15.06
224.573	-12.06
224.808	-13.06
225.042	-5.06
225.277	-5.06
225.511	-5.06
225.746	-3.06
225.98	10.94
226.215	28.94
226.449	17.94
226.683	17.94
226.918	33.94
227.152	15.94
227.387	30.94
227.621	55.94
227.856	40.94
228.09	44.94
228.324	42.94
228.559	56.94
228.793	59.94
229.027	74.94
229.262	68.94
229.496	73.94
229.73	91.94
229.964	67.94
230.199	77.94
230.433	72.94
230.667	71.94
230.901	76.94
231.136	88.94
231.37	76.94
231.604	87.94
231.838	71.94
232.072	73.94
232.306	85.94
232.541	83.94
232.775	77.94
233.009	80.94
233.243	74.94
233.477	76.94
233.711	78.94
233.945	86.94
234.179	71.94
234.413	75.94
234.647	77.94
234.881	73.94
235.115	84.94
235.349	77.94
235.583	71.94
235.817	76.94
236.051	78.94
236.285	71.94
236.519	71.94
236.753	77.94
236.987	77.94
237.221	71.94
237.455	79.94
237.689	80.94
237.922	82.94
238.156	80.94
238.39	80.94
238.624	87.94
238.858	80.94
239.091	74.94
239.325	76.94
239.559	88.94
239.793	77.94
240.027	76.94
240.26	85.94
240.494	86.94
240.728	72.94
240.961	75.94
241.195	91.94
241.429	80.94
241.662	70.94
241.896	70.94
242.13	74.94
242.363	77.94
242.597	70.94
242.83	72.94
243.064	90.94
243.298	78.94
243.531	89.94
243.765	85.94
243.998	58.94
244.232	63.94
244.465	74.94
244.699	79.94
244.932	75.94
245.166	66.94
245.399	81.94
245.633	76.94
245.866	72.94
246.099	72.94
246.333	81.94
246.566	74.94
246.8	73.94
247.033	79.94
247.266	75.94
247.5	84.94
247.733	78.94
247.966	88.94
248.2	87.94
248.433	72.94
248.666	70.94
248.899	81.94
249.133	83.94
249.366	83.94
249.599	94.94
249.832	84.94
250.066	98.94
250.299	78.94
250.532	75.94
250.765	78.94
250.998	86.94
251.231	86.94
251.465	80.94
251.698	76.94
251.931	78.94
252.164	77.94
252.397	71.94
252.63	86.94
252.863	83.94
253.096	84.94
253.329	82.94
253.562	90.94
253.795	74.94
254.028	79.94
254.261	79.94
254.494	83.94
254.727	83.94
254.96	88.94
255.193	88.94
255.426	79.94
255.659	81.94
255.892	67.94
256.124	91.94
256.357	77.94
256.59	82.94
256.823	78.94
257.056	82.94
257.289	65.94
257.521	84.94
257.754	88.94
257.987	77.94
258.22	74.94
258.452	77.94
258.685	84.94
258.918	82.94
259.151	81.94
259.383	83.94
259.616	81.94
259.849	75.94
260.081	81.94
260.314	85.94
260.547	80.94
260.779	80.94
261.012	68.94
261.244	95.94
261.477	91.94
261.71	91.94
261.942	111.94
262.175	95.94
262.407	83.94
262.64	93.94
262.872	80.94
263.105	62.94
263.337	100.94
263.57	87.94
263.802	79.94
264.035	88.94
264.267	74.94
264.499	86.94
264.732	81.94
264.964	70.94
265.197	90.94
265.429	80.94
265.661	77.94
265.894	78.94
266.126	97.94
266.358	81.94
266.591	92.94
266.823	91.94
267.055	84.94
267.287	74.94
267.52	90.94
267.752	88.94
267.984	91.94
268.216	82.94
268.448	97.94
268.681	73.94
268.913	70.94
269.145	70.94
269.377	83.94
269.609	79.94
269.841	74.94
270.073	89.94
270.306	86.94
270.538	101.94
270.77	92.94
271.002	73.94
271.234	79.94
271.466	90.94
271.698	88.94
271.93	85.94
272.162	77.94
272.394	86.94
272.626	81.94
272.858	82.94
273.09	82.94
273.322	76.94
273.553	84.94
273.785	87.94
274.017	90.94
274.249	83.94
274.481	81.94
274.713	91.94
274.945	85.94
275.176	84.94
275.408	91.94
275.64	81.94
275.872	74.94
276.104	95.94
276.335	92.94
276.567	80.94
276.799	110.94
277.031	99.94
277.262	98.94
277.494	102.94
277.726	90.94
277.957	68.94
278.189	86.94
278.421	77.94
278.652	90.94
278.884	91.94
279.115	98.94
279.347	94.94
279.579	80.94
279.81	82.94
280.042	92.94
280.273	81.94
280.505	87.94
280.736	91.94
280.968	88.94
281.199	88.94
281.431	75.94
281.662	91.94
281.894	96.94
282.125	83.94
282.356	128.94
282.588	136.94
282.819	95.94
283.051	86.94
283.282	77.94
283.513	87.94
283.745	80.94
283.976	84.94
284.207	86.94
284.439	88.94
284.67	88.94
284.901	93.94
285.132	84.94
285.364	91.94
285.595	87.94
285.826	77.94
286.057	86.94
286.288	92.94
286.52	97.94
286.751	95.94
286.982	88.94
287.213	80.94
287.444	99.94
287.675	94.94
287.906	83.94
288.138	96.94
288.369	91.94
288.6	82.94
288.831	94.94
289.062	99.94
289.293	89.94
289.524	92.94
289.755	82.94
289.986	93.94
290.217	74.94
290.448	72.94
290.679	84.94
290.91	93.94
291.141	81.94
291.371	83.94
291.602	82.94
291.833	103.94
292.064	84.94
292.295	83.94
292.526	101.94
292.757	91.94
292.987	90.94
293.218	84.94
293.449	78.94
293.68	88.94
293.91	86.94
294.141	94.94
294.372	82.94
294.603	88.94
294.833	86.94
295.064	75.94
295.295	101.94
295.525	93.94
295.756	89.94
295.987	108.94
296.217	126.94
296.448	120.94
296.679	90.94
296.909	77.94
297.14	76.94
297.37	78.94
297.601	96.94
297.831	101.94
298.062	84.94
298.292	90.94
298.523	90.94
298.753	79.94
298.984	90.94
299.214	92.94
299.445	80.94
299.675	94.94
299.905	85.94
300.136	100.94
300.366	94.94
300.597	76.94
300.827	104.94
301.057	105.94
301.288	89.94
301.518	91.94
301.748	84.94
301.979	111.94
302.209	100.94
302.439	88.94
302.669	94.94
302.9	94.94
303.13	99.94
303.36	92.94
303.59	95.94
303.82	94.94
304.051	80.94
304.281	87.94
304.511	92.94
304.741	98.94
304.971	79.94
305.201	89.94
305.431	77.94
305.661	98.94
305.891	89.94
306.121	113.94
306.352	96.94
306.582	97.94
306.812	99.94
307.042	87.94
307.272	87.94
307.502	84.94
307.731	99.94
307.961	91.94
308.191	78.94
308.421	94.94
308.651	86.94
308.881	95.94
309.111	106.94
309.341	93.94
309.571	92.94
309.8	102.94
310.03	96.94
310.26	94.94
310.49	83.94
310.72	98.94
310.949	110.94
311.179	91.94
311.409	97.94
311.639	103.94
311.868	90.94
312.098	89.94
312.328	92.94
312.557	102.94
312.787	109.94
313.017	99.94
313.246	99.94
313.476	93.94
313.706	101.94
313.935	101.94
314.165	98.94
314.394	92.94
314.624	109.94
314.853	99.94
315.083	94.94
315.312	93.94
315.542	85.94
315.771	104.94
316.001	83.94
316.23	92.94
316.46	90.94
316.689	81.94
316.919	98.94
317.148	82.94
317.377	87.94
317.607	88.94
317.836	97.94
318.065	77.94
318.295	91.94
318.524	97.94
318.753	104.94
318.983	103.94
319.212	104.94
319.441	109.94
319.67	113.94
319.9	101.94
320.129	94.94
320.358	94.94
320.587	92.94
320.816	101.94
321.046	98.94
321.275	96.94
321.504	107.94
321.733	100.94
321.962	105.94
322.191	105.94
322.42	96.94
322.649	114.94
322.878	107.94
323.108	105.94
323.337	121.94
323.566	123.94
323.795	148.94
324.024	178.94
324.253	331.94
324.482	706.94
324.71	1420.94
324.939	1836.94
325.168	705.94
325.397	220.94
325.626	126.94
325.855	122.94
326.084	119.94
326.313	140.94
326.542	147.94
326.77	209.94
326.999	425.94
327.228	836.94
327.457	1472.94
327.686	1165.94
327.914	314.94
328.143	178.94
328.372	114.94
328.6	116.94
328.829	104.94
329.058	130.94
329.287	119.94
329.515	107.94
329.744	103.94
329.972	94.94
330.201	103.94
330.43	112.94
330.658	104.94
330.887	130.94
331.115	123.94
331.344	86.94
331.572	94.94
331.801	91.94
332.03	101.94
332.258	87.94
332.486	103.94
332.715	98.94
332.943	104.94
333.172	96.94
333.4	84.94
333.629	95.94
333.857	107.94
334.085	110.94
334.314	104.94
334.542	88.94
334.771	94.94
334.999	93.94
335.227	105.94
335.455	101.94
335.684	99.94
335.912	104.94
336.14	92.94
336.369	99.94
336.597	106.94
336.825	96.94
337.053	104.94
337.281	83.94
337.51	104.94
337.738	92.94
337.966	78.94
338.194	96.94
338.422	95.94
338.65	100.94
338.878	107.94
339.106	103.94
339.334	93.94
339.562	102.94
339.79	91.94
340.018	88.94
340.246	100.94
340.474	91.94
340.702	82.94
340.93	100.94
341.158	89.94
341.386	104.94
341.614	98.94
341.842	105.94
342.07	87.94
342.298	93.94
342.526	75.94
342.754	91.94
342.981	95.94
343.209	75.94
343.437	94.94
343.665	89.94
343.893	100.94
344.12	98.94
344.348	103.94
344.576	96.94
344.804	96.94
345.031	107.94
345.259	96.94
345.487	104.94
345.714	89.94
345.942	101.94
346.17	91.94
346.397	93.94
346.625	98.94
346.853	94.94
347.08	94.94
347.308	87.94
347.535	101.94
347.763	98.94
347.99	96.94
348.218	100.94
348.445	91.94
348.673	95.94
348.9	83.94
349.128	93.94
349.355	90.94
349.583	84.94
349.81	96.94
350.037	94.94
350.265	96.94
350.492	89.94
350.72	100.94
350.947	113.94
351.174	106.94
351.402	104.94
351.629	106.94
351.856	103.94
352.083	109.94
352.311	116.94
352.538	109.94
352.765	111.94
352.992	106.94
353.22	121.94
353.447	108.94
353.674	97.94
353.901	98.94
354.128	105.94
354.355	98.94
354.583	108.94
354.81	89.94
355.037	101.94
355.264	83.94
355.491	97.94
355.718	106.94
355.945	92.94
356.172	98.94
356.399	95.94
356.626	86.94
356.853	98.94
357.08	93.94
357.307	98.94
357.534	99.94
357.761	100.94
357.988	105.94
358.215	97.94
358.441	102.94
358.668	76.94
358.895	105.94
359.122	78.94
359.349	92.94
359.576	96.94
359.802	107.94
360.029	109.94
360.256	89.94
360.483	96.94
360.709	94.94
360.936	107.94
361.163	89.94
361.39	90.94
361.616	93.94
361.843	94.94
362.07	87.94
362.296	98.94
362.523	92.94
362.749	98.94
362.976	90.94
363.203	108.94
363.429	88.94
363.656	94.94
363.882	92.94
364.109	83.94
364.335	91.94
364.562	98.94
364.788	87.94
365.015	90.94
365.241	107.94
365.468	107.94
365.694	102.94
365.92	87.94
366.147	92.94
366.373	95.94
366.599	92.94
366.826	98.94
367.052	74.94
367.278	97.94
367.505	91.94
367.731	100.94
367.957	95.94
368.184	99.94
368.41	78.94
368.636	105.94
368.862	120.94
369.089	113.94
369.315	79.94
369.541	93.94
369.767	78.94
369.993	86.94
370.219	95.94
370.445	95.94
370.672	91.94
370.898	98.94
371.124	86.94
371.35	94.94
371.576	85.94
371.802	90.94
372.028	82.94
372.254	93.94
372.48	100.94
372.706	84.94
372.932	86.94
373.158	79.94
373.384	84.94
373.61	92.94
373.835	87.94
374.061	96.94
374.287	96.94
374.513	101.94
374.739	98.94
374.965	97.94
375.191	72.94
375.416	96.94
375.642	99.94
375.868	106.94
376.094	95.94
376.319	90.94
376.545	104.94
376.771	95.94
376.997	104.94
377.222	82.94
377.448	91.94
377.674	90.94
377.899	86.94
378.125	74.94
378.35	100.94
378.576	104.94
378.802	78.94
379.027	90.94
379.253	96.94
379.478	89.94
379.704	99.94
379.929	89.94
380.155	89.94
380.38	98.94
380.606	96.94
380.831	94.94
381.057	100.94
381.282	101.94
381.507	96.94
381.733	108.94
381.958	97.94
382.184	103.94
382.409	103.94
382.634	106.94
382.86	85.94
383.085	101.94
383.31	97.94
383.535	110.94
383.761	96.94
383.986	98.94
384.211	91.94
384.436	99.94
384.662	90.94
384.887	102.94
385.112	125.94
385.337	106.94
385.562	97.94
385.787	107.94
386.013	118.94
386.238	118.94
386.463	110.94
386.688	115.94
386.913	103.94
387.138	112.94
387.363	104.94
387.588	100.94
387.813	108.94
388.038	101.94
388.263	117.94
388.488	115.94
388.713	93.94
388.938	103.94
389.163	93.94
389.387	112.94
389.612	83.94
389.837	87.94
390.062	103.94
390.287	98.94
390.512	85.94
390.736	89.94
390.961	88.94
391.186	98.94
391.411	102.94
391.636	98.94
391.86	83.94
392.085	80.94
392.31	71.94
392.534	97.94
392.759	88.94
392.984	94.94
393.208	95.94
393.433	91.94
393.658	91.94
393.882	80.94
394.107	91.94
394.331	70.94
394.556	89.94
394.78	87.94
395.005	90.94
395.229	89.94
395.454	94.94
395.678	91.94
395.903	91.94
396.127	95.94
396.352	96.94
396.576	81.94
396.801	92.94
397.025	90.94
397.249	79.94
397.474	78.94
397.698	90.94
397.922	86.94
398.147	74.94
398.371	70.94
398.595	79.94
398.82	90.94
399.044	94.94
399.268	92.94
399.492	97.94
399.717	87.94
399.941	87.94
400.165	87.94
400.389	82.94
400.613	86.94
400.837	80.94
401.062	102.94
401.286	84.94
401.51	87.94
401.734	88.94
401.958	100.94
402.182	113.94
402.406	144.94
402.63	122.94
402.854	86.94
403.078	94.94
403.302	88.94
403.526	93.94
403.75	93.94
403.974	95.94
404.198	88.94
404.422	99.94
404.645	99.94
404.869	96.94
405.093	96.94
405.317	110.94
405.541	89.94
405.765	91.94
405.988	108.94
406.212	164.94
406.436	198.94
406.66	126.94
406.883	113.94
407.107	86.94
407.331	83.94
407.555	82.94
407.778	101.94
408.002	87.94
408.226	86.94
408.449	92.94
408.673	103.94
408.896	86.94
409.12	98.94
409.344	103.94
409.567	97.94
409.791	83.94
410.014	89.94
410.238	94.94
410.461	88.94
410.685	100.94
410.908	82.94
411.132	82.94
411.355	99.94
411.578	89.94
411.802	89.94
412.025	90.94
412.249	95.94
412.472	85.94
412.695	81.94
412.919	94.94
413.142	86.94
413.365	94.94
413.589	98.94
413.812	95.94
414.035	102.94
414.258	89.94
414.482	94.94
414.705	94.94
414.928	96.94
415.151	83.94
415.374	87.94
415.597	92.94
415.821	85.94
416.044	98.94
416.267	92.94
416.49	84.94
416.713	83.94
416.936	81.94
417.159	86.94
417.382	84.94
417.605	84.94
417.828	99.94
418.051	78.94
418.274	97.94
418.497	87.94
418.72	91.94
418.943	82.94
419.166	94.94
419.389	90.94
419.611	92.94
419.834	74.94
420.057	95.94
420.28	95.94
420.503	89.94
420.726	80.94
420.948	86.94
421.171	103.94
421.394	102.94
421.617	96.94
421.839	89.94
422.062	98.94
422.285	91.94
422.507	81.94
422.73	89.94
422.953	102.94
423.175	85.94
423.398	84.94
423.621	93.94
423.843	88.94
424.066	82.94
424.288	91.94
424.511	95.94
424.733	83.94
424.956	102.94
425.178	98.94
425.401	87.94
425.623	87.94
425.846	85.94
426.068	103.94
426.291	96.94
426.513	96.94
426.735	92.94
426.958	88.94
427.18	115.94
427.402	121.94
427.625	156.94
427.847	122.94
428.069	97.94
428.292	81.94
428.514	85.94
428.736	77.94
428.958	85.94
429.181	91.94
429.403	76.94
429.625	96.94
429.847	78.94
430.069	91.94
430.292	98.94
430.514	84.94
430.736	76.94
430.958	83.94
431.18	101.94
431.402	88.94
431.624	93.94
431.846	84.94
432.068	82.94
432.29	92.94
432.512	89.94
432.734	82.94
432.956	78.94
433.178	89.94
433.4	96.94
433.622	103.94
433.844	102.94
434.066	93.94
434.287	95.94
434.509	85.94
434.731	79.94
434.953	97.94
435.175	75.94
435.397	83.94
435.618	91.94
435.84	112.94
436.062	101.94
436.284	103.94
436.505	88.94
436.727	105.94
436.949	95.94
437.17	98.94
437.392	86.94
437.614	93.94
437.835	108.94
438.057	126.94
438.278	95.94
438.5	104.94
438.721	124.94
438.943	90.94
439.165	80.94
439.386	88.94
439.608	115.94
439.829	88.94
440.05	119.94
440.272	126.94
440.493	97.94
440.715	82.94
440.936	102.94
441.158	102.94
441.379	84.94
441.6	99.94
441.822	83.94
442.043	101.94
442.264	98.94
442.486	100.94
442.707	98.94
442.928	96.94
443.149	120.94
443.371	125.94
443.592	109.94
443.813	115.94
444.034	98.94
444.255	78.94
444.476	76.94
444.698	85.94
444.919	77.94
445.14	110.94
445.361	108.94
445.582	111.94
445.803	123.94
446.024	114.94
446.245	121.94
446.466	105.94
446.687	83.94
446.908	83.94
447.129	89.94
447.35	88.94
447.571	90.94
447.792	105.94
448.013	87.94
448.234	116.94
448.455	94.94
448.675	96.94
448.896	107.94
449.117	92.94
449.338	92.94
449.559	110.94
449.779	98.94
450	103.94
450.221	85.94
450.442	90.94
450.662	84.94
450.883	99.94
451.104	110.94
451.324	86.94
451.545	73.94
451.766	84.94
451.986	89.94
452.207	78.94
452.428	100.94
452.648	95.94
452.869	99.94
453.089	99.94
453.31	111.94
453.53	93.94
453.751	95.94
453.971	91.94
454.192	89.94
454.412	91.94
454.633	96.94
454.853	84.94
455.073	81.94
455.294	84.94
455.514	101.94
455.734	100.94
455.955	80.94
456.175	91.94
456.395	87.94
456.616	91.94
456.836	82.94
457.056	99.94
457.276	80.94
457.497	94.94
457.717	76.94
457.937	87.94
458.157	86.94
458.377	93.94
458.598	92.94
458.818	126.94
459.038	139.94
459.258	106.94
459.478	97.94
459.698	83.94
459.918	85.94
460.138	77.94
460.358	96.94
460.578	95.94
460.798	88.94
461.018	87.94
461.238	85.94
461.458	66.94
461.678	74.94
461.898	76.94
462.118	80.94
462.338	88.94
462.558	87.94
462.777	98.94
462.997	83.94
463.217	91.94
463.437	73.94
463.657	76.94
463.876	92.94
464.096	94.94
464.316	81.94
464.536	98.94
464.755	103.94
464.975	105.94
465.195	140.94
465.414	148.94
465.634	97.94
465.854	84.94
466.073	87.94
466.293	82.94
466.512	98.94
466.732	79.94
466.951	93.94
467.171	79.94
467.391	89.94
467.61	99.94
467.829	96.94
468.049	93.94
468.268	87.94
468.488	81.94
468.707	80.94
468.927	81.94
469.146	92.94
469.365	88.94
469.585	88.94
469.804	89.94
470.023	106.94
470.243	89.94
470.462	98.94
470.681	89.94
470.901	82.94
471.12	83.94
471.339	82.94
471.558	92.94
471.777	83.94
471.997	94.94
472.216	88.94
472.435	97.94
472.654	102.94
472.873	82.94
473.092	76.94
473.311	77.94
473.53	79.94
473.749	90.94
473.968	97.94
474.187	96.94
474.406	107.94
474.625	89.94
474.844	92.94
475.063	95.94
475.282	89.94
475.501	85.94
475.72	89.94
475.939	91.94
476.158	82.94
476.377	82.94
476.596	86.94
476.814	98.94
477.033	93.94
477.252	91.94
477.471	93.94
477.69	93.94
477.908	87.94
478.127	94.94
478.346	79.94
478.564	95.94
478.783	92.94
479.002	98.94
479.22	89.94
479.439	120.94
479.658	99.94
479.876	82.94
480.095	88.94
480.313	74.94
480.532	80.94
480.751	82.94
480.969	84.94
481.188	81.94
481.406	79.94
481.624	93.94
481.843	102.94
482.061	98.94
482.28	89.94
482.498	88.94
482.717	80.94
482.935	96.94
483.153	95.94
483.372	90.94
483.59	77.94
483.808	84.94
484.027	98.94
484.245	94.94
484.463	98.94
484.681	102.94
484.9	91.94
485.118	102.94
485.336	107.94
485.554	85.94
485.772	99.94
485.99	103.94
486.209	98.94
486.427	104.94
486.645	110.94
486.863	122.94
487.081	110.94
487.299	93.94
487.517	93.94
487.735	95.94
487.953	105.94
488.171	83.94
488.389	92.94
488.607	105.94
488.825	103.94
489.043	94.94
489.261	94.94
489.479	99.94
489.696	81.94
489.914	92.94
490.132	85.94
490.35	90.94
490.568	83.94
490.786	107.94
491.003	103.94
491.221	94.94
491.439	80.94
491.657	100.94
491.874	87.94
492.092	94.94
492.31	80.94
492.527	90.94
492.745	95.94
492.963	91.94
493.18	82.94
493.398	79.94
493.615	104.94
493.833	95.94
494.05	90.94
494.268	93.94
494.485	80.94
494.703	89.94
494.92	90.94
495.138	99.94
495.355	98.94
495.573	91.94
495.79	92.94
496.008	77.94
496.225	83.94
496.442	95.94
496.66	88.94
496.877	92.94
497.094	102.94
497.312	99.94
497.529	104.94
497.746	86.94
497.963	90.94
498.181	83.94
498.398	98.94
498.615	95.94
498.832	94.94
499.049	86.94
499.267	102.94
499.484	102.94
499.701	100.94
499.918	98.94
500.135	89.94
500.352	83.94
500.569	94.94
500.786	78.94
501.003	92.94
501.22	72.94
501.437	98.94
501.654	94.94
501.871	101.94
502.088	89.94
502.305	87.94
502.522	102.94
502.739	107.94
502.956	84.94
503.172	90.94
503.389	98.94
503.606	109.94
503.823	109.94
504.04	85.94
504.256	86.94
504.473	91.94
504.69	92.94
504.907	92.94
505.123	86.94
505.34	87.94
505.557	98.94
505.773	84.94
505.99	85.94
506.207	90.94
506.423	91.94
506.64	97.94
506.856	92.94
507.073	88.94
507.289	92.94
507.506	104.94
507.722	101.94
507.939	123.94
508.155	93.94
508.372	98.94
508.588	81.94
508.805	92.94
509.021	102.94
509.238	99.94
509.454	102.94
509.67	107.94
509.887	101.94
510.103	125.94
510.319	192.94
510.536	687.94
510.752	2121.94
510.968	594.94
511.184	134.94
511.401	118.94
511.617	97.94
511.833	74.94
512.049	101.94
512.265	86.94
512.481	83.94
512.698	91.94
512.914	96.94
513.13	88.94
513.346	96.94
513.562	89.94
513.778	90.94
513.994	84.94
514.21	108.94
514.426	118.94
514.642	129.94
514.858	106.94
515.074	160.94
515.29	395.94
515.506	1254.94
515.721	463.94
