Data from Uncirc_2008_H10_HRD10591_00083.txt Node
Date: Wed Jan 03 10:15:47 EST 2024
User: Yrep
Spectrometer: HR+D1059
Trigger mode: 1
Integration Time (sec): 1.000000E-1
Scans to average: 1
Electric dark correction enabled: true
Nonlinearity correction enabled: false
Boxcar width: 0
XAxis mode: Wavelengths
Number of Pixels in Spectrum: 2048
>>>>>Begin Spectral Data<<<<<
223.165	-21.94
223.4	-21.94
223.635	-21.94
223.869	-24.94
224.104	-10.94
224.338	-9.94
224.573	-13.94
224.808	-35.94
225.042	1.06
225.277	-17.94
225.511	-8.94
225.746	11.06
225.98	3.06
226.215	22.06
226.449	17.06
226.683	26.06
226.918	21.06
227.152	43.06
227.387	34.06
227.621	33.06
227.856	63.06
228.09	43.06
228.324	47.06
228.559	44.06
228.793	49.06
229.027	47.06
229.262	60.06
229.496	67.06
229.73	78.06
229.964	89.06
230.199	81.06
230.433	61.06
230.667	82.06
230.901	82.06
231.136	91.06
231.37	89.06
231.604	68.06
231.838	78.06
232.072	77.06
232.306	80.06
232.541	74.06
232.775	83.06
233.009	76.06
233.243	71.06
233.477	86.06
233.711	87.06
233.945	68.06
234.179	80.06
234.413	68.06
234.647	72.06
234.881	79.06
235.115	75.06
235.349	85.06
235.583	80.06
235.817	76.06
236.051	66.06
236.285	87.06
236.519	84.06
236.753	91.06
236.987	78.06
237.221	95.06
237.455	99.06
237.689	83.06
237.922	66.06
238.156	82.06
238.39	85.06
238.624	80.06
238.858	86.06
239.091	85.06
239.325	64.06
239.559	65.06
239.793	69.06
240.027	84.06
240.26	80.06
240.494	69.06
240.728	85.06
240.961	91.06
241.195	71.06
241.429	67.06
241.662	78.06
241.896	70.06
242.13	67.06
242.363	65.06
242.597	80.06
242.83	88.06
243.064	77.06
243.298	86.06
243.531	76.06
243.765	69.06
243.998	99.06
244.232	77.06
244.465	106.06
244.699	84.06
244.932	80.06
245.166	69.06
245.399	85.06
245.633	72.06
245.866	79.06
246.099	69.06
246.333	81.06
246.566	81.06
246.8	79.06
247.033	83.06
247.266	73.06
247.5	66.06
247.733	69.06
247.966	91.06
248.2	89.06
248.433	81.06
248.666	88.06
248.899	87.06
249.133	75.06
249.366	89.06
249.599	94.06
249.832	92.06
250.066	88.06
250.299	84.06
250.532	78.06
250.765	97.06
250.998	86.06
251.231	72.06
251.465	80.06
251.698	80.06
251.931	80.06
252.164	84.06
252.397	84.06
252.63	68.06
252.863	75.06
253.096	70.06
253.329	87.06
253.562	88.06
253.795	82.06
254.028	85.06
254.261	85.06
254.494	76.06
254.727	85.06
254.96	90.06
255.193	94.06
255.426	85.06
255.659	83.06
255.892	95.06
256.124	63.06
256.357	96.06
256.59	79.06
256.823	93.06
257.056	91.06
257.289	89.06
257.521	93.06
257.754	65.06
257.987	78.06
258.22	93.06
258.452	92.06
258.685	86.06
258.918	87.06
259.151	76.06
259.383	80.06
259.616	90.06
259.849	91.06
260.081	85.06
260.314	89.06
260.547	99.06
260.779	78.06
261.012	85.06
261.244	83.06
261.477	95.06
261.71	84.06
261.942	98.06
262.175	115.06
262.407	85.06
262.64	83.06
262.872	82.06
263.105	72.06
263.337	88.06
263.57	77.06
263.802	80.06
264.035	100.06
264.267	97.06
264.499	71.06
264.732	90.06
264.964	80.06
265.197	82.06
265.429	85.06
265.661	73.06
265.894	80.06
266.126	76.06
266.358	88.06
266.591	80.06
266.823	81.06
267.055	82.06
267.287	101.06
267.52	91.06
267.752	83.06
267.984	89.06
268.216	80.06
268.448	73.06
268.681	82.06
268.913	68.06
269.145	84.06
269.377	79.06
269.609	75.06
269.841	90.06
270.073	85.06
270.306	87.06
270.538	88.06
270.77	76.06
271.002	100.06
271.234	86.06
271.466	74.06
271.698	97.06
271.93	87.06
272.162	79.06
272.394	96.06
272.626	74.06
272.858	79.06
273.09	92.06
273.322	85.06
273.553	87.06
273.785	87.06
274.017	78.06
274.249	73.06
274.481	68.06
274.713	93.06
274.945	78.06
275.176	73.06
275.408	70.06
275.64	80.06
275.872	77.06
276.104	100.06
276.335	94.06
276.567	108.06
276.799	115.06
277.031	106.06
277.262	75.06
277.494	97.06
277.726	83.06
277.957	82.06
278.189	87.06
278.421	89.06
278.652	78.06
278.884	69.06
279.115	94.06
279.347	107.06
279.579	89.06
279.81	81.06
280.042	98.06
280.273	85.06
280.505	82.06
280.736	100.06
280.968	91.06
281.199	84.06
281.431	84.06
281.662	79.06
281.894	89.06
282.125	110.06
282.356	122.06
282.588	115.06
282.819	108.06
283.051	89.06
283.282	90.06
283.513	108.06
283.745	90.06
283.976	79.06
284.207	82.06
284.439	89.06
284.67	90.06
284.901	92.06
285.132	87.06
285.364	85.06
285.595	77.06
285.826	98.06
286.057	82.06
286.288	81.06
286.52	81.06
286.751	78.06
286.982	85.06
287.213	85.06
287.444	86.06
287.675	82.06
287.906	98.06
288.138	93.06
288.369	100.06
288.6	88.06
288.831	100.06
289.062	91.06
289.293	85.06
289.524	91.06
289.755	81.06
289.986	92.06
290.217	84.06
290.448	89.06
290.679	83.06
290.91	93.06
291.141	84.06
291.371	95.06
291.602	89.06
291.833	96.06
292.064	95.06
292.295	77.06
292.526	78.06
292.757	80.06
292.987	91.06
293.218	81.06
293.449	80.06
293.68	81.06
293.91	88.06
294.141	91.06
294.372	92.06
294.603	92.06
294.833	82.06
295.064	89.06
295.295	94.06
295.525	89.06
295.756	100.06
295.987	106.06
296.217	138.06
296.448	112.06
296.679	97.06
296.909	91.06
297.14	96.06
297.37	86.06
297.601	91.06
297.831	103.06
298.062	95.06
298.292	89.06
298.523	82.06
298.753	77.06
298.984	83.06
299.214	93.06
299.445	92.06
299.675	97.06
299.905	88.06
300.136	89.06
300.366	88.06
300.597	93.06
300.827	92.06
301.057	88.06
301.288	99.06
301.518	93.06
301.748	92.06
301.979	100.06
302.209	92.06
302.439	92.06
302.669	92.06
302.9	83.06
303.13	90.06
303.36	90.06
303.59	100.06
303.82	103.06
304.051	95.06
304.281	88.06
304.511	79.06
304.741	90.06
304.971	91.06
305.201	103.06
305.431	97.06
305.661	85.06
305.891	101.06
306.121	103.06
306.352	85.06
306.582	97.06
306.812	85.06
307.042	84.06
307.272	97.06
307.502	89.06
307.731	87.06
307.961	83.06
308.191	96.06
308.421	97.06
308.651	89.06
308.881	105.06
309.111	94.06
309.341	98.06
309.571	92.06
309.8	100.06
310.03	101.06
310.26	106.06
310.49	106.06
310.72	104.06
310.949	107.06
311.179	99.06
311.409	100.06
311.639	93.06
311.868	90.06
312.098	102.06
312.328	96.06
312.557	96.06
312.787	101.06
313.017	96.06
313.246	89.06
313.476	110.06
313.706	91.06
313.935	99.06
314.165	96.06
314.394	98.06
314.624	98.06
314.853	111.06
315.083	90.06
315.312	105.06
315.542	93.06
315.771	94.06
316.001	87.06
316.23	101.06
316.46	89.06
316.689	91.06
316.919	97.06
317.148	99.06
317.377	98.06
317.607	96.06
317.836	105.06
318.065	99.06
318.295	89.06
318.524	92.06
318.753	88.06
318.983	97.06
319.212	98.06
319.441	103.06
319.67	97.06
319.9	96.06
320.129	95.06
320.358	97.06
320.587	94.06
320.816	99.06
321.046	94.06
321.275	106.06
321.504	104.06
321.733	99.06
321.962	87.06
322.191	105.06
322.42	97.06
322.649	101.06
322.878	117.06
323.108	113.06
323.337	131.06
323.566	116.06
323.795	149.06
324.024	181.06
324.253	362.06
324.482	751.06
324.71	1533.06
324.939	1967.06
325.168	713.06
325.397	224.06
325.626	139.06
325.855	127.06
326.084	123.06
326.313	123.06
326.542	154.06
326.77	208.06
326.999	417.06
327.228	865.06
327.457	1529.06
327.686	1210.06
327.914	331.06
328.143	172.06
328.372	134.06
328.6	112.06
328.829	103.06
329.058	119.06
329.287	128.06
329.515	101.06
329.744	103.06
329.972	98.06
330.201	112.06
330.43	117.06
330.658	110.06
330.887	128.06
331.115	120.06
331.344	103.06
331.572	96.06
331.801	120.06
332.03	109.06
332.258	75.06
332.486	103.06
332.715	91.06
332.943	78.06
333.172	96.06
333.4	100.06
333.629	85.06
333.857	103.06
334.085	103.06
334.314	93.06
334.542	95.06
334.771	104.06
334.999	87.06
335.227	83.06
335.455	85.06
335.684	109.06
335.912	89.06
336.14	80.06
336.369	91.06
336.597	98.06
336.825	102.06
337.053	85.06
337.281	74.06
337.51	77.06
337.738	85.06
337.966	110.06
338.194	107.06
338.422	103.06
338.65	92.06
338.878	94.06
339.106	83.06
339.334	91.06
339.562	79.06
339.79	100.06
340.018	92.06
340.246	98.06
340.474	84.06
340.702	92.06
340.93	98.06
341.158	100.06
341.386	104.06
341.614	103.06
341.842	100.06
342.07	83.06
342.298	95.06
342.526	92.06
342.754	98.06
342.981	94.06
343.209	98.06
343.437	99.06
343.665	106.06
343.893	94.06
344.12	92.06
344.348	95.06
344.576	99.06
344.804	80.06
345.031	91.06
345.259	88.06
345.487	104.06
345.714	85.06
345.942	93.06
346.17	96.06
346.397	98.06
346.625	91.06
346.853	88.06
347.08	96.06
347.308	98.06
347.535	95.06
347.763	95.06
347.99	99.06
348.218	106.06
348.445	100.06
348.673	91.06
348.9	83.06
349.128	100.06
349.355	91.06
349.583	84.06
349.81	82.06
350.037	96.06
350.265	89.06
350.492	89.06
350.72	96.06
350.947	98.06
351.174	100.06
351.402	103.06
351.629	101.06
351.856	92.06
352.083	95.06
352.311	99.06
352.538	104.06
352.765	100.06
352.992	109.06
353.22	111.06
353.447	110.06
353.674	106.06
353.901	96.06
354.128	94.06
354.355	100.06
354.583	113.06
354.81	101.06
355.037	89.06
355.264	111.06
355.491	101.06
355.718	84.06
355.945	98.06
356.172	85.06
356.399	100.06
356.626	108.06
356.853	93.06
357.08	101.06
357.307	88.06
357.534	96.06
357.761	92.06
357.988	105.06
358.215	88.06
358.441	89.06
358.668	82.06
358.895	89.06
359.122	88.06
359.349	107.06
359.576	91.06
359.802	97.06
360.029	93.06
360.256	103.06
360.483	87.06
360.709	92.06
360.936	94.06
361.163	87.06
361.39	96.06
361.616	83.06
361.843	95.06
362.07	82.06
362.296	89.06
362.523	116.06
362.749	85.06
362.976	95.06
363.203	84.06
363.429	94.06
363.656	84.06
363.882	85.06
364.109	78.06
364.335	69.06
364.562	93.06
364.788	117.06
365.015	96.06
365.241	91.06
365.468	104.06
365.694	93.06
365.92	90.06
366.147	82.06
366.373	99.06
366.599	79.06
366.826	91.06
367.052	87.06
367.278	100.06
367.505	86.06
367.731	95.06
367.957	97.06
368.184	94.06
368.41	88.06
368.636	102.06
368.862	105.06
369.089	100.06
369.315	79.06
369.541	97.06
369.767	84.06
369.993	75.06
370.219	91.06
370.445	85.06
370.672	91.06
370.898	90.06
371.124	96.06
371.35	93.06
371.576	91.06
371.802	87.06
372.028	84.06
372.254	94.06
372.48	92.06
372.706	77.06
372.932	101.06
373.158	106.06
373.384	91.06
373.61	90.06
373.835	79.06
374.061	77.06
374.287	96.06
374.513	88.06
374.739	88.06
374.965	79.06
375.191	83.06
375.416	85.06
375.642	92.06
375.868	92.06
376.094	85.06
376.319	91.06
376.545	94.06
376.771	98.06
376.997	81.06
377.222	81.06
377.448	90.06
377.674	93.06
377.899	90.06
378.125	95.06
378.35	83.06
378.576	97.06
378.802	92.06
379.027	88.06
379.253	104.06
379.478	88.06
379.704	101.06
379.929	103.06
380.155	81.06
380.38	85.06
380.606	83.06
380.831	91.06
381.057	91.06
381.282	98.06
381.507	100.06
381.733	103.06
381.958	103.06
382.184	93.06
382.409	92.06
382.634	107.06
382.86	100.06
383.085	103.06
383.31	108.06
383.535	109.06
383.761	112.06
383.986	96.06
384.211	103.06
384.436	96.06
384.662	84.06
384.887	98.06
385.112	98.06
385.337	98.06
385.562	107.06
385.787	93.06
386.013	119.06
386.238	112.06
386.463	92.06
386.688	96.06
386.913	101.06
387.138	105.06
387.363	91.06
387.588	92.06
387.813	98.06
388.038	104.06
388.263	106.06
388.488	96.06
388.713	81.06
388.938	86.06
389.163	98.06
389.387	93.06
389.612	93.06
389.837	87.06
390.062	93.06
390.287	99.06
390.512	92.06
390.736	107.06
390.961	89.06
391.186	86.06
391.411	100.06
391.636	92.06
391.86	85.06
392.085	82.06
392.31	85.06
392.534	90.06
392.759	94.06
392.984	76.06
393.208	83.06
393.433	100.06
393.658	84.06
393.882	95.06
394.107	89.06
394.331	95.06
394.556	83.06
394.78	75.06
395.005	82.06
395.229	85.06
395.454	85.06
395.678	75.06
395.903	81.06
396.127	96.06
396.352	94.06
396.576	94.06
396.801	97.06
397.025	93.06
397.249	89.06
397.474	83.06
397.698	98.06
397.922	97.06
398.147	86.06
398.371	92.06
398.595	85.06
398.82	92.06
399.044	85.06
399.268	94.06
399.492	79.06
399.717	90.06
399.941	86.06
400.165	103.06
400.389	97.06
400.613	94.06
400.837	106.06
401.062	81.06
401.286	100.06
401.51	88.06
401.734	92.06
401.958	108.06
402.182	114.06
402.406	144.06
402.63	121.06
402.854	89.06
403.078	81.06
403.302	69.06
403.526	107.06
403.75	93.06
403.974	82.06
404.198	80.06
404.422	82.06
404.645	81.06
404.869	83.06
405.093	77.06
405.317	108.06
405.541	99.06
405.765	91.06
405.988	122.06
406.212	162.06
406.436	214.06
406.66	138.06
406.883	102.06
407.107	92.06
407.331	99.06
407.555	104.06
407.778	104.06
408.002	113.06
408.226	87.06
408.449	83.06
408.673	92.06
408.896	95.06
409.12	101.06
409.344	91.06
409.567	89.06
409.791	86.06
410.014	79.06
410.238	92.06
410.461	91.06
410.685	86.06
410.908	100.06
411.132	103.06
411.355	110.06
411.578	85.06
411.802	99.06
412.025	83.06
412.249	85.06
412.472	81.06
412.695	82.06
412.919	93.06
413.142	93.06
413.365	88.06
413.589	76.06
413.812	96.06
414.035	87.06
414.258	90.06
414.482	91.06
414.705	88.06
414.928	92.06
415.151	81.06
415.374	84.06
415.597	91.06
415.821	93.06
416.044	96.06
416.267	99.06
416.49	81.06
416.713	68.06
416.936	75.06
417.159	102.06
417.382	99.06
417.605	100.06
417.828	104.06
418.051	100.06
418.274	83.06
418.497	82.06
418.72	95.06
418.943	111.06
419.166	100.06
419.389	89.06
419.611	78.06
419.834	82.06
420.057	105.06
420.28	95.06
420.503	94.06
420.726	89.06
420.948	77.06
421.171	94.06
421.394	99.06
421.617	102.06
421.839	87.06
422.062	87.06
422.285	83.06
422.507	92.06
422.73	95.06
422.953	95.06
423.175	85.06
423.398	84.06
423.621	82.06
423.843	96.06
424.066	84.06
424.288	77.06
424.511	100.06
424.733	88.06
424.956	96.06
425.178	93.06
425.401	94.06
425.623	102.06
425.846	98.06
426.068	100.06
426.291	93.06
426.513	86.06
426.735	89.06
426.958	105.06
427.18	112.06
427.402	137.06
427.625	152.06
427.847	124.06
428.069	101.06
428.292	91.06
428.514	87.06
428.736	84.06
428.958	85.06
429.181	91.06
429.403	83.06
429.625	95.06
429.847	86.06
430.069	105.06
430.292	84.06
430.514	84.06
430.736	88.06
430.958	89.06
431.18	88.06
431.402	85.06
431.624	84.06
431.846	91.06
432.068	78.06
432.29	85.06
432.512	80.06
432.734	92.06
432.956	89.06
433.178	89.06
433.4	94.06
433.622	93.06
433.844	80.06
434.066	89.06
434.287	92.06
434.509	81.06
434.731	88.06
434.953	94.06
435.175	95.06
435.397	92.06
435.618	103.06
435.84	110.06
436.062	123.06
436.284	100.06
436.505	96.06
436.727	110.06
436.949	95.06
437.17	90.06
437.392	99.06
437.614	97.06
437.835	99.06
438.057	109.06
438.278	93.06
438.5	91.06
438.721	131.06
438.943	111.06
439.165	84.06
439.386	87.06
439.608	83.06
439.829	103.06
440.05	104.06
440.272	124.06
440.493	95.06
440.715	85.06
440.936	102.06
441.158	88.06
441.379	94.06
441.6	82.06
441.822	93.06
442.043	106.06
442.264	115.06
442.486	95.06
442.707	85.06
442.928	103.06
443.149	125.06
443.371	124.06
443.592	115.06
443.813	98.06
444.034	103.06
444.255	100.06
444.476	91.06
444.698	85.06
444.919	89.06
445.14	128.06
445.361	109.06
445.582	109.06
445.803	118.06
446.024	105.06
446.245	126.06
446.466	115.06
446.687	85.06
446.908	77.06
447.129	76.06
447.35	74.06
447.571	101.06
447.792	87.06
448.013	108.06
448.234	97.06
448.455	97.06
448.675	107.06
448.896	117.06
449.117	85.06
449.338	89.06
449.559	124.06
449.779	119.06
450	98.06
450.221	100.06
450.442	85.06
450.662	93.06
450.883	103.06
451.104	91.06
451.324	79.06
451.545	83.06
451.766	75.06
451.986	92.06
452.207	101.06
452.428	94.06
452.648	98.06
452.869	99.06
453.089	116.06
453.31	111.06
453.53	88.06
453.751	75.06
453.971	101.06
454.192	109.06
454.412	92.06
454.633	87.06
454.853	85.06
455.073	74.06
455.294	91.06
455.514	103.06
455.734	86.06
455.955	100.06
456.175	79.06
456.395	85.06
456.616	96.06
456.836	83.06
457.056	74.06
457.276	87.06
457.497	93.06
457.717	92.06
457.937	81.06
458.157	85.06
458.377	104.06
458.598	100.06
458.818	131.06
459.038	140.06
459.258	116.06
459.478	82.06
459.698	90.06
459.918	100.06
460.138	102.06
460.358	91.06
460.578	88.06
460.798	77.06
461.018	93.06
461.238	81.06
461.458	91.06
461.678	81.06
461.898	92.06
462.118	82.06
462.338	81.06
462.558	97.06
462.777	72.06
462.997	84.06
463.217	79.06
463.437	95.06
463.657	75.06
463.876	87.06
464.096	75.06
464.316	87.06
464.536	80.06
464.755	100.06
464.975	101.06
465.195	159.06
465.414	140.06
465.634	89.06
465.854	81.06
466.073	84.06
466.293	96.06
466.512	87.06
466.732	100.06
466.951	75.06
467.171	101.06
467.391	74.06
467.61	108.06
467.829	99.06
468.049	83.06
468.268	89.06
468.488	85.06
468.707	89.06
468.927	91.06
469.146	82.06
469.365	92.06
469.585	91.06
469.804	93.06
470.023	96.06
470.243	90.06
470.462	96.06
470.681	106.06
470.901	88.06
471.12	84.06
471.339	85.06
471.558	95.06
471.777	92.06
471.997	91.06
472.216	77.06
472.435	81.06
472.654	89.06
472.873	81.06
473.092	86.06
473.311	89.06
473.53	82.06
473.749	89.06
473.968	77.06
474.187	105.06
474.406	96.06
474.625	90.06
474.844	82.06
475.063	103.06
475.282	80.06
475.501	90.06
475.72	96.06
475.939	81.06
476.158	92.06
476.377	93.06
476.596	91.06
476.814	88.06
477.033	96.06
477.252	84.06
477.471	84.06
477.69	90.06
477.908	93.06
478.127	83.06
478.346	79.06
478.564	96.06
478.783	101.06
479.002	85.06
479.22	77.06
479.439	101.06
479.658	93.06
479.876	91.06
480.095	88.06
480.313	94.06
480.532	99.06
480.751	95.06
480.969	80.06
481.188	80.06
481.406	98.06
481.624	104.06
481.843	100.06
482.061	90.06
482.28	89.06
482.498	98.06
482.717	93.06
482.935	95.06
483.153	76.06
483.372	101.06
483.59	77.06
483.808	81.06
484.027	91.06
484.245	84.06
484.463	87.06
484.681	95.06
484.9	91.06
485.118	92.06
485.336	92.06
485.554	103.06
485.772	99.06
485.99	105.06
486.209	86.06
486.427	105.06
486.645	101.06
486.863	95.06
487.081	101.06
487.299	95.06
487.517	82.06
487.735	108.06
487.953	101.06
488.171	85.06
488.389	95.06
488.607	95.06
488.825	76.06
489.043	84.06
489.261	83.06
489.479	101.06
489.696	90.06
489.914	96.06
490.132	99.06
490.35	89.06
490.568	85.06
490.786	86.06
491.003	93.06
491.221	85.06
491.439	92.06
491.657	101.06
491.874	92.06
492.092	96.06
492.31	89.06
492.527	104.06
492.745	89.06
492.963	79.06
493.18	79.06
493.398	100.06
493.615	98.06
493.833	109.06
494.05	94.06
494.268	82.06
494.485	78.06
494.703	89.06
494.92	89.06
495.138	97.06
495.355	95.06
495.573	92.06
495.79	96.06
496.008	98.06
496.225	67.06
496.442	76.06
496.66	96.06
496.877	85.06
497.094	106.06
497.312	91.06
497.529	106.06
497.746	83.06
497.963	94.06
498.181	95.06
498.398	91.06
498.615	111.06
498.832	100.06
499.049	100.06
499.267	76.06
499.484	95.06
499.701	99.06
499.918	99.06
500.135	83.06
500.352	74.06
500.569	80.06
500.786	92.06
501.003	86.06
501.22	94.06
501.437	85.06
501.654	82.06
501.871	92.06
502.088	75.06
502.305	76.06
502.522	97.06
502.739	97.06
502.956	90.06
503.172	94.06
503.389	101.06
503.606	105.06
503.823	85.06
504.04	109.06
504.256	96.06
504.473	80.06
504.69	98.06
504.907	85.06
505.123	88.06
505.34	88.06
505.557	85.06
505.773	89.06
505.99	75.06
506.207	74.06
506.423	79.06
506.64	92.06
506.856	88.06
507.073	116.06
507.289	92.06
507.506	90.06
507.722	117.06
507.939	109.06
508.155	112.06
508.372	99.06
508.588	79.06
508.805	114.06
509.021	94.06
509.238	96.06
509.454	108.06
509.67	92.06
509.887	108.06
510.103	120.06
510.319	212.06
510.536	740.06
510.752	2290.06
510.968	656.06
511.184	138.06
511.401	97.06
511.617	85.06
511.833	79.06
512.049	90.06
512.265	91.06
512.481	87.06
512.698	96.06
512.914	89.06
513.13	94.06
513.346	87.06
513.562	98.06
513.778	95.06
513.994	101.06
514.21	92.06
514.426	107.06
514.642	143.06
514.858	122.06
515.074	155.06
515.29	439.06
515.506	1343.06
515.721	498.06
