Data from Uncirc_2008_H10_HRD10591_00035.txt Node
Date: Wed Jan 03 10:15:37 EST 2024
User: Yrep
Spectrometer: HR+D1059
Trigger mode: 1
Integration Time (sec): 1.000000E-1
Scans to average: 1
Electric dark correction enabled: true
Nonlinearity correction enabled: false
Boxcar width: 0
XAxis mode: Wavelengths
Number of Pixels in Spectrum: 2048
>>>>>Begin Spectral Data<<<<<
223.165	-18.5
223.4	-18.5
223.635	-18.5
223.869	-3.5
224.104	-14.5
224.338	-18.5
224.573	-28.5
224.808	-14.5
225.042	1.5
225.277	-4.5
225.511	0.5
225.746	11.5
225.98	4.5
226.215	5.5
226.449	4.5
226.683	20.5
226.918	28.5
227.152	25.5
227.387	49.5
227.621	55.5
227.856	48.5
228.09	53.5
228.324	56.5
228.559	63.5
228.793	42.5
229.027	63.5
229.262	77.5
229.496	76.5
229.73	92.5
229.964	86.5
230.199	76.5
230.433	69.5
230.667	60.5
230.901	72.5
231.136	81.5
231.37	78.5
231.604	82.5
231.838	84.5
232.072	73.5
232.306	69.5
232.541	86.5
232.775	80.5
233.009	68.5
233.243	88.5
233.477	80.5
233.711	91.5
233.945	80.5
234.179	85.5
234.413	75.5
234.647	69.5
234.881	75.5
235.115	78.5
235.349	79.5
235.583	73.5
235.817	77.5
236.051	56.5
236.285	79.5
236.519	88.5
236.753	76.5
236.987	78.5
237.221	88.5
237.455	82.5
237.689	84.5
237.922	85.5
238.156	81.5
238.39	81.5
238.624	91.5
238.858	71.5
239.091	72.5
239.325	78.5
239.559	83.5
239.793	87.5
240.027	85.5
240.26	73.5
240.494	74.5
240.728	80.5
240.961	63.5
241.195	74.5
241.429	71.5
241.662	70.5
241.896	72.5
242.13	78.5
242.363	69.5
242.597	53.5
242.83	68.5
243.064	76.5
243.298	79.5
243.531	67.5
243.765	82.5
243.998	84.5
244.232	77.5
244.465	87.5
244.699	70.5
244.932	78.5
245.166	79.5
245.399	86.5
245.633	75.5
245.866	71.5
246.099	88.5
246.333	80.5
246.566	64.5
246.8	86.5
247.033	90.5
247.266	78.5
247.5	91.5
247.733	74.5
247.966	86.5
248.2	65.5
248.433	81.5
248.666	71.5
248.899	78.5
249.133	79.5
249.366	100.5
249.599	92.5
249.832	90.5
250.066	106.5
250.299	74.5
250.532	92.5
250.765	91.5
250.998	96.5
251.231	77.5
251.465	78.5
251.698	84.5
251.931	86.5
252.164	80.5
252.397	79.5
252.63	74.5
252.863	84.5
253.096	80.5
253.329	90.5
253.562	89.5
253.795	77.5
254.028	79.5
254.261	97.5
254.494	83.5
254.727	78.5
254.96	73.5
255.193	88.5
255.426	79.5
255.659	71.5
255.892	87.5
256.124	72.5
256.357	84.5
256.59	80.5
256.823	85.5
257.056	84.5
257.289	74.5
257.521	76.5
257.754	74.5
257.987	92.5
258.22	92.5
258.452	81.5
258.685	77.5
258.918	68.5
259.151	85.5
259.383	91.5
259.616	81.5
259.849	68.5
260.081	84.5
260.314	75.5
260.547	73.5
260.779	83.5
261.012	87.5
261.244	76.5
261.477	85.5
261.71	96.5
261.942	103.5
262.175	121.5
262.407	91.5
262.64	79.5
262.872	79.5
263.105	80.5
263.337	84.5
263.57	69.5
263.802	77.5
264.035	89.5
264.267	82.5
264.499	85.5
264.732	80.5
264.964	79.5
265.197	70.5
265.429	75.5
265.661	98.5
265.894	84.5
266.126	87.5
266.358	75.5
266.591	92.5
266.823	86.5
267.055	90.5
267.287	78.5
267.52	100.5
267.752	91.5
267.984	87.5
268.216	93.5
268.448	83.5
268.681	91.5
268.913	73.5
269.145	78.5
269.377	86.5
269.609	84.5
269.841	94.5
270.073	103.5
270.306	91.5
270.538	76.5
270.77	74.5
271.002	84.5
271.234	108.5
271.466	82.5
271.698	99.5
271.93	88.5
272.162	93.5
272.394	103.5
272.626	96.5
272.858	82.5
273.09	80.5
273.322	104.5
273.553	76.5
273.785	89.5
274.017	95.5
274.249	85.5
274.481	88.5
274.713	94.5
274.945	99.5
275.176	80.5
275.408	82.5
275.64	80.5
275.872	77.5
276.104	96.5
276.335	95.5
276.567	95.5
276.799	110.5
277.031	112.5
277.262	102.5
277.494	90.5
277.726	101.5
277.957	85.5
278.189	89.5
278.421	83.5
278.652	85.5
278.884	84.5
279.115	89.5
279.347	82.5
279.579	76.5
279.81	98.5
280.042	78.5
280.273	87.5
280.505	76.5
280.736	94.5
280.968	82.5
281.199	91.5
281.431	96.5
281.662	90.5
281.894	73.5
282.125	81.5
282.356	106.5
282.588	143.5
282.819	120.5
283.051	87.5
283.282	92.5
283.513	91.5
283.745	89.5
283.976	95.5
284.207	91.5
284.439	76.5
284.67	96.5
284.901	83.5
285.132	89.5
285.364	87.5
285.595	92.5
285.826	82.5
286.057	91.5
286.288	90.5
286.52	85.5
286.751	67.5
286.982	89.5
287.213	95.5
287.444	83.5
287.675	99.5
287.906	90.5
288.138	89.5
288.369	98.5
288.6	84.5
288.831	65.5
289.062	90.5
289.293	77.5
289.524	94.5
289.755	95.5
289.986	85.5
290.217	97.5
290.448	97.5
290.679	89.5
290.91	81.5
291.141	94.5
291.371	97.5
291.602	78.5
291.833	91.5
292.064	82.5
292.295	96.5
292.526	88.5
292.757	91.5
292.987	79.5
293.218	87.5
293.449	81.5
293.68	85.5
293.91	93.5
294.141	99.5
294.372	91.5
294.603	93.5
294.833	85.5
295.064	80.5
295.295	98.5
295.525	93.5
295.756	97.5
295.987	124.5
296.217	148.5
296.448	123.5
296.679	86.5
296.909	78.5
297.14	85.5
297.37	107.5
297.601	91.5
297.831	91.5
298.062	91.5
298.292	74.5
298.523	87.5
298.753	83.5
298.984	77.5
299.214	95.5
299.445	87.5
299.675	90.5
299.905	101.5
300.136	88.5
300.366	93.5
300.597	88.5
300.827	106.5
301.057	103.5
301.288	92.5
301.518	84.5
301.748	98.5
301.979	96.5
302.209	85.5
302.439	87.5
302.669	95.5
302.9	75.5
303.13	89.5
303.36	79.5
303.59	103.5
303.82	103.5
304.051	105.5
304.281	89.5
304.511	83.5
304.741	85.5
304.971	77.5
305.201	81.5
305.431	87.5
305.661	96.5
305.891	97.5
306.121	81.5
306.352	105.5
306.582	109.5
306.812	98.5
307.042	85.5
307.272	96.5
307.502	105.5
307.731	92.5
307.961	102.5
308.191	100.5
308.421	87.5
308.651	76.5
308.881	99.5
309.111	89.5
309.341	98.5
309.571	88.5
309.8	100.5
310.03	95.5
310.26	95.5
310.49	105.5
310.72	103.5
310.949	93.5
311.179	95.5
311.409	110.5
311.639	100.5
311.868	91.5
312.098	90.5
312.328	100.5
312.557	107.5
312.787	103.5
313.017	105.5
313.246	103.5
313.476	93.5
313.706	99.5
313.935	101.5
314.165	112.5
314.394	92.5
314.624	103.5
314.853	98.5
315.083	96.5
315.312	89.5
315.542	93.5
315.771	94.5
316.001	92.5
316.23	101.5
316.46	86.5
316.689	95.5
316.919	83.5
317.148	87.5
317.377	97.5
317.607	105.5
317.836	83.5
318.065	93.5
318.295	92.5
318.524	84.5
318.753	86.5
318.983	85.5
319.212	96.5
319.441	110.5
319.67	110.5
319.9	98.5
320.129	105.5
320.358	95.5
320.587	88.5
320.816	102.5
321.046	100.5
321.275	112.5
321.504	84.5
321.733	99.5
321.962	108.5
322.191	100.5
322.42	112.5
322.649	111.5
322.878	114.5
323.108	116.5
323.337	136.5
323.566	150.5
323.795	161.5
324.024	224.5
324.253	400.5
324.482	923.5
324.71	1838.5
324.939	2469.5
325.168	927.5
325.397	268.5
325.626	137.5
325.855	145.5
326.084	142.5
326.313	154.5
326.542	162.5
326.77	251.5
326.999	497.5
327.228	1009.5
327.457	1838.5
327.686	1434.5
327.914	408.5
328.143	201.5
328.372	163.5
328.6	122.5
328.829	116.5
329.058	137.5
329.287	135.5
329.515	109.5
329.744	98.5
329.972	96.5
330.201	96.5
330.43	97.5
330.658	132.5
330.887	147.5
331.115	124.5
331.344	93.5
331.572	94.5
331.801	112.5
332.03	112.5
332.258	86.5
332.486	79.5
332.715	92.5
332.943	91.5
333.172	90.5
333.4	99.5
333.629	100.5
333.857	130.5
334.085	109.5
334.314	96.5
334.542	95.5
334.771	103.5
334.999	102.5
335.227	111.5
335.455	84.5
335.684	95.5
335.912	88.5
336.14	100.5
336.369	115.5
336.597	100.5
336.825	107.5
337.053	82.5
337.281	99.5
337.51	89.5
337.738	95.5
337.966	97.5
338.194	99.5
338.422	98.5
338.65	112.5
338.878	95.5
339.106	93.5
339.334	89.5
339.562	81.5
339.79	99.5
340.018	94.5
340.246	83.5
340.474	101.5
340.702	81.5
340.93	101.5
341.158	95.5
341.386	113.5
341.614	101.5
341.842	93.5
342.07	90.5
342.298	92.5
342.526	97.5
342.754	88.5
342.981	83.5
343.209	88.5
343.437	96.5
343.665	81.5
343.893	97.5
344.12	79.5
344.348	90.5
344.576	96.5
344.804	84.5
345.031	82.5
345.259	92.5
345.487	97.5
345.714	95.5
345.942	112.5
346.17	88.5
346.397	101.5
346.625	98.5
346.853	93.5
347.08	102.5
347.308	83.5
347.535	106.5
347.763	81.5
347.99	83.5
348.218	96.5
348.445	105.5
348.673	92.5
348.9	93.5
349.128	104.5
349.355	89.5
349.583	111.5
349.81	100.5
350.037	99.5
350.265	103.5
350.492	93.5
350.72	95.5
350.947	94.5
351.174	103.5
351.402	122.5
351.629	100.5
351.856	108.5
352.083	99.5
352.311	100.5
352.538	99.5
352.765	112.5
352.992	115.5
353.22	125.5
353.447	102.5
353.674	100.5
353.901	87.5
354.128	85.5
354.355	100.5
354.583	88.5
354.81	88.5
355.037	84.5
355.264	105.5
355.491	82.5
355.718	85.5
355.945	90.5
356.172	98.5
356.399	89.5
356.626	96.5
356.853	99.5
357.08	90.5
357.307	89.5
357.534	95.5
357.761	99.5
357.988	97.5
358.215	93.5
358.441	95.5
358.668	82.5
358.895	81.5
359.122	94.5
359.349	97.5
359.576	88.5
359.802	103.5
360.029	129.5
360.256	116.5
360.483	102.5
360.709	90.5
360.936	106.5
361.163	101.5
361.39	96.5
361.616	90.5
361.843	80.5
362.07	82.5
362.296	101.5
362.523	93.5
362.749	85.5
362.976	86.5
363.203	96.5
363.429	81.5
363.656	89.5
363.882	88.5
364.109	96.5
364.335	86.5
364.562	93.5
364.788	88.5
365.015	109.5
365.241	91.5
365.468	110.5
365.694	104.5
365.92	92.5
366.147	104.5
366.373	90.5
366.599	94.5
366.826	92.5
367.052	103.5
367.278	83.5
367.505	83.5
367.731	89.5
367.957	95.5
368.184	99.5
368.41	103.5
368.636	124.5
368.862	131.5
369.089	115.5
369.315	98.5
369.541	90.5
369.767	90.5
369.993	80.5
370.219	103.5
370.445	89.5
370.672	94.5
370.898	92.5
371.124	76.5
371.35	92.5
371.576	89.5
371.802	93.5
372.028	88.5
372.254	90.5
372.48	97.5
372.706	92.5
372.932	89.5
373.158	91.5
373.384	96.5
373.61	94.5
373.835	106.5
374.061	94.5
374.287	91.5
374.513	91.5
374.739	91.5
374.965	95.5
375.191	94.5
375.416	93.5
375.642	80.5
375.868	100.5
376.094	76.5
376.319	84.5
376.545	94.5
376.771	91.5
376.997	101.5
377.222	98.5
377.448	95.5
377.674	74.5
377.899	104.5
378.125	98.5
378.35	91.5
378.576	85.5
378.802	94.5
379.027	83.5
379.253	106.5
379.478	81.5
379.704	107.5
379.929	87.5
380.155	105.5
380.38	89.5
380.606	97.5
380.831	104.5
381.057	97.5
381.282	91.5
381.507	89.5
381.733	83.5
381.958	99.5
382.184	95.5
382.409	108.5
382.634	100.5
382.86	98.5
383.085	113.5
383.31	94.5
383.535	105.5
383.761	79.5
383.986	94.5
384.211	98.5
384.436	104.5
384.662	109.5
384.887	98.5
385.112	100.5
385.337	100.5
385.562	103.5
385.787	114.5
386.013	103.5
386.238	124.5
386.463	100.5
386.688	111.5
386.913	103.5
387.138	104.5
387.363	103.5
387.588	90.5
387.813	104.5
388.038	99.5
388.263	110.5
388.488	93.5
388.713	88.5
388.938	96.5
389.163	97.5
389.387	110.5
389.612	88.5
389.837	95.5
390.062	104.5
390.287	89.5
390.512	80.5
390.736	80.5
390.961	95.5
391.186	85.5
391.411	101.5
391.636	85.5
391.86	85.5
392.085	102.5
392.31	84.5
392.534	78.5
392.759	85.5
392.984	82.5
393.208	95.5
393.433	88.5
393.658	83.5
393.882	91.5
394.107	84.5
394.331	100.5
394.556	88.5
394.78	85.5
395.005	89.5
395.229	89.5
395.454	83.5
395.678	86.5
395.903	97.5
396.127	93.5
396.352	82.5
396.576	96.5
396.801	86.5
397.025	83.5
397.249	104.5
397.474	97.5
397.698	81.5
397.922	89.5
398.147	79.5
398.371	85.5
398.595	89.5
398.82	85.5
399.044	69.5
399.268	75.5
399.492	82.5
399.717	97.5
399.941	75.5
400.165	104.5
400.389	97.5
400.613	95.5
400.837	88.5
401.062	90.5
401.286	89.5
401.51	108.5
401.734	99.5
401.958	95.5
402.182	132.5
402.406	180.5
402.63	114.5
402.854	87.5
403.078	83.5
403.302	81.5
403.526	85.5
403.75	90.5
403.974	83.5
404.198	81.5
404.422	79.5
404.645	73.5
404.869	100.5
405.093	92.5
405.317	92.5
405.541	102.5
405.765	101.5
405.988	117.5
406.212	177.5
406.436	233.5
406.66	150.5
406.883	115.5
407.107	100.5
407.331	105.5
407.555	96.5
407.778	111.5
408.002	101.5
408.226	97.5
408.449	102.5
408.673	91.5
408.896	89.5
409.12	91.5
409.344	92.5
409.567	86.5
409.791	90.5
410.014	105.5
410.238	76.5
410.461	92.5
410.685	94.5
410.908	111.5
411.132	99.5
411.355	102.5
411.578	93.5
411.802	90.5
412.025	79.5
412.249	96.5
412.472	97.5
412.695	94.5
412.919	90.5
413.142	80.5
413.365	91.5
413.589	98.5
413.812	86.5
414.035	108.5
414.258	78.5
414.482	93.5
414.705	85.5
414.928	92.5
415.151	96.5
415.374	95.5
415.597	82.5
415.821	91.5
416.044	96.5
416.267	89.5
416.49	67.5
416.713	99.5
416.936	92.5
417.159	89.5
417.382	105.5
417.605	83.5
417.828	98.5
418.051	82.5
418.274	97.5
418.497	99.5
418.72	87.5
418.943	92.5
419.166	95.5
419.389	84.5
419.611	90.5
419.834	90.5
420.057	91.5
420.28	68.5
420.503	85.5
420.726	83.5
420.948	96.5
421.171	106.5
421.394	103.5
421.617	109.5
421.839	94.5
422.062	96.5
422.285	101.5
422.507	111.5
422.73	94.5
422.953	111.5
423.175	90.5
423.398	89.5
423.621	85.5
423.843	75.5
424.066	80.5
424.288	76.5
424.511	83.5
424.733	109.5
424.956	122.5
425.178	103.5
425.401	115.5
425.623	107.5
425.846	104.5
426.068	107.5
426.291	93.5
426.513	92.5
426.735	91.5
426.958	106.5
427.18	106.5
427.402	139.5
427.625	164.5
427.847	128.5
428.069	101.5
428.292	89.5
428.514	93.5
428.736	85.5
428.958	90.5
429.181	84.5
429.403	89.5
429.625	89.5
429.847	90.5
430.069	93.5
430.292	85.5
430.514	92.5
430.736	84.5
430.958	98.5
431.18	75.5
431.402	84.5
431.624	89.5
431.846	85.5
432.068	79.5
432.29	89.5
432.512	81.5
432.734	88.5
432.956	96.5
433.178	109.5
433.4	116.5
433.622	109.5
433.844	101.5
434.066	98.5
434.287	88.5
434.509	79.5
434.731	89.5
434.953	91.5
435.175	90.5
435.397	90.5
435.618	92.5
435.84	97.5
436.062	113.5
436.284	130.5
436.505	111.5
436.727	100.5
436.949	90.5
437.17	88.5
437.392	78.5
437.614	86.5
437.835	96.5
438.057	128.5
438.278	119.5
438.5	107.5
438.721	135.5
438.943	106.5
439.165	82.5
439.386	94.5
439.608	85.5
439.829	99.5
440.05	129.5
440.272	146.5
440.493	112.5
440.715	83.5
440.936	96.5
441.158	90.5
441.379	102.5
441.6	89.5
441.822	95.5
442.043	91.5
442.264	106.5
442.486	111.5
442.707	78.5
442.928	99.5
443.149	136.5
443.371	152.5
443.592	107.5
443.813	101.5
444.034	98.5
444.255	98.5
444.476	93.5
444.698	86.5
444.919	91.5
445.14	135.5
445.361	127.5
445.582	131.5
445.803	151.5
446.024	168.5
446.245	148.5
446.466	124.5
446.687	87.5
446.908	90.5
447.129	92.5
447.35	90.5
447.571	99.5
447.792	91.5
448.013	104.5
448.234	114.5
448.455	107.5
448.675	121.5
448.896	114.5
449.117	87.5
449.338	104.5
449.559	136.5
449.779	131.5
450	98.5
450.221	84.5
450.442	95.5
450.662	101.5
450.883	110.5
451.104	112.5
451.324	108.5
451.545	80.5
451.766	92.5
451.986	84.5
452.207	99.5
452.428	94.5
452.648	103.5
452.869	115.5
453.089	122.5
453.31	128.5
453.53	93.5
453.751	93.5
453.971	100.5
454.192	104.5
454.412	96.5
454.633	73.5
454.853	91.5
455.073	89.5
455.294	83.5
455.514	107.5
455.734	84.5
455.955	80.5
456.175	87.5
456.395	64.5
456.616	63.5
456.836	97.5
457.056	99.5
457.276	74.5
457.497	73.5
457.717	84.5
457.937	89.5
458.157	86.5
458.377	102.5
458.598	116.5
458.818	161.5
459.038	163.5
459.258	118.5
459.478	89.5
459.698	89.5
459.918	77.5
460.138	94.5
460.358	94.5
460.578	97.5
460.798	76.5
461.018	79.5
461.238	96.5
461.458	88.5
461.678	78.5
461.898	90.5
462.118	88.5
462.338	81.5
462.558	82.5
462.777	87.5
462.997	88.5
463.217	87.5
463.437	91.5
463.657	92.5
463.876	93.5
464.096	90.5
464.316	89.5
464.536	91.5
464.755	103.5
464.975	103.5
465.195	175.5
465.414	173.5
465.634	92.5
465.854	82.5
466.073	74.5
466.293	89.5
466.512	100.5
466.732	80.5
466.951	80.5
467.171	83.5
467.391	103.5
467.61	104.5
467.829	99.5
468.049	92.5
468.268	99.5
468.488	76.5
468.707	77.5
468.927	83.5
469.146	93.5
469.365	82.5
469.585	88.5
469.804	108.5
470.023	100.5
470.243	97.5
470.462	104.5
470.681	121.5
470.901	100.5
471.12	87.5
471.339	90.5
471.558	95.5
471.777	89.5
471.997	101.5
472.216	97.5
472.435	95.5
472.654	95.5
472.873	84.5
473.092	85.5
473.311	84.5
473.53	77.5
473.749	92.5
473.968	102.5
474.187	102.5
474.406	103.5
474.625	86.5
474.844	98.5
475.063	108.5
475.282	67.5
475.501	85.5
475.72	69.5
475.939	88.5
476.158	84.5
476.377	104.5
476.596	96.5
476.814	86.5
477.033	80.5
477.252	80.5
477.471	96.5
477.69	88.5
477.908	83.5
478.127	94.5
478.346	95.5
478.564	88.5
478.783	98.5
479.002	100.5
479.22	94.5
479.439	98.5
479.658	101.5
479.876	89.5
480.095	90.5
480.313	98.5
480.532	74.5
480.751	91.5
480.969	86.5
481.188	86.5
481.406	100.5
481.624	103.5
481.843	90.5
482.061	77.5
482.28	93.5
482.498	93.5
482.717	78.5
482.935	99.5
483.153	91.5
483.372	88.5
483.59	94.5
483.808	95.5
484.027	93.5
484.245	83.5
484.463	98.5
484.681	83.5
484.9	89.5
485.118	100.5
485.336	99.5
485.554	108.5
485.772	99.5
485.99	109.5
486.209	95.5
486.427	97.5
486.645	111.5
486.863	97.5
487.081	96.5
487.299	91.5
487.517	81.5
487.735	90.5
487.953	95.5
488.171	100.5
488.389	103.5
488.607	104.5
488.825	93.5
489.043	87.5
489.261	96.5
489.479	88.5
489.696	93.5
489.914	89.5
490.132	93.5
490.35	95.5
490.568	80.5
490.786	96.5
491.003	96.5
491.221	90.5
491.439	75.5
491.657	99.5
491.874	79.5
492.092	95.5
492.31	98.5
492.527	80.5
492.745	83.5
492.963	98.5
493.18	81.5
493.398	82.5
493.615	96.5
493.833	82.5
494.05	81.5
494.268	74.5
494.485	87.5
494.703	87.5
494.92	100.5
495.138	82.5
495.355	85.5
495.573	91.5
495.79	84.5
496.008	91.5
496.225	91.5
496.442	81.5
496.66	90.5
496.877	91.5
497.094	99.5
497.312	76.5
497.529	84.5
497.746	85.5
497.963	85.5
498.181	93.5
498.398	109.5
498.615	121.5
498.832	108.5
499.049	97.5
499.267	85.5
499.484	93.5
499.701	101.5
499.918	104.5
500.135	83.5
500.352	86.5
500.569	93.5
500.786	83.5
501.003	98.5
501.22	95.5
501.437	88.5
501.654	88.5
501.871	112.5
502.088	100.5
502.305	95.5
502.522	92.5
502.739	89.5
502.956	102.5
503.172	86.5
503.389	104.5
503.606	95.5
503.823	90.5
504.04	101.5
504.256	96.5
504.473	88.5
504.69	96.5
504.907	82.5
505.123	92.5
505.34	97.5
505.557	101.5
505.773	97.5
505.99	89.5
506.207	88.5
506.423	81.5
506.64	92.5
506.856	87.5
507.073	83.5
507.289	99.5
507.506	105.5
507.722	108.5
507.939	110.5
508.155	121.5
508.372	99.5
508.588	81.5
508.805	100.5
509.021	91.5
509.238	99.5
509.454	97.5
509.67	100.5
509.887	99.5
510.103	119.5
510.319	221.5
510.536	882.5
510.752	2914.5
510.968	811.5
511.184	163.5
511.401	108.5
511.617	103.5
511.833	99.5
512.049	101.5
512.265	95.5
512.481	90.5
512.698	92.5
512.914	104.5
513.13	90.5
513.346	107.5
513.562	74.5
513.778	84.5
513.994	104.5
514.21	99.5
514.426	124.5
514.642	151.5
514.858	145.5
515.074	185.5
515.29	535.5
515.506	1850.5
515.721	683.5
515.937	169.5
516.153	115.5
516.369	95.5
516.585	106.5
516.801	113.5
517.016	99.5
517.232	105.5
517.448	100.5
517.664	113.5
517.879	106.5
518.095	94.5
518.311	99.5
518.527	95.5
518.742	100.5
518.958	96.5
519.173	85.5
519.389	91.5
519.605	99.5
519.82	99.5
520.036	98.5
520.251	121.5
520.467	118.5
520.682	95.5
520.898	108.5
521.113	127.5
521.329	145.5
521.544	242.5
521.76	659.5
521.975	2959.5
522.19	1823.5
522.406	359.5
522.621	121.5
522.836	111.5
523.052	100.5
523.267	95.5
523.482	86.5
523.698	100.5
523.913	100.5
524.128	111.5
524.343	102.5
524.559	100.5
524.774	88.5
524.989	94.5
525.204	107.5
525.419	112.5
525.634	102.5
525.849	82.5
526.064	96.5
526.28	91.5
526.495	91.5
526.71	91.5
526.925	89.5
527.14	101.5
527.355	95.5
527.57	91.5
527.785	89.5
527.999	98.5
528.214	80.5
528.429	88.5
528.644	101.5
528.859	111.5
529.074	95.5
529.289	125.5
529.503	197.5
529.718	113.5
529.933	98.5
530.148	100.5
530.363	91.5
530.577	99.5
530.792	90.5
531.007	97.5
531.221	78.5
531.436	87.5
531.651	101.5
531.865	97.5
532.08	85.5
532.295	97.5
532.509	86.5
532.724	97.5
532.938	92.5
533.153	97.5
533.367	95.5
533.582	95.5
533.796	93.5
534.011	89.5
534.225	90.5
534.44	98.5
534.654	94.5
