Data from Uncirc_2008_H10_HRD10591_00032.txt Node
Date: Wed Jan 03 10:15:37 EST 2024
User: Yrep
Spectrometer: HR+D1059
Trigger mode: 1
Integration Time (sec): 1.000000E-1
Scans to average: 1
Electric dark correction enabled: true
Nonlinearity correction enabled: false
Boxcar width: 0
XAxis mode: Wavelengths
Number of Pixels in Spectrum: 2048
>>>>>Begin Spectral Data<<<<<
223.165	-27.69
223.4	-27.69
223.635	-27.69
223.869	-18.69
224.104	-20.69
224.338	-6.69
224.573	-11.69
224.808	-16.69
225.042	-6.69
225.277	-17.69
225.511	-6.69
225.746	6.31
225.98	12.31
226.215	25.31
226.449	15.31
226.683	8.31
226.918	31.31
227.152	34.31
227.387	37.31
227.621	47.31
227.856	36.31
228.09	39.31
228.324	49.31
228.559	67.31
228.793	54.31
229.027	68.31
229.262	64.31
229.496	72.31
229.73	72.31
229.964	77.31
230.199	67.31
230.433	64.31
230.667	82.31
230.901	73.31
231.136	85.31
231.37	64.31
231.604	76.31
231.838	79.31
232.072	73.31
232.306	82.31
232.541	81.31
232.775	71.31
233.009	69.31
233.243	74.31
233.477	80.31
233.711	69.31
233.945	72.31
234.179	75.31
234.413	79.31
234.647	81.31
234.881	77.31
235.115	73.31
235.349	74.31
235.583	78.31
235.817	60.31
236.051	77.31
236.285	85.31
236.519	84.31
236.753	72.31
236.987	69.31
237.221	73.31
237.455	64.31
237.689	72.31
237.922	73.31
238.156	68.31
238.39	84.31
238.624	78.31
238.858	56.31
239.091	74.31
239.325	78.31
239.559	76.31
239.793	71.31
240.027	85.31
240.26	79.31
240.494	69.31
240.728	81.31
240.961	84.31
241.195	75.31
241.429	78.31
241.662	77.31
241.896	73.31
242.13	73.31
242.363	74.31
242.597	77.31
242.83	69.31
243.064	74.31
243.298	59.31
243.531	69.31
243.765	87.31
243.998	72.31
244.232	83.31
244.465	89.31
244.699	76.31
244.932	73.31
245.166	63.31
245.399	74.31
245.633	93.31
245.866	65.31
246.099	79.31
246.333	74.31
246.566	80.31
246.8	75.31
247.033	75.31
247.266	76.31
247.5	77.31
247.733	84.31
247.966	85.31
248.2	72.31
248.433	71.31
248.666	71.31
248.899	70.31
249.133	89.31
249.366	89.31
249.599	90.31
249.832	63.31
250.066	89.31
250.299	85.31
250.532	89.31
250.765	85.31
250.998	60.31
251.231	80.31
251.465	89.31
251.698	78.31
251.931	86.31
252.164	70.31
252.397	75.31
252.63	66.31
252.863	87.31
253.096	79.31
253.329	46.31
253.562	75.31
253.795	89.31
254.028	79.31
254.261	94.31
254.494	73.31
254.727	86.31
254.96	68.31
255.193	77.31
255.426	83.31
255.659	81.31
255.892	67.31
256.124	76.31
256.357	86.31
256.59	80.31
256.823	80.31
257.056	77.31
257.289	90.31
257.521	82.31
257.754	72.31
257.987	80.31
258.22	83.31
258.452	71.31
258.685	86.31
258.918	94.31
259.151	67.31
259.383	93.31
259.616	85.31
259.849	81.31
260.081	85.31
260.314	85.31
260.547	59.31
260.779	82.31
261.012	80.31
261.244	79.31
261.477	96.31
261.71	73.31
261.942	93.31
262.175	102.31
262.407	92.31
262.64	88.31
262.872	85.31
263.105	91.31
263.337	80.31
263.57	89.31
263.802	89.31
264.035	88.31
264.267	80.31
264.499	86.31
264.732	69.31
264.964	66.31
265.197	85.31
265.429	86.31
265.661	80.31
265.894	73.31
266.126	91.31
266.358	80.31
266.591	70.31
266.823	94.31
267.055	88.31
267.287	77.31
267.52	92.31
267.752	80.31
267.984	92.31
268.216	93.31
268.448	83.31
268.681	95.31
268.913	92.31
269.145	82.31
269.377	79.31
269.609	83.31
269.841	87.31
270.073	79.31
270.306	74.31
270.538	81.31
270.77	78.31
271.002	80.31
271.234	89.31
271.466	73.31
271.698	88.31
271.93	84.31
272.162	91.31
272.394	85.31
272.626	87.31
272.858	77.31
273.09	75.31
273.322	56.31
273.553	85.31
273.785	83.31
274.017	79.31
274.249	72.31
274.481	84.31
274.713	80.31
274.945	86.31
275.176	82.31
275.408	84.31
275.64	90.31
275.872	85.31
276.104	80.31
276.335	89.31
276.567	93.31
276.799	100.31
277.031	87.31
277.262	76.31
277.494	84.31
277.726	87.31
277.957	77.31
278.189	88.31
278.421	91.31
278.652	93.31
278.884	88.31
279.115	88.31
279.347	76.31
279.579	85.31
279.81	93.31
280.042	67.31
280.273	68.31
280.505	79.31
280.736	83.31
280.968	75.31
281.199	65.31
281.431	91.31
281.662	99.31
281.894	76.31
282.125	89.31
282.356	112.31
282.588	120.31
282.819	112.31
283.051	77.31
283.282	89.31
283.513	83.31
283.745	84.31
283.976	91.31
284.207	95.31
284.439	94.31
284.67	89.31
284.901	90.31
285.132	82.31
285.364	56.31
285.595	78.31
285.826	85.31
286.057	80.31
286.288	90.31
286.52	76.31
286.751	78.31
286.982	87.31
287.213	87.31
287.444	96.31
287.675	76.31
287.906	86.31
288.138	86.31
288.369	75.31
288.6	88.31
288.831	72.31
289.062	76.31
289.293	86.31
289.524	72.31
289.755	93.31
289.986	87.31
290.217	81.31
290.448	81.31
290.679	101.31
290.91	92.31
291.141	78.31
291.371	69.31
291.602	91.31
291.833	86.31
292.064	91.31
292.295	80.31
292.526	94.31
292.757	95.31
292.987	95.31
293.218	97.31
293.449	85.31
293.68	81.31
293.91	92.31
294.141	81.31
294.372	79.31
294.603	82.31
294.833	76.31
295.064	89.31
295.295	94.31
295.525	93.31
295.756	95.31
295.987	95.31
296.217	122.31
296.448	104.31
296.679	89.31
296.909	72.31
297.14	94.31
297.37	80.31
297.601	85.31
297.831	80.31
298.062	96.31
298.292	88.31
298.523	79.31
298.753	83.31
298.984	88.31
299.214	78.31
299.445	85.31
299.675	87.31
299.905	100.31
300.136	91.31
300.366	78.31
300.597	96.31
300.827	99.31
301.057	99.31
301.288	107.31
301.518	80.31
301.748	75.31
301.979	89.31
302.209	94.31
302.439	105.31
302.669	91.31
302.9	88.31
303.13	84.31
303.36	95.31
303.59	89.31
303.82	95.31
304.051	76.31
304.281	86.31
304.511	72.31
304.741	81.31
304.971	83.31
305.201	88.31
305.431	86.31
305.661	83.31
305.891	88.31
306.121	79.31
306.352	100.31
306.582	100.31
306.812	89.31
307.042	101.31
307.272	76.31
307.502	89.31
307.731	88.31
307.961	92.31
308.191	104.31
308.421	87.31
308.651	88.31
308.881	78.31
309.111	75.31
309.341	87.31
309.571	96.31
309.8	85.31
310.03	80.31
310.26	92.31
310.49	97.31
310.72	97.31
310.949	92.31
311.179	94.31
311.409	85.31
311.639	94.31
311.868	88.31
312.098	90.31
312.328	90.31
312.557	86.31
312.787	90.31
313.017	93.31
313.246	102.31
313.476	92.31
313.706	109.31
313.935	81.31
314.165	87.31
314.394	101.31
314.624	90.31
314.853	104.31
315.083	92.31
315.312	96.31
315.542	75.31
315.771	87.31
316.001	93.31
316.23	88.31
316.46	94.31
316.689	84.31
316.919	87.31
317.148	84.31
317.377	87.31
317.607	98.31
317.836	88.31
318.065	90.31
318.295	80.31
318.524	82.31
318.753	94.31
318.983	85.31
319.212	87.31
319.441	81.31
319.67	97.31
319.9	91.31
320.129	86.31
320.358	85.31
320.587	84.31
320.816	80.31
321.046	104.31
321.275	88.31
321.504	79.31
321.733	96.31
321.962	102.31
322.191	116.31
322.42	95.31
322.649	87.31
322.878	106.31
323.108	104.31
323.337	101.31
323.566	115.31
323.795	133.31
324.024	176.31
324.253	329.31
324.482	684.31
324.71	1368.31
324.939	1732.31
325.168	672.31
325.397	215.31
325.626	131.31
325.855	127.31
326.084	118.31
326.313	121.31
326.542	135.31
326.77	192.31
326.999	395.31
327.228	791.31
327.457	1381.31
327.686	1093.31
327.914	312.31
328.143	171.31
328.372	120.31
328.6	111.31
328.829	109.31
329.058	112.31
329.287	117.31
329.515	115.31
329.744	87.31
329.972	95.31
330.201	103.31
330.43	95.31
330.658	97.31
330.887	121.31
331.115	126.31
331.344	92.31
331.572	90.31
331.801	102.31
332.03	101.31
332.258	96.31
332.486	96.31
332.715	97.31
332.943	88.31
333.172	87.31
333.4	101.31
333.629	114.31
333.857	94.31
334.085	92.31
334.314	93.31
334.542	86.31
334.771	86.31
334.999	98.31
335.227	107.31
335.455	91.31
335.684	91.31
335.912	89.31
336.14	80.31
336.369	107.31
336.597	91.31
336.825	80.31
337.053	91.31
337.281	90.31
337.51	89.31
337.738	83.31
337.966	91.31
338.194	85.31
338.422	97.31
338.65	95.31
338.878	78.31
339.106	94.31
339.334	105.31
339.562	88.31
339.79	79.31
340.018	101.31
340.246	89.31
340.474	89.31
340.702	101.31
340.93	84.31
341.158	93.31
341.386	95.31
341.614	92.31
341.842	105.31
342.07	65.31
342.298	91.31
342.526	102.31
342.754	99.31
342.981	91.31
343.209	87.31
343.437	92.31
343.665	97.31
343.893	86.31
344.12	95.31
344.348	80.31
344.576	95.31
344.804	90.31
345.031	89.31
345.259	105.31
345.487	95.31
345.714	101.31
345.942	95.31
346.17	98.31
346.397	88.31
346.625	74.31
346.853	84.31
347.08	79.31
347.308	95.31
347.535	95.31
347.763	99.31
347.99	80.31
348.218	102.31
348.445	106.31
348.673	101.31
348.9	99.31
349.128	92.31
349.355	93.31
349.583	89.31
349.81	88.31
350.037	102.31
350.265	91.31
350.492	88.31
350.72	85.31
350.947	99.31
351.174	104.31
351.402	117.31
351.629	94.31
351.856	89.31
352.083	91.31
352.311	107.31
352.538	107.31
352.765	105.31
352.992	118.31
353.22	119.31
353.447	105.31
353.674	111.31
353.901	103.31
354.128	100.31
354.355	87.31
354.583	115.31
354.81	93.31
355.037	87.31
355.264	108.31
355.491	94.31
355.718	96.31
355.945	86.31
356.172	101.31
356.399	76.31
356.626	100.31
356.853	91.31
357.08	96.31
357.307	102.31
357.534	93.31
357.761	104.31
357.988	95.31
358.215	100.31
358.441	88.31
358.668	77.31
358.895	87.31
359.122	95.31
359.349	67.31
359.576	85.31
359.802	102.31
360.029	106.31
360.256	84.31
360.483	99.31
360.709	79.31
360.936	93.31
361.163	77.31
361.39	92.31
361.616	120.31
361.843	97.31
362.07	75.31
362.296	82.31
362.523	78.31
362.749	91.31
362.976	99.31
363.203	86.31
363.429	86.31
363.656	90.31
363.882	79.31
364.109	82.31
364.335	75.31
364.562	85.31
364.788	73.31
365.015	101.31
365.241	90.31
365.468	117.31
365.694	103.31
365.92	87.31
366.147	72.31
366.373	80.31
366.599	84.31
366.826	95.31
367.052	90.31
367.278	88.31
367.505	90.31
367.731	96.31
367.957	94.31
368.184	98.31
368.41	92.31
368.636	115.31
368.862	116.31
369.089	103.31
369.315	95.31
369.541	91.31
369.767	101.31
369.993	77.31
370.219	72.31
370.445	88.31
370.672	71.31
370.898	92.31
371.124	76.31
371.35	79.31
371.576	85.31
371.802	81.31
372.028	82.31
372.254	89.31
372.48	88.31
372.706	88.31
372.932	88.31
373.158	93.31
373.384	80.31
373.61	90.31
373.835	77.31
374.061	98.31
374.287	80.31
374.513	92.31
374.739	102.31
374.965	91.31
375.191	91.31
375.416	86.31
375.642	86.31
375.868	78.31
376.094	91.31
376.319	85.31
376.545	78.31
376.771	91.31
376.997	93.31
377.222	85.31
377.448	80.31
377.674	77.31
377.899	101.31
378.125	81.31
378.35	100.31
378.576	88.31
378.802	94.31
379.027	88.31
379.253	78.31
379.478	94.31
379.704	85.31
379.929	89.31
380.155	86.31
380.38	95.31
380.606	89.31
380.831	93.31
381.057	93.31
381.282	91.31
381.507	90.31
381.733	93.31
381.958	97.31
382.184	96.31
382.409	103.31
382.634	99.31
382.86	106.31
383.085	91.31
383.31	101.31
383.535	92.31
383.761	88.31
383.986	103.31
384.211	97.31
384.436	92.31
384.662	95.31
384.887	103.31
385.112	81.31
385.337	109.31
385.562	108.31
385.787	84.31
386.013	104.31
386.238	107.31
386.463	123.31
386.688	111.31
386.913	108.31
387.138	107.31
387.363	106.31
387.588	86.31
387.813	94.31
388.038	115.31
388.263	105.31
388.488	111.31
388.713	92.31
388.938	92.31
389.163	95.31
389.387	108.31
389.612	86.31
389.837	90.31
390.062	97.31
390.287	91.31
390.512	90.31
390.736	89.31
390.961	90.31
391.186	86.31
391.411	92.31
391.636	100.31
391.86	84.31
392.085	92.31
392.31	89.31
392.534	83.31
392.759	85.31
392.984	84.31
393.208	92.31
393.433	87.31
393.658	84.31
393.882	94.31
394.107	95.31
394.331	92.31
394.556	95.31
394.78	101.31
395.005	105.31
395.229	65.31
395.454	83.31
395.678	59.31
395.903	88.31
396.127	80.31
396.352	83.31
396.576	75.31
396.801	79.31
397.025	71.31
397.249	80.31
397.474	88.31
397.698	83.31
397.922	79.31
398.147	76.31
398.371	82.31
398.595	88.31
398.82	75.31
399.044	92.31
399.268	75.31
399.492	80.31
399.717	77.31
399.941	84.31
400.165	97.31
400.389	88.31
400.613	86.31
400.837	80.31
401.062	73.31
401.286	91.31
401.51	79.31
401.734	72.31
401.958	91.31
402.182	117.31
402.406	151.31
402.63	104.31
402.854	87.31
403.078	82.31
403.302	87.31
403.526	84.31
403.75	77.31
403.974	79.31
404.198	91.31
404.422	85.31
404.645	76.31
404.869	78.31
405.093	87.31
405.317	81.31
405.541	84.31
405.765	86.31
405.988	110.31
406.212	137.31
406.436	185.31
406.66	127.31
406.883	88.31
407.107	85.31
407.331	102.31
407.555	85.31
407.778	102.31
408.002	87.31
408.226	82.31
408.449	86.31
408.673	89.31
408.896	74.31
409.12	92.31
409.344	98.31
409.567	93.31
409.791	77.31
410.014	92.31
410.238	84.31
410.461	96.31
410.685	101.31
410.908	83.31
411.132	102.31
411.355	88.31
411.578	92.31
411.802	86.31
412.025	81.31
412.249	81.31
412.472	103.31
412.695	83.31
412.919	73.31
413.142	84.31
413.365	84.31
413.589	80.31
413.812	95.31
414.035	91.31
414.258	87.31
414.482	75.31
414.705	83.31
414.928	91.31
415.151	88.31
415.374	82.31
415.597	87.31
415.821	92.31
416.044	102.31
416.267	89.31
416.49	90.31
416.713	85.31
416.936	89.31
417.159	81.31
417.382	87.31
417.605	86.31
417.828	89.31
418.051	91.31
418.274	86.31
418.497	80.31
418.72	93.31
418.943	85.31
419.166	76.31
419.389	96.31
419.611	85.31
419.834	73.31
420.057	83.31
420.28	93.31
420.503	80.31
420.726	94.31
420.948	82.31
421.171	84.31
421.394	88.31
421.617	96.31
421.839	96.31
422.062	84.31
422.285	92.31
422.507	81.31
422.73	83.31
422.953	94.31
423.175	84.31
423.398	80.31
423.621	88.31
423.843	95.31
424.066	89.31
424.288	86.31
424.511	82.31
424.733	92.31
424.956	107.31
425.178	98.31
425.401	94.31
425.623	96.31
425.846	78.31
426.068	81.31
426.291	89.31
426.513	89.31
426.735	85.31
426.958	91.31
427.18	115.31
427.402	116.31
427.625	136.31
427.847	124.31
428.069	79.31
428.292	90.31
428.514	77.31
428.736	88.31
428.958	92.31
429.181	105.31
429.403	98.31
429.625	88.31
429.847	106.31
430.069	91.31
430.292	85.31
430.514	85.31
430.736	85.31
430.958	73.31
431.18	89.31
431.402	88.31
431.624	81.31
431.846	89.31
432.068	88.31
432.29	84.31
432.512	100.31
432.734	92.31
432.956	90.31
433.178	90.31
433.4	90.31
433.622	101.31
433.844	102.31
434.066	100.31
434.287	89.31
434.509	76.31
434.731	98.31
434.953	76.31
435.175	88.31
435.397	73.31
435.618	73.31
435.84	103.31
436.062	97.31
436.284	108.31
436.505	96.31
436.727	90.31
436.949	84.31
437.17	78.31
437.392	76.31
437.614	94.31
437.835	84.31
438.057	114.31
438.278	115.31
438.5	110.31
438.721	111.31
438.943	84.31
439.165	80.31
439.386	89.31
439.608	90.31
439.829	104.31
440.05	117.31
440.272	115.31
440.493	115.31
440.715	88.31
440.936	80.31
441.158	84.31
441.379	88.31
441.6	101.31
441.822	96.31
442.043	96.31
442.264	89.31
442.486	96.31
442.707	94.31
442.928	99.31
443.149	110.31
443.371	117.31
443.592	106.31
443.813	111.31
444.034	105.31
444.255	86.31
444.476	83.31
444.698	78.31
444.919	97.31
445.14	138.31
445.361	104.31
445.582	105.31
445.803	135.31
446.024	108.31
446.245	131.31
446.466	88.31
446.687	98.31
446.908	93.31
447.129	86.31
447.35	85.31
447.571	97.31
447.792	101.31
448.013	104.31
448.234	101.31
448.455	82.31
448.675	91.31
448.896	99.31
449.117	84.31
449.338	92.31
449.559	125.31
449.779	109.31
450	90.31
450.221	80.31
450.442	99.31
450.662	89.31
450.883	87.31
451.104	100.31
451.324	80.31
451.545	72.31
451.766	87.31
451.986	77.31
452.207	85.31
452.428	89.31
452.648	89.31
452.869	98.31
453.089	111.31
453.31	120.31
453.53	91.31
453.751	77.31
453.971	98.31
454.192	94.31
454.412	89.31
454.633	88.31
454.853	92.31
455.073	73.31
455.294	81.31
455.514	89.31
455.734	86.31
455.955	86.31
456.175	94.31
456.395	92.31
456.616	89.31
456.836	81.31
457.056	92.31
457.276	81.31
457.497	74.31
457.717	80.31
457.937	75.31
458.157	89.31
458.377	80.31
458.598	88.31
458.818	132.31
459.038	142.31
459.258	104.31
459.478	93.31
459.698	88.31
459.918	79.31
460.138	78.31
460.358	87.31
460.578	79.31
460.798	83.31
461.018	97.31
461.238	80.31
461.458	91.31
461.678	82.31
461.898	91.31
462.118	82.31
462.338	88.31
462.558	93.31
462.777	90.31
462.997	87.31
463.217	83.31
463.437	84.31
463.657	84.31
463.876	93.31
464.096	87.31
464.316	94.31
464.536	86.31
464.755	84.31
464.975	95.31
465.195	143.31
465.414	133.31
465.634	95.31
465.854	96.31
466.073	90.31
466.293	71.31
466.512	80.31
466.732	80.31
466.951	74.31
467.171	73.31
467.391	103.31
467.61	88.31
467.829	95.31
468.049	92.31
468.268	85.31
468.488	78.31
468.707	87.31
468.927	89.31
469.146	71.31
469.365	79.31
469.585	79.31
469.804	95.31
470.023	79.31
470.243	82.31
470.462	94.31
470.681	93.31
470.901	92.31
471.12	79.31
471.339	83.31
471.558	80.31
471.777	76.31
471.997	81.31
472.216	101.31
472.435	88.31
472.654	83.31
472.873	82.31
473.092	93.31
473.311	77.31
473.53	81.31
473.749	78.31
473.968	90.31
474.187	87.31
474.406	109.31
474.625	90.31
474.844	76.31
475.063	94.31
475.282	72.31
475.501	91.31
475.72	85.31
475.939	72.31
476.158	84.31
476.377	76.31
476.596	91.31
476.814	93.31
477.033	87.31
477.252	93.31
477.471	84.31
477.69	85.31
477.908	90.31
478.127	80.31
478.346	77.31
478.564	86.31
478.783	88.31
479.002	82.31
479.22	79.31
479.439	106.31
479.658	96.31
479.876	85.31
480.095	88.31
480.313	89.31
480.532	89.31
480.751	84.31
480.969	81.31
481.188	89.31
481.406	93.31
481.624	91.31
481.843	78.31
482.061	98.31
482.28	81.31
482.498	95.31
482.717	80.31
482.935	80.31
483.153	88.31
483.372	91.31
483.59	107.31
483.808	94.31
484.027	92.31
484.245	95.31
484.463	91.31
484.681	99.31
484.9	101.31
485.118	108.31
485.336	82.31
485.554	93.31
485.772	83.31
485.99	93.31
486.209	97.31
486.427	97.31
486.645	101.31
486.863	100.31
487.081	100.31
487.299	90.31
487.517	95.31
487.735	91.31
487.953	108.31
488.171	84.31
488.389	88.31
488.607	98.31
488.825	96.31
489.043	89.31
489.261	84.31
489.479	74.31
489.696	84.31
489.914	95.31
490.132	97.31
490.35	89.31
490.568	94.31
490.786	72.31
491.003	95.31
491.221	101.31
491.439	87.31
491.657	81.31
491.874	90.31
492.092	88.31
492.31	87.31
492.527	98.31
492.745	91.31
492.963	95.31
493.18	77.31
493.398	99.31
493.615	88.31
493.833	96.31
494.05	88.31
494.268	83.31
494.485	99.31
494.703	91.31
494.92	96.31
495.138	80.31
495.355	85.31
495.573	92.31
495.79	91.31
496.008	86.31
496.225	99.31
496.442	76.31
496.66	78.31
496.877	87.31
497.094	100.31
497.312	92.31
497.529	93.31
497.746	80.31
497.963	97.31
498.181	81.31
498.398	85.31
498.615	101.31
498.832	90.31
499.049	79.31
499.267	77.31
499.484	93.31
499.701	86.31
499.918	78.31
500.135	90.31
500.352	76.31
500.569	101.31
500.786	78.31
501.003	80.31
501.22	97.31
501.437	92.31
501.654	91.31
501.871	104.31
502.088	91.31
502.305	83.31
502.522	85.31
502.739	83.31
502.956	90.31
503.172	88.31
503.389	83.31
503.606	104.31
503.823	88.31
504.04	77.31
504.256	85.31
504.473	86.31
504.69	93.31
504.907	90.31
505.123	95.31
505.34	97.31
505.557	83.31
505.773	88.31
505.99	93.31
506.207	92.31
506.423	88.31
506.64	97.31
506.856	71.31
507.073	78.31
507.289	85.31
507.506	79.31
507.722	100.31
507.939	96.31
508.155	99.31
508.372	86.31
508.588	87.31
508.805	97.31
509.021	80.31
509.238	100.31
509.454	109.31
509.67	107.31
509.887	110.31
510.103	114.31
510.319	195.31
510.536	685.31
510.752	2044.31
510.968	593.31
511.184	146.31
511.401	116.31
511.617	101.31
511.833	91.31
512.049	86.31
512.265	97.31
512.481	96.31
512.698	87.31
512.914	91.31
513.13	98.31
513.346	87.31
513.562	96.31
513.778	89.31
513.994	89.31
514.21	109.31
514.426	109.31
514.642	112.31
514.858	108.31
515.074	140.31
515.29	375.31
515.506	1178.31
515.721	466.31
515.937	139.31
516.153	94.31
516.369	101.31
516.585	82.31
516.801	84.31
