Data from Uncirc_2008_H10_HRD10591_00006.txt Node
Date: Wed Jan 03 10:15:32 EST 2024
User: Yrep
Spectrometer: HR+D1059
Trigger mode: 1
Integration Time (sec): 1.000000E-1
Scans to average: 1
Electric dark correction enabled: true
Nonlinearity correction enabled: false
Boxcar width: 0
XAxis mode: Wavelengths
Number of Pixels in Spectrum: 2048
>>>>>Begin Spectral Data<<<<<
223.165	-31.31
223.4	-31.31
223.635	-31.31
223.869	-16.31
224.104	-17.31
224.338	-21.31
224.573	-11.31
224.808	-14.31
225.042	-5.31
225.277	-1.31
225.511	3.69
225.746	4.69
225.98	9.69
226.215	13.69
226.449	14.69
226.683	23.69
226.918	23.69
227.152	24.69
227.387	38.69
227.621	38.69
227.856	53.69
228.09	47.69
228.324	62.69
228.559	57.69
228.793	70.69
229.027	59.69
229.262	62.69
229.496	57.69
229.73	77.69
229.964	75.69
230.199	77.69
230.433	80.69
230.667	78.69
230.901	71.69
231.136	95.69
231.37	64.69
231.604	78.69
231.838	79.69
232.072	87.69
232.306	80.69
232.541	81.69
232.775	77.69
233.009	89.69
233.243	82.69
233.477	82.69
233.711	77.69
233.945	84.69
234.179	82.69
234.413	75.69
234.647	79.69
234.881	76.69
235.115	84.69
235.349	87.69
235.583	81.69
235.817	88.69
236.051	79.69
236.285	80.69
236.519	73.69
236.753	74.69
236.987	75.69
237.221	81.69
237.455	77.69
237.689	71.69
237.922	74.69
238.156	54.69
238.39	84.69
238.624	84.69
238.858	78.69
239.091	78.69
239.325	71.69
239.559	81.69
239.793	87.69
240.027	77.69
240.26	71.69
240.494	75.69
240.728	78.69
240.961	88.69
241.195	61.69
241.429	88.69
241.662	94.69
241.896	78.69
242.13	81.69
242.363	73.69
242.597	79.69
242.83	85.69
243.064	82.69
243.298	88.69
243.531	77.69
243.765	71.69
243.998	84.69
244.232	83.69
244.465	74.69
244.699	80.69
244.932	88.69
245.166	81.69
245.399	83.69
245.633	78.69
245.866	68.69
246.099	73.69
246.333	76.69
246.566	85.69
246.8	76.69
247.033	77.69
247.266	82.69
247.5	73.69
247.733	87.69
247.966	74.69
248.2	77.69
248.433	73.69
248.666	69.69
248.899	78.69
249.133	80.69
249.366	91.69
249.599	88.69
249.832	80.69
250.066	84.69
250.299	79.69
250.532	80.69
250.765	84.69
250.998	85.69
251.231	82.69
251.465	86.69
251.698	80.69
251.931	73.69
252.164	85.69
252.397	70.69
252.63	64.69
252.863	70.69
253.096	84.69
253.329	81.69
253.562	73.69
253.795	82.69
254.028	88.69
254.261	90.69
254.494	81.69
254.727	73.69
254.96	84.69
255.193	87.69
255.426	92.69
255.659	69.69
255.892	80.69
256.124	85.69
256.357	79.69
256.59	80.69
256.823	81.69
257.056	82.69
257.289	92.69
257.521	88.69
257.754	91.69
257.987	75.69
258.22	70.69
258.452	82.69
258.685	77.69
258.918	78.69
259.151	97.69
259.383	83.69
259.616	77.69
259.849	94.69
260.081	81.69
260.314	91.69
260.547	82.69
260.779	73.69
261.012	90.69
261.244	88.69
261.477	87.69
261.71	89.69
261.942	113.69
262.175	91.69
262.407	87.69
262.64	67.69
262.872	81.69
263.105	73.69
263.337	87.69
263.57	92.69
263.802	80.69
264.035	83.69
264.267	82.69
264.499	84.69
264.732	83.69
264.964	87.69
265.197	73.69
265.429	73.69
265.661	78.69
265.894	82.69
266.126	92.69
266.358	81.69
266.591	67.69
266.823	82.69
267.055	81.69
267.287	87.69
267.52	90.69
267.752	90.69
267.984	75.69
268.216	79.69
268.448	88.69
268.681	86.69
268.913	70.69
269.145	87.69
269.377	92.69
269.609	79.69
269.841	87.69
270.073	79.69
270.306	88.69
270.538	96.69
270.77	88.69
271.002	84.69
271.234	86.69
271.466	94.69
271.698	80.69
271.93	69.69
272.162	90.69
272.394	88.69
272.626	74.69
272.858	83.69
273.09	105.69
273.322	86.69
273.553	76.69
273.785	86.69
274.017	86.69
274.249	99.69
274.481	88.69
274.713	81.69
274.945	99.69
275.176	74.69
275.408	91.69
275.64	90.69
275.872	82.69
276.104	100.69
276.335	94.69
276.567	83.69
276.799	99.69
277.031	88.69
277.262	92.69
277.494	68.69
277.726	90.69
277.957	92.69
278.189	95.69
278.421	88.69
278.652	84.69
278.884	80.69
279.115	84.69
279.347	88.69
279.579	84.69
279.81	81.69
280.042	81.69
280.273	85.69
280.505	88.69
280.736	73.69
280.968	87.69
281.199	101.69
281.431	93.69
281.662	78.69
281.894	93.69
282.125	104.69
282.356	123.69
282.588	133.69
282.819	119.69
283.051	91.69
283.282	79.69
283.513	85.69
283.745	96.69
283.976	86.69
284.207	85.69
284.439	84.69
284.67	83.69
284.901	98.69
285.132	79.69
285.364	87.69
285.595	93.69
285.826	84.69
286.057	84.69
286.288	95.69
286.52	69.69
286.751	81.69
286.982	91.69
287.213	79.69
287.444	83.69
287.675	90.69
287.906	84.69
288.138	93.69
288.369	95.69
288.6	96.69
288.831	96.69
289.062	80.69
289.293	96.69
289.524	97.69
289.755	78.69
289.986	80.69
290.217	89.69
290.448	82.69
290.679	81.69
290.91	105.69
291.141	84.69
291.371	98.69
291.602	81.69
291.833	103.69
292.064	88.69
292.295	95.69
292.526	88.69
292.757	81.69
292.987	92.69
293.218	94.69
293.449	94.69
293.68	87.69
293.91	90.69
294.141	82.69
294.372	67.69
294.603	95.69
294.833	97.69
295.064	84.69
295.295	92.69
295.525	96.69
295.756	95.69
295.987	109.69
296.217	124.69
296.448	102.69
296.679	93.69
296.909	88.69
297.14	89.69
297.37	89.69
297.601	99.69
297.831	103.69
298.062	96.69
298.292	93.69
298.523	81.69
298.753	87.69
298.984	89.69
299.214	89.69
299.445	81.69
299.675	87.69
299.905	93.69
300.136	94.69
300.366	90.69
300.597	98.69
300.827	97.69
301.057	86.69
301.288	99.69
301.518	83.69
301.748	77.69
301.979	95.69
302.209	94.69
302.439	101.69
302.669	83.69
302.9	100.69
303.13	98.69
303.36	104.69
303.59	103.69
303.82	111.69
304.051	97.69
304.281	99.69
304.511	84.69
304.741	83.69
304.971	79.69
305.201	102.69
305.431	94.69
305.661	107.69
305.891	102.69
306.121	100.69
306.352	87.69
306.582	97.69
306.812	79.69
307.042	91.69
307.272	96.69
307.502	87.69
307.731	97.69
307.961	88.69
308.191	76.69
308.421	89.69
308.651	95.69
308.881	81.69
309.111	91.69
309.341	92.69
309.571	95.69
309.8	97.69
310.03	95.69
310.26	85.69
310.49	87.69
310.72	104.69
310.949	97.69
311.179	99.69
311.409	103.69
311.639	99.69
311.868	84.69
312.098	81.69
312.328	91.69
312.557	97.69
312.787	102.69
313.017	94.69
313.246	85.69
313.476	93.69
313.706	96.69
313.935	84.69
314.165	100.69
314.394	96.69
314.624	94.69
314.853	99.69
315.083	97.69
315.312	104.69
315.542	82.69
315.771	102.69
316.001	92.69
316.23	83.69
316.46	92.69
316.689	99.69
316.919	92.69
317.148	94.69
317.377	95.69
317.607	92.69
317.836	85.69
318.065	82.69
318.295	95.69
318.524	94.69
318.753	98.69
318.983	106.69
319.212	85.69
319.441	103.69
319.67	100.69
319.9	90.69
320.129	92.69
320.358	92.69
320.587	100.69
320.816	94.69
321.046	95.69
321.275	106.69
321.504	87.69
321.733	98.69
321.962	82.69
322.191	92.69
322.42	98.69
322.649	103.69
322.878	103.69
323.108	125.69
323.337	123.69
323.566	123.69
323.795	152.69
324.024	183.69
324.253	375.69
324.482	755.69
324.71	1544.69
324.939	2002.69
325.168	776.69
325.397	219.69
325.626	140.69
325.855	130.69
326.084	122.69
326.313	135.69
326.542	146.69
326.77	211.69
326.999	416.69
327.228	883.69
327.457	1546.69
327.686	1241.69
327.914	346.69
328.143	184.69
328.372	131.69
328.6	114.69
328.829	95.69
329.058	107.69
329.287	116.69
329.515	130.69
329.744	97.69
329.972	94.69
330.201	86.69
330.43	102.69
330.658	97.69
330.887	134.69
331.115	99.69
331.344	104.69
331.572	122.69
331.801	105.69
332.03	100.69
332.258	100.69
332.486	97.69
332.715	87.69
332.943	107.69
333.172	86.69
333.4	96.69
333.629	99.69
333.857	110.69
334.085	109.69
334.314	100.69
334.542	90.69
334.771	109.69
334.999	100.69
335.227	93.69
335.455	103.69
335.684	91.69
335.912	98.69
336.14	99.69
336.369	84.69
336.597	87.69
336.825	92.69
337.053	100.69
337.281	83.69
337.51	81.69
337.738	81.69
337.966	99.69
338.194	93.69
338.422	94.69
338.65	87.69
338.878	86.69
339.106	94.69
339.334	97.69
339.562	89.69
339.79	97.69
340.018	87.69
340.246	83.69
340.474	88.69
340.702	81.69
340.93	79.69
341.158	87.69
341.386	102.69
341.614	84.69
341.842	73.69
342.07	89.69
342.298	105.69
342.526	83.69
342.754	90.69
342.981	92.69
343.209	83.69
343.437	99.69
343.665	88.69
343.893	87.69
344.12	94.69
344.348	100.69
344.576	100.69
344.804	91.69
345.031	96.69
345.259	102.69
345.487	99.69
345.714	87.69
345.942	87.69
346.17	91.69
346.397	91.69
346.625	96.69
346.853	96.69
347.08	99.69
347.308	102.69
347.535	96.69
347.763	99.69
347.99	104.69
348.218	76.69
348.445	105.69
348.673	97.69
348.9	90.69
349.128	103.69
349.355	93.69
349.583	102.69
349.81	98.69
350.037	96.69
350.265	92.69
350.492	97.69
350.72	89.69
350.947	89.69
351.174	94.69
351.402	110.69
351.629	98.69
351.856	102.69
352.083	97.69
352.311	103.69
352.538	113.69
352.765	109.69
352.992	116.69
353.22	118.69
353.447	111.69
353.674	104.69
353.901	96.69
354.128	104.69
354.355	93.69
354.583	112.69
354.81	104.69
355.037	110.69
355.264	81.69
355.491	99.69
355.718	102.69
355.945	102.69
356.172	105.69
356.399	102.69
356.626	105.69
356.853	92.69
357.08	87.69
357.307	103.69
357.534	106.69
357.761	102.69
357.988	96.69
358.215	93.69
358.441	99.69
358.668	106.69
358.895	91.69
359.122	94.69
359.349	94.69
359.576	101.69
359.802	114.69
360.029	115.69
360.256	103.69
360.483	103.69
360.709	91.69
360.936	77.69
361.163	88.69
361.39	98.69
361.616	103.69
361.843	81.69
362.07	93.69
362.296	83.69
362.523	98.69
362.749	99.69
362.976	99.69
363.203	91.69
363.429	81.69
363.656	88.69
363.882	97.69
364.109	99.69
364.335	92.69
364.562	91.69
364.788	89.69
365.015	100.69
365.241	99.69
365.468	79.69
365.694	104.69
365.92	96.69
366.147	97.69
366.373	87.69
366.599	83.69
366.826	90.69
367.052	87.69
367.278	89.69
367.505	77.69
367.731	101.69
367.957	91.69
368.184	87.69
368.41	114.69
368.636	96.69
368.862	107.69
369.089	103.69
369.315	97.69
369.541	95.69
369.767	82.69
369.993	91.69
370.219	82.69
370.445	92.69
370.672	90.69
370.898	103.69
371.124	81.69
371.35	85.69
371.576	82.69
371.802	82.69
372.028	90.69
372.254	91.69
372.48	96.69
372.706	104.69
372.932	90.69
373.158	82.69
373.384	89.69
373.61	93.69
373.835	94.69
374.061	94.69
374.287	86.69
374.513	104.69
374.739	105.69
374.965	79.69
375.191	101.69
375.416	98.69
375.642	82.69
375.868	91.69
376.094	106.69
376.319	93.69
376.545	105.69
376.771	99.69
376.997	92.69
377.222	98.69
377.448	103.69
377.674	96.69
377.899	91.69
378.125	106.69
378.35	93.69
378.576	92.69
378.802	95.69
379.027	98.69
379.253	102.69
379.478	98.69
379.704	81.69
379.929	97.69
380.155	111.69
380.38	107.69
380.606	91.69
380.831	98.69
381.057	103.69
381.282	106.69
381.507	96.69
381.733	108.69
381.958	99.69
382.184	108.69
382.409	105.69
382.634	101.69
382.86	117.69
383.085	110.69
383.31	121.69
383.535	111.69
383.761	115.69
383.986	98.69
384.211	100.69
384.436	117.69
384.662	103.69
384.887	120.69
385.112	98.69
385.337	106.69
385.562	113.69
385.787	119.69
386.013	136.69
386.238	135.69
386.463	121.69
386.688	119.69
386.913	115.69
387.138	114.69
387.363	115.69
387.588	108.69
387.813	116.69
388.038	123.69
388.263	128.69
388.488	112.69
388.713	108.69
388.938	94.69
389.163	91.69
389.387	101.69
389.612	116.69
389.837	92.69
390.062	91.69
390.287	79.69
390.512	96.69
390.736	81.69
390.961	91.69
391.186	118.69
391.411	87.69
391.636	88.69
391.86	91.69
392.085	101.69
392.31	82.69
392.534	87.69
392.759	82.69
392.984	86.69
393.208	102.69
393.433	88.69
393.658	80.69
393.882	83.69
394.107	96.69
394.331	91.69
394.556	90.69
394.78	88.69
395.005	92.69
395.229	86.69
395.454	97.69
395.678	91.69
395.903	80.69
396.127	95.69
396.352	85.69
396.576	85.69
396.801	106.69
397.025	98.69
397.249	106.69
397.474	96.69
397.698	98.69
397.922	95.69
398.147	85.69
398.371	70.69
398.595	86.69
398.82	81.69
399.044	94.69
399.268	84.69
399.492	92.69
399.717	82.69
399.941	84.69
400.165	96.69
400.389	86.69
400.613	96.69
400.837	88.69
401.062	82.69
401.286	91.69
401.51	93.69
401.734	98.69
401.958	92.69
402.182	122.69
402.406	149.69
402.63	118.69
402.854	92.69
403.078	99.69
403.302	108.69
403.526	85.69
403.75	94.69
403.974	78.69
404.198	87.69
404.422	97.69
404.645	111.69
404.869	100.69
405.093	100.69
405.317	93.69
405.541	89.69
405.765	106.69
405.988	99.69
406.212	161.69
406.436	211.69
406.66	131.69
406.883	100.69
407.107	111.69
407.331	105.69
407.555	91.69
407.778	93.69
408.002	101.69
408.226	98.69
408.449	92.69
408.673	86.69
408.896	88.69
409.12	106.69
409.344	100.69
409.567	91.69
409.791	96.69
410.014	107.69
410.238	95.69
410.461	89.69
410.685	81.69
410.908	103.69
411.132	97.69
411.355	114.69
411.578	97.69
411.802	90.69
412.025	80.69
412.249	93.69
412.472	108.69
412.695	94.69
412.919	91.69
413.142	96.69
413.365	88.69
413.589	67.69
413.812	92.69
414.035	93.69
414.258	87.69
414.482	83.69
414.705	88.69
414.928	92.69
415.151	89.69
415.374	98.69
415.597	89.69
415.821	85.69
416.044	82.69
416.267	89.69
416.49	101.69
416.713	88.69
416.936	92.69
417.159	91.69
417.382	94.69
417.605	89.69
417.828	80.69
418.051	97.69
418.274	82.69
418.497	108.69
418.72	100.69
418.943	97.69
419.166	79.69
419.389	92.69
419.611	82.69
419.834	91.69
420.057	94.69
420.28	87.69
420.503	88.69
420.726	93.69
420.948	76.69
421.171	94.69
421.394	98.69
421.617	102.69
421.839	97.69
422.062	96.69
422.285	85.69
422.507	93.69
422.73	111.69
422.953	91.69
423.175	86.69
423.398	98.69
423.621	94.69
423.843	85.69
424.066	89.69
424.288	91.69
424.511	98.69
424.733	104.69
424.956	101.69
425.178	91.69
425.401	84.69
425.623	102.69
425.846	90.69
426.068	99.69
426.291	83.69
426.513	84.69
426.735	73.69
426.958	88.69
427.18	102.69
427.402	115.69
427.625	141.69
427.847	116.69
428.069	98.69
428.292	95.69
428.514	89.69
428.736	80.69
428.958	86.69
429.181	79.69
429.403	75.69
429.625	96.69
429.847	97.69
430.069	93.69
430.292	94.69
430.514	103.69
430.736	87.69
430.958	101.69
431.18	97.69
431.402	93.69
431.624	92.69
431.846	95.69
432.068	90.69
432.29	80.69
432.512	72.69
432.734	88.69
432.956	94.69
433.178	98.69
433.4	113.69
433.622	88.69
433.844	91.69
434.066	90.69
434.287	84.69
434.509	90.69
434.731	106.69
434.953	100.69
435.175	81.69
435.397	93.69
435.618	105.69
435.84	93.69
436.062	125.69
436.284	106.69
436.505	95.69
436.727	77.69
436.949	88.69
437.17	84.69
437.392	93.69
437.614	93.69
437.835	100.69
438.057	111.69
438.278	111.69
438.5	105.69
438.721	113.69
438.943	97.69
439.165	77.69
439.386	92.69
439.608	76.69
439.829	96.69
440.05	108.69
440.272	123.69
440.493	92.69
440.715	74.69
440.936	84.69
441.158	91.69
441.379	89.69
441.6	86.69
441.822	100.69
442.043	95.69
442.264	97.69
442.486	109.69
442.707	99.69
442.928	101.69
443.149	114.69
443.371	115.69
443.592	104.69
443.813	111.69
444.034	108.69
444.255	84.69
444.476	92.69
444.698	90.69
444.919	82.69
445.14	133.69
445.361	116.69
445.582	108.69
445.803	125.69
446.024	134.69
446.245	109.69
446.466	106.69
446.687	94.69
446.908	97.69
447.129	95.69
447.35	96.69
447.571	90.69
447.792	106.69
448.013	89.69
448.234	108.69
448.455	102.69
448.675	116.69
448.896	109.69
449.117	113.69
449.338	103.69
449.559	134.69
449.779	124.69
450	95.69
450.221	95.69
450.442	96.69
450.662	88.69
450.883	102.69
451.104	90.69
451.324	98.69
451.545	83.69
451.766	79.69
451.986	86.69
452.207	92.69
452.428	96.69
452.648	94.69
452.869	118.69
453.089	120.69
453.31	107.69
453.53	96.69
453.751	99.69
453.971	88.69
454.192	103.69
454.412	92.69
454.633	92.69
454.853	77.69
455.073	97.69
455.294	105.69
455.514	98.69
455.734	91.69
455.955	94.69
456.175	78.69
456.395	79.69
456.616	93.69
456.836	95.69
457.056	82.69
457.276	83.69
457.497	81.69
457.717	96.69
457.937	87.69
458.157	83.69
458.377	74.69
458.598	91.69
458.818	131.69
459.038	143.69
459.258	107.69
459.478	92.69
459.698	92.69
459.918	82.69
460.138	92.69
460.358	106.69
460.578	86.69
460.798	79.69
461.018	86.69
461.238	84.69
461.458	92.69
461.678	80.69
461.898	89.69
462.118	98.69
462.338	100.69
462.558	90.69
462.777	87.69
462.997	76.69
463.217	81.69
463.437	102.69
463.657	87.69
463.876	92.69
464.096	98.69
464.316	89.69
464.536	104.69
464.755	94.69
464.975	106.69
465.195	143.69
465.414	134.69
465.634	89.69
465.854	78.69
466.073	97.69
466.293	101.69
466.512	97.69
466.732	87.69
466.951	82.69
467.171	91.69
467.391	107.69
467.61	96.69
467.829	96.69
468.049	94.69
468.268	107.69
468.488	70.69
468.707	73.69
468.927	88.69
469.146	95.69
469.365	87.69
469.585	89.69
469.804	94.69
470.023	100.69
470.243	90.69
470.462	98.69
470.681	103.69
470.901	89.69
471.12	81.69
471.339	90.69
471.558	84.69
471.777	79.69
471.997	88.69
472.216	91.69
472.435	95.69
472.654	92.69
472.873	93.69
473.092	84.69
473.311	82.69
473.53	99.69
473.749	83.69
473.968	91.69
474.187	104.69
474.406	100.69
474.625	94.69
474.844	79.69
475.063	81.69
475.282	81.69
475.501	84.69
475.72	87.69
475.939	81.69
476.158	88.69
476.377	96.69
476.596	90.69
476.814	89.69
477.033	101.69
477.252	87.69
477.471	87.69
477.69	85.69
477.908	84.69
478.127	90.69
478.346	107.69
478.564	89.69
478.783	92.69
479.002	90.69
479.22	78.69
479.439	84.69
479.658	90.69
479.876	82.69
480.095	87.69
480.313	97.69
480.532	79.69
480.751	93.69
480.969	98.69
481.188	88.69
481.406	101.69
481.624	98.69
481.843	88.69
482.061	96.69
482.28	95.69
482.498	91.69
482.717	107.69
482.935	118.69
483.153	84.69
483.372	77.69
483.59	103.69
483.808	77.69
484.027	84.69
484.245	78.69
484.463	73.69
484.681	91.69
484.9	100.69
485.118	93.69
485.336	97.69
485.554	89.69
485.772	120.69
485.99	98.69
486.209	104.69
486.427	111.69
486.645	105.69
486.863	129.69
487.081	107.69
487.299	105.69
487.517	92.69
487.735	91.69
487.953	76.69
488.171	82.69
488.389	88.69
488.607	83.69
488.825	110.69
489.043	94.69
489.261	74.69
489.479	91.69
489.696	96.69
489.914	92.69
490.132	99.69
490.35	100.69
490.568	84.69
490.786	83.69
491.003	88.69
491.221	100.69
491.439	84.69
491.657	94.69
491.874	102.69
492.092	94.69
492.31	90.69
492.527	98.69
492.745	89.69
492.963	94.69
493.18	77.69
493.398	103.69
493.615	98.69
493.833	94.69
494.05	91.69
494.268	96.69
494.485	92.69
494.703	93.69
494.92	105.69
495.138	92.69
495.355	88.69
495.573	90.69
495.79	86.69
496.008	92.69
496.225	82.69
496.442	96.69
496.66	88.69
496.877	97.69
497.094	103.69
497.312	96.69
497.529	80.69
497.746	98.69
497.963	79.69
498.181	93.69
498.398	88.69
498.615	109.69
498.832	114.69
499.049	98.69
499.267	97.69
499.484	106.69
499.701	78.69
499.918	93.69
500.135	111.69
500.352	90.69
500.569	87.69
500.786	95.69
501.003	100.69
501.22	99.69
501.437	86.69
501.654	93.69
501.871	104.69
502.088	91.69
502.305	95.69
502.522	90.69
502.739	90.69
502.956	103.69
503.172	101.69
503.389	112.69
503.606	104.69
503.823	97.69
504.04	86.69
504.256	99.69
504.473	102.69
504.69	84.69
504.907	92.69
505.123	90.69
505.34	90.69
505.557	78.69
505.773	104.69
505.99	102.69
506.207	90.69
506.423	88.69
506.64	94.69
506.856	91.69
507.073	82.69
507.289	106.69
507.506	108.69
507.722	121.69
507.939	110.69
508.155	97.69
508.372	96.69
508.588	89.69
508.805	99.69
509.021	98.69
509.238	92.69
509.454	94.69
509.67	94.69
509.887	118.69
510.103	128.69
510.319	217.69
510.536	722.69
510.752	2216.69
510.968	625.69
511.184	152.69
511.401	93.69
511.617	110.69
511.833	99.69
512.049	84.69
512.265	88.69
512.481	87.69
512.698	90.69
512.914	102.69
513.13	111.69
513.346	95.69
513.562	96.69
513.778	82.69
513.994	93.69
514.21	90.69
514.426	118.69
514.642	144.69
514.858	116.69
515.074	169.69
515.29	422.69
515.506	1333.69
