Data from Uncirc_2008_H10_HRD10591_00027.txt Node
Date: Wed Jan 03 10:15:36 EST 2024
User: Yrep
Spectrometer: HR+D1059
Trigger mode: 1
Integration Time (sec): 1.000000E-1
Scans to average: 1
Electric dark correction enabled: true
Nonlinearity correction enabled: false
Boxcar width: 0
XAxis mode: Wavelengths
Number of Pixels in Spectrum: 2048
>>>>>Begin Spectral Data<<<<<
223.165	-11.81
223.4	-11.81
223.635	-11.81
223.869	-9.81
224.104	-25.81
224.338	-6.81
224.573	-11.81
224.808	-17.81
225.042	-8.81
225.277	-7.81
225.511	-2.81
225.746	15.19
225.98	15.19
226.215	4.19
226.449	4.19
226.683	12.19
226.918	17.19
227.152	35.19
227.387	48.19
227.621	46.19
227.856	43.19
228.09	56.19
228.324	47.19
228.559	56.19
228.793	54.19
229.027	77.19
229.262	78.19
229.496	61.19
229.73	69.19
229.964	93.19
230.199	78.19
230.433	83.19
230.667	88.19
230.901	79.19
231.136	72.19
231.37	92.19
231.604	77.19
231.838	85.19
232.072	72.19
232.306	84.19
232.541	73.19
232.775	86.19
233.009	70.19
233.243	76.19
233.477	85.19
233.711	83.19
233.945	77.19
234.179	81.19
234.413	88.19
234.647	81.19
234.881	87.19
235.115	84.19
235.349	86.19
235.583	82.19
235.817	81.19
236.051	79.19
236.285	72.19
236.519	90.19
236.753	81.19
236.987	86.19
237.221	89.19
237.455	75.19
237.689	83.19
237.922	79.19
238.156	80.19
238.39	88.19
238.624	86.19
238.858	101.19
239.091	79.19
239.325	76.19
239.559	88.19
239.793	77.19
240.027	76.19
240.26	74.19
240.494	79.19
240.728	73.19
240.961	72.19
241.195	73.19
241.429	66.19
241.662	87.19
241.896	77.19
242.13	83.19
242.363	62.19
242.597	82.19
242.83	84.19
243.064	83.19
243.298	81.19
243.531	83.19
243.765	76.19
243.998	103.19
244.232	90.19
244.465	78.19
244.699	87.19
244.932	70.19
245.166	91.19
245.399	78.19
245.633	76.19
245.866	74.19
246.099	83.19
246.333	80.19
246.566	68.19
246.8	84.19
247.033	76.19
247.266	81.19
247.5	84.19
247.733	90.19
247.966	84.19
248.2	86.19
248.433	66.19
248.666	76.19
248.899	76.19
249.133	71.19
249.366	99.19
249.599	103.19
249.832	99.19
250.066	88.19
250.299	75.19
250.532	91.19
250.765	94.19
250.998	84.19
251.231	76.19
251.465	66.19
251.698	71.19
251.931	90.19
252.164	79.19
252.397	55.19
252.63	83.19
252.863	84.19
253.096	80.19
253.329	86.19
253.562	75.19
253.795	81.19
254.028	83.19
254.261	78.19
254.494	78.19
254.727	78.19
254.96	74.19
255.193	88.19
255.426	88.19
255.659	83.19
255.892	72.19
256.124	84.19
256.357	99.19
256.59	75.19
256.823	79.19
257.056	88.19
257.289	75.19
257.521	83.19
257.754	85.19
257.987	81.19
258.22	76.19
258.452	74.19
258.685	78.19
258.918	89.19
259.151	70.19
259.383	84.19
259.616	84.19
259.849	95.19
260.081	86.19
260.314	79.19
260.547	76.19
260.779	82.19
261.012	82.19
261.244	87.19
261.477	93.19
261.71	94.19
261.942	102.19
262.175	113.19
262.407	92.19
262.64	82.19
262.872	97.19
263.105	82.19
263.337	97.19
263.57	83.19
263.802	73.19
264.035	94.19
264.267	76.19
264.499	77.19
264.732	67.19
264.964	89.19
265.197	79.19
265.429	82.19
265.661	89.19
265.894	95.19
266.126	82.19
266.358	98.19
266.591	78.19
266.823	90.19
267.055	79.19
267.287	96.19
267.52	89.19
267.752	88.19
267.984	87.19
268.216	83.19
268.448	70.19
268.681	86.19
268.913	80.19
269.145	74.19
269.377	88.19
269.609	87.19
269.841	96.19
270.073	74.19
270.306	88.19
270.538	81.19
270.77	82.19
271.002	71.19
271.234	107.19
271.466	77.19
271.698	73.19
271.93	91.19
272.162	91.19
272.394	82.19
272.626	82.19
272.858	77.19
273.09	93.19
273.322	86.19
273.553	79.19
273.785	77.19
274.017	96.19
274.249	89.19
274.481	72.19
274.713	90.19
274.945	70.19
275.176	78.19
275.408	94.19
275.64	95.19
275.872	96.19
276.104	92.19
276.335	82.19
276.567	88.19
276.799	95.19
277.031	86.19
277.262	92.19
277.494	82.19
277.726	88.19
277.957	95.19
278.189	88.19
278.421	74.19
278.652	82.19
278.884	88.19
279.115	86.19
279.347	88.19
279.579	94.19
279.81	83.19
280.042	76.19
280.273	75.19
280.505	83.19
280.736	77.19
280.968	81.19
281.199	80.19
281.431	87.19
281.662	90.19
281.894	98.19
282.125	98.19
282.356	105.19
282.588	125.19
282.819	104.19
283.051	98.19
283.282	94.19
283.513	91.19
283.745	88.19
283.976	89.19
284.207	84.19
284.439	76.19
284.67	85.19
284.901	91.19
285.132	77.19
285.364	89.19
285.595	97.19
285.826	103.19
286.057	77.19
286.288	85.19
286.52	89.19
286.751	84.19
286.982	82.19
287.213	99.19
287.444	80.19
287.675	88.19
287.906	84.19
288.138	89.19
288.369	85.19
288.6	86.19
288.831	87.19
289.062	71.19
289.293	93.19
289.524	91.19
289.755	88.19
289.986	89.19
290.217	91.19
290.448	88.19
290.679	78.19
290.91	90.19
291.141	96.19
291.371	91.19
291.602	88.19
291.833	88.19
292.064	84.19
292.295	84.19
292.526	84.19
292.757	93.19
292.987	77.19
293.218	102.19
293.449	89.19
293.68	78.19
293.91	92.19
294.141	83.19
294.372	95.19
294.603	94.19
294.833	90.19
295.064	94.19
295.295	86.19
295.525	85.19
295.756	109.19
295.987	114.19
296.217	135.19
296.448	118.19
296.679	92.19
296.909	89.19
297.14	90.19
297.37	94.19
297.601	100.19
297.831	86.19
298.062	89.19
298.292	81.19
298.523	93.19
298.753	98.19
298.984	88.19
299.214	97.19
299.445	102.19
299.675	102.19
299.905	75.19
300.136	94.19
300.366	87.19
300.597	95.19
300.827	91.19
301.057	95.19
301.288	98.19
301.518	83.19
301.748	91.19
301.979	114.19
302.209	88.19
302.439	101.19
302.669	84.19
302.9	95.19
303.13	82.19
303.36	96.19
303.59	94.19
303.82	99.19
304.051	83.19
304.281	93.19
304.511	93.19
304.741	90.19
304.971	103.19
305.201	86.19
305.431	87.19
305.661	102.19
305.891	103.19
306.121	93.19
306.352	100.19
306.582	98.19
306.812	83.19
307.042	92.19
307.272	105.19
307.502	88.19
307.731	82.19
307.961	85.19
308.191	82.19
308.421	88.19
308.651	76.19
308.881	96.19
309.111	94.19
309.341	88.19
309.571	103.19
309.8	98.19
310.03	93.19
310.26	94.19
310.49	95.19
310.72	97.19
310.949	90.19
311.179	96.19
311.409	104.19
311.639	86.19
311.868	111.19
312.098	98.19
312.328	90.19
312.557	103.19
312.787	106.19
313.017	100.19
313.246	98.19
313.476	107.19
313.706	98.19
313.935	91.19
314.165	101.19
314.394	90.19
314.624	89.19
314.853	91.19
315.083	93.19
315.312	88.19
315.542	82.19
315.771	93.19
316.001	98.19
316.23	80.19
316.46	80.19
316.689	90.19
316.919	93.19
317.148	105.19
317.377	109.19
317.607	90.19
317.836	104.19
318.065	86.19
318.295	85.19
318.524	87.19
318.753	92.19
318.983	87.19
319.212	83.19
319.441	96.19
319.67	103.19
319.9	96.19
320.129	100.19
320.358	87.19
320.587	91.19
320.816	104.19
321.046	97.19
321.275	87.19
321.504	89.19
321.733	98.19
321.962	95.19
322.191	93.19
322.42	98.19
322.649	102.19
322.878	106.19
323.108	120.19
323.337	113.19
323.566	120.19
323.795	150.19
324.024	188.19
324.253	370.19
324.482	710.19
324.71	1425.19
324.939	1854.19
325.168	710.19
325.397	210.19
325.626	147.19
325.855	115.19
326.084	119.19
326.313	124.19
326.542	134.19
326.77	222.19
326.999	418.19
327.228	829.19
327.457	1498.19
327.686	1156.19
327.914	308.19
328.143	166.19
328.372	134.19
328.6	130.19
328.829	122.19
329.058	113.19
329.287	129.19
329.515	111.19
329.744	100.19
329.972	98.19
330.201	106.19
330.43	91.19
330.658	103.19
330.887	136.19
331.115	104.19
331.344	98.19
331.572	95.19
331.801	103.19
332.03	112.19
332.258	105.19
332.486	100.19
332.715	95.19
332.943	83.19
333.172	99.19
333.4	99.19
333.629	109.19
333.857	103.19
334.085	96.19
334.314	96.19
334.542	99.19
334.771	89.19
334.999	87.19
335.227	99.19
335.455	91.19
335.684	99.19
335.912	86.19
336.14	98.19
336.369	100.19
336.597	97.19
336.825	92.19
337.053	90.19
337.281	96.19
337.51	94.19
337.738	99.19
337.966	89.19
338.194	108.19
338.422	97.19
338.65	103.19
338.878	94.19
339.106	95.19
339.334	104.19
339.562	106.19
339.79	85.19
340.018	85.19
340.246	102.19
340.474	94.19
340.702	81.19
340.93	105.19
341.158	98.19
341.386	94.19
341.614	91.19
341.842	96.19
342.07	89.19
342.298	93.19
342.526	86.19
342.754	98.19
342.981	87.19
343.209	90.19
343.437	99.19
343.665	104.19
343.893	91.19
344.12	97.19
344.348	79.19
344.576	83.19
344.804	106.19
345.031	97.19
345.259	81.19
345.487	109.19
345.714	83.19
345.942	82.19
346.17	83.19
346.397	97.19
346.625	104.19
346.853	101.19
347.08	103.19
347.308	89.19
347.535	110.19
347.763	89.19
347.99	101.19
348.218	95.19
348.445	105.19
348.673	88.19
348.9	90.19
349.128	89.19
349.355	96.19
349.583	92.19
349.81	88.19
350.037	102.19
350.265	81.19
350.492	106.19
350.72	95.19
350.947	102.19
351.174	105.19
351.402	91.19
351.629	106.19
351.856	109.19
352.083	107.19
352.311	121.19
352.538	97.19
352.765	98.19
352.992	122.19
353.22	104.19
353.447	81.19
353.674	90.19
353.901	103.19
354.128	93.19
354.355	87.19
354.583	90.19
354.81	103.19
355.037	96.19
355.264	94.19
355.491	87.19
355.718	79.19
355.945	104.19
356.172	92.19
356.399	93.19
356.626	97.19
356.853	107.19
357.08	94.19
357.307	82.19
357.534	97.19
357.761	105.19
357.988	100.19
358.215	110.19
358.441	86.19
358.668	79.19
358.895	84.19
359.122	97.19
359.349	83.19
359.576	96.19
359.802	95.19
360.029	103.19
360.256	109.19
360.483	90.19
360.709	96.19
360.936	93.19
361.163	95.19
361.39	104.19
361.616	95.19
361.843	83.19
362.07	86.19
362.296	86.19
362.523	97.19
362.749	97.19
362.976	87.19
363.203	87.19
363.429	104.19
363.656	81.19
363.882	95.19
364.109	83.19
364.335	90.19
364.562	98.19
364.788	99.19
365.015	94.19
365.241	97.19
365.468	95.19
365.694	103.19
365.92	107.19
366.147	94.19
366.373	96.19
366.599	96.19
366.826	94.19
367.052	94.19
367.278	98.19
367.505	85.19
367.731	90.19
367.957	71.19
368.184	92.19
368.41	104.19
368.636	110.19
368.862	107.19
369.089	99.19
369.315	107.19
369.541	82.19
369.767	74.19
369.993	91.19
370.219	104.19
370.445	79.19
370.672	80.19
370.898	82.19
371.124	92.19
371.35	78.19
371.576	90.19
371.802	99.19
372.028	92.19
372.254	83.19
372.48	76.19
372.706	95.19
372.932	76.19
373.158	82.19
373.384	98.19
373.61	83.19
373.835	101.19
374.061	97.19
374.287	97.19
374.513	104.19
374.739	87.19
374.965	86.19
375.191	93.19
375.416	85.19
375.642	98.19
375.868	103.19
376.094	96.19
376.319	94.19
376.545	105.19
376.771	106.19
376.997	91.19
377.222	84.19
377.448	87.19
377.674	98.19
377.899	94.19
378.125	83.19
378.35	95.19
378.576	87.19
378.802	86.19
379.027	86.19
379.253	92.19
379.478	84.19
379.704	83.19
379.929	90.19
380.155	81.19
380.38	91.19
380.606	97.19
380.831	87.19
381.057	100.19
381.282	103.19
381.507	106.19
381.733	95.19
381.958	104.19
382.184	98.19
382.409	94.19
382.634	93.19
382.86	93.19
383.085	98.19
383.31	90.19
383.535	94.19
383.761	84.19
383.986	98.19
384.211	89.19
384.436	93.19
384.662	111.19
384.887	116.19
385.112	103.19
385.337	94.19
385.562	116.19
385.787	103.19
386.013	110.19
386.238	131.19
386.463	112.19
386.688	98.19
386.913	110.19
387.138	110.19
387.363	97.19
387.588	114.19
387.813	111.19
388.038	111.19
388.263	114.19
388.488	119.19
388.713	98.19
388.938	102.19
389.163	83.19
389.387	109.19
389.612	97.19
389.837	97.19
390.062	103.19
390.287	110.19
390.512	91.19
390.736	97.19
390.961	94.19
391.186	99.19
391.411	105.19
391.636	87.19
391.86	90.19
392.085	98.19
392.31	92.19
392.534	71.19
392.759	80.19
392.984	86.19
393.208	93.19
393.433	86.19
393.658	91.19
393.882	93.19
394.107	83.19
394.331	85.19
394.556	90.19
394.78	96.19
395.005	91.19
395.229	92.19
395.454	91.19
395.678	88.19
395.903	89.19
396.127	95.19
396.352	76.19
396.576	75.19
396.801	85.19
397.025	99.19
397.249	95.19
397.474	94.19
397.698	89.19
397.922	90.19
398.147	71.19
398.371	76.19
398.595	80.19
398.82	75.19
399.044	91.19
399.268	87.19
399.492	96.19
399.717	95.19
399.941	84.19
400.165	99.19
400.389	81.19
400.613	83.19
400.837	89.19
401.062	80.19
401.286	86.19
401.51	99.19
401.734	78.19
401.958	94.19
402.182	118.19
402.406	139.19
402.63	102.19
402.854	91.19
403.078	92.19
403.302	89.19
403.526	86.19
403.75	91.19
403.974	90.19
404.198	82.19
404.422	100.19
404.645	83.19
404.869	81.19
405.093	102.19
405.317	103.19
405.541	96.19
405.765	94.19
405.988	102.19
406.212	169.19
406.436	207.19
406.66	138.19
406.883	109.19
407.107	93.19
407.331	94.19
407.555	87.19
407.778	93.19
408.002	90.19
408.226	85.19
408.449	86.19
408.673	87.19
408.896	94.19
409.12	90.19
409.344	76.19
409.567	91.19
409.791	91.19
410.014	91.19
410.238	81.19
410.461	99.19
410.685	107.19
410.908	107.19
411.132	107.19
411.355	105.19
411.578	79.19
411.802	90.19
412.025	106.19
412.249	92.19
412.472	87.19
412.695	84.19
412.919	94.19
413.142	84.19
413.365	76.19
413.589	84.19
413.812	82.19
414.035	89.19
414.258	92.19
414.482	104.19
414.705	101.19
414.928	83.19
415.151	102.19
415.374	86.19
415.597	91.19
415.821	91.19
416.044	89.19
416.267	89.19
416.49	89.19
416.713	89.19
416.936	93.19
417.159	86.19
417.382	91.19
417.605	84.19
417.828	98.19
418.051	80.19
418.274	92.19
418.497	108.19
418.72	98.19
418.943	90.19
419.166	97.19
419.389	92.19
419.611	87.19
419.834	66.19
420.057	81.19
420.28	90.19
420.503	84.19
420.726	107.19
420.948	96.19
421.171	100.19
421.394	91.19
421.617	93.19
421.839	97.19
422.062	81.19
422.285	90.19
422.507	107.19
422.73	113.19
422.953	90.19
423.175	80.19
423.398	89.19
423.621	79.19
423.843	80.19
424.066	88.19
424.288	78.19
424.511	103.19
424.733	98.19
424.956	107.19
425.178	115.19
425.401	119.19
425.623	103.19
425.846	80.19
426.068	100.19
426.291	98.19
426.513	102.19
426.735	90.19
426.958	98.19
427.18	80.19
427.402	122.19
427.625	155.19
427.847	118.19
428.069	106.19
428.292	103.19
428.514	81.19
428.736	83.19
428.958	83.19
429.181	87.19
429.403	89.19
429.625	96.19
429.847	81.19
430.069	84.19
430.292	98.19
430.514	93.19
430.736	88.19
430.958	85.19
431.18	87.19
431.402	87.19
431.624	78.19
431.846	76.19
432.068	81.19
432.29	102.19
432.512	93.19
432.734	90.19
432.956	90.19
433.178	99.19
433.4	96.19
433.622	96.19
433.844	90.19
434.066	88.19
434.287	108.19
434.509	105.19
434.731	79.19
434.953	95.19
435.175	84.19
435.397	79.19
435.618	95.19
435.84	102.19
436.062	111.19
436.284	113.19
436.505	92.19
436.727	100.19
436.949	85.19
437.17	81.19
437.392	83.19
437.614	103.19
437.835	104.19
438.057	102.19
438.278	102.19
438.5	101.19
438.721	104.19
438.943	100.19
439.165	89.19
439.386	87.19
439.608	95.19
439.829	105.19
440.05	103.19
440.272	128.19
440.493	97.19
440.715	82.19
440.936	87.19
441.158	89.19
441.379	83.19
441.6	97.19
441.822	99.19
442.043	95.19
442.264	98.19
442.486	87.19
442.707	89.19
442.928	106.19
443.149	109.19
443.371	128.19
443.592	103.19
443.813	107.19
444.034	104.19
444.255	104.19
444.476	96.19
444.698	99.19
444.919	88.19
445.14	116.19
445.361	120.19
445.582	99.19
445.803	134.19
446.024	119.19
446.245	122.19
446.466	111.19
446.687	78.19
446.908	81.19
447.129	94.19
447.35	100.19
447.571	95.19
447.792	109.19
448.013	112.19
448.234	106.19
448.455	97.19
448.675	110.19
448.896	110.19
449.117	95.19
449.338	105.19
449.559	120.19
449.779	127.19
450	104.19
450.221	92.19
450.442	89.19
450.662	97.19
450.883	105.19
451.104	108.19
451.324	94.19
451.545	87.19
451.766	75.19
451.986	99.19
452.207	101.19
452.428	83.19
452.648	100.19
452.869	105.19
453.089	115.19
453.31	116.19
453.53	92.19
453.751	92.19
453.971	113.19
454.192	119.19
454.412	93.19
454.633	95.19
454.853	78.19
455.073	94.19
455.294	82.19
455.514	82.19
455.734	94.19
455.955	87.19
456.175	97.19
456.395	83.19
456.616	91.19
456.836	84.19
457.056	94.19
457.276	92.19
457.497	90.19
457.717	84.19
457.937	88.19
458.157	78.19
458.377	88.19
458.598	108.19
458.818	121.19
459.038	148.19
459.258	120.19
459.478	106.19
459.698	88.19
459.918	75.19
460.138	84.19
460.358	80.19
460.578	95.19
460.798	90.19
461.018	101.19
461.238	86.19
461.458	82.19
461.678	94.19
461.898	91.19
462.118	92.19
462.338	86.19
462.558	93.19
462.777	99.19
462.997	94.19
463.217	83.19
463.437	75.19
463.657	84.19
463.876	96.19
464.096	96.19
464.316	94.19
464.536	95.19
464.755	111.19
464.975	107.19
465.195	136.19
465.414	148.19
465.634	105.19
465.854	95.19
466.073	87.19
466.293	91.19
466.512	106.19
466.732	96.19
466.951	92.19
467.171	95.19
467.391	104.19
467.61	100.19
467.829	96.19
468.049	73.19
468.268	108.19
468.488	106.19
468.707	88.19
468.927	88.19
469.146	76.19
469.365	83.19
469.585	89.19
469.804	95.19
470.023	103.19
470.243	93.19
470.462	95.19
470.681	96.19
470.901	84.19
471.12	83.19
471.339	93.19
471.558	103.19
471.777	75.19
471.997	88.19
472.216	94.19
472.435	102.19
472.654	83.19
472.873	102.19
473.092	74.19
473.311	82.19
473.53	100.19
473.749	82.19
473.968	96.19
474.187	109.19
474.406	96.19
474.625	90.19
474.844	79.19
475.063	85.19
475.282	83.19
475.501	102.19
475.72	97.19
475.939	82.19
476.158	91.19
476.377	86.19
476.596	95.19
476.814	98.19
477.033	100.19
477.252	82.19
477.471	89.19
477.69	84.19
477.908	83.19
478.127	95.19
478.346	86.19
478.564	84.19
478.783	82.19
479.002	94.19
479.22	85.19
479.439	103.19
479.658	110.19
479.876	94.19
480.095	94.19
480.313	89.19
480.532	83.19
480.751	81.19
480.969	96.19
481.188	82.19
481.406	88.19
481.624	93.19
481.843	98.19
482.061	89.19
482.28	98.19
482.498	102.19
482.717	91.19
482.935	111.19
483.153	100.19
483.372	102.19
483.59	98.19
483.808	97.19
484.027	94.19
484.245	101.19
484.463	96.19
484.681	99.19
484.9	96.19
485.118	104.19
485.336	107.19
485.554	103.19
485.772	103.19
485.99	105.19
486.209	105.19
486.427	104.19
486.645	102.19
486.863	107.19
487.081	100.19
487.299	100.19
487.517	97.19
487.735	90.19
487.953	99.19
488.171	94.19
488.389	92.19
488.607	110.19
488.825	115.19
489.043	101.19
489.261	88.19
489.479	90.19
489.696	91.19
489.914	93.19
490.132	79.19
490.35	90.19
490.568	95.19
490.786	101.19
491.003	108.19
491.221	100.19
491.439	102.19
491.657	85.19
491.874	103.19
492.092	102.19
492.31	111.19
492.527	92.19
492.745	94.19
492.963	86.19
493.18	86.19
493.398	88.19
493.615	97.19
493.833	104.19
494.05	82.19
494.268	103.19
494.485	101.19
494.703	97.19
494.92	103.19
495.138	99.19
495.355	99.19
495.573	93.19
495.79	94.19
496.008	108.19
496.225	106.19
496.442	87.19
496.66	93.19
496.877	107.19
497.094	94.19
497.312	93.19
497.529	86.19
497.746	94.19
497.963	98.19
498.181	83.19
498.398	92.19
498.615	122.19
498.832	96.19
499.049	89.19
499.267	99.19
499.484	90.19
499.701	84.19
499.918	96.19
500.135	93.19
500.352	88.19
500.569	102.19
500.786	87.19
501.003	80.19
501.22	101.19
501.437	85.19
501.654	102.19
501.871	101.19
502.088	94.19
502.305	98.19
502.522	89.19
502.739	100.19
502.956	95.19
503.172	107.19
503.389	118.19
503.606	107.19
503.823	98.19
504.04	83.19
504.256	82.19
504.473	95.19
504.69	92.19
504.907	106.19
505.123	91.19
505.34	85.19
505.557	83.19
505.773	103.19
505.99	94.19
506.207	83.19
506.423	87.19
506.64	97.19
506.856	91.19
507.073	84.19
507.289	93.19
507.506	103.19
507.722	102.19
507.939	113.19
508.155	89.19
508.372	110.19
508.588	85.19
508.805	110.19
509.021	112.19
509.238	90.19
509.454	100.19
509.67	98.19
509.887	106.19
510.103	137.19
510.319	209.19
510.536	689.19
510.752	2186.19
510.968	626.19
511.184	153.19
511.401	126.19
511.617	123.19
511.833	94.19
512.049	99.19
512.265	80.19
512.481	79.19
512.698	92.19
512.914	104.19
513.13	97.19
513.346	98.19
513.562	112.19
513.778	99.19
513.994	105.19
514.21	104.19
514.426	108.19
514.642	127.19
514.858	129.19
515.074	167.19
515.29	424.19
