Data from Uncirc_2008_H10_HRD10591_00081.txt Node
Date: Wed Jan 03 10:15:47 EST 2024
User: Yrep
Spectrometer: HR+D1059
Trigger mode: 1
Integration Time (sec): 1.000000E-1
Scans to average: 1
Electric dark correction enabled: true
Nonlinearity correction enabled: false
Boxcar width: 0
XAxis mode: Wavelengths
Number of Pixels in Spectrum: 2048
>>>>>Begin Spectral Data<<<<<
223.165	-21.25
223.4	-21.25
223.635	-21.25
223.869	-25.25
224.104	-20.25
224.338	-21.25
224.573	-17.25
224.808	-13.25
225.042	2.75
225.277	-4.25
225.511	5.75
225.746	9.75
225.98	14.75
226.215	6.75
226.449	9.75
226.683	17.75
226.918	19.75
227.152	35.75
227.387	41.75
227.621	45.75
227.856	37.75
228.09	44.75
228.324	55.75
228.559	62.75
228.793	53.75
229.027	63.75
229.262	55.75
229.496	56.75
229.73	71.75
229.964	79.75
230.199	70.75
230.433	72.75
230.667	78.75
230.901	74.75
231.136	63.75
231.37	79.75
231.604	86.75
231.838	87.75
232.072	82.75
232.306	89.75
232.541	74.75
232.775	81.75
233.009	74.75
233.243	88.75
233.477	78.75
233.711	97.75
233.945	75.75
234.179	73.75
234.413	82.75
234.647	91.75
234.881	86.75
235.115	79.75
235.349	72.75
235.583	75.75
235.817	69.75
236.051	85.75
236.285	74.75
236.519	71.75
236.753	72.75
236.987	83.75
237.221	64.75
237.455	81.75
237.689	70.75
237.922	74.75
238.156	75.75
238.39	77.75
238.624	75.75
238.858	80.75
239.091	72.75
239.325	77.75
239.559	87.75
239.793	77.75
240.027	82.75
240.26	72.75
240.494	75.75
240.728	72.75
240.961	74.75
241.195	77.75
241.429	83.75
241.662	72.75
241.896	68.75
242.13	72.75
242.363	82.75
242.597	85.75
242.83	80.75
243.064	74.75
243.298	80.75
243.531	85.75
243.765	81.75
243.998	72.75
244.232	84.75
244.465	72.75
244.699	82.75
244.932	89.75
245.166	86.75
245.399	95.75
245.633	74.75
245.866	73.75
246.099	81.75
246.333	61.75
246.566	87.75
246.8	83.75
247.033	71.75
247.266	82.75
247.5	77.75
247.733	82.75
247.966	78.75
248.2	87.75
248.433	75.75
248.666	71.75
248.899	105.75
249.133	90.75
249.366	82.75
249.599	87.75
249.832	81.75
250.066	71.75
250.299	81.75
250.532	87.75
250.765	76.75
250.998	77.75
251.231	87.75
251.465	81.75
251.698	83.75
251.931	95.75
252.164	88.75
252.397	74.75
252.63	78.75
252.863	80.75
253.096	86.75
253.329	87.75
253.562	77.75
253.795	88.75
254.028	74.75
254.261	80.75
254.494	66.75
254.727	82.75
254.96	74.75
255.193	61.75
255.426	81.75
255.659	82.75
255.892	75.75
256.124	71.75
256.357	74.75
256.59	83.75
256.823	78.75
257.056	79.75
257.289	71.75
257.521	82.75
257.754	75.75
257.987	81.75
258.22	83.75
258.452	81.75
258.685	96.75
258.918	86.75
259.151	82.75
259.383	87.75
259.616	82.75
259.849	71.75
260.081	91.75
260.314	81.75
260.547	80.75
260.779	81.75
261.012	80.75
261.244	87.75
261.477	95.75
261.71	81.75
261.942	112.75
262.175	104.75
262.407	82.75
262.64	78.75
262.872	86.75
263.105	92.75
263.337	82.75
263.57	79.75
263.802	76.75
264.035	87.75
264.267	88.75
264.499	80.75
264.732	71.75
264.964	82.75
265.197	78.75
265.429	87.75
265.661	83.75
265.894	88.75
266.126	92.75
266.358	88.75
266.591	82.75
266.823	83.75
267.055	82.75
267.287	83.75
267.52	75.75
267.752	85.75
267.984	88.75
268.216	76.75
268.448	98.75
268.681	87.75
268.913	80.75
269.145	95.75
269.377	90.75
269.609	89.75
269.841	86.75
270.073	83.75
270.306	87.75
270.538	90.75
270.77	98.75
271.002	81.75
271.234	68.75
271.466	86.75
271.698	74.75
271.93	87.75
272.162	76.75
272.394	89.75
272.626	87.75
272.858	94.75
273.09	82.75
273.322	88.75
273.553	75.75
273.785	77.75
274.017	86.75
274.249	83.75
274.481	75.75
274.713	88.75
274.945	89.75
275.176	95.75
275.408	88.75
275.64	81.75
275.872	73.75
276.104	72.75
276.335	86.75
276.567	97.75
276.799	90.75
277.031	91.75
277.262	93.75
277.494	79.75
277.726	97.75
277.957	88.75
278.189	96.75
278.421	78.75
278.652	94.75
278.884	87.75
279.115	86.75
279.347	82.75
279.579	78.75
279.81	85.75
280.042	88.75
280.273	94.75
280.505	95.75
280.736	86.75
280.968	89.75
281.199	80.75
281.431	78.75
281.662	83.75
281.894	88.75
282.125	82.75
282.356	104.75
282.588	122.75
282.819	101.75
283.051	96.75
283.282	76.75
283.513	84.75
283.745	74.75
283.976	89.75
284.207	91.75
284.439	81.75
284.67	88.75
284.901	80.75
285.132	87.75
285.364	85.75
285.595	82.75
285.826	73.75
286.057	87.75
286.288	81.75
286.52	86.75
286.751	89.75
286.982	88.75
287.213	87.75
287.444	80.75
287.675	87.75
287.906	95.75
288.138	89.75
288.369	107.75
288.6	98.75
288.831	81.75
289.062	90.75
289.293	92.75
289.524	81.75
289.755	85.75
289.986	67.75
290.217	82.75
290.448	85.75
290.679	71.75
290.91	89.75
291.141	103.75
291.371	85.75
291.602	94.75
291.833	101.75
292.064	86.75
292.295	87.75
292.526	80.75
292.757	98.75
292.987	84.75
293.218	97.75
293.449	89.75
293.68	104.75
293.91	82.75
294.141	88.75
294.372	89.75
294.603	87.75
294.833	93.75
295.064	86.75
295.295	95.75
295.525	93.75
295.756	106.75
295.987	109.75
296.217	131.75
296.448	109.75
296.679	94.75
296.909	92.75
297.14	91.75
297.37	85.75
297.601	91.75
297.831	106.75
298.062	85.75
298.292	96.75
298.523	95.75
298.753	98.75
298.984	90.75
299.214	82.75
299.445	75.75
299.675	99.75
299.905	82.75
300.136	85.75
300.366	96.75
300.597	83.75
300.827	88.75
301.057	96.75
301.288	105.75
301.518	80.75
301.748	90.75
301.979	101.75
302.209	93.75
302.439	82.75
302.669	96.75
302.9	100.75
303.13	91.75
303.36	89.75
303.59	100.75
303.82	114.75
304.051	80.75
304.281	87.75
304.511	110.75
304.741	83.75
304.971	70.75
305.201	83.75
305.431	95.75
305.661	81.75
305.891	82.75
306.121	95.75
306.352	98.75
306.582	107.75
306.812	93.75
307.042	97.75
307.272	85.75
307.502	91.75
307.731	83.75
307.961	98.75
308.191	96.75
308.421	89.75
308.651	88.75
308.881	103.75
309.111	101.75
309.341	83.75
309.571	96.75
309.8	96.75
310.03	96.75
310.26	90.75
310.49	94.75
310.72	96.75
310.949	97.75
311.179	102.75
311.409	82.75
311.639	97.75
311.868	92.75
312.098	105.75
312.328	93.75
312.557	89.75
312.787	105.75
313.017	89.75
313.246	96.75
313.476	89.75
313.706	93.75
313.935	99.75
314.165	102.75
314.394	96.75
314.624	84.75
314.853	83.75
315.083	92.75
315.312	92.75
315.542	85.75
315.771	84.75
316.001	99.75
316.23	88.75
316.46	86.75
316.689	97.75
316.919	91.75
317.148	92.75
317.377	97.75
317.607	86.75
317.836	96.75
318.065	99.75
318.295	103.75
318.524	103.75
318.753	88.75
318.983	93.75
319.212	89.75
319.441	95.75
319.67	102.75
319.9	81.75
320.129	99.75
320.358	108.75
320.587	89.75
320.816	107.75
321.046	97.75
321.275	85.75
321.504	89.75
321.733	97.75
321.962	95.75
322.191	102.75
322.42	96.75
322.649	105.75
322.878	106.75
323.108	110.75
323.337	122.75
323.566	129.75
323.795	135.75
324.024	186.75
324.253	356.75
324.482	714.75
324.71	1413.75
324.939	1869.75
325.168	702.75
325.397	229.75
325.626	144.75
325.855	127.75
326.084	121.75
326.313	130.75
326.542	159.75
326.77	206.75
326.999	417.75
327.228	819.75
327.457	1477.75
327.686	1183.75
327.914	331.75
328.143	171.75
328.372	149.75
328.6	113.75
328.829	115.75
329.058	119.75
329.287	127.75
329.515	92.75
329.744	83.75
329.972	106.75
330.201	99.75
330.43	108.75
330.658	96.75
330.887	125.75
331.115	108.75
331.344	105.75
331.572	102.75
331.801	103.75
332.03	101.75
332.258	92.75
332.486	85.75
332.715	88.75
332.943	100.75
333.172	102.75
333.4	96.75
333.629	87.75
333.857	117.75
334.085	94.75
334.314	87.75
334.542	81.75
334.771	77.75
334.999	82.75
335.227	108.75
335.455	94.75
335.684	100.75
335.912	93.75
336.14	91.75
336.369	89.75
336.597	103.75
336.825	86.75
337.053	92.75
337.281	73.75
337.51	92.75
337.738	105.75
337.966	96.75
338.194	107.75
338.422	101.75
338.65	80.75
338.878	91.75
339.106	88.75
339.334	79.75
339.562	90.75
339.79	91.75
340.018	81.75
340.246	98.75
340.474	98.75
340.702	89.75
340.93	97.75
341.158	102.75
341.386	101.75
341.614	99.75
341.842	90.75
342.07	102.75
342.298	99.75
342.526	85.75
342.754	94.75
342.981	67.75
343.209	91.75
343.437	98.75
343.665	91.75
343.893	98.75
344.12	98.75
344.348	96.75
344.576	102.75
344.804	81.75
345.031	100.75
345.259	95.75
345.487	93.75
345.714	92.75
345.942	101.75
346.17	93.75
346.397	94.75
346.625	81.75
346.853	93.75
347.08	99.75
347.308	87.75
347.535	101.75
347.763	95.75
347.99	101.75
348.218	103.75
348.445	86.75
348.673	102.75
348.9	101.75
349.128	97.75
349.355	97.75
349.583	102.75
349.81	104.75
350.037	103.75
350.265	106.75
350.492	91.75
350.72	107.75
350.947	89.75
351.174	109.75
351.402	104.75
351.629	90.75
351.856	95.75
352.083	97.75
352.311	107.75
352.538	96.75
352.765	88.75
352.992	102.75
353.22	99.75
353.447	98.75
353.674	89.75
353.901	101.75
354.128	74.75
354.355	86.75
354.583	89.75
354.81	90.75
355.037	87.75
355.264	94.75
355.491	105.75
355.718	94.75
355.945	92.75
356.172	95.75
356.399	96.75
356.626	97.75
356.853	101.75
357.08	76.75
357.307	93.75
357.534	102.75
357.761	101.75
357.988	101.75
358.215	93.75
358.441	95.75
358.668	93.75
358.895	90.75
359.122	98.75
359.349	91.75
359.576	99.75
359.802	101.75
360.029	97.75
360.256	110.75
360.483	94.75
360.709	86.75
360.936	104.75
361.163	93.75
361.39	114.75
361.616	90.75
361.843	94.75
362.07	87.75
362.296	89.75
362.523	77.75
362.749	88.75
362.976	90.75
363.203	103.75
363.429	100.75
363.656	102.75
363.882	89.75
364.109	82.75
364.335	76.75
364.562	101.75
364.788	93.75
365.015	88.75
365.241	89.75
365.468	93.75
365.694	103.75
365.92	96.75
366.147	88.75
366.373	98.75
366.599	85.75
366.826	103.75
367.052	89.75
367.278	95.75
367.505	100.75
367.731	86.75
367.957	100.75
368.184	86.75
368.41	99.75
368.636	105.75
368.862	110.75
369.089	113.75
369.315	80.75
369.541	76.75
369.767	86.75
369.993	86.75
370.219	98.75
370.445	77.75
370.672	91.75
370.898	66.75
371.124	93.75
371.35	97.75
371.576	96.75
371.802	83.75
372.028	106.75
372.254	90.75
372.48	83.75
372.706	77.75
372.932	81.75
373.158	94.75
373.384	90.75
373.61	98.75
373.835	100.75
374.061	82.75
374.287	77.75
374.513	89.75
374.739	85.75
374.965	77.75
375.191	92.75
375.416	104.75
375.642	90.75
375.868	88.75
376.094	96.75
376.319	94.75
376.545	101.75
376.771	87.75
376.997	100.75
377.222	87.75
377.448	83.75
377.674	81.75
377.899	75.75
378.125	92.75
378.35	95.75
378.576	101.75
378.802	90.75
379.027	99.75
379.253	85.75
379.478	93.75
379.704	91.75
379.929	88.75
380.155	79.75
380.38	86.75
380.606	78.75
380.831	95.75
381.057	86.75
381.282	81.75
381.507	105.75
381.733	100.75
381.958	101.75
382.184	82.75
382.409	93.75
382.634	95.75
382.86	90.75
383.085	97.75
383.31	85.75
383.535	98.75
383.761	103.75
383.986	95.75
384.211	99.75
384.436	115.75
384.662	83.75
384.887	101.75
385.112	101.75
385.337	105.75
385.562	107.75
385.787	103.75
386.013	96.75
386.238	96.75
386.463	84.75
386.688	113.75
386.913	113.75
387.138	88.75
387.363	121.75
387.588	87.75
387.813	96.75
388.038	98.75
388.263	95.75
388.488	103.75
388.713	78.75
388.938	103.75
389.163	113.75
389.387	95.75
389.612	93.75
389.837	106.75
390.062	87.75
390.287	87.75
390.512	89.75
390.736	108.75
390.961	89.75
391.186	98.75
391.411	98.75
391.636	93.75
391.86	82.75
392.085	98.75
392.31	69.75
392.534	77.75
392.759	85.75
392.984	82.75
393.208	81.75
393.433	98.75
393.658	87.75
393.882	109.75
394.107	98.75
394.331	89.75
394.556	88.75
394.78	89.75
395.005	71.75
395.229	85.75
395.454	88.75
395.678	84.75
395.903	84.75
396.127	77.75
396.352	90.75
396.576	86.75
396.801	87.75
397.025	74.75
397.249	79.75
397.474	93.75
397.698	65.75
397.922	76.75
398.147	73.75
398.371	99.75
398.595	87.75
398.82	87.75
399.044	93.75
399.268	86.75
399.492	79.75
399.717	79.75
399.941	90.75
400.165	103.75
400.389	98.75
400.613	81.75
400.837	98.75
401.062	93.75
401.286	85.75
401.51	90.75
401.734	96.75
401.958	87.75
402.182	131.75
402.406	140.75
402.63	107.75
402.854	89.75
403.078	80.75
403.302	72.75
403.526	82.75
403.75	90.75
403.974	67.75
404.198	92.75
404.422	91.75
404.645	87.75
404.869	93.75
405.093	88.75
405.317	83.75
405.541	96.75
405.765	96.75
405.988	115.75
406.212	168.75
406.436	204.75
406.66	126.75
406.883	96.75
407.107	83.75
407.331	94.75
407.555	93.75
407.778	88.75
408.002	91.75
408.226	89.75
408.449	105.75
408.673	79.75
408.896	89.75
409.12	97.75
409.344	78.75
409.567	95.75
409.791	91.75
410.014	87.75
410.238	103.75
410.461	91.75
410.685	89.75
410.908	79.75
411.132	93.75
411.355	88.75
411.578	87.75
411.802	106.75
412.025	82.75
412.249	106.75
412.472	79.75
412.695	79.75
412.919	90.75
413.142	90.75
413.365	93.75
413.589	93.75
413.812	73.75
414.035	97.75
414.258	97.75
414.482	87.75
414.705	84.75
414.928	66.75
415.151	77.75
415.374	71.75
415.597	73.75
415.821	84.75
416.044	107.75
416.267	81.75
416.49	80.75
416.713	79.75
416.936	82.75
417.159	92.75
417.382	91.75
417.605	75.75
417.828	97.75
418.051	74.75
418.274	98.75
418.497	86.75
418.72	93.75
418.943	79.75
419.166	76.75
419.389	72.75
419.611	89.75
419.834	81.75
420.057	83.75
420.28	88.75
420.503	75.75
420.726	84.75
420.948	97.75
421.171	83.75
421.394	86.75
421.617	101.75
421.839	84.75
422.062	99.75
422.285	92.75
422.507	86.75
422.73	91.75
422.953	83.75
423.175	79.75
423.398	87.75
423.621	92.75
423.843	90.75
424.066	86.75
424.288	81.75
424.511	83.75
424.733	95.75
424.956	92.75
425.178	100.75
425.401	101.75
425.623	94.75
425.846	87.75
426.068	99.75
426.291	111.75
426.513	118.75
426.735	97.75
426.958	98.75
427.18	104.75
427.402	100.75
427.625	150.75
427.847	127.75
428.069	99.75
428.292	85.75
428.514	78.75
428.736	106.75
428.958	98.75
429.181	86.75
429.403	81.75
429.625	84.75
429.847	92.75
430.069	93.75
430.292	98.75
430.514	86.75
430.736	79.75
430.958	74.75
431.18	89.75
431.402	82.75
431.624	82.75
431.846	93.75
432.068	82.75
432.29	85.75
432.512	96.75
432.734	98.75
432.956	91.75
433.178	100.75
433.4	94.75
433.622	98.75
433.844	90.75
434.066	77.75
434.287	82.75
434.509	91.75
434.731	90.75
434.953	83.75
435.175	96.75
435.397	84.75
435.618	92.75
435.84	101.75
436.062	108.75
436.284	97.75
436.505	90.75
436.727	97.75
436.949	99.75
437.17	103.75
437.392	102.75
437.614	96.75
437.835	107.75
438.057	109.75
438.278	106.75
438.5	86.75
438.721	122.75
438.943	100.75
439.165	86.75
439.386	89.75
439.608	94.75
439.829	90.75
440.05	109.75
440.272	114.75
440.493	80.75
440.715	75.75
440.936	77.75
441.158	88.75
441.379	85.75
441.6	94.75
441.822	93.75
442.043	95.75
442.264	100.75
442.486	118.75
442.707	98.75
442.928	100.75
443.149	115.75
443.371	125.75
443.592	105.75
443.813	114.75
444.034	98.75
444.255	89.75
444.476	83.75
444.698	91.75
444.919	82.75
445.14	114.75
445.361	120.75
445.582	113.75
445.803	120.75
446.024	122.75
446.245	114.75
446.466	91.75
446.687	73.75
446.908	83.75
447.129	93.75
447.35	83.75
447.571	90.75
447.792	103.75
448.013	98.75
448.234	88.75
448.455	91.75
448.675	122.75
448.896	101.75
449.117	97.75
449.338	103.75
449.559	113.75
449.779	128.75
450	94.75
450.221	74.75
450.442	75.75
450.662	91.75
450.883	106.75
451.104	91.75
451.324	93.75
451.545	85.75
451.766	70.75
451.986	95.75
452.207	85.75
452.428	93.75
452.648	77.75
452.869	100.75
453.089	91.75
453.31	112.75
453.53	93.75
453.751	79.75
453.971	94.75
454.192	108.75
454.412	92.75
454.633	73.75
454.853	98.75
455.073	101.75
455.294	83.75
455.514	101.75
455.734	96.75
455.955	94.75
456.175	82.75
456.395	96.75
456.616	92.75
456.836	76.75
457.056	84.75
457.276	70.75
457.497	83.75
457.717	90.75
457.937	97.75
458.157	95.75
458.377	97.75
458.598	107.75
458.818	133.75
459.038	120.75
459.258	95.75
459.478	96.75
459.698	78.75
459.918	94.75
460.138	74.75
460.358	93.75
460.578	81.75
460.798	87.75
461.018	104.75
461.238	89.75
461.458	103.75
461.678	92.75
461.898	85.75
462.118	91.75
462.338	71.75
462.558	86.75
462.777	78.75
462.997	84.75
463.217	88.75
463.437	75.75
463.657	79.75
463.876	79.75
464.096	93.75
464.316	94.75
464.536	97.75
464.755	91.75
464.975	92.75
465.195	139.75
465.414	120.75
465.634	82.75
465.854	84.75
466.073	90.75
466.293	108.75
466.512	85.75
466.732	90.75
466.951	90.75
467.171	87.75
467.391	98.75
467.61	109.75
467.829	99.75
468.049	85.75
468.268	85.75
468.488	105.75
468.707	94.75
468.927	82.75
469.146	80.75
469.365	94.75
469.585	87.75
469.804	102.75
470.023	91.75
470.243	86.75
470.462	81.75
470.681	106.75
470.901	83.75
471.12	93.75
471.339	99.75
471.558	99.75
471.777	90.75
471.997	77.75
472.216	89.75
472.435	80.75
472.654	75.75
472.873	96.75
473.092	83.75
473.311	87.75
473.53	86.75
473.749	81.75
473.968	95.75
474.187	104.75
474.406	94.75
474.625	90.75
474.844	96.75
475.063	86.75
475.282	83.75
475.501	83.75
475.72	83.75
475.939	72.75
476.158	94.75
476.377	82.75
476.596	76.75
476.814	83.75
477.033	93.75
477.252	87.75
477.471	73.75
477.69	96.75
477.908	93.75
478.127	100.75
478.346	87.75
478.564	93.75
478.783	95.75
479.002	90.75
479.22	90.75
479.439	92.75
479.658	106.75
479.876	90.75
480.095	89.75
480.313	89.75
480.532	98.75
480.751	92.75
480.969	99.75
481.188	86.75
481.406	80.75
481.624	90.75
481.843	80.75
482.061	103.75
482.28	82.75
482.498	90.75
482.717	83.75
482.935	85.75
483.153	87.75
483.372	96.75
483.59	97.75
483.808	94.75
484.027	92.75
484.245	109.75
484.463	95.75
484.681	100.75
484.9	92.75
485.118	104.75
485.336	108.75
485.554	103.75
485.772	95.75
485.99	101.75
486.209	104.75
486.427	99.75
486.645	100.75
486.863	102.75
487.081	93.75
487.299	93.75
487.517	91.75
487.735	85.75
487.953	92.75
488.171	99.75
488.389	91.75
488.607	105.75
488.825	86.75
489.043	91.75
489.261	94.75
489.479	94.75
489.696	95.75
489.914	92.75
490.132	102.75
490.35	97.75
490.568	90.75
490.786	90.75
491.003	91.75
491.221	78.75
491.439	77.75
491.657	95.75
491.874	102.75
492.092	86.75
492.31	98.75
492.527	98.75
492.745	88.75
492.963	77.75
493.18	96.75
493.398	83.75
493.615	98.75
493.833	93.75
494.05	82.75
494.268	103.75
494.485	88.75
494.703	78.75
494.92	86.75
495.138	91.75
495.355	94.75
495.573	96.75
495.79	94.75
496.008	95.75
496.225	79.75
496.442	84.75
496.66	79.75
496.877	98.75
497.094	93.75
497.312	96.75
497.529	91.75
497.746	96.75
497.963	80.75
498.181	95.75
498.398	98.75
498.615	109.75
498.832	102.75
499.049	86.75
499.267	101.75
499.484	100.75
499.701	87.75
499.918	89.75
500.135	85.75
500.352	75.75
500.569	84.75
500.786	103.75
501.003	97.75
501.22	100.75
501.437	79.75
501.654	99.75
501.871	99.75
502.088	89.75
502.305	79.75
502.522	93.75
502.739	98.75
502.956	86.75
503.172	104.75
503.389	83.75
503.606	104.75
503.823	94.75
504.04	66.75
504.256	100.75
504.473	85.75
504.69	97.75
504.907	97.75
505.123	85.75
505.34	96.75
505.557	79.75
505.773	86.75
505.99	78.75
506.207	78.75
506.423	91.75
506.64	85.75
506.856	77.75
507.073	101.75
507.289	98.75
507.506	102.75
507.722	110.75
507.939	110.75
508.155	83.75
508.372	72.75
508.588	99.75
508.805	103.75
509.021	79.75
509.238	97.75
509.454	98.75
509.67	98.75
509.887	88.75
510.103	111.75
510.319	201.75
510.536	667.75
510.752	2097.75
510.968	601.75
511.184	148.75
511.401	108.75
511.617	102.75
511.833	88.75
512.049	83.75
512.265	89.75
512.481	97.75
512.698	85.75
512.914	104.75
513.13	85.75
513.346	91.75
513.562	99.75
513.778	94.75
513.994	101.75
514.21	95.75
514.426	114.75
514.642	112.75
514.858	113.75
515.074	139.75
515.29	389.75
515.506	1224.75
515.721	462.75
515.937	134.75
516.153	106.75
