Data from Uncirc_2008_H10_HRD10591_00005.txt Node
Date: Wed Jan 03 10:15:31 EST 2024
User: Yrep
Spectrometer: HR+D1059
Trigger mode: 1
Integration Time (sec): 1.000000E-1
Scans to average: 1
Electric dark correction enabled: true
Nonlinearity correction enabled: false
Boxcar width: 0
XAxis mode: Wavelengths
Number of Pixels in Spectrum: 2048
>>>>>Begin Spectral Data<<<<<
223.165	-17.44
223.4	-17.44
223.635	-17.44
223.869	-20.44
224.104	-26.44
224.338	-10.44
224.573	-9.44
224.808	-12.44
225.042	-15.44
225.277	-10.44
225.511	-5.44
225.746	0.56
225.98	13.56
226.215	13.56
226.449	20.56
226.683	21.56
226.918	15.56
227.152	42.56
227.387	44.56
227.621	30.56
227.856	38.56
228.09	43.56
228.324	43.56
228.559	68.56
228.793	60.56
229.027	65.56
229.262	65.56
229.496	96.56
229.73	79.56
229.964	84.56
230.199	70.56
230.433	76.56
230.667	84.56
230.901	95.56
231.136	88.56
231.37	76.56
231.604	89.56
231.838	79.56
232.072	62.56
232.306	83.56
232.541	78.56
232.775	81.56
233.009	86.56
233.243	80.56
233.477	85.56
233.711	80.56
233.945	100.56
234.179	87.56
234.413	73.56
234.647	93.56
234.881	80.56
235.115	86.56
235.349	73.56
235.583	84.56
235.817	74.56
236.051	78.56
236.285	78.56
236.519	82.56
236.753	69.56
236.987	88.56
237.221	88.56
237.455	90.56
237.689	78.56
237.922	81.56
238.156	71.56
238.39	83.56
238.624	88.56
238.858	84.56
239.091	80.56
239.325	69.56
239.559	96.56
239.793	91.56
240.027	76.56
240.26	64.56
240.494	72.56
240.728	80.56
240.961	88.56
241.195	81.56
241.429	84.56
241.662	83.56
241.896	78.56
242.13	88.56
242.363	82.56
242.597	73.56
242.83	81.56
243.064	72.56
243.298	84.56
243.531	66.56
243.765	64.56
243.998	75.56
244.232	71.56
244.465	90.56
244.699	73.56
244.932	80.56
245.166	72.56
245.399	75.56
245.633	97.56
245.866	90.56
246.099	78.56
246.333	77.56
246.566	60.56
246.8	79.56
247.033	96.56
247.266	70.56
247.5	84.56
247.733	69.56
247.966	75.56
248.2	75.56
248.433	78.56
248.666	89.56
248.899	79.56
249.133	84.56
249.366	85.56
249.599	84.56
249.832	78.56
250.066	78.56
250.299	89.56
250.532	72.56
250.765	71.56
250.998	90.56
251.231	75.56
251.465	86.56
251.698	102.56
251.931	85.56
252.164	90.56
252.397	99.56
252.63	84.56
252.863	78.56
253.096	79.56
253.329	82.56
253.562	74.56
253.795	85.56
254.028	95.56
254.261	78.56
254.494	88.56
254.727	81.56
254.96	69.56
255.193	82.56
255.426	76.56
255.659	96.56
255.892	90.56
256.124	86.56
256.357	75.56
256.59	79.56
256.823	90.56
257.056	88.56
257.289	82.56
257.521	87.56
257.754	91.56
257.987	88.56
258.22	85.56
258.452	83.56
258.685	76.56
258.918	77.56
259.151	83.56
259.383	88.56
259.616	81.56
259.849	93.56
260.081	89.56
260.314	80.56
260.547	88.56
260.779	81.56
261.012	90.56
261.244	94.56
261.477	90.56
261.71	100.56
261.942	98.56
262.175	101.56
262.407	82.56
262.64	95.56
262.872	84.56
263.105	97.56
263.337	83.56
263.57	94.56
263.802	90.56
264.035	86.56
264.267	88.56
264.499	78.56
264.732	91.56
264.964	96.56
265.197	86.56
265.429	90.56
265.661	82.56
265.894	88.56
266.126	94.56
266.358	76.56
266.591	90.56
266.823	100.56
267.055	90.56
267.287	98.56
267.52	85.56
267.752	78.56
267.984	87.56
268.216	93.56
268.448	90.56
268.681	93.56
268.913	89.56
269.145	92.56
269.377	89.56
269.609	84.56
269.841	100.56
270.073	90.56
270.306	96.56
270.538	84.56
270.77	86.56
271.002	88.56
271.234	96.56
271.466	94.56
271.698	104.56
271.93	85.56
272.162	92.56
272.394	85.56
272.626	82.56
272.858	83.56
273.09	91.56
273.322	96.56
273.553	89.56
273.785	86.56
274.017	92.56
274.249	82.56
274.481	90.56
274.713	83.56
274.945	78.56
275.176	83.56
275.408	68.56
275.64	81.56
275.872	84.56
276.104	83.56
276.335	76.56
276.567	76.56
276.799	96.56
277.031	92.56
277.262	102.56
277.494	85.56
277.726	93.56
277.957	100.56
278.189	82.56
278.421	89.56
278.652	93.56
278.884	90.56
279.115	86.56
279.347	88.56
279.579	90.56
279.81	84.56
280.042	86.56
280.273	90.56
280.505	84.56
280.736	98.56
280.968	93.56
281.199	99.56
281.431	81.56
281.662	95.56
281.894	97.56
282.125	98.56
282.356	105.56
282.588	132.56
282.819	92.56
283.051	106.56
283.282	88.56
283.513	86.56
283.745	89.56
283.976	102.56
284.207	92.56
284.439	91.56
284.67	82.56
284.901	83.56
285.132	101.56
285.364	85.56
285.595	73.56
285.826	87.56
286.057	97.56
286.288	84.56
286.52	84.56
286.751	85.56
286.982	89.56
287.213	86.56
287.444	88.56
287.675	89.56
287.906	89.56
288.138	86.56
288.369	95.56
288.6	85.56
288.831	88.56
289.062	80.56
289.293	104.56
289.524	93.56
289.755	89.56
289.986	87.56
290.217	105.56
290.448	91.56
290.679	84.56
290.91	94.56
291.141	90.56
291.371	88.56
291.602	103.56
291.833	80.56
292.064	84.56
292.295	76.56
292.526	94.56
292.757	82.56
292.987	75.56
293.218	90.56
293.449	91.56
293.68	80.56
293.91	85.56
294.141	98.56
294.372	83.56
294.603	84.56
294.833	87.56
295.064	92.56
295.295	93.56
295.525	90.56
295.756	102.56
295.987	105.56
296.217	127.56
296.448	111.56
296.679	82.56
296.909	99.56
297.14	86.56
297.37	89.56
297.601	80.56
297.831	78.56
298.062	91.56
298.292	95.56
298.523	92.56
298.753	95.56
298.984	89.56
299.214	90.56
299.445	88.56
299.675	109.56
299.905	98.56
300.136	85.56
300.366	84.56
300.597	96.56
300.827	74.56
301.057	93.56
301.288	105.56
301.518	99.56
301.748	87.56
301.979	91.56
302.209	90.56
302.439	84.56
302.669	89.56
302.9	83.56
303.13	75.56
303.36	85.56
303.59	97.56
303.82	96.56
304.051	111.56
304.281	105.56
304.511	104.56
304.741	90.56
304.971	100.56
305.201	98.56
305.431	95.56
305.661	93.56
305.891	101.56
306.121	100.56
306.352	103.56
306.582	96.56
306.812	94.56
307.042	113.56
307.272	113.56
307.502	94.56
307.731	86.56
307.961	85.56
308.191	92.56
308.421	90.56
308.651	91.56
308.881	98.56
309.111	93.56
309.341	112.56
309.571	102.56
309.8	101.56
310.03	84.56
310.26	96.56
310.49	92.56
310.72	107.56
310.949	90.56
311.179	99.56
311.409	93.56
311.639	94.56
311.868	109.56
312.098	101.56
312.328	86.56
312.557	106.56
312.787	109.56
313.017	102.56
313.246	94.56
313.476	96.56
313.706	89.56
313.935	109.56
314.165	109.56
314.394	96.56
314.624	89.56
314.853	98.56
315.083	104.56
315.312	87.56
315.542	92.56
315.771	72.56
316.001	95.56
316.23	99.56
316.46	83.56
316.689	89.56
316.919	89.56
317.148	108.56
317.377	87.56
317.607	85.56
317.836	89.56
318.065	89.56
318.295	84.56
318.524	86.56
318.753	93.56
318.983	85.56
319.212	85.56
319.441	93.56
319.67	107.56
319.9	92.56
320.129	88.56
320.358	90.56
320.587	103.56
320.816	98.56
321.046	110.56
321.275	108.56
321.504	95.56
321.733	93.56
321.962	97.56
322.191	101.56
322.42	101.56
322.649	104.56
322.878	111.56
323.108	114.56
323.337	109.56
323.566	125.56
323.795	126.56
324.024	193.56
324.253	330.56
324.482	674.56
324.71	1355.56
324.939	1764.56
325.168	664.56
325.397	219.56
325.626	129.56
325.855	112.56
326.084	116.56
326.313	122.56
326.542	139.56
326.77	199.56
326.999	398.56
327.228	811.56
327.457	1415.56
327.686	1116.56
327.914	310.56
328.143	169.56
328.372	116.56
328.6	113.56
328.829	128.56
329.058	139.56
329.287	125.56
329.515	107.56
329.744	95.56
329.972	112.56
330.201	110.56
330.43	97.56
330.658	113.56
330.887	121.56
331.115	111.56
331.344	88.56
331.572	102.56
331.801	105.56
332.03	107.56
332.258	99.56
332.486	91.56
332.715	99.56
332.943	115.56
333.172	97.56
333.4	97.56
333.629	101.56
333.857	108.56
334.085	102.56
334.314	80.56
334.542	95.56
334.771	90.56
334.999	96.56
335.227	83.56
335.455	103.56
335.684	94.56
335.912	110.56
336.14	89.56
336.369	97.56
336.597	97.56
336.825	95.56
337.053	90.56
337.281	95.56
337.51	109.56
337.738	101.56
337.966	87.56
338.194	90.56
338.422	98.56
338.65	91.56
338.878	91.56
339.106	81.56
339.334	103.56
339.562	116.56
339.79	82.56
340.018	76.56
340.246	81.56
340.474	89.56
340.702	100.56
340.93	95.56
341.158	102.56
341.386	92.56
341.614	89.56
341.842	96.56
342.07	101.56
342.298	109.56
342.526	96.56
342.754	95.56
342.981	104.56
343.209	97.56
343.437	105.56
343.665	89.56
343.893	86.56
344.12	101.56
344.348	111.56
344.576	97.56
344.804	101.56
345.031	96.56
345.259	87.56
345.487	94.56
345.714	83.56
345.942	91.56
346.17	90.56
346.397	89.56
346.625	95.56
346.853	88.56
347.08	100.56
347.308	98.56
347.535	85.56
347.763	100.56
347.99	116.56
348.218	89.56
348.445	110.56
348.673	104.56
348.9	97.56
349.128	103.56
349.355	88.56
349.583	84.56
349.81	89.56
350.037	102.56
350.265	92.56
350.492	90.56
350.72	99.56
350.947	83.56
351.174	106.56
351.402	92.56
351.629	83.56
351.856	90.56
352.083	104.56
352.311	92.56
352.538	102.56
352.765	103.56
352.992	125.56
353.22	115.56
353.447	117.56
353.674	107.56
353.901	92.56
354.128	112.56
354.355	96.56
354.583	92.56
354.81	120.56
355.037	88.56
355.264	99.56
355.491	88.56
355.718	84.56
355.945	102.56
356.172	91.56
356.399	98.56
356.626	93.56
356.853	94.56
357.08	98.56
357.307	99.56
357.534	98.56
357.761	89.56
357.988	113.56
358.215	109.56
358.441	92.56
358.668	98.56
358.895	100.56
359.122	81.56
359.349	100.56
359.576	100.56
359.802	84.56
360.029	111.56
360.256	113.56
360.483	91.56
360.709	88.56
360.936	90.56
361.163	103.56
361.39	97.56
361.616	97.56
361.843	85.56
362.07	98.56
362.296	92.56
362.523	83.56
362.749	96.56
362.976	101.56
363.203	83.56
363.429	90.56
363.656	101.56
363.882	90.56
364.109	92.56
364.335	97.56
364.562	91.56
364.788	100.56
365.015	91.56
365.241	101.56
365.468	90.56
365.694	104.56
365.92	93.56
366.147	98.56
366.373	82.56
366.599	85.56
366.826	83.56
367.052	92.56
367.278	94.56
367.505	81.56
367.731	87.56
367.957	101.56
368.184	97.56
368.41	105.56
368.636	97.56
368.862	101.56
369.089	94.56
369.315	84.56
369.541	79.56
369.767	85.56
369.993	89.56
370.219	96.56
370.445	85.56
370.672	92.56
370.898	91.56
371.124	92.56
371.35	88.56
371.576	97.56
371.802	82.56
372.028	97.56
372.254	97.56
372.48	81.56
372.706	97.56
372.932	102.56
373.158	98.56
373.384	92.56
373.61	88.56
373.835	91.56
374.061	93.56
374.287	87.56
374.513	91.56
374.739	93.56
374.965	91.56
375.191	96.56
375.416	90.56
375.642	80.56
375.868	85.56
376.094	89.56
376.319	95.56
376.545	100.56
376.771	97.56
376.997	87.56
377.222	85.56
377.448	93.56
377.674	99.56
377.899	96.56
378.125	113.56
378.35	89.56
378.576	97.56
378.802	99.56
379.027	104.56
379.253	94.56
379.478	92.56
379.704	115.56
379.929	93.56
380.155	120.56
380.38	98.56
380.606	88.56
380.831	88.56
381.057	117.56
381.282	93.56
381.507	111.56
381.733	97.56
381.958	104.56
382.184	99.56
382.409	116.56
382.634	95.56
382.86	105.56
383.085	109.56
383.31	103.56
383.535	113.56
383.761	106.56
383.986	99.56
384.211	104.56
384.436	115.56
384.662	120.56
384.887	107.56
385.112	112.56
385.337	101.56
385.562	107.56
385.787	107.56
386.013	100.56
386.238	101.56
386.463	113.56
386.688	123.56
386.913	113.56
387.138	118.56
387.363	109.56
387.588	97.56
387.813	105.56
388.038	123.56
388.263	128.56
388.488	99.56
388.713	104.56
388.938	94.56
389.163	108.56
389.387	89.56
389.612	95.56
389.837	92.56
390.062	108.56
390.287	101.56
390.512	93.56
390.736	108.56
390.961	93.56
391.186	91.56
391.411	95.56
391.636	81.56
391.86	98.56
392.085	90.56
392.31	93.56
392.534	86.56
392.759	85.56
392.984	94.56
393.208	106.56
393.433	97.56
393.658	97.56
393.882	84.56
394.107	87.56
394.331	91.56
394.556	78.56
394.78	92.56
395.005	81.56
395.229	81.56
395.454	90.56
395.678	92.56
395.903	92.56
396.127	89.56
396.352	92.56
396.576	104.56
396.801	83.56
397.025	92.56
397.249	93.56
397.474	101.56
397.698	90.56
397.922	82.56
398.147	81.56
398.371	89.56
398.595	82.56
398.82	91.56
399.044	88.56
399.268	92.56
399.492	75.56
399.717	81.56
399.941	102.56
400.165	94.56
400.389	101.56
400.613	86.56
400.837	91.56
401.062	91.56
401.286	91.56
401.51	95.56
401.734	91.56
401.958	101.56
402.182	114.56
402.406	139.56
402.63	93.56
402.854	88.56
403.078	87.56
403.302	90.56
403.526	92.56
403.75	98.56
403.974	94.56
404.198	94.56
404.422	89.56
404.645	101.56
404.869	80.56
405.093	95.56
405.317	96.56
405.541	92.56
405.765	100.56
405.988	112.56
406.212	147.56
406.436	172.56
406.66	120.56
406.883	92.56
407.107	96.56
407.331	95.56
407.555	101.56
407.778	90.56
408.002	90.56
408.226	89.56
408.449	88.56
408.673	97.56
408.896	96.56
409.12	109.56
409.344	100.56
409.567	93.56
409.791	90.56
410.014	87.56
410.238	93.56
410.461	86.56
410.685	99.56
410.908	102.56
411.132	123.56
411.355	105.56
411.578	104.56
411.802	91.56
412.025	89.56
412.249	89.56
412.472	90.56
412.695	97.56
412.919	99.56
413.142	92.56
413.365	90.56
413.589	101.56
413.812	100.56
414.035	84.56
414.258	86.56
414.482	81.56
414.705	84.56
414.928	99.56
415.151	108.56
415.374	87.56
415.597	98.56
415.821	93.56
416.044	106.56
416.267	87.56
416.49	97.56
416.713	93.56
416.936	99.56
417.159	89.56
417.382	89.56
417.605	102.56
417.828	95.56
418.051	93.56
418.274	100.56
418.497	99.56
418.72	89.56
418.943	90.56
419.166	89.56
419.389	101.56
419.611	99.56
419.834	96.56
420.057	103.56
420.28	92.56
420.503	78.56
420.726	91.56
420.948	92.56
421.171	92.56
421.394	100.56
421.617	96.56
421.839	95.56
422.062	97.56
422.285	80.56
422.507	93.56
422.73	99.56
422.953	92.56
423.175	93.56
423.398	92.56
423.621	93.56
423.843	95.56
424.066	88.56
424.288	79.56
424.511	86.56
424.733	108.56
424.956	104.56
425.178	97.56
425.401	105.56
425.623	98.56
425.846	94.56
426.068	105.56
426.291	91.56
426.513	93.56
426.735	102.56
426.958	80.56
427.18	96.56
427.402	114.56
427.625	131.56
427.847	107.56
428.069	92.56
428.292	89.56
428.514	85.56
428.736	98.56
428.958	78.56
429.181	94.56
429.403	92.56
429.625	94.56
429.847	90.56
430.069	90.56
430.292	95.56
430.514	84.56
430.736	93.56
430.958	88.56
431.18	91.56
431.402	85.56
431.624	78.56
431.846	97.56
432.068	92.56
432.29	94.56
432.512	96.56
432.734	87.56
432.956	91.56
433.178	94.56
433.4	93.56
433.622	101.56
433.844	90.56
434.066	96.56
434.287	86.56
434.509	93.56
434.731	87.56
434.953	90.56
435.175	82.56
435.397	87.56
435.618	86.56
435.84	100.56
436.062	113.56
436.284	112.56
436.505	103.56
436.727	97.56
436.949	91.56
437.17	83.56
437.392	76.56
437.614	88.56
437.835	97.56
438.057	97.56
438.278	108.56
438.5	113.56
438.721	107.56
438.943	91.56
439.165	85.56
439.386	82.56
439.608	91.56
439.829	92.56
440.05	112.56
440.272	131.56
440.493	83.56
440.715	89.56
440.936	82.56
441.158	86.56
441.379	95.56
441.6	97.56
441.822	88.56
442.043	93.56
442.264	93.56
442.486	75.56
442.707	99.56
442.928	93.56
443.149	113.56
443.371	134.56
443.592	100.56
443.813	109.56
444.034	94.56
444.255	83.56
444.476	84.56
444.698	88.56
444.919	81.56
445.14	126.56
445.361	115.56
445.582	115.56
445.803	130.56
446.024	120.56
446.245	120.56
446.466	105.56
446.687	111.56
446.908	89.56
447.129	82.56
447.35	92.56
447.571	93.56
447.792	80.56
448.013	97.56
448.234	82.56
448.455	93.56
448.675	96.56
448.896	98.56
449.117	109.56
449.338	85.56
449.559	127.56
449.779	126.56
450	86.56
450.221	93.56
450.442	96.56
450.662	81.56
450.883	109.56
451.104	100.56
451.324	109.56
451.545	100.56
451.766	92.56
451.986	99.56
452.207	100.56
452.428	96.56
452.648	112.56
452.869	102.56
453.089	97.56
453.31	103.56
453.53	92.56
453.751	91.56
453.971	93.56
454.192	108.56
454.412	89.56
454.633	94.56
454.853	82.56
455.073	97.56
455.294	96.56
455.514	92.56
455.734	84.56
455.955	92.56
456.175	75.56
456.395	85.56
456.616	91.56
456.836	84.56
457.056	76.56
457.276	78.56
457.497	86.56
457.717	86.56
457.937	77.56
458.157	79.56
458.377	87.56
458.598	92.56
458.818	133.56
459.038	122.56
459.258	111.56
459.478	93.56
459.698	86.56
459.918	77.56
460.138	94.56
460.358	110.56
460.578	100.56
460.798	84.56
461.018	98.56
461.238	89.56
461.458	76.56
461.678	82.56
461.898	83.56
462.118	97.56
462.338	101.56
462.558	77.56
462.777	95.56
462.997	81.56
463.217	102.56
463.437	85.56
463.657	76.56
463.876	108.56
464.096	96.56
464.316	90.56
464.536	110.56
464.755	98.56
464.975	94.56
465.195	141.56
465.414	127.56
465.634	77.56
465.854	86.56
466.073	85.56
466.293	94.56
466.512	97.56
466.732	96.56
466.951	95.56
467.171	89.56
467.391	97.56
467.61	103.56
467.829	97.56
468.049	86.56
468.268	78.56
468.488	86.56
468.707	97.56
468.927	82.56
469.146	85.56
469.365	72.56
469.585	92.56
469.804	108.56
470.023	93.56
470.243	74.56
470.462	97.56
470.681	91.56
470.901	92.56
471.12	82.56
471.339	88.56
471.558	92.56
471.777	84.56
471.997	85.56
472.216	90.56
472.435	92.56
472.654	91.56
472.873	81.56
473.092	102.56
473.311	88.56
473.53	92.56
473.749	86.56
473.968	108.56
474.187	86.56
474.406	92.56
474.625	101.56
474.844	80.56
475.063	84.56
475.282	97.56
475.501	83.56
475.72	96.56
475.939	98.56
476.158	103.56
476.377	92.56
476.596	78.56
476.814	88.56
477.033	84.56
477.252	95.56
477.471	90.56
477.69	98.56
477.908	102.56
478.127	94.56
478.346	89.56
478.564	97.56
478.783	87.56
479.002	103.56
479.22	104.56
479.439	100.56
479.658	91.56
479.876	99.56
480.095	90.56
480.313	92.56
480.532	80.56
480.751	100.56
480.969	85.56
481.188	84.56
481.406	103.56
481.624	91.56
481.843	94.56
482.061	114.56
482.28	90.56
482.498	89.56
482.717	95.56
482.935	81.56
483.153	99.56
483.372	91.56
483.59	82.56
483.808	101.56
484.027	100.56
484.245	97.56
484.463	96.56
484.681	107.56
484.9	84.56
485.118	94.56
485.336	109.56
485.554	107.56
485.772	102.56
485.99	106.56
486.209	110.56
486.427	104.56
486.645	106.56
486.863	121.56
487.081	109.56
487.299	105.56
487.517	105.56
487.735	71.56
487.953	92.56
488.171	96.56
488.389	86.56
488.607	104.56
488.825	86.56
489.043	108.56
489.261	106.56
489.479	101.56
489.696	91.56
489.914	109.56
490.132	94.56
490.35	105.56
490.568	86.56
490.786	102.56
491.003	100.56
491.221	86.56
491.439	101.56
491.657	101.56
491.874	114.56
492.092	97.56
492.31	91.56
492.527	104.56
492.745	104.56
492.963	103.56
493.18	93.56
493.398	93.56
493.615	105.56
493.833	101.56
494.05	89.56
494.268	93.56
494.485	85.56
494.703	92.56
494.92	91.56
495.138	85.56
495.355	86.56
495.573	98.56
495.79	98.56
496.008	99.56
496.225	89.56
496.442	90.56
496.66	95.56
496.877	96.56
497.094	96.56
497.312	81.56
497.529	90.56
497.746	95.56
497.963	98.56
498.181	90.56
498.398	91.56
498.615	93.56
498.832	102.56
499.049	83.56
499.267	96.56
499.484	90.56
499.701	92.56
499.918	102.56
500.135	105.56
500.352	101.56
500.569	97.56
500.786	84.56
501.003	100.56
501.22	91.56
501.437	105.56
501.654	111.56
501.871	101.56
502.088	101.56
502.305	105.56
502.522	96.56
502.739	92.56
502.956	90.56
503.172	89.56
503.389	85.56
503.606	100.56
503.823	93.56
504.04	92.56
504.256	83.56
504.473	95.56
504.69	94.56
504.907	101.56
505.123	88.56
505.34	81.56
505.557	92.56
505.773	89.56
505.99	87.56
506.207	94.56
506.423	94.56
506.64	100.56
506.856	89.56
507.073	93.56
507.289	91.56
507.506	96.56
507.722	108.56
507.939	116.56
508.155	105.56
508.372	90.56
508.588	83.56
508.805	90.56
509.021	90.56
509.238	97.56
509.454	100.56
509.67	102.56
509.887	107.56
510.103	144.56
510.319	197.56
510.536	643.56
510.752	1903.56
510.968	576.56
511.184	150.56
511.401	107.56
511.617	121.56
511.833	94.56
512.049	101.56
512.265	102.56
512.481	88.56
512.698	93.56
512.914	100.56
513.13	89.56
513.346	100.56
513.562	98.56
513.778	94.56
513.994	111.56
514.21	101.56
514.426	111.56
514.642	133.56
514.858	134.56
515.074	152.56
