Data from Uncirc_2008_H10_HRD10591_00007.txt Node
Date: Wed Jan 03 10:15:32 EST 2024
User: Yrep
Spectrometer: HR+D1059
Trigger mode: 1
Integration Time (sec): 1.000000E-1
Scans to average: 1
Electric dark correction enabled: true
Nonlinearity correction enabled: false
Boxcar width: 0
XAxis mode: Wavelengths
Number of Pixels in Spectrum: 2048
>>>>>Begin Spectral Data<<<<<
223.165	-18.25
223.4	-18.25
223.635	-18.25
223.869	-20.25
224.104	-23.25
224.338	-21.25
224.573	-24.25
224.808	-0.25
225.042	-5.25
225.277	-14.25
225.511	-5.25
225.746	5.75
225.98	12.75
226.215	-2.25
226.449	18.75
226.683	27.75
226.918	25.75
227.152	43.75
227.387	44.75
227.621	44.75
227.856	42.75
228.09	32.75
228.324	35.75
228.559	45.75
228.793	44.75
229.027	55.75
229.262	64.75
229.496	71.75
229.73	76.75
229.964	82.75
230.199	71.75
230.433	73.75
230.667	69.75
230.901	78.75
231.136	93.75
231.37	76.75
231.604	73.75
231.838	89.75
232.072	79.75
232.306	69.75
232.541	63.75
232.775	84.75
233.009	82.75
233.243	79.75
233.477	96.75
233.711	83.75
233.945	84.75
234.179	83.75
234.413	93.75
234.647	88.75
234.881	76.75
235.115	69.75
235.349	89.75
235.583	75.75
235.817	88.75
236.051	72.75
236.285	84.75
236.519	85.75
236.753	82.75
236.987	70.75
237.221	77.75
237.455	90.75
237.689	88.75
237.922	75.75
238.156	83.75
238.39	66.75
238.624	76.75
238.858	79.75
239.091	71.75
239.325	72.75
239.559	84.75
239.793	78.75
240.027	82.75
240.26	75.75
240.494	88.75
240.728	56.75
240.961	80.75
241.195	98.75
241.429	65.75
241.662	82.75
241.896	69.75
242.13	82.75
242.363	77.75
242.597	76.75
242.83	77.75
243.064	73.75
243.298	79.75
243.531	80.75
243.765	93.75
243.998	67.75
244.232	80.75
244.465	77.75
244.699	80.75
244.932	88.75
245.166	70.75
245.399	65.75
245.633	75.75
245.866	82.75
246.099	79.75
246.333	97.75
246.566	94.75
246.8	78.75
247.033	80.75
247.266	84.75
247.5	79.75
247.733	80.75
247.966	68.75
248.2	85.75
248.433	81.75
248.666	88.75
248.899	75.75
249.133	77.75
249.366	99.75
249.599	97.75
249.832	88.75
250.066	83.75
250.299	88.75
250.532	76.75
250.765	87.75
250.998	85.75
251.231	72.75
251.465	95.75
251.698	77.75
251.931	75.75
252.164	80.75
252.397	75.75
252.63	68.75
252.863	80.75
253.096	90.75
253.329	80.75
253.562	84.75
253.795	75.75
254.028	81.75
254.261	73.75
254.494	94.75
254.727	77.75
254.96	77.75
255.193	91.75
255.426	89.75
255.659	91.75
255.892	82.75
256.124	83.75
256.357	88.75
256.59	81.75
256.823	94.75
257.056	84.75
257.289	88.75
257.521	82.75
257.754	77.75
257.987	91.75
258.22	84.75
258.452	83.75
258.685	81.75
258.918	77.75
259.151	81.75
259.383	79.75
259.616	89.75
259.849	102.75
260.081	86.75
260.314	77.75
260.547	76.75
260.779	91.75
261.012	83.75
261.244	83.75
261.477	99.75
261.71	88.75
261.942	109.75
262.175	110.75
262.407	98.75
262.64	77.75
262.872	91.75
263.105	72.75
263.337	98.75
263.57	99.75
263.802	101.75
264.035	94.75
264.267	68.75
264.499	82.75
264.732	84.75
264.964	84.75
265.197	87.75
265.429	76.75
265.661	81.75
265.894	83.75
266.126	79.75
266.358	93.75
266.591	94.75
266.823	80.75
267.055	79.75
267.287	92.75
267.52	84.75
267.752	69.75
267.984	93.75
268.216	99.75
268.448	76.75
268.681	86.75
268.913	90.75
269.145	93.75
269.377	85.75
269.609	85.75
269.841	91.75
270.073	87.75
270.306	85.75
270.538	85.75
270.77	86.75
271.002	83.75
271.234	79.75
271.466	87.75
271.698	84.75
271.93	83.75
272.162	84.75
272.394	91.75
272.626	73.75
272.858	96.75
273.09	96.75
273.322	83.75
273.553	85.75
273.785	85.75
274.017	93.75
274.249	75.75
274.481	94.75
274.713	93.75
274.945	98.75
275.176	96.75
275.408	92.75
275.64	83.75
275.872	72.75
276.104	96.75
276.335	97.75
276.567	98.75
276.799	102.75
277.031	100.75
277.262	97.75
277.494	92.75
277.726	86.75
277.957	81.75
278.189	99.75
278.421	76.75
278.652	91.75
278.884	90.75
279.115	101.75
279.347	88.75
279.579	87.75
279.81	85.75
280.042	95.75
280.273	93.75
280.505	88.75
280.736	78.75
280.968	85.75
281.199	85.75
281.431	85.75
281.662	82.75
281.894	97.75
282.125	83.75
282.356	103.75
282.588	112.75
282.819	115.75
283.051	80.75
283.282	78.75
283.513	88.75
283.745	102.75
283.976	95.75
284.207	84.75
284.439	77.75
284.67	91.75
284.901	71.75
285.132	83.75
285.364	90.75
285.595	83.75
285.826	85.75
286.057	94.75
286.288	75.75
286.52	93.75
286.751	87.75
286.982	95.75
287.213	96.75
287.444	101.75
287.675	92.75
287.906	93.75
288.138	84.75
288.369	99.75
288.6	96.75
288.831	98.75
289.062	81.75
289.293	93.75
289.524	80.75
289.755	87.75
289.986	83.75
290.217	92.75
290.448	96.75
290.679	81.75
290.91	90.75
291.141	89.75
291.371	98.75
291.602	89.75
291.833	86.75
292.064	92.75
292.295	83.75
292.526	68.75
292.757	93.75
292.987	81.75
293.218	80.75
293.449	92.75
293.68	96.75
293.91	74.75
294.141	91.75
294.372	82.75
294.603	76.75
294.833	93.75
295.064	97.75
295.295	90.75
295.525	92.75
295.756	113.75
295.987	116.75
296.217	117.75
296.448	133.75
296.679	88.75
296.909	89.75
297.14	91.75
297.37	100.75
297.601	99.75
297.831	92.75
298.062	93.75
298.292	89.75
298.523	80.75
298.753	89.75
298.984	93.75
299.214	83.75
299.445	92.75
299.675	88.75
299.905	89.75
300.136	90.75
300.366	87.75
300.597	110.75
300.827	98.75
301.057	96.75
301.288	92.75
301.518	92.75
301.748	77.75
301.979	107.75
302.209	104.75
302.439	86.75
302.669	97.75
302.9	93.75
303.13	85.75
303.36	86.75
303.59	102.75
303.82	112.75
304.051	88.75
304.281	98.75
304.511	96.75
304.741	99.75
304.971	87.75
305.201	97.75
305.431	101.75
305.661	82.75
305.891	98.75
306.121	104.75
306.352	101.75
306.582	100.75
306.812	100.75
307.042	80.75
307.272	91.75
307.502	88.75
307.731	107.75
307.961	87.75
308.191	88.75
308.421	78.75
308.651	92.75
308.881	103.75
309.111	87.75
309.341	95.75
309.571	84.75
309.8	94.75
310.03	93.75
310.26	100.75
310.49	93.75
310.72	94.75
310.949	92.75
311.179	96.75
311.409	99.75
311.639	91.75
311.868	93.75
312.098	103.75
312.328	85.75
312.557	96.75
312.787	110.75
313.017	122.75
313.246	100.75
313.476	99.75
313.706	78.75
313.935	84.75
314.165	87.75
314.394	83.75
314.624	84.75
314.853	97.75
315.083	91.75
315.312	92.75
315.542	87.75
315.771	92.75
316.001	97.75
316.23	97.75
316.46	94.75
316.689	82.75
316.919	83.75
317.148	93.75
317.377	92.75
317.607	91.75
317.836	100.75
318.065	107.75
318.295	98.75
318.524	92.75
318.753	92.75
318.983	111.75
319.212	111.75
319.441	102.75
319.67	106.75
319.9	95.75
320.129	100.75
320.358	103.75
320.587	102.75
320.816	93.75
321.046	114.75
321.275	101.75
321.504	100.75
321.733	95.75
321.962	105.75
322.191	94.75
322.42	99.75
322.649	105.75
322.878	103.75
323.108	103.75
323.337	107.75
323.566	114.75
323.795	135.75
324.024	199.75
324.253	321.75
324.482	683.75
324.71	1387.75
324.939	1797.75
325.168	667.75
325.397	214.75
325.626	128.75
325.855	107.75
326.084	119.75
326.313	115.75
326.542	139.75
326.77	208.75
326.999	404.75
327.228	800.75
327.457	1427.75
327.686	1137.75
327.914	329.75
328.143	171.75
328.372	132.75
328.6	117.75
328.829	106.75
329.058	108.75
329.287	124.75
329.515	97.75
329.744	90.75
329.972	110.75
330.201	104.75
330.43	86.75
330.658	96.75
330.887	114.75
331.115	107.75
331.344	99.75
331.572	108.75
331.801	93.75
332.03	97.75
332.258	103.75
332.486	82.75
332.715	85.75
332.943	99.75
333.172	99.75
333.4	94.75
333.629	99.75
333.857	107.75
334.085	107.75
334.314	87.75
334.542	83.75
334.771	99.75
334.999	95.75
335.227	109.75
335.455	91.75
335.684	85.75
335.912	91.75
336.14	73.75
336.369	104.75
336.597	108.75
336.825	91.75
337.053	96.75
337.281	93.75
337.51	101.75
337.738	95.75
337.966	93.75
338.194	88.75
338.422	93.75
338.65	105.75
338.878	93.75
339.106	96.75
339.334	92.75
339.562	85.75
339.79	83.75
340.018	98.75
340.246	91.75
340.474	93.75
340.702	95.75
340.93	93.75
341.158	101.75
341.386	96.75
341.614	105.75
341.842	92.75
342.07	99.75
342.298	83.75
342.526	98.75
342.754	90.75
342.981	90.75
343.209	79.75
343.437	85.75
343.665	91.75
343.893	99.75
344.12	104.75
344.348	97.75
344.576	92.75
344.804	77.75
345.031	78.75
345.259	84.75
345.487	97.75
345.714	103.75
345.942	75.75
346.17	87.75
346.397	89.75
346.625	96.75
346.853	84.75
347.08	96.75
347.308	91.75
347.535	105.75
347.763	90.75
347.99	105.75
348.218	85.75
348.445	98.75
348.673	106.75
348.9	92.75
349.128	96.75
349.355	94.75
349.583	90.75
349.81	108.75
350.037	92.75
350.265	85.75
350.492	100.75
350.72	98.75
350.947	102.75
351.174	81.75
351.402	107.75
351.629	103.75
351.856	106.75
352.083	88.75
352.311	115.75
352.538	108.75
352.765	103.75
352.992	111.75
353.22	105.75
353.447	97.75
353.674	104.75
353.901	90.75
354.128	111.75
354.355	95.75
354.583	108.75
354.81	106.75
355.037	106.75
355.264	90.75
355.491	91.75
355.718	91.75
355.945	92.75
356.172	91.75
356.399	114.75
356.626	102.75
356.853	90.75
357.08	94.75
357.307	86.75
357.534	97.75
357.761	98.75
357.988	99.75
358.215	83.75
358.441	93.75
358.668	91.75
358.895	105.75
359.122	95.75
359.349	97.75
359.576	100.75
359.802	93.75
360.029	99.75
360.256	101.75
360.483	105.75
360.709	93.75
360.936	87.75
361.163	96.75
361.39	90.75
361.616	92.75
361.843	99.75
362.07	98.75
362.296	110.75
362.523	110.75
362.749	95.75
362.976	102.75
363.203	91.75
363.429	111.75
363.656	88.75
363.882	96.75
364.109	85.75
364.335	97.75
364.562	94.75
364.788	91.75
365.015	105.75
365.241	100.75
365.468	106.75
365.694	112.75
365.92	96.75
366.147	93.75
366.373	96.75
366.599	87.75
366.826	86.75
367.052	89.75
367.278	96.75
367.505	85.75
367.731	85.75
367.957	101.75
368.184	101.75
368.41	84.75
368.636	96.75
368.862	122.75
369.089	119.75
369.315	100.75
369.541	103.75
369.767	91.75
369.993	90.75
370.219	84.75
370.445	80.75
370.672	95.75
370.898	88.75
371.124	77.75
371.35	85.75
371.576	84.75
371.802	92.75
372.028	87.75
372.254	88.75
372.48	86.75
372.706	87.75
372.932	80.75
373.158	97.75
373.384	85.75
373.61	95.75
373.835	95.75
374.061	100.75
374.287	89.75
374.513	85.75
374.739	86.75
374.965	87.75
375.191	93.75
375.416	83.75
375.642	87.75
375.868	100.75
376.094	89.75
376.319	95.75
376.545	76.75
376.771	93.75
376.997	103.75
377.222	88.75
377.448	83.75
377.674	90.75
377.899	81.75
378.125	89.75
378.35	89.75
378.576	97.75
378.802	100.75
379.027	93.75
379.253	96.75
379.478	88.75
379.704	100.75
379.929	101.75
380.155	109.75
380.38	102.75
380.606	96.75
380.831	101.75
381.057	97.75
381.282	94.75
381.507	96.75
381.733	100.75
381.958	101.75
382.184	104.75
382.409	99.75
382.634	98.75
382.86	84.75
383.085	107.75
383.31	122.75
383.535	79.75
383.761	110.75
383.986	104.75
384.211	105.75
384.436	112.75
384.662	105.75
384.887	113.75
385.112	106.75
385.337	120.75
385.562	113.75
385.787	111.75
386.013	119.75
386.238	116.75
386.463	108.75
386.688	120.75
386.913	99.75
387.138	95.75
387.363	91.75
387.588	108.75
387.813	99.75
388.038	119.75
388.263	133.75
388.488	127.75
388.713	111.75
388.938	104.75
389.163	108.75
389.387	97.75
389.612	97.75
389.837	90.75
390.062	87.75
390.287	89.75
390.512	84.75
390.736	93.75
390.961	93.75
391.186	82.75
391.411	100.75
391.636	88.75
391.86	84.75
392.085	94.75
392.31	81.75
392.534	83.75
392.759	84.75
392.984	87.75
393.208	81.75
393.433	89.75
393.658	104.75
393.882	97.75
394.107	89.75
394.331	84.75
394.556	84.75
394.78	84.75
395.005	80.75
395.229	72.75
395.454	79.75
395.678	90.75
395.903	93.75
396.127	92.75
396.352	89.75
396.576	81.75
396.801	97.75
397.025	86.75
397.249	82.75
397.474	95.75
397.698	87.75
397.922	85.75
398.147	81.75
398.371	81.75
398.595	80.75
398.82	88.75
399.044	81.75
399.268	94.75
399.492	88.75
399.717	91.75
399.941	95.75
400.165	93.75
400.389	94.75
400.613	88.75
400.837	94.75
401.062	98.75
401.286	80.75
401.51	83.75
401.734	92.75
401.958	93.75
402.182	126.75
402.406	117.75
402.63	108.75
402.854	105.75
403.078	86.75
403.302	88.75
403.526	88.75
403.75	96.75
403.974	83.75
404.198	84.75
404.422	80.75
404.645	89.75
404.869	103.75
405.093	89.75
405.317	108.75
405.541	95.75
405.765	98.75
405.988	110.75
406.212	156.75
406.436	195.75
406.66	129.75
406.883	105.75
407.107	96.75
407.331	104.75
407.555	105.75
407.778	95.75
408.002	86.75
408.226	90.75
408.449	95.75
408.673	85.75
408.896	90.75
409.12	102.75
409.344	87.75
409.567	90.75
409.791	91.75
410.014	83.75
410.238	80.75
410.461	95.75
410.685	92.75
410.908	94.75
411.132	108.75
411.355	95.75
411.578	95.75
411.802	96.75
412.025	94.75
412.249	91.75
412.472	91.75
412.695	92.75
412.919	90.75
413.142	100.75
413.365	93.75
413.589	94.75
413.812	81.75
414.035	86.75
414.258	86.75
414.482	93.75
414.705	81.75
414.928	66.75
415.151	89.75
415.374	93.75
415.597	81.75
415.821	89.75
416.044	83.75
416.267	88.75
416.49	89.75
416.713	92.75
416.936	103.75
417.159	92.75
417.382	83.75
417.605	84.75
417.828	82.75
418.051	79.75
418.274	83.75
418.497	96.75
418.72	93.75
418.943	105.75
419.166	84.75
419.389	84.75
419.611	94.75
419.834	102.75
420.057	88.75
420.28	84.75
420.503	99.75
420.726	69.75
420.948	82.75
421.171	85.75
421.394	106.75
421.617	82.75
421.839	92.75
422.062	79.75
422.285	81.75
422.507	93.75
422.73	94.75
422.953	95.75
423.175	101.75
423.398	98.75
423.621	91.75
423.843	89.75
424.066	85.75
424.288	79.75
424.511	93.75
424.733	91.75
424.956	101.75
425.178	100.75
425.401	90.75
425.623	104.75
425.846	95.75
426.068	83.75
426.291	89.75
426.513	94.75
426.735	108.75
426.958	83.75
427.18	100.75
427.402	111.75
427.625	153.75
427.847	108.75
428.069	89.75
428.292	85.75
428.514	93.75
428.736	85.75
428.958	81.75
429.181	79.75
429.403	82.75
429.625	99.75
429.847	72.75
430.069	89.75
430.292	85.75
430.514	83.75
430.736	90.75
430.958	73.75
431.18	90.75
431.402	88.75
431.624	81.75
431.846	79.75
432.068	87.75
432.29	73.75
432.512	95.75
432.734	84.75
432.956	84.75
433.178	85.75
433.4	76.75
433.622	84.75
433.844	93.75
434.066	87.75
434.287	78.75
434.509	94.75
434.731	88.75
434.953	76.75
435.175	87.75
435.397	79.75
435.618	79.75
435.84	110.75
436.062	111.75
436.284	116.75
436.505	107.75
436.727	95.75
436.949	103.75
437.17	87.75
437.392	92.75
437.614	84.75
437.835	92.75
438.057	114.75
438.278	95.75
438.5	91.75
438.721	108.75
438.943	89.75
439.165	90.75
439.386	92.75
439.608	93.75
439.829	89.75
440.05	111.75
440.272	134.75
440.493	93.75
440.715	73.75
440.936	85.75
441.158	91.75
441.379	87.75
441.6	90.75
441.822	98.75
442.043	92.75
442.264	96.75
442.486	97.75
442.707	91.75
442.928	89.75
443.149	97.75
443.371	113.75
443.592	110.75
443.813	82.75
444.034	92.75
444.255	83.75
444.476	90.75
444.698	69.75
444.919	73.75
445.14	120.75
445.361	120.75
445.582	98.75
445.803	117.75
446.024	111.75
446.245	114.75
446.466	100.75
446.687	99.75
446.908	84.75
447.129	83.75
447.35	92.75
447.571	99.75
447.792	86.75
448.013	105.75
448.234	100.75
448.455	102.75
448.675	99.75
448.896	112.75
449.117	99.75
449.338	101.75
449.559	129.75
449.779	135.75
450	86.75
450.221	82.75
450.442	84.75
450.662	88.75
450.883	91.75
451.104	87.75
451.324	104.75
451.545	87.75
451.766	74.75
451.986	80.75
452.207	96.75
452.428	87.75
452.648	105.75
452.869	115.75
453.089	104.75
453.31	113.75
453.53	97.75
453.751	90.75
453.971	80.75
454.192	94.75
454.412	103.75
454.633	108.75
454.853	95.75
455.073	109.75
455.294	94.75
455.514	99.75
455.734	88.75
455.955	92.75
456.175	86.75
456.395	80.75
456.616	81.75
456.836	86.75
457.056	99.75
457.276	75.75
457.497	89.75
457.717	97.75
457.937	90.75
458.157	99.75
458.377	80.75
458.598	100.75
458.818	135.75
459.038	152.75
459.258	109.75
459.478	72.75
459.698	73.75
459.918	89.75
460.138	75.75
460.358	83.75
460.578	82.75
460.798	95.75
461.018	81.75
461.238	84.75
461.458	83.75
461.678	84.75
461.898	94.75
462.118	87.75
462.338	85.75
462.558	84.75
462.777	70.75
462.997	82.75
463.217	82.75
463.437	96.75
463.657	82.75
463.876	87.75
464.096	106.75
464.316	96.75
464.536	88.75
464.755	96.75
464.975	89.75
465.195	117.75
465.414	112.75
465.634	102.75
465.854	86.75
466.073	83.75
466.293	98.75
466.512	90.75
466.732	73.75
466.951	73.75
467.171	87.75
467.391	93.75
467.61	95.75
467.829	87.75
468.049	90.75
468.268	86.75
468.488	79.75
468.707	102.75
468.927	84.75
469.146	104.75
469.365	101.75
469.585	105.75
469.804	108.75
470.023	90.75
470.243	102.75
470.462	91.75
470.681	93.75
470.901	85.75
471.12	105.75
471.339	87.75
471.558	92.75
471.777	95.75
471.997	93.75
472.216	81.75
472.435	89.75
472.654	89.75
472.873	89.75
473.092	91.75
473.311	80.75
473.53	89.75
473.749	99.75
473.968	88.75
474.187	98.75
474.406	83.75
474.625	82.75
474.844	84.75
475.063	76.75
475.282	86.75
475.501	98.75
475.72	88.75
475.939	95.75
476.158	80.75
476.377	85.75
476.596	90.75
476.814	98.75
477.033	93.75
477.252	85.75
477.471	85.75
477.69	84.75
477.908	106.75
478.127	100.75
478.346	78.75
478.564	92.75
478.783	76.75
479.002	84.75
479.22	86.75
479.439	95.75
479.658	98.75
479.876	90.75
480.095	83.75
480.313	99.75
480.532	78.75
480.751	72.75
480.969	90.75
481.188	93.75
481.406	77.75
481.624	77.75
481.843	93.75
482.061	91.75
482.28	83.75
482.498	92.75
482.717	83.75
482.935	82.75
483.153	85.75
483.372	94.75
483.59	95.75
483.808	92.75
484.027	91.75
484.245	101.75
484.463	115.75
484.681	89.75
484.9	85.75
485.118	90.75
485.336	103.75
485.554	101.75
485.772	103.75
485.99	98.75
486.209	97.75
486.427	107.75
486.645	115.75
486.863	103.75
487.081	104.75
487.299	98.75
487.517	107.75
487.735	92.75
487.953	103.75
488.171	86.75
488.389	103.75
488.607	103.75
488.825	98.75
489.043	91.75
489.261	96.75
489.479	88.75
489.696	111.75
489.914	94.75
490.132	103.75
490.35	90.75
490.568	93.75
490.786	103.75
491.003	82.75
491.221	79.75
491.439	91.75
491.657	104.75
491.874	86.75
492.092	89.75
492.31	82.75
492.527	82.75
492.745	79.75
492.963	74.75
493.18	103.75
493.398	88.75
493.615	80.75
493.833	93.75
494.05	81.75
494.268	83.75
494.485	90.75
494.703	82.75
494.92	88.75
495.138	90.75
495.355	96.75
495.573	95.75
495.79	98.75
496.008	98.75
496.225	82.75
496.442	82.75
496.66	101.75
496.877	84.75
497.094	99.75
497.312	110.75
497.529	96.75
497.746	91.75
497.963	97.75
498.181	87.75
498.398	93.75
498.615	109.75
498.832	92.75
499.049	84.75
499.267	107.75
499.484	90.75
499.701	94.75
499.918	86.75
500.135	107.75
500.352	93.75
500.569	92.75
500.786	94.75
501.003	97.75
501.22	101.75
501.437	100.75
501.654	93.75
501.871	95.75
502.088	84.75
502.305	83.75
502.522	82.75
502.739	95.75
502.956	93.75
503.172	85.75
503.389	82.75
503.606	96.75
503.823	96.75
504.04	89.75
504.256	88.75
504.473	89.75
504.69	97.75
504.907	79.75
505.123	99.75
505.34	89.75
505.557	80.75
505.773	98.75
505.99	101.75
506.207	97.75
506.423	88.75
506.64	86.75
506.856	84.75
507.073	92.75
507.289	105.75
507.506	96.75
507.722	106.75
507.939	98.75
508.155	85.75
508.372	107.75
508.588	89.75
508.805	87.75
509.021	101.75
509.238	94.75
509.454	96.75
509.67	112.75
509.887	109.75
510.103	112.75
510.319	198.75
510.536	659.75
510.752	2035.75
510.968	571.75
511.184	147.75
511.401	101.75
511.617	91.75
511.833	99.75
512.049	103.75
512.265	90.75
512.481	81.75
512.698	78.75
512.914	91.75
513.13	90.75
513.346	101.75
513.562	87.75
513.778	97.75
513.994	80.75
514.21	103.75
514.426	102.75
514.642	114.75
514.858	121.75
515.074	146.75
515.29	385.75
515.506	1252.75
515.721	475.75
