Data from Uncirc_2008_H10_HRD10591_00064.txt Node
Date: Wed Jan 03 10:15:43 EST 2024
User: Yrep
Spectrometer: HR+D1059
Trigger mode: 1
Integration Time (sec): 1.000000E-1
Scans to average: 1
Electric dark correction enabled: true
Nonlinearity correction enabled: false
Boxcar width: 0
XAxis mode: Wavelengths
Number of Pixels in Spectrum: 2048
>>>>>Begin Spectral Data<<<<<
223.165	-7.94
223.4	-7.94
223.635	-7.94
223.869	-24.94
224.104	-29.94
224.338	-3.94
224.573	-10.94
224.808	-10.94
225.042	-10.94
225.277	-9.94
225.511	-19.94
225.746	5.06
225.98	17.06
226.215	17.06
226.449	16.06
226.683	28.06
226.918	19.06
227.152	27.06
227.387	37.06
227.621	43.06
227.856	56.06
228.09	39.06
228.324	47.06
228.559	48.06
228.793	47.06
229.027	58.06
229.262	63.06
229.496	67.06
229.73	96.06
229.964	75.06
230.199	69.06
230.433	84.06
230.667	92.06
230.901	80.06
231.136	70.06
231.37	75.06
231.604	78.06
231.838	76.06
232.072	76.06
232.306	85.06
232.541	71.06
232.775	78.06
233.009	79.06
233.243	70.06
233.477	70.06
233.711	96.06
233.945	85.06
234.179	93.06
234.413	77.06
234.647	91.06
234.881	76.06
235.115	72.06
235.349	70.06
235.583	72.06
235.817	65.06
236.051	79.06
236.285	78.06
236.519	85.06
236.753	78.06
236.987	68.06
237.221	78.06
237.455	70.06
237.689	82.06
237.922	80.06
238.156	98.06
238.39	54.06
238.624	74.06
238.858	91.06
239.091	89.06
239.325	81.06
239.559	73.06
239.793	82.06
240.027	79.06
240.26	78.06
240.494	63.06
240.728	72.06
240.961	78.06
241.195	77.06
241.429	60.06
241.662	73.06
241.896	55.06
242.13	85.06
242.363	80.06
242.597	69.06
242.83	88.06
243.064	81.06
243.298	85.06
243.531	78.06
243.765	73.06
243.998	77.06
244.232	85.06
244.465	90.06
244.699	61.06
244.932	73.06
245.166	70.06
245.399	81.06
245.633	79.06
245.866	69.06
246.099	76.06
246.333	83.06
246.566	71.06
246.8	74.06
247.033	87.06
247.266	79.06
247.5	77.06
247.733	81.06
247.966	85.06
248.2	77.06
248.433	75.06
248.666	70.06
248.899	81.06
249.133	67.06
249.366	100.06
249.599	93.06
249.832	72.06
250.066	70.06
250.299	78.06
250.532	70.06
250.765	76.06
250.998	85.06
251.231	70.06
251.465	85.06
251.698	80.06
251.931	71.06
252.164	78.06
252.397	75.06
252.63	67.06
252.863	75.06
253.096	76.06
253.329	65.06
253.562	72.06
253.795	74.06
254.028	74.06
254.261	70.06
254.494	85.06
254.727	81.06
254.96	80.06
255.193	80.06
255.426	70.06
255.659	88.06
255.892	89.06
256.124	83.06
256.357	81.06
256.59	78.06
256.823	78.06
257.056	85.06
257.289	84.06
257.521	77.06
257.754	69.06
257.987	77.06
258.22	71.06
258.452	72.06
258.685	81.06
258.918	76.06
259.151	74.06
259.383	81.06
259.616	68.06
259.849	83.06
260.081	93.06
260.314	72.06
260.547	78.06
260.779	69.06
261.012	84.06
261.244	81.06
261.477	84.06
261.71	86.06
261.942	91.06
262.175	99.06
262.407	76.06
262.64	89.06
262.872	75.06
263.105	75.06
263.337	75.06
263.57	82.06
263.802	88.06
264.035	74.06
264.267	80.06
264.499	76.06
264.732	70.06
264.964	75.06
265.197	75.06
265.429	79.06
265.661	88.06
265.894	81.06
266.126	77.06
266.358	86.06
266.591	90.06
266.823	96.06
267.055	81.06
267.287	89.06
267.52	77.06
267.752	91.06
267.984	78.06
268.216	85.06
268.448	91.06
268.681	86.06
268.913	91.06
269.145	92.06
269.377	92.06
269.609	80.06
269.841	75.06
270.073	80.06
270.306	75.06
270.538	69.06
270.77	81.06
271.002	93.06
271.234	92.06
271.466	76.06
271.698	83.06
271.93	70.06
272.162	73.06
272.394	73.06
272.626	84.06
272.858	78.06
273.09	81.06
273.322	91.06
273.553	81.06
273.785	89.06
274.017	76.06
274.249	90.06
274.481	87.06
274.713	85.06
274.945	86.06
275.176	89.06
275.408	79.06
275.64	76.06
275.872	72.06
276.104	88.06
276.335	92.06
276.567	94.06
276.799	101.06
277.031	97.06
277.262	96.06
277.494	85.06
277.726	82.06
277.957	85.06
278.189	76.06
278.421	71.06
278.652	85.06
278.884	91.06
279.115	84.06
279.347	81.06
279.579	66.06
279.81	79.06
280.042	86.06
280.273	94.06
280.505	100.06
280.736	76.06
280.968	89.06
281.199	100.06
281.431	87.06
281.662	82.06
281.894	68.06
282.125	95.06
282.356	99.06
282.588	110.06
282.819	94.06
283.051	81.06
283.282	87.06
283.513	89.06
283.745	96.06
283.976	88.06
284.207	89.06
284.439	86.06
284.67	88.06
284.901	90.06
285.132	90.06
285.364	77.06
285.595	77.06
285.826	81.06
286.057	80.06
286.288	74.06
286.52	85.06
286.751	81.06
286.982	77.06
287.213	85.06
287.444	80.06
287.675	76.06
287.906	107.06
288.138	89.06
288.369	91.06
288.6	82.06
288.831	81.06
289.062	76.06
289.293	83.06
289.524	88.06
289.755	80.06
289.986	84.06
290.217	90.06
290.448	89.06
290.679	89.06
290.91	93.06
291.141	76.06
291.371	87.06
291.602	86.06
291.833	90.06
292.064	85.06
292.295	90.06
292.526	92.06
292.757	91.06
292.987	78.06
293.218	74.06
293.449	88.06
293.68	73.06
293.91	73.06
294.141	86.06
294.372	79.06
294.603	73.06
294.833	87.06
295.064	93.06
295.295	91.06
295.525	88.06
295.756	107.06
295.987	103.06
296.217	109.06
296.448	133.06
296.679	98.06
296.909	95.06
297.14	89.06
297.37	83.06
297.601	81.06
297.831	72.06
298.062	81.06
298.292	70.06
298.523	93.06
298.753	85.06
298.984	80.06
299.214	84.06
299.445	89.06
299.675	88.06
299.905	104.06
300.136	87.06
300.366	93.06
300.597	76.06
300.827	97.06
301.057	93.06
301.288	91.06
301.518	102.06
301.748	82.06
301.979	93.06
302.209	84.06
302.439	78.06
302.669	83.06
302.9	92.06
303.13	95.06
303.36	93.06
303.59	94.06
303.82	95.06
304.051	83.06
304.281	88.06
304.511	98.06
304.741	78.06
304.971	91.06
305.201	86.06
305.431	86.06
305.661	85.06
305.891	91.06
306.121	82.06
306.352	97.06
306.582	101.06
306.812	92.06
307.042	73.06
307.272	87.06
307.502	84.06
307.731	93.06
307.961	96.06
308.191	91.06
308.421	78.06
308.651	89.06
308.881	89.06
309.111	95.06
309.341	94.06
309.571	91.06
309.8	87.06
310.03	95.06
310.26	98.06
310.49	87.06
310.72	88.06
310.949	96.06
311.179	81.06
311.409	87.06
311.639	84.06
311.868	97.06
312.098	88.06
312.328	91.06
312.557	96.06
312.787	100.06
313.017	99.06
313.246	102.06
313.476	100.06
313.706	86.06
313.935	103.06
314.165	90.06
314.394	108.06
314.624	105.06
314.853	92.06
315.083	83.06
315.312	83.06
315.542	86.06
315.771	83.06
316.001	86.06
316.23	106.06
316.46	98.06
316.689	85.06
316.919	94.06
317.148	86.06
317.377	97.06
317.607	86.06
317.836	99.06
318.065	84.06
318.295	85.06
318.524	102.06
318.753	93.06
318.983	97.06
319.212	99.06
319.441	100.06
319.67	103.06
319.9	112.06
320.129	94.06
320.358	95.06
320.587	109.06
320.816	86.06
321.046	109.06
321.275	98.06
321.504	97.06
321.733	106.06
321.962	91.06
322.191	94.06
322.42	106.06
322.649	114.06
322.878	101.06
323.108	108.06
323.337	111.06
323.566	112.06
323.795	125.06
324.024	179.06
324.253	344.06
324.482	718.06
324.71	1448.06
324.939	1866.06
325.168	693.06
325.397	235.06
325.626	139.06
325.855	112.06
326.084	125.06
326.313	144.06
326.542	152.06
326.77	218.06
326.999	425.06
327.228	803.06
327.457	1454.06
327.686	1147.06
327.914	320.06
328.143	172.06
328.372	127.06
328.6	114.06
328.829	121.06
329.058	102.06
329.287	119.06
329.515	104.06
329.744	106.06
329.972	98.06
330.201	99.06
330.43	96.06
330.658	102.06
330.887	136.06
331.115	115.06
331.344	108.06
331.572	117.06
331.801	103.06
332.03	85.06
332.258	97.06
332.486	80.06
332.715	87.06
332.943	91.06
333.172	103.06
333.4	100.06
333.629	101.06
333.857	92.06
334.085	94.06
334.314	87.06
334.542	85.06
334.771	92.06
334.999	84.06
335.227	88.06
335.455	93.06
335.684	92.06
335.912	103.06
336.14	86.06
336.369	96.06
336.597	100.06
336.825	105.06
337.053	85.06
337.281	92.06
337.51	84.06
337.738	83.06
337.966	78.06
338.194	93.06
338.422	82.06
338.65	94.06
338.878	97.06
339.106	92.06
339.334	92.06
339.562	88.06
339.79	91.06
340.018	86.06
340.246	88.06
340.474	79.06
340.702	89.06
340.93	96.06
341.158	83.06
341.386	96.06
341.614	85.06
341.842	93.06
342.07	88.06
342.298	80.06
342.526	99.06
342.754	93.06
342.981	91.06
343.209	86.06
343.437	83.06
343.665	95.06
343.893	95.06
344.12	100.06
344.348	86.06
344.576	77.06
344.804	90.06
345.031	91.06
345.259	83.06
345.487	103.06
345.714	88.06
345.942	80.06
346.17	97.06
346.397	89.06
346.625	86.06
346.853	87.06
347.08	92.06
347.308	89.06
347.535	102.06
347.763	105.06
347.99	85.06
348.218	97.06
348.445	89.06
348.673	94.06
348.9	97.06
349.128	97.06
349.355	95.06
349.583	91.06
349.81	103.06
350.037	93.06
350.265	91.06
350.492	94.06
350.72	94.06
350.947	90.06
351.174	108.06
351.402	98.06
351.629	99.06
351.856	102.06
352.083	100.06
352.311	102.06
352.538	91.06
352.765	106.06
352.992	89.06
353.22	108.06
353.447	88.06
353.674	100.06
353.901	96.06
354.128	101.06
354.355	90.06
354.583	106.06
354.81	96.06
355.037	108.06
355.264	91.06
355.491	96.06
355.718	92.06
355.945	84.06
356.172	92.06
356.399	101.06
356.626	94.06
356.853	90.06
357.08	94.06
357.307	89.06
357.534	95.06
357.761	95.06
357.988	83.06
358.215	98.06
358.441	91.06
358.668	85.06
358.895	84.06
359.122	101.06
359.349	100.06
359.576	78.06
359.802	82.06
360.029	100.06
360.256	109.06
360.483	89.06
360.709	75.06
360.936	74.06
361.163	79.06
361.39	80.06
361.616	99.06
361.843	86.06
362.07	88.06
362.296	94.06
362.523	89.06
362.749	87.06
362.976	89.06
363.203	90.06
363.429	96.06
363.656	93.06
363.882	79.06
364.109	87.06
364.335	78.06
364.562	77.06
364.788	83.06
365.015	92.06
365.241	79.06
365.468	97.06
365.694	104.06
365.92	92.06
366.147	78.06
366.373	89.06
366.599	93.06
366.826	88.06
367.052	89.06
367.278	101.06
367.505	86.06
367.731	91.06
367.957	96.06
368.184	89.06
368.41	91.06
368.636	100.06
368.862	100.06
369.089	114.06
369.315	110.06
369.541	94.06
369.767	98.06
369.993	99.06
370.219	88.06
370.445	69.06
370.672	83.06
370.898	90.06
371.124	96.06
371.35	88.06
371.576	85.06
371.802	90.06
372.028	85.06
372.254	105.06
372.48	102.06
372.706	95.06
372.932	100.06
373.158	84.06
373.384	91.06
373.61	96.06
373.835	88.06
374.061	67.06
374.287	82.06
374.513	92.06
374.739	88.06
374.965	76.06
375.191	90.06
375.416	90.06
375.642	88.06
375.868	99.06
376.094	98.06
376.319	94.06
376.545	92.06
376.771	96.06
376.997	90.06
377.222	87.06
377.448	81.06
377.674	80.06
377.899	90.06
378.125	74.06
378.35	72.06
378.576	81.06
378.802	102.06
379.027	91.06
379.253	93.06
379.478	97.06
379.704	95.06
379.929	88.06
380.155	92.06
380.38	101.06
380.606	99.06
380.831	98.06
381.057	106.06
381.282	93.06
381.507	90.06
381.733	91.06
381.958	92.06
382.184	96.06
382.409	89.06
382.634	97.06
382.86	101.06
383.085	88.06
383.31	95.06
383.535	97.06
383.761	104.06
383.986	93.06
384.211	105.06
384.436	107.06
384.662	93.06
384.887	88.06
385.112	88.06
385.337	104.06
385.562	96.06
385.787	95.06
386.013	95.06
386.238	108.06
386.463	104.06
386.688	104.06
386.913	101.06
387.138	96.06
387.363	96.06
387.588	92.06
387.813	101.06
388.038	81.06
388.263	113.06
388.488	96.06
388.713	91.06
388.938	90.06
389.163	93.06
389.387	99.06
389.612	88.06
389.837	78.06
390.062	85.06
390.287	95.06
390.512	90.06
390.736	88.06
390.961	97.06
391.186	86.06
391.411	93.06
391.636	91.06
391.86	80.06
392.085	108.06
392.31	74.06
392.534	87.06
392.759	81.06
392.984	96.06
393.208	89.06
393.433	95.06
393.658	86.06
393.882	86.06
394.107	85.06
394.331	84.06
394.556	91.06
394.78	84.06
395.005	98.06
395.229	90.06
395.454	95.06
395.678	73.06
395.903	71.06
396.127	75.06
396.352	91.06
396.576	84.06
396.801	89.06
397.025	81.06
397.249	92.06
397.474	100.06
397.698	75.06
397.922	91.06
398.147	82.06
398.371	98.06
398.595	88.06
398.82	92.06
399.044	94.06
399.268	94.06
399.492	78.06
399.717	94.06
399.941	80.06
400.165	89.06
400.389	91.06
400.613	89.06
400.837	79.06
401.062	95.06
401.286	96.06
401.51	88.06
401.734	102.06
401.958	93.06
402.182	109.06
402.406	141.06
402.63	113.06
402.854	94.06
403.078	104.06
403.302	81.06
403.526	90.06
403.75	88.06
403.974	81.06
404.198	75.06
404.422	90.06
404.645	88.06
404.869	88.06
405.093	85.06
405.317	88.06
405.541	85.06
405.765	100.06
405.988	92.06
406.212	148.06
406.436	204.06
406.66	142.06
406.883	96.06
407.107	77.06
407.331	91.06
407.555	95.06
407.778	88.06
408.002	85.06
408.226	95.06
408.449	96.06
408.673	97.06
408.896	80.06
409.12	82.06
409.344	92.06
409.567	68.06
409.791	86.06
410.014	88.06
410.238	91.06
410.461	85.06
410.685	96.06
410.908	104.06
411.132	104.06
411.355	103.06
411.578	89.06
411.802	83.06
412.025	78.06
412.249	96.06
412.472	87.06
412.695	86.06
412.919	64.06
413.142	78.06
413.365	81.06
413.589	71.06
413.812	102.06
414.035	99.06
414.258	84.06
414.482	82.06
414.705	91.06
414.928	87.06
415.151	93.06
415.374	103.06
415.597	91.06
415.821	91.06
416.044	78.06
416.267	101.06
416.49	87.06
416.713	80.06
416.936	89.06
417.159	85.06
417.382	79.06
417.605	77.06
417.828	91.06
418.051	92.06
418.274	89.06
418.497	85.06
418.72	78.06
418.943	85.06
419.166	94.06
419.389	83.06
419.611	90.06
419.834	87.06
420.057	85.06
420.28	84.06
420.503	92.06
420.726	80.06
420.948	87.06
421.171	74.06
421.394	86.06
421.617	87.06
421.839	94.06
422.062	92.06
422.285	86.06
422.507	100.06
422.73	92.06
422.953	107.06
423.175	106.06
423.398	91.06
423.621	74.06
423.843	86.06
424.066	78.06
424.288	88.06
424.511	96.06
424.733	97.06
424.956	93.06
425.178	105.06
425.401	100.06
425.623	89.06
425.846	92.06
426.068	91.06
426.291	88.06
426.513	100.06
426.735	98.06
426.958	89.06
427.18	107.06
427.402	136.06
427.625	125.06
427.847	119.06
428.069	102.06
428.292	93.06
428.514	85.06
428.736	95.06
428.958	72.06
429.181	94.06
429.403	84.06
429.625	78.06
429.847	81.06
430.069	90.06
430.292	89.06
430.514	87.06
430.736	90.06
430.958	89.06
431.18	75.06
431.402	93.06
431.624	81.06
431.846	80.06
432.068	85.06
432.29	91.06
432.512	94.06
432.734	90.06
432.956	99.06
433.178	100.06
433.4	103.06
433.622	86.06
433.844	80.06
434.066	86.06
434.287	84.06
434.509	93.06
434.731	91.06
434.953	79.06
435.175	94.06
435.397	77.06
435.618	103.06
435.84	84.06
436.062	103.06
436.284	103.06
436.505	93.06
436.727	85.06
436.949	92.06
437.17	82.06
437.392	89.06
437.614	71.06
437.835	101.06
438.057	115.06
438.278	102.06
438.5	103.06
438.721	113.06
438.943	93.06
439.165	94.06
439.386	90.06
439.608	83.06
439.829	90.06
440.05	117.06
440.272	137.06
440.493	112.06
440.715	104.06
440.936	83.06
441.158	73.06
441.379	90.06
441.6	86.06
441.822	94.06
442.043	91.06
442.264	93.06
442.486	80.06
442.707	93.06
442.928	95.06
443.149	112.06
443.371	132.06
443.592	91.06
443.813	98.06
444.034	91.06
444.255	81.06
444.476	90.06
444.698	91.06
444.919	89.06
445.14	122.06
445.361	109.06
445.582	112.06
445.803	110.06
446.024	115.06
446.245	131.06
446.466	112.06
446.687	87.06
446.908	90.06
447.129	83.06
447.35	85.06
447.571	92.06
447.792	86.06
448.013	105.06
448.234	100.06
448.455	96.06
448.675	97.06
448.896	119.06
449.117	103.06
449.338	96.06
449.559	136.06
449.779	115.06
450	98.06
450.221	89.06
450.442	87.06
450.662	102.06
450.883	93.06
451.104	105.06
451.324	84.06
451.545	91.06
451.766	91.06
451.986	94.06
452.207	83.06
452.428	83.06
452.648	80.06
452.869	101.06
453.089	106.06
453.31	104.06
453.53	88.06
453.751	95.06
453.971	104.06
454.192	100.06
454.412	95.06
454.633	78.06
454.853	81.06
455.073	102.06
455.294	94.06
455.514	90.06
455.734	87.06
455.955	80.06
456.175	89.06
456.395	87.06
456.616	79.06
456.836	90.06
457.056	90.06
457.276	83.06
457.497	76.06
457.717	90.06
457.937	85.06
458.157	89.06
458.377	97.06
458.598	101.06
458.818	122.06
459.038	132.06
459.258	97.06
459.478	85.06
459.698	83.06
459.918	81.06
460.138	83.06
460.358	96.06
460.578	79.06
460.798	82.06
461.018	84.06
461.238	77.06
461.458	89.06
461.678	69.06
461.898	73.06
462.118	88.06
462.338	75.06
462.558	88.06
462.777	78.06
462.997	84.06
463.217	92.06
463.437	92.06
463.657	81.06
463.876	85.06
464.096	82.06
464.316	88.06
464.536	81.06
464.755	75.06
464.975	94.06
465.195	146.06
465.414	146.06
465.634	99.06
465.854	91.06
466.073	81.06
466.293	96.06
466.512	86.06
466.732	96.06
466.951	98.06
467.171	90.06
467.391	92.06
467.61	93.06
467.829	89.06
468.049	88.06
468.268	80.06
468.488	80.06
468.707	83.06
468.927	69.06
469.146	87.06
469.365	84.06
469.585	84.06
469.804	92.06
470.023	103.06
470.243	90.06
470.462	84.06
470.681	95.06
470.901	90.06
471.12	81.06
471.339	80.06
471.558	87.06
471.777	80.06
471.997	91.06
472.216	87.06
472.435	77.06
472.654	86.06
472.873	74.06
473.092	99.06
473.311	88.06
473.53	84.06
473.749	76.06
473.968	100.06
474.187	90.06
474.406	98.06
474.625	81.06
474.844	83.06
475.063	83.06
475.282	93.06
475.501	89.06
475.72	90.06
475.939	85.06
476.158	73.06
476.377	100.06
476.596	92.06
476.814	83.06
477.033	98.06
477.252	88.06
477.471	99.06
477.69	77.06
477.908	88.06
478.127	93.06
478.346	89.06
478.564	81.06
478.783	90.06
479.002	107.06
479.22	100.06
479.439	99.06
479.658	102.06
479.876	76.06
480.095	83.06
480.313	81.06
480.532	78.06
480.751	91.06
480.969	70.06
481.188	94.06
481.406	95.06
481.624	95.06
481.843	98.06
482.061	84.06
482.28	82.06
482.498	73.06
482.717	88.06
482.935	91.06
483.153	80.06
483.372	108.06
483.59	92.06
483.808	84.06
484.027	98.06
484.245	99.06
484.463	107.06
484.681	91.06
484.9	91.06
485.118	79.06
485.336	95.06
485.554	90.06
485.772	98.06
485.99	101.06
486.209	112.06
486.427	99.06
486.645	101.06
486.863	96.06
487.081	92.06
487.299	84.06
487.517	87.06
487.735	86.06
487.953	79.06
488.171	106.06
488.389	87.06
488.607	92.06
488.825	94.06
489.043	68.06
489.261	90.06
489.479	94.06
489.696	87.06
489.914	100.06
490.132	79.06
490.35	90.06
490.568	77.06
490.786	88.06
491.003	84.06
491.221	67.06
491.439	95.06
491.657	102.06
491.874	92.06
492.092	91.06
492.31	81.06
492.527	95.06
492.745	79.06
492.963	74.06
493.18	95.06
493.398	98.06
493.615	107.06
493.833	97.06
494.05	96.06
494.268	94.06
494.485	85.06
494.703	88.06
494.92	85.06
495.138	86.06
495.355	78.06
495.573	95.06
495.79	82.06
496.008	87.06
496.225	83.06
496.442	82.06
496.66	97.06
496.877	84.06
497.094	97.06
497.312	83.06
497.529	81.06
497.746	100.06
497.963	86.06
498.181	83.06
498.398	94.06
498.615	117.06
498.832	92.06
499.049	102.06
499.267	83.06
499.484	84.06
499.701	90.06
499.918	93.06
500.135	76.06
500.352	83.06
500.569	81.06
500.786	88.06
501.003	102.06
501.22	90.06
501.437	92.06
501.654	91.06
501.871	93.06
502.088	93.06
502.305	83.06
502.522	69.06
502.739	73.06
502.956	84.06
503.172	106.06
503.389	104.06
503.606	108.06
503.823	104.06
504.04	101.06
504.256	96.06
504.473	90.06
504.69	79.06
504.907	82.06
505.123	92.06
505.34	100.06
505.557	78.06
505.773	92.06
505.99	84.06
506.207	83.06
506.423	80.06
506.64	78.06
506.856	81.06
507.073	86.06
507.289	102.06
507.506	92.06
507.722	97.06
507.939	87.06
508.155	90.06
508.372	86.06
508.588	80.06
508.805	81.06
509.021	96.06
509.238	103.06
509.454	88.06
509.67	100.06
509.887	100.06
510.103	112.06
510.319	199.06
510.536	683.06
510.752	2163.06
510.968	623.06
511.184	164.06
511.401	91.06
511.617	96.06
511.833	80.06
512.049	86.06
512.265	80.06
512.481	86.06
512.698	100.06
512.914	97.06
513.13	77.06
513.346	86.06
513.562	93.06
513.778	92.06
513.994	91.06
514.21	84.06
514.426	110.06
514.642	127.06
514.858	123.06
515.074	157.06
515.29	401.06
515.506	1214.06
515.721	484.06
515.937	161.06
516.153	101.06
516.369	101.06
516.585	94.06
516.801	75.06
