Data from Uncirc_2008_H10_HRD10591_00031.txt Node
Date: Wed Jan 03 10:15:37 EST 2024
User: Yrep
Spectrometer: HR+D1059
Trigger mode: 1
Integration Time (sec): 1.000000E-1
Scans to average: 1
Electric dark correction enabled: true
Nonlinearity correction enabled: false
Boxcar width: 0
XAxis mode: Wavelengths
Number of Pixels in Spectrum: 2048
>>>>>Begin Spectral Data<<<<<
223.165	-11.12
223.4	-11.12
223.635	-11.12
223.869	-19.12
224.104	-21.12
224.338	-18.12
224.573	-30.12
224.808	-4.12
225.042	-0.12
225.277	-2.12
225.511	-13.12
225.746	6.88
225.98	9.88
226.215	3.88
226.449	10.88
226.683	26.88
226.918	18.88
227.152	41.88
227.387	32.88
227.621	39.88
227.856	35.88
228.09	51.88
228.324	47.88
228.559	53.88
228.793	60.88
229.027	65.88
229.262	50.88
229.496	65.88
229.73	88.88
229.964	69.88
230.199	74.88
230.433	65.88
230.667	80.88
230.901	61.88
231.136	71.88
231.37	71.88
231.604	74.88
231.838	68.88
232.072	74.88
232.306	81.88
232.541	77.88
232.775	85.88
233.009	77.88
233.243	84.88
233.477	73.88
233.711	83.88
233.945	64.88
234.179	72.88
234.413	71.88
234.647	61.88
234.881	62.88
235.115	87.88
235.349	80.88
235.583	90.88
235.817	87.88
236.051	79.88
236.285	70.88
236.519	78.88
236.753	69.88
236.987	65.88
237.221	66.88
237.455	70.88
237.689	63.88
237.922	71.88
238.156	65.88
238.39	68.88
238.624	74.88
238.858	77.88
239.091	68.88
239.325	84.88
239.559	77.88
239.793	75.88
240.027	62.88
240.26	67.88
240.494	69.88
240.728	79.88
240.961	75.88
241.195	77.88
241.429	58.88
241.662	76.88
241.896	67.88
242.13	78.88
242.363	78.88
242.597	77.88
242.83	76.88
243.064	57.88
243.298	55.88
243.531	81.88
243.765	84.88
243.998	66.88
244.232	76.88
244.465	79.88
244.699	65.88
244.932	69.88
245.166	91.88
245.399	77.88
245.633	71.88
245.866	68.88
246.099	70.88
246.333	85.88
246.566	74.88
246.8	57.88
247.033	65.88
247.266	72.88
247.5	84.88
247.733	65.88
247.966	70.88
248.2	72.88
248.433	73.88
248.666	69.88
248.899	81.88
249.133	72.88
249.366	86.88
249.599	100.88
249.832	80.88
250.066	72.88
250.299	78.88
250.532	76.88
250.765	70.88
250.998	85.88
251.231	76.88
251.465	86.88
251.698	70.88
251.931	74.88
252.164	77.88
252.397	77.88
252.63	79.88
252.863	72.88
253.096	83.88
253.329	87.88
253.562	91.88
253.795	80.88
254.028	81.88
254.261	78.88
254.494	75.88
254.727	75.88
254.96	74.88
255.193	87.88
255.426	79.88
255.659	79.88
255.892	85.88
256.124	69.88
256.357	62.88
256.59	75.88
256.823	77.88
257.056	74.88
257.289	92.88
257.521	65.88
257.754	61.88
257.987	83.88
258.22	60.88
258.452	80.88
258.685	73.88
258.918	70.88
259.151	71.88
259.383	78.88
259.616	71.88
259.849	72.88
260.081	77.88
260.314	76.88
260.547	73.88
260.779	89.88
261.012	78.88
261.244	81.88
261.477	95.88
261.71	90.88
261.942	107.88
262.175	97.88
262.407	97.88
262.64	84.88
262.872	85.88
263.105	79.88
263.337	77.88
263.57	79.88
263.802	85.88
264.035	82.88
264.267	86.88
264.499	84.88
264.732	83.88
264.964	71.88
265.197	81.88
265.429	87.88
265.661	88.88
265.894	83.88
266.126	87.88
266.358	80.88
266.591	84.88
266.823	71.88
267.055	94.88
267.287	80.88
267.52	69.88
267.752	85.88
267.984	66.88
268.216	73.88
268.448	77.88
268.681	70.88
268.913	98.88
269.145	93.88
269.377	79.88
269.609	83.88
269.841	75.88
270.073	81.88
270.306	80.88
270.538	76.88
270.77	79.88
271.002	73.88
271.234	68.88
271.466	70.88
271.698	78.88
271.93	77.88
272.162	75.88
272.394	92.88
272.626	87.88
272.858	88.88
273.09	80.88
273.322	96.88
273.553	72.88
273.785	78.88
274.017	75.88
274.249	68.88
274.481	74.88
274.713	88.88
274.945	75.88
275.176	75.88
275.408	75.88
275.64	98.88
275.872	81.88
276.104	86.88
276.335	81.88
276.567	79.88
276.799	101.88
277.031	90.88
277.262	92.88
277.494	78.88
277.726	88.88
277.957	77.88
278.189	71.88
278.421	77.88
278.652	82.88
278.884	77.88
279.115	77.88
279.347	90.88
279.579	74.88
279.81	78.88
280.042	84.88
280.273	87.88
280.505	68.88
280.736	83.88
280.968	89.88
281.199	89.88
281.431	80.88
281.662	75.88
281.894	83.88
282.125	92.88
282.356	104.88
282.588	130.88
282.819	113.88
283.051	82.88
283.282	87.88
283.513	80.88
283.745	78.88
283.976	78.88
284.207	77.88
284.439	88.88
284.67	80.88
284.901	91.88
285.132	70.88
285.364	86.88
285.595	76.88
285.826	82.88
286.057	102.88
286.288	80.88
286.52	77.88
286.751	88.88
286.982	83.88
287.213	88.88
287.444	74.88
287.675	82.88
287.906	80.88
288.138	81.88
288.369	87.88
288.6	91.88
288.831	84.88
289.062	92.88
289.293	88.88
289.524	73.88
289.755	78.88
289.986	76.88
290.217	84.88
290.448	86.88
290.679	90.88
290.91	86.88
291.141	91.88
291.371	90.88
291.602	87.88
291.833	74.88
292.064	88.88
292.295	90.88
292.526	73.88
292.757	82.88
292.987	78.88
293.218	79.88
293.449	81.88
293.68	96.88
293.91	90.88
294.141	103.88
294.372	81.88
294.603	84.88
294.833	86.88
295.064	96.88
295.295	87.88
295.525	84.88
295.756	98.88
295.987	88.88
296.217	119.88
296.448	120.88
296.679	77.88
296.909	81.88
297.14	82.88
297.37	91.88
297.601	74.88
297.831	66.88
298.062	75.88
298.292	99.88
298.523	84.88
298.753	78.88
298.984	86.88
299.214	87.88
299.445	88.88
299.675	87.88
299.905	84.88
300.136	84.88
300.366	100.88
300.597	82.88
300.827	78.88
301.057	80.88
301.288	103.88
301.518	94.88
301.748	95.88
301.979	105.88
302.209	97.88
302.439	81.88
302.669	82.88
302.9	83.88
303.13	89.88
303.36	88.88
303.59	92.88
303.82	85.88
304.051	93.88
304.281	87.88
304.511	98.88
304.741	85.88
304.971	81.88
305.201	79.88
305.431	75.88
305.661	89.88
305.891	84.88
306.121	100.88
306.352	82.88
306.582	107.88
306.812	83.88
307.042	98.88
307.272	94.88
307.502	94.88
307.731	75.88
307.961	78.88
308.191	77.88
308.421	86.88
308.651	80.88
308.881	90.88
309.111	90.88
309.341	84.88
309.571	88.88
309.8	98.88
310.03	88.88
310.26	99.88
310.49	89.88
310.72	99.88
310.949	93.88
311.179	108.88
311.409	88.88
311.639	94.88
311.868	88.88
312.098	82.88
312.328	89.88
312.557	95.88
312.787	86.88
313.017	102.88
313.246	80.88
313.476	79.88
313.706	99.88
313.935	87.88
314.165	89.88
314.394	89.88
314.624	84.88
314.853	93.88
315.083	82.88
315.312	91.88
315.542	83.88
315.771	85.88
316.001	88.88
316.23	98.88
316.46	89.88
316.689	89.88
316.919	83.88
317.148	96.88
317.377	86.88
317.607	91.88
317.836	83.88
318.065	105.88
318.295	86.88
318.524	84.88
318.753	92.88
318.983	97.88
319.212	88.88
319.441	99.88
319.67	102.88
319.9	101.88
320.129	97.88
320.358	89.88
320.587	83.88
320.816	99.88
321.046	101.88
321.275	89.88
321.504	91.88
321.733	92.88
321.962	91.88
322.191	88.88
322.42	94.88
322.649	91.88
322.878	99.88
323.108	108.88
323.337	115.88
323.566	134.88
323.795	126.88
324.024	178.88
324.253	332.88
324.482	699.88
324.71	1393.88
324.939	1825.88
325.168	689.88
325.397	216.88
325.626	113.88
325.855	115.88
326.084	115.88
326.313	121.88
326.542	135.88
326.77	187.88
326.999	408.88
327.228	797.88
327.457	1412.88
327.686	1128.88
327.914	320.88
328.143	157.88
328.372	135.88
328.6	122.88
328.829	119.88
329.058	124.88
329.287	110.88
329.515	97.88
329.744	71.88
329.972	93.88
330.201	81.88
330.43	107.88
330.658	108.88
330.887	118.88
331.115	122.88
331.344	95.88
331.572	102.88
331.801	87.88
332.03	100.88
332.258	96.88
332.486	83.88
332.715	82.88
332.943	91.88
333.172	92.88
333.4	93.88
333.629	76.88
333.857	100.88
334.085	94.88
334.314	102.88
334.542	86.88
334.771	76.88
334.999	92.88
335.227	81.88
335.455	78.88
335.684	88.88
335.912	94.88
336.14	97.88
336.369	93.88
336.597	95.88
336.825	88.88
337.053	85.88
337.281	78.88
337.51	82.88
337.738	90.88
337.966	79.88
338.194	88.88
338.422	87.88
338.65	86.88
338.878	94.88
339.106	90.88
339.334	95.88
339.562	93.88
339.79	90.88
340.018	87.88
340.246	82.88
340.474	90.88
340.702	101.88
340.93	94.88
341.158	84.88
341.386	86.88
341.614	80.88
341.842	86.88
342.07	92.88
342.298	89.88
342.526	84.88
342.754	87.88
342.981	84.88
343.209	80.88
343.437	97.88
343.665	78.88
343.893	79.88
344.12	99.88
344.348	94.88
344.576	85.88
344.804	93.88
345.031	85.88
345.259	89.88
345.487	82.88
345.714	79.88
345.942	93.88
346.17	81.88
346.397	91.88
346.625	87.88
346.853	88.88
347.08	102.88
347.308	93.88
347.535	115.88
347.763	90.88
347.99	96.88
348.218	94.88
348.445	104.88
348.673	95.88
348.9	90.88
349.128	97.88
349.355	84.88
349.583	74.88
349.81	87.88
350.037	93.88
350.265	89.88
350.492	103.88
350.72	88.88
350.947	88.88
351.174	105.88
351.402	104.88
351.629	90.88
351.856	98.88
352.083	93.88
352.311	101.88
352.538	105.88
352.765	100.88
352.992	104.88
353.22	94.88
353.447	91.88
353.674	90.88
353.901	94.88
354.128	88.88
354.355	88.88
354.583	99.88
354.81	102.88
355.037	89.88
355.264	85.88
355.491	93.88
355.718	81.88
355.945	91.88
356.172	108.88
356.399	91.88
356.626	88.88
356.853	86.88
357.08	89.88
357.307	82.88
357.534	89.88
357.761	97.88
357.988	80.88
358.215	100.88
358.441	108.88
358.668	103.88
358.895	86.88
359.122	67.88
359.349	105.88
359.576	86.88
359.802	94.88
360.029	106.88
360.256	111.88
360.483	97.88
360.709	94.88
360.936	85.88
361.163	82.88
361.39	82.88
361.616	81.88
361.843	92.88
362.07	87.88
362.296	97.88
362.523	94.88
362.749	77.88
362.976	83.88
363.203	88.88
363.429	77.88
363.656	94.88
363.882	87.88
364.109	92.88
364.335	95.88
364.562	94.88
364.788	84.88
365.015	104.88
365.241	106.88
365.468	90.88
365.694	113.88
365.92	99.88
366.147	82.88
366.373	86.88
366.599	77.88
366.826	98.88
367.052	71.88
367.278	100.88
367.505	81.88
367.731	81.88
367.957	71.88
368.184	89.88
368.41	92.88
368.636	93.88
368.862	93.88
369.089	101.88
369.315	79.88
369.541	80.88
369.767	98.88
369.993	94.88
370.219	76.88
370.445	85.88
370.672	85.88
370.898	93.88
371.124	96.88
371.35	85.88
371.576	78.88
371.802	99.88
372.028	84.88
372.254	88.88
372.48	85.88
372.706	74.88
372.932	81.88
373.158	78.88
373.384	92.88
373.61	84.88
373.835	92.88
374.061	88.88
374.287	86.88
374.513	76.88
374.739	87.88
374.965	87.88
375.191	88.88
375.416	92.88
375.642	75.88
375.868	74.88
376.094	84.88
376.319	82.88
376.545	97.88
376.771	84.88
376.997	93.88
377.222	90.88
377.448	101.88
377.674	88.88
377.899	85.88
378.125	90.88
378.35	89.88
378.576	76.88
378.802	91.88
379.027	97.88
379.253	102.88
379.478	83.88
379.704	82.88
379.929	83.88
380.155	82.88
380.38	94.88
380.606	93.88
380.831	97.88
381.057	110.88
381.282	85.88
381.507	91.88
381.733	100.88
381.958	100.88
382.184	82.88
382.409	99.88
382.634	109.88
382.86	89.88
383.085	91.88
383.31	100.88
383.535	89.88
383.761	85.88
383.986	105.88
384.211	93.88
384.436	96.88
384.662	85.88
384.887	104.88
385.112	97.88
385.337	89.88
385.562	101.88
385.787	99.88
386.013	101.88
386.238	105.88
386.463	86.88
386.688	103.88
386.913	93.88
387.138	83.88
387.363	99.88
387.588	82.88
387.813	94.88
388.038	102.88
388.263	107.88
388.488	105.88
388.713	87.88
388.938	91.88
389.163	100.88
389.387	89.88
389.612	103.88
389.837	86.88
390.062	84.88
390.287	82.88
390.512	93.88
390.736	99.88
390.961	77.88
391.186	103.88
391.411	90.88
391.636	89.88
391.86	90.88
392.085	92.88
392.31	90.88
392.534	78.88
392.759	91.88
392.984	83.88
393.208	85.88
393.433	89.88
393.658	75.88
393.882	77.88
394.107	85.88
394.331	87.88
394.556	82.88
394.78	87.88
395.005	53.88
395.229	77.88
395.454	94.88
395.678	77.88
395.903	82.88
396.127	93.88
396.352	95.88
396.576	82.88
396.801	85.88
397.025	82.88
397.249	90.88
397.474	101.88
397.698	66.88
397.922	59.88
398.147	87.88
398.371	90.88
398.595	88.88
398.82	80.88
399.044	77.88
399.268	85.88
399.492	85.88
399.717	80.88
399.941	76.88
400.165	91.88
400.389	94.88
400.613	72.88
400.837	92.88
401.062	81.88
401.286	82.88
401.51	82.88
401.734	83.88
401.958	82.88
402.182	113.88
402.406	138.88
402.63	117.88
402.854	94.88
403.078	97.88
403.302	85.88
403.526	80.88
403.75	88.88
403.974	86.88
404.198	84.88
404.422	75.88
404.645	75.88
404.869	82.88
405.093	75.88
405.317	85.88
405.541	89.88
405.765	93.88
405.988	102.88
406.212	149.88
406.436	203.88
406.66	140.88
406.883	93.88
407.107	85.88
407.331	96.88
407.555	98.88
407.778	86.88
408.002	93.88
408.226	83.88
408.449	75.88
408.673	77.88
408.896	97.88
409.12	98.88
409.344	73.88
409.567	89.88
409.791	93.88
410.014	102.88
410.238	79.88
410.461	79.88
410.685	91.88
410.908	91.88
411.132	100.88
411.355	82.88
411.578	92.88
411.802	71.88
412.025	85.88
412.249	86.88
412.472	82.88
412.695	90.88
412.919	70.88
413.142	78.88
413.365	82.88
413.589	63.88
413.812	83.88
414.035	93.88
414.258	90.88
414.482	75.88
414.705	84.88
414.928	86.88
415.151	87.88
415.374	89.88
415.597	88.88
415.821	74.88
416.044	79.88
416.267	81.88
416.49	83.88
416.713	83.88
416.936	63.88
417.159	77.88
417.382	87.88
417.605	99.88
417.828	73.88
418.051	93.88
418.274	82.88
418.497	83.88
418.72	86.88
418.943	76.88
419.166	78.88
419.389	92.88
419.611	90.88
419.834	92.88
420.057	84.88
420.28	77.88
420.503	76.88
420.726	77.88
420.948	81.88
421.171	95.88
421.394	86.88
421.617	99.88
421.839	79.88
422.062	69.88
422.285	97.88
422.507	96.88
422.73	97.88
422.953	85.88
423.175	81.88
423.398	85.88
423.621	91.88
423.843	79.88
424.066	73.88
424.288	90.88
424.511	90.88
424.733	92.88
424.956	106.88
425.178	87.88
425.401	103.88
425.623	93.88
425.846	90.88
426.068	95.88
426.291	83.88
426.513	88.88
426.735	67.88
426.958	94.88
427.18	107.88
427.402	107.88
427.625	134.88
427.847	104.88
428.069	88.88
428.292	78.88
428.514	72.88
428.736	83.88
428.958	78.88
429.181	88.88
429.403	72.88
429.625	76.88
429.847	84.88
430.069	98.88
430.292	80.88
430.514	83.88
430.736	75.88
430.958	67.88
431.18	79.88
431.402	90.88
431.624	88.88
431.846	75.88
432.068	66.88
432.29	87.88
432.512	88.88
432.734	91.88
432.956	77.88
433.178	85.88
433.4	93.88
433.622	79.88
433.844	90.88
434.066	104.88
434.287	90.88
434.509	93.88
434.731	82.88
434.953	86.88
435.175	98.88
435.397	90.88
435.618	96.88
435.84	94.88
436.062	110.88
436.284	88.88
436.505	80.88
436.727	91.88
436.949	73.88
437.17	86.88
437.392	86.88
437.614	92.88
437.835	90.88
438.057	108.88
438.278	93.88
438.5	93.88
438.721	95.88
438.943	87.88
439.165	79.88
439.386	88.88
439.608	100.88
439.829	80.88
440.05	110.88
440.272	134.88
440.493	104.88
440.715	84.88
440.936	69.88
441.158	86.88
441.379	92.88
441.6	68.88
441.822	77.88
442.043	82.88
442.264	98.88
442.486	90.88
442.707	80.88
442.928	97.88
443.149	116.88
443.371	121.88
443.592	114.88
443.813	86.88
444.034	90.88
444.255	73.88
444.476	87.88
444.698	84.88
444.919	83.88
445.14	111.88
445.361	110.88
445.582	110.88
445.803	102.88
446.024	119.88
446.245	115.88
446.466	109.88
446.687	93.88
446.908	90.88
447.129	72.88
447.35	82.88
447.571	95.88
447.792	81.88
448.013	71.88
448.234	87.88
448.455	93.88
448.675	115.88
448.896	113.88
449.117	87.88
449.338	90.88
449.559	111.88
449.779	110.88
450	89.88
450.221	84.88
450.442	85.88
450.662	90.88
450.883	112.88
451.104	101.88
451.324	81.88
451.545	79.88
451.766	84.88
451.986	88.88
452.207	83.88
452.428	93.88
452.648	92.88
452.869	103.88
453.089	112.88
453.31	96.88
453.53	89.88
453.751	65.88
453.971	99.88
454.192	111.88
454.412	86.88
454.633	75.88
454.853	99.88
455.073	74.88
455.294	68.88
455.514	88.88
455.734	89.88
455.955	85.88
456.175	82.88
456.395	71.88
456.616	90.88
456.836	83.88
457.056	80.88
457.276	80.88
457.497	84.88
457.717	73.88
457.937	84.88
458.157	75.88
458.377	73.88
458.598	88.88
458.818	121.88
459.038	137.88
459.258	114.88
459.478	87.88
459.698	86.88
459.918	97.88
460.138	93.88
460.358	79.88
460.578	72.88
460.798	75.88
461.018	82.88
461.238	84.88
461.458	88.88
461.678	89.88
461.898	71.88
462.118	66.88
462.338	60.88
462.558	84.88
462.777	65.88
462.997	85.88
463.217	91.88
463.437	93.88
463.657	102.88
463.876	95.88
464.096	89.88
464.316	85.88
464.536	98.88
464.755	82.88
464.975	92.88
465.195	130.88
465.414	123.88
465.634	89.88
465.854	77.88
466.073	72.88
466.293	92.88
466.512	98.88
466.732	92.88
466.951	85.88
467.171	89.88
467.391	85.88
467.61	90.88
467.829	92.88
468.049	100.88
468.268	91.88
468.488	98.88
468.707	96.88
468.927	78.88
469.146	73.88
469.365	78.88
469.585	78.88
469.804	88.88
470.023	89.88
470.243	86.88
470.462	81.88
470.681	102.88
470.901	93.88
471.12	73.88
471.339	83.88
471.558	71.88
471.777	76.88
471.997	82.88
472.216	89.88
472.435	85.88
472.654	70.88
472.873	86.88
473.092	91.88
473.311	90.88
473.53	76.88
473.749	84.88
473.968	101.88
474.187	84.88
474.406	97.88
474.625	64.88
474.844	92.88
475.063	87.88
475.282	77.88
475.501	74.88
475.72	86.88
475.939	76.88
476.158	65.88
476.377	85.88
476.596	76.88
476.814	81.88
477.033	82.88
477.252	77.88
477.471	77.88
477.69	78.88
477.908	93.88
478.127	89.88
478.346	75.88
478.564	97.88
478.783	91.88
479.002	93.88
479.22	90.88
479.439	94.88
479.658	94.88
479.876	94.88
480.095	74.88
480.313	89.88
480.532	85.88
480.751	82.88
480.969	81.88
481.188	103.88
481.406	103.88
481.624	77.88
481.843	76.88
482.061	83.88
482.28	87.88
482.498	82.88
482.717	82.88
482.935	78.88
483.153	91.88
483.372	77.88
483.59	71.88
483.808	86.88
484.027	93.88
484.245	93.88
484.463	81.88
484.681	93.88
484.9	86.88
485.118	76.88
485.336	99.88
485.554	94.88
485.772	89.88
485.99	105.88
486.209	114.88
486.427	88.88
486.645	116.88
486.863	103.88
487.081	107.88
487.299	87.88
487.517	88.88
487.735	69.88
487.953	85.88
488.171	92.88
488.389	96.88
488.607	102.88
488.825	92.88
489.043	85.88
489.261	77.88
489.479	72.88
489.696	79.88
489.914	80.88
490.132	73.88
490.35	74.88
490.568	87.88
490.786	79.88
491.003	81.88
491.221	92.88
491.439	95.88
491.657	74.88
491.874	85.88
492.092	82.88
492.31	86.88
492.527	87.88
492.745	89.88
492.963	83.88
493.18	91.88
493.398	91.88
493.615	86.88
493.833	91.88
494.05	90.88
494.268	91.88
494.485	95.88
494.703	81.88
494.92	72.88
495.138	87.88
495.355	81.88
495.573	75.88
495.79	78.88
496.008	102.88
496.225	87.88
496.442	85.88
496.66	90.88
496.877	87.88
497.094	87.88
497.312	82.88
497.529	96.88
497.746	97.88
497.963	85.88
498.181	96.88
498.398	99.88
498.615	109.88
498.832	100.88
499.049	84.88
499.267	95.88
499.484	82.88
499.701	83.88
499.918	95.88
500.135	82.88
500.352	88.88
500.569	89.88
500.786	94.88
501.003	89.88
501.22	91.88
501.437	72.88
501.654	86.88
501.871	97.88
502.088	75.88
502.305	77.88
502.522	84.88
502.739	90.88
502.956	85.88
503.172	85.88
503.389	97.88
503.606	104.88
503.823	81.88
504.04	89.88
504.256	88.88
504.473	77.88
504.69	77.88
504.907	101.88
505.123	91.88
505.34	80.88
505.557	83.88
505.773	84.88
505.99	93.88
506.207	85.88
506.423	81.88
506.64	87.88
506.856	86.88
507.073	82.88
507.289	76.88
507.506	77.88
507.722	103.88
507.939	96.88
508.155	79.88
508.372	86.88
508.588	76.88
508.805	83.88
509.021	100.88
509.238	97.88
509.454	94.88
509.67	105.88
509.887	91.88
510.103	133.88
510.319	185.88
510.536	705.88
510.752	2212.88
510.968	624.88
511.184	147.88
511.401	98.88
511.617	108.88
511.833	77.88
512.049	86.88
512.265	107.88
512.481	81.88
512.698	88.88
512.914	81.88
513.13	82.88
513.346	89.88
513.562	85.88
513.778	90.88
513.994	93.88
514.21	95.88
514.426	114.88
514.642	114.88
514.858	125.88
515.074	147.88
515.29	406.88
515.506	1294.88
515.721	493.88
515.937	131.88
516.153	105.88
516.369	107.88
516.585	101.88
516.801	78.88
517.016	85.88
517.232	89.88
517.448	79.88
