Data from Uncirc_2008_H10_HRD10591_00042.txt Node
Date: Wed Jan 03 10:15:39 EST 2024
User: Yrep
Spectrometer: HR+D1059
Trigger mode: 1
Integration Time (sec): 1.000000E-1
Scans to average: 1
Electric dark correction enabled: true
Nonlinearity correction enabled: false
Boxcar width: 0
XAxis mode: Wavelengths
Number of Pixels in Spectrum: 2048
>>>>>Begin Spectral Data<<<<<
223.165	-26.88
223.4	-26.88
223.635	-26.88
223.869	-8.88
224.104	-8.88
224.338	-3.88
224.573	-10.88
224.808	-7.88
225.042	-10.88
225.277	-8.88
225.511	-15.88
225.746	-11.88
225.98	9.12
226.215	8.12
226.449	19.12
226.683	10.12
226.918	37.12
227.152	31.12
227.387	37.12
227.621	41.12
227.856	51.12
228.09	38.12
228.324	51.12
228.559	67.12
228.793	55.12
229.027	65.12
229.262	70.12
229.496	72.12
229.73	93.12
229.964	99.12
230.199	77.12
230.433	87.12
230.667	91.12
230.901	75.12
231.136	74.12
231.37	64.12
231.604	71.12
231.838	70.12
232.072	78.12
232.306	81.12
232.541	74.12
232.775	93.12
233.009	91.12
233.243	60.12
233.477	72.12
233.711	83.12
233.945	91.12
234.179	85.12
234.413	81.12
234.647	89.12
234.881	65.12
235.115	75.12
235.349	82.12
235.583	69.12
235.817	83.12
236.051	87.12
236.285	72.12
236.519	77.12
236.753	92.12
236.987	74.12
237.221	95.12
237.455	81.12
237.689	80.12
237.922	80.12
238.156	74.12
238.39	79.12
238.624	89.12
238.858	84.12
239.091	79.12
239.325	85.12
239.559	85.12
239.793	79.12
240.027	78.12
240.26	85.12
240.494	61.12
240.728	80.12
240.961	81.12
241.195	59.12
241.429	85.12
241.662	77.12
241.896	74.12
242.13	77.12
242.363	77.12
242.597	74.12
242.83	72.12
243.064	82.12
243.298	81.12
243.531	82.12
243.765	74.12
243.998	71.12
244.232	74.12
244.465	78.12
244.699	75.12
244.932	80.12
245.166	84.12
245.399	68.12
245.633	87.12
245.866	75.12
246.099	72.12
246.333	82.12
246.566	92.12
246.8	71.12
247.033	82.12
247.266	84.12
247.5	74.12
247.733	81.12
247.966	89.12
248.2	81.12
248.433	86.12
248.666	78.12
248.899	78.12
249.133	90.12
249.366	94.12
249.599	93.12
249.832	68.12
250.066	92.12
250.299	85.12
250.532	68.12
250.765	89.12
250.998	84.12
251.231	74.12
251.465	69.12
251.698	80.12
251.931	78.12
252.164	84.12
252.397	86.12
252.63	95.12
252.863	79.12
253.096	72.12
253.329	89.12
253.562	72.12
253.795	86.12
254.028	81.12
254.261	78.12
254.494	69.12
254.727	73.12
254.96	69.12
255.193	75.12
255.426	95.12
255.659	71.12
255.892	74.12
256.124	74.12
256.357	75.12
256.59	85.12
256.823	79.12
257.056	79.12
257.289	89.12
257.521	88.12
257.754	98.12
257.987	84.12
258.22	74.12
258.452	81.12
258.685	73.12
258.918	80.12
259.151	85.12
259.383	82.12
259.616	82.12
259.849	77.12
260.081	73.12
260.314	84.12
260.547	89.12
260.779	74.12
261.012	99.12
261.244	83.12
261.477	88.12
261.71	95.12
261.942	98.12
262.175	101.12
262.407	85.12
262.64	85.12
262.872	80.12
263.105	86.12
263.337	94.12
263.57	76.12
263.802	85.12
264.035	87.12
264.267	80.12
264.499	69.12
264.732	75.12
264.964	71.12
265.197	95.12
265.429	81.12
265.661	62.12
265.894	83.12
266.126	76.12
266.358	78.12
266.591	80.12
266.823	89.12
267.055	71.12
267.287	83.12
267.52	79.12
267.752	81.12
267.984	74.12
268.216	63.12
268.448	92.12
268.681	90.12
268.913	91.12
269.145	94.12
269.377	86.12
269.609	72.12
269.841	66.12
270.073	89.12
270.306	87.12
270.538	78.12
270.77	79.12
271.002	82.12
271.234	85.12
271.466	79.12
271.698	76.12
271.93	98.12
272.162	93.12
272.394	79.12
272.626	89.12
272.858	87.12
273.09	89.12
273.322	85.12
273.553	66.12
273.785	89.12
274.017	79.12
274.249	81.12
274.481	89.12
274.713	77.12
274.945	79.12
275.176	89.12
275.408	84.12
275.64	81.12
275.872	82.12
276.104	99.12
276.335	95.12
276.567	93.12
276.799	93.12
277.031	86.12
277.262	102.12
277.494	96.12
277.726	86.12
277.957	89.12
278.189	80.12
278.421	95.12
278.652	86.12
278.884	81.12
279.115	92.12
279.347	66.12
279.579	97.12
279.81	65.12
280.042	96.12
280.273	90.12
280.505	93.12
280.736	83.12
280.968	91.12
281.199	84.12
281.431	75.12
281.662	88.12
281.894	83.12
282.125	105.12
282.356	109.12
282.588	119.12
282.819	112.12
283.051	78.12
283.282	87.12
283.513	91.12
283.745	91.12
283.976	88.12
284.207	76.12
284.439	72.12
284.67	84.12
284.901	82.12
285.132	103.12
285.364	80.12
285.595	92.12
285.826	85.12
286.057	90.12
286.288	91.12
286.52	106.12
286.751	103.12
286.982	91.12
287.213	104.12
287.444	89.12
287.675	85.12
287.906	88.12
288.138	87.12
288.369	76.12
288.6	100.12
288.831	85.12
289.062	85.12
289.293	85.12
289.524	91.12
289.755	87.12
289.986	99.12
290.217	98.12
290.448	89.12
290.679	86.12
290.91	84.12
291.141	86.12
291.371	66.12
291.602	80.12
291.833	85.12
292.064	89.12
292.295	76.12
292.526	88.12
292.757	89.12
292.987	85.12
293.218	92.12
293.449	73.12
293.68	87.12
293.91	67.12
294.141	91.12
294.372	82.12
294.603	91.12
294.833	103.12
295.064	85.12
295.295	82.12
295.525	95.12
295.756	90.12
295.987	95.12
296.217	120.12
296.448	118.12
296.679	87.12
296.909	87.12
297.14	91.12
297.37	77.12
297.601	77.12
297.831	74.12
298.062	81.12
298.292	81.12
298.523	89.12
298.753	85.12
298.984	88.12
299.214	91.12
299.445	86.12
299.675	83.12
299.905	85.12
300.136	97.12
300.366	99.12
300.597	90.12
300.827	82.12
301.057	99.12
301.288	96.12
301.518	96.12
301.748	68.12
301.979	97.12
302.209	81.12
302.439	93.12
302.669	77.12
302.9	77.12
303.13	80.12
303.36	90.12
303.59	104.12
303.82	90.12
304.051	97.12
304.281	95.12
304.511	94.12
304.741	87.12
304.971	78.12
305.201	84.12
305.431	97.12
305.661	78.12
305.891	82.12
306.121	99.12
306.352	120.12
306.582	104.12
306.812	82.12
307.042	88.12
307.272	97.12
307.502	94.12
307.731	80.12
307.961	83.12
308.191	91.12
308.421	87.12
308.651	98.12
308.881	105.12
309.111	92.12
309.341	89.12
309.571	85.12
309.8	106.12
310.03	93.12
310.26	89.12
310.49	91.12
310.72	96.12
310.949	103.12
311.179	96.12
311.409	91.12
311.639	87.12
311.868	89.12
312.098	103.12
312.328	86.12
312.557	85.12
312.787	97.12
313.017	95.12
313.246	89.12
313.476	94.12
313.706	74.12
313.935	93.12
314.165	96.12
314.394	101.12
314.624	95.12
314.853	99.12
315.083	103.12
315.312	84.12
315.542	83.12
315.771	81.12
316.001	95.12
316.23	86.12
316.46	94.12
316.689	95.12
316.919	112.12
317.148	90.12
317.377	110.12
317.607	81.12
317.836	85.12
318.065	82.12
318.295	83.12
318.524	86.12
318.753	97.12
318.983	98.12
319.212	105.12
319.441	101.12
319.67	91.12
319.9	92.12
320.129	90.12
320.358	104.12
320.587	97.12
320.816	91.12
321.046	97.12
321.275	92.12
321.504	92.12
321.733	95.12
321.962	98.12
322.191	89.12
322.42	91.12
322.649	111.12
322.878	119.12
323.108	121.12
323.337	124.12
323.566	122.12
323.795	138.12
324.024	176.12
324.253	359.12
324.482	781.12
324.71	1547.12
324.939	1996.12
325.168	763.12
325.397	223.12
325.626	153.12
325.855	127.12
326.084	125.12
326.313	126.12
326.542	164.12
326.77	224.12
326.999	430.12
327.228	865.12
327.457	1569.12
327.686	1250.12
327.914	354.12
328.143	180.12
328.372	126.12
328.6	117.12
328.829	114.12
329.058	121.12
329.287	117.12
329.515	109.12
329.744	104.12
329.972	92.12
330.201	94.12
330.43	109.12
330.658	94.12
330.887	133.12
331.115	110.12
331.344	101.12
331.572	98.12
331.801	105.12
332.03	90.12
332.258	95.12
332.486	98.12
332.715	90.12
332.943	92.12
333.172	85.12
333.4	88.12
333.629	102.12
333.857	100.12
334.085	93.12
334.314	96.12
334.542	106.12
334.771	90.12
334.999	96.12
335.227	99.12
335.455	92.12
335.684	81.12
335.912	101.12
336.14	97.12
336.369	92.12
336.597	92.12
336.825	94.12
337.053	85.12
337.281	93.12
337.51	81.12
337.738	94.12
337.966	89.12
338.194	85.12
338.422	90.12
338.65	83.12
338.878	79.12
339.106	91.12
339.334	94.12
339.562	98.12
339.79	93.12
340.018	88.12
340.246	88.12
340.474	90.12
340.702	85.12
340.93	102.12
341.158	88.12
341.386	105.12
341.614	87.12
341.842	85.12
342.07	85.12
342.298	92.12
342.526	86.12
342.754	84.12
342.981	93.12
343.209	80.12
343.437	88.12
343.665	76.12
343.893	81.12
344.12	97.12
344.348	86.12
344.576	84.12
344.804	83.12
345.031	91.12
345.259	102.12
345.487	83.12
345.714	94.12
345.942	97.12
346.17	88.12
346.397	105.12
346.625	89.12
346.853	95.12
347.08	90.12
347.308	85.12
347.535	91.12
347.763	99.12
347.99	94.12
348.218	109.12
348.445	88.12
348.673	80.12
348.9	81.12
349.128	99.12
349.355	98.12
349.583	102.12
349.81	102.12
350.037	89.12
350.265	95.12
350.492	83.12
350.72	95.12
350.947	96.12
351.174	102.12
351.402	106.12
351.629	89.12
351.856	87.12
352.083	105.12
352.311	94.12
352.538	106.12
352.765	113.12
352.992	111.12
353.22	93.12
353.447	103.12
353.674	98.12
353.901	96.12
354.128	95.12
354.355	104.12
354.583	107.12
354.81	102.12
355.037	98.12
355.264	101.12
355.491	97.12
355.718	88.12
355.945	90.12
356.172	90.12
356.399	95.12
356.626	101.12
356.853	89.12
357.08	96.12
357.307	83.12
357.534	100.12
357.761	85.12
357.988	85.12
358.215	90.12
358.441	93.12
358.668	95.12
358.895	98.12
359.122	83.12
359.349	93.12
359.576	94.12
359.802	91.12
360.029	104.12
360.256	96.12
360.483	95.12
360.709	96.12
360.936	109.12
361.163	96.12
361.39	93.12
361.616	101.12
361.843	84.12
362.07	99.12
362.296	94.12
362.523	87.12
362.749	92.12
362.976	90.12
363.203	98.12
363.429	97.12
363.656	99.12
363.882	76.12
364.109	90.12
364.335	93.12
364.562	88.12
364.788	79.12
365.015	103.12
365.241	98.12
365.468	97.12
365.694	96.12
365.92	104.12
366.147	84.12
366.373	90.12
366.599	90.12
366.826	94.12
367.052	97.12
367.278	90.12
367.505	88.12
367.731	90.12
367.957	98.12
368.184	103.12
368.41	94.12
368.636	109.12
368.862	113.12
369.089	102.12
369.315	89.12
369.541	96.12
369.767	90.12
369.993	102.12
370.219	93.12
370.445	80.12
370.672	86.12
370.898	90.12
371.124	103.12
371.35	91.12
371.576	102.12
371.802	81.12
372.028	103.12
372.254	92.12
372.48	77.12
372.706	85.12
372.932	82.12
373.158	91.12
373.384	102.12
373.61	97.12
373.835	92.12
374.061	78.12
374.287	90.12
374.513	90.12
374.739	94.12
374.965	79.12
375.191	85.12
375.416	89.12
375.642	86.12
375.868	108.12
376.094	75.12
376.319	74.12
376.545	90.12
376.771	80.12
376.997	75.12
377.222	81.12
377.448	81.12
377.674	90.12
377.899	89.12
378.125	97.12
378.35	90.12
378.576	87.12
378.802	104.12
379.027	81.12
379.253	94.12
379.478	102.12
379.704	99.12
379.929	89.12
380.155	71.12
380.38	81.12
380.606	101.12
380.831	77.12
381.057	101.12
381.282	90.12
381.507	93.12
381.733	100.12
381.958	101.12
382.184	78.12
382.409	93.12
382.634	101.12
382.86	98.12
383.085	92.12
383.31	102.12
383.535	96.12
383.761	95.12
383.986	98.12
384.211	87.12
384.436	95.12
384.662	91.12
384.887	102.12
385.112	96.12
385.337	100.12
385.562	112.12
385.787	110.12
386.013	107.12
386.238	109.12
386.463	102.12
386.688	95.12
386.913	91.12
387.138	106.12
387.363	104.12
387.588	101.12
387.813	93.12
388.038	101.12
388.263	113.12
388.488	117.12
388.713	87.12
388.938	92.12
389.163	100.12
389.387	108.12
389.612	97.12
389.837	85.12
390.062	88.12
390.287	88.12
390.512	89.12
390.736	96.12
390.961	94.12
391.186	100.12
391.411	100.12
391.636	99.12
391.86	70.12
392.085	89.12
392.31	73.12
392.534	80.12
392.759	92.12
392.984	83.12
393.208	69.12
393.433	90.12
393.658	93.12
393.882	98.12
394.107	89.12
394.331	80.12
394.556	76.12
394.78	78.12
395.005	99.12
395.229	82.12
395.454	85.12
395.678	89.12
395.903	75.12
396.127	83.12
396.352	87.12
396.576	77.12
396.801	89.12
397.025	87.12
397.249	78.12
397.474	89.12
397.698	79.12
397.922	97.12
398.147	82.12
398.371	76.12
398.595	99.12
398.82	97.12
399.044	89.12
399.268	88.12
399.492	98.12
399.717	80.12
399.941	81.12
400.165	83.12
400.389	98.12
400.613	89.12
400.837	83.12
401.062	97.12
401.286	86.12
401.51	91.12
401.734	84.12
401.958	102.12
402.182	137.12
402.406	137.12
402.63	118.12
402.854	94.12
403.078	99.12
403.302	77.12
403.526	82.12
403.75	91.12
403.974	89.12
404.198	83.12
404.422	83.12
404.645	82.12
404.869	90.12
405.093	77.12
405.317	97.12
405.541	86.12
405.765	94.12
405.988	127.12
406.212	163.12
406.436	209.12
406.66	150.12
406.883	91.12
407.107	79.12
407.331	96.12
407.555	101.12
407.778	85.12
408.002	99.12
408.226	85.12
408.449	98.12
408.673	88.12
408.896	87.12
409.12	91.12
409.344	99.12
409.567	90.12
409.791	92.12
410.014	94.12
410.238	94.12
410.461	104.12
410.685	101.12
410.908	90.12
411.132	101.12
411.355	91.12
411.578	87.12
411.802	82.12
412.025	92.12
412.249	89.12
412.472	72.12
412.695	95.12
412.919	78.12
413.142	83.12
413.365	92.12
413.589	93.12
413.812	89.12
414.035	82.12
414.258	91.12
414.482	90.12
414.705	83.12
414.928	102.12
415.151	84.12
415.374	89.12
415.597	88.12
415.821	93.12
416.044	82.12
416.267	88.12
416.49	84.12
416.713	85.12
416.936	98.12
417.159	81.12
417.382	82.12
417.605	87.12
417.828	98.12
418.051	75.12
418.274	86.12
418.497	88.12
418.72	77.12
418.943	91.12
419.166	88.12
419.389	80.12
419.611	66.12
419.834	90.12
420.057	96.12
420.28	91.12
420.503	79.12
420.726	89.12
420.948	82.12
421.171	94.12
421.394	99.12
421.617	100.12
421.839	97.12
422.062	76.12
422.285	89.12
422.507	106.12
422.73	97.12
422.953	84.12
423.175	97.12
423.398	90.12
423.621	88.12
423.843	83.12
424.066	87.12
424.288	96.12
424.511	99.12
424.733	82.12
424.956	101.12
425.178	94.12
425.401	95.12
425.623	95.12
425.846	89.12
426.068	89.12
426.291	86.12
426.513	91.12
426.735	85.12
426.958	98.12
427.18	96.12
427.402	119.12
427.625	163.12
427.847	119.12
428.069	98.12
428.292	75.12
428.514	75.12
428.736	87.12
428.958	90.12
429.181	80.12
429.403	77.12
429.625	83.12
429.847	91.12
430.069	82.12
430.292	78.12
430.514	87.12
430.736	88.12
430.958	73.12
431.18	79.12
431.402	92.12
431.624	85.12
431.846	71.12
432.068	81.12
432.29	73.12
432.512	88.12
432.734	92.12
432.956	86.12
433.178	92.12
433.4	101.12
433.622	101.12
433.844	82.12
434.066	80.12
434.287	86.12
434.509	85.12
434.731	83.12
434.953	96.12
435.175	90.12
435.397	89.12
435.618	86.12
435.84	104.12
436.062	115.12
436.284	105.12
436.505	83.12
436.727	98.12
436.949	97.12
437.17	92.12
437.392	85.12
437.614	96.12
437.835	106.12
438.057	96.12
438.278	106.12
438.5	91.12
438.721	121.12
438.943	101.12
439.165	105.12
439.386	87.12
439.608	89.12
439.829	88.12
440.05	113.12
440.272	133.12
440.493	96.12
440.715	87.12
440.936	94.12
441.158	86.12
441.379	82.12
441.6	86.12
441.822	94.12
442.043	82.12
442.264	97.12
442.486	96.12
442.707	98.12
442.928	111.12
443.149	121.12
443.371	113.12
443.592	88.12
443.813	90.12
444.034	111.12
444.255	92.12
444.476	87.12
444.698	99.12
444.919	97.12
445.14	114.12
445.361	112.12
445.582	109.12
445.803	120.12
446.024	141.12
446.245	123.12
446.466	117.12
446.687	100.12
446.908	95.12
447.129	82.12
447.35	94.12
447.571	97.12
447.792	95.12
448.013	99.12
448.234	103.12
448.455	80.12
448.675	93.12
448.896	107.12
449.117	92.12
449.338	87.12
449.559	137.12
449.779	143.12
450	106.12
450.221	103.12
450.442	83.12
450.662	89.12
450.883	87.12
451.104	111.12
451.324	92.12
451.545	90.12
451.766	93.12
451.986	78.12
452.207	84.12
452.428	82.12
452.648	89.12
452.869	109.12
453.089	108.12
453.31	107.12
453.53	93.12
453.751	90.12
453.971	111.12
454.192	109.12
454.412	91.12
454.633	98.12
454.853	92.12
455.073	75.12
455.294	93.12
455.514	105.12
455.734	91.12
455.955	84.12
456.175	85.12
456.395	81.12
456.616	94.12
456.836	94.12
457.056	88.12
457.276	84.12
457.497	83.12
457.717	85.12
457.937	89.12
458.157	87.12
458.377	89.12
458.598	102.12
458.818	132.12
459.038	139.12
459.258	110.12
459.478	98.12
459.698	86.12
459.918	78.12
460.138	83.12
460.358	86.12
460.578	88.12
460.798	99.12
461.018	103.12
461.238	86.12
461.458	95.12
461.678	95.12
461.898	95.12
462.118	87.12
462.338	92.12
462.558	83.12
462.777	82.12
462.997	90.12
463.217	85.12
463.437	89.12
463.657	67.12
463.876	89.12
464.096	89.12
464.316	86.12
464.536	103.12
464.755	89.12
464.975	105.12
465.195	142.12
465.414	141.12
465.634	94.12
465.854	85.12
466.073	90.12
466.293	91.12
466.512	88.12
466.732	86.12
466.951	86.12
467.171	93.12
467.391	98.12
467.61	102.12
467.829	92.12
468.049	93.12
468.268	88.12
468.488	83.12
468.707	87.12
468.927	85.12
469.146	84.12
469.365	73.12
469.585	91.12
469.804	88.12
470.023	87.12
470.243	82.12
470.462	91.12
470.681	122.12
470.901	92.12
471.12	89.12
471.339	87.12
471.558	73.12
471.777	83.12
471.997	77.12
472.216	87.12
472.435	85.12
472.654	87.12
472.873	90.12
473.092	91.12
473.311	83.12
473.53	91.12
473.749	80.12
473.968	78.12
474.187	97.12
474.406	86.12
474.625	92.12
474.844	104.12
475.063	101.12
475.282	88.12
475.501	76.12
475.72	93.12
475.939	82.12
476.158	76.12
476.377	83.12
476.596	85.12
476.814	96.12
477.033	89.12
477.252	99.12
477.471	90.12
477.69	83.12
477.908	88.12
478.127	82.12
478.346	86.12
478.564	95.12
478.783	99.12
479.002	89.12
479.22	88.12
479.439	104.12
479.658	93.12
479.876	94.12
480.095	96.12
480.313	85.12
480.532	84.12
480.751	88.12
480.969	99.12
481.188	91.12
481.406	88.12
481.624	81.12
481.843	85.12
482.061	73.12
482.28	80.12
482.498	91.12
482.717	90.12
482.935	79.12
483.153	89.12
483.372	106.12
483.59	101.12
483.808	85.12
484.027	84.12
484.245	97.12
484.463	91.12
484.681	84.12
484.9	101.12
485.118	92.12
485.336	89.12
485.554	93.12
485.772	105.12
485.99	95.12
486.209	112.12
486.427	102.12
486.645	100.12
486.863	113.12
487.081	94.12
487.299	87.12
487.517	83.12
487.735	92.12
487.953	90.12
488.171	76.12
488.389	102.12
488.607	103.12
488.825	95.12
489.043	93.12
489.261	82.12
489.479	82.12
489.696	79.12
489.914	93.12
490.132	80.12
490.35	76.12
490.568	89.12
490.786	87.12
491.003	80.12
491.221	89.12
491.439	91.12
491.657	96.12
491.874	78.12
492.092	81.12
492.31	95.12
492.527	73.12
492.745	78.12
492.963	75.12
493.18	105.12
493.398	98.12
493.615	103.12
493.833	85.12
494.05	88.12
494.268	82.12
494.485	98.12
494.703	91.12
494.92	85.12
495.138	81.12
495.355	80.12
495.573	90.12
495.79	86.12
496.008	98.12
496.225	94.12
496.442	84.12
496.66	86.12
496.877	100.12
497.094	94.12
497.312	90.12
497.529	105.12
497.746	84.12
497.963	87.12
498.181	77.12
498.398	81.12
498.615	108.12
498.832	96.12
499.049	85.12
499.267	96.12
499.484	84.12
499.701	87.12
499.918	78.12
500.135	82.12
500.352	87.12
500.569	100.12
500.786	98.12
501.003	90.12
501.22	89.12
501.437	88.12
501.654	98.12
501.871	112.12
502.088	96.12
502.305	88.12
502.522	83.12
502.739	82.12
502.956	93.12
503.172	99.12
503.389	93.12
503.606	105.12
503.823	107.12
504.04	100.12
504.256	96.12
504.473	106.12
504.69	96.12
504.907	100.12
505.123	87.12
505.34	89.12
505.557	114.12
505.773	81.12
505.99	90.12
506.207	75.12
506.423	88.12
506.64	82.12
506.856	86.12
507.073	96.12
507.289	87.12
507.506	97.12
507.722	110.12
507.939	97.12
508.155	83.12
508.372	98.12
508.588	109.12
508.805	103.12
509.021	98.12
509.238	96.12
509.454	101.12
509.67	86.12
509.887	104.12
510.103	124.12
510.319	206.12
510.536	733.12
510.752	2321.12
510.968	634.12
511.184	156.12
511.401	102.12
511.617	94.12
511.833	86.12
512.049	90.12
512.265	92.12
512.481	83.12
512.698	92.12
512.914	85.12
513.13	97.12
513.346	87.12
513.562	103.12
513.778	97.12
513.994	88.12
514.21	103.12
514.426	96.12
514.642	130.12
514.858	128.12
515.074	160.12
515.29	403.12
515.506	1359.12
515.721	528.12
515.937	150.12
516.153	104.12
516.369	90.12
516.585	75.12
