Data from Uncirc_2008_H10_HRD10591_00040.txt Node
Date: Wed Jan 03 10:15:38 EST 2024
User: Yrep
Spectrometer: HR+D1059
Trigger mode: 1
Integration Time (sec): 1.000000E-1
Scans to average: 1
Electric dark correction enabled: true
Nonlinearity correction enabled: false
Boxcar width: 0
XAxis mode: Wavelengths
Number of Pixels in Spectrum: 2048
>>>>>Begin Spectral Data<<<<<
223.165	-20.31
223.4	-20.31
223.635	-20.31
223.869	-9.31
224.104	-18.31
224.338	-4.31
224.573	-11.31
224.808	-6.31
225.042	-4.31
225.277	-2.31
225.511	-9.31
225.746	1.69
225.98	3.69
226.215	5.69
226.449	4.69
226.683	22.69
226.918	23.69
227.152	23.69
227.387	27.69
227.621	32.69
227.856	53.69
228.09	52.69
228.324	43.69
228.559	63.69
228.793	65.69
229.027	62.69
229.262	67.69
229.496	81.69
229.73	71.69
229.964	73.69
230.199	68.69
230.433	81.69
230.667	87.69
230.901	80.69
231.136	78.69
231.37	97.69
231.604	84.69
231.838	75.69
232.072	68.69
232.306	85.69
232.541	84.69
232.775	81.69
233.009	68.69
233.243	68.69
233.477	70.69
233.711	78.69
233.945	82.69
234.179	70.69
234.413	80.69
234.647	65.69
234.881	80.69
235.115	79.69
235.349	70.69
235.583	82.69
235.817	83.69
236.051	82.69
236.285	79.69
236.519	69.69
236.753	78.69
236.987	76.69
237.221	77.69
237.455	74.69
237.689	74.69
237.922	66.69
238.156	75.69
238.39	70.69
238.624	85.69
238.858	84.69
239.091	89.69
239.325	78.69
239.559	86.69
239.793	73.69
240.027	81.69
240.26	66.69
240.494	88.69
240.728	81.69
240.961	84.69
241.195	67.69
241.429	73.69
241.662	70.69
241.896	87.69
242.13	71.69
242.363	63.69
242.597	59.69
242.83	77.69
243.064	77.69
243.298	75.69
243.531	76.69
243.765	71.69
243.998	77.69
244.232	78.69
244.465	64.69
244.699	83.69
244.932	63.69
245.166	79.69
245.399	71.69
245.633	70.69
245.866	69.69
246.099	89.69
246.333	72.69
246.566	75.69
246.8	80.69
247.033	63.69
247.266	65.69
247.5	69.69
247.733	80.69
247.966	83.69
248.2	80.69
248.433	53.69
248.666	67.69
248.899	65.69
249.133	76.69
249.366	86.69
249.599	84.69
249.832	67.69
250.066	81.69
250.299	76.69
250.532	82.69
250.765	85.69
250.998	79.69
251.231	59.69
251.465	73.69
251.698	87.69
251.931	80.69
252.164	87.69
252.397	75.69
252.63	83.69
252.863	83.69
253.096	82.69
253.329	76.69
253.562	82.69
253.795	83.69
254.028	77.69
254.261	62.69
254.494	78.69
254.727	79.69
254.96	81.69
255.193	69.69
255.426	88.69
255.659	70.69
255.892	79.69
256.124	86.69
256.357	78.69
256.59	80.69
256.823	85.69
257.056	76.69
257.289	84.69
257.521	76.69
257.754	85.69
257.987	84.69
258.22	79.69
258.452	74.69
258.685	71.69
258.918	67.69
259.151	68.69
259.383	78.69
259.616	85.69
259.849	87.69
260.081	85.69
260.314	87.69
260.547	72.69
260.779	75.69
261.012	65.69
261.244	70.69
261.477	83.69
261.71	87.69
261.942	99.69
262.175	106.69
262.407	76.69
262.64	79.69
262.872	64.69
263.105	69.69
263.337	87.69
263.57	81.69
263.802	85.69
264.035	87.69
264.267	96.69
264.499	79.69
264.732	86.69
264.964	74.69
265.197	85.69
265.429	77.69
265.661	76.69
265.894	103.69
266.126	91.69
266.358	75.69
266.591	74.69
266.823	81.69
267.055	96.69
267.287	94.69
267.52	94.69
267.752	86.69
267.984	90.69
268.216	71.69
268.448	52.69
268.681	79.69
268.913	73.69
269.145	76.69
269.377	81.69
269.609	77.69
269.841	80.69
270.073	70.69
270.306	83.69
270.538	79.69
270.77	85.69
271.002	82.69
271.234	98.69
271.466	81.69
271.698	75.69
271.93	75.69
272.162	91.69
272.394	84.69
272.626	72.69
272.858	79.69
273.09	72.69
273.322	81.69
273.553	78.69
273.785	84.69
274.017	87.69
274.249	81.69
274.481	77.69
274.713	77.69
274.945	64.69
275.176	81.69
275.408	97.69
275.64	78.69
275.872	76.69
276.104	78.69
276.335	81.69
276.567	85.69
276.799	95.69
277.031	91.69
277.262	94.69
277.494	95.69
277.726	85.69
277.957	87.69
278.189	74.69
278.421	89.69
278.652	86.69
278.884	81.69
279.115	85.69
279.347	102.69
279.579	91.69
279.81	95.69
280.042	104.69
280.273	95.69
280.505	78.69
280.736	80.69
280.968	94.69
281.199	96.69
281.431	83.69
281.662	78.69
281.894	75.69
282.125	108.69
282.356	102.69
282.588	115.69
282.819	99.69
283.051	86.69
283.282	92.69
283.513	82.69
283.745	86.69
283.976	79.69
284.207	86.69
284.439	84.69
284.67	80.69
284.901	76.69
285.132	90.69
285.364	75.69
285.595	84.69
285.826	84.69
286.057	80.69
286.288	86.69
286.52	93.69
286.751	76.69
286.982	63.69
287.213	107.69
287.444	93.69
287.675	86.69
287.906	92.69
288.138	78.69
288.369	87.69
288.6	80.69
288.831	84.69
289.062	84.69
289.293	79.69
289.524	85.69
289.755	74.69
289.986	91.69
290.217	85.69
290.448	75.69
290.679	88.69
290.91	90.69
291.141	83.69
291.371	87.69
291.602	79.69
291.833	97.69
292.064	90.69
292.295	84.69
292.526	74.69
292.757	80.69
292.987	90.69
293.218	79.69
293.449	88.69
293.68	87.69
293.91	79.69
294.141	85.69
294.372	77.69
294.603	82.69
294.833	79.69
295.064	97.69
295.295	85.69
295.525	73.69
295.756	105.69
295.987	88.69
296.217	125.69
296.448	107.69
296.679	100.69
296.909	91.69
297.14	85.69
297.37	82.69
297.601	94.69
297.831	89.69
298.062	80.69
298.292	96.69
298.523	92.69
298.753	79.69
298.984	78.69
299.214	86.69
299.445	86.69
299.675	84.69
299.905	95.69
300.136	85.69
300.366	77.69
300.597	78.69
300.827	98.69
301.057	104.69
301.288	108.69
301.518	86.69
301.748	81.69
301.979	102.69
302.209	68.69
302.439	80.69
302.669	90.69
302.9	88.69
303.13	100.69
303.36	90.69
303.59	104.69
303.82	107.69
304.051	91.69
304.281	85.69
304.511	90.69
304.741	76.69
304.971	78.69
305.201	81.69
305.431	92.69
305.661	89.69
305.891	87.69
306.121	87.69
306.352	103.69
306.582	100.69
306.812	91.69
307.042	68.69
307.272	83.69
307.502	86.69
307.731	77.69
307.961	81.69
308.191	73.69
308.421	88.69
308.651	81.69
308.881	90.69
309.111	99.69
309.341	94.69
309.571	87.69
309.8	84.69
310.03	85.69
310.26	104.69
310.49	81.69
310.72	83.69
310.949	93.69
311.179	86.69
311.409	90.69
311.639	106.69
311.868	93.69
312.098	99.69
312.328	80.69
312.557	89.69
312.787	98.69
313.017	96.69
313.246	78.69
313.476	97.69
313.706	83.69
313.935	94.69
314.165	94.69
314.394	91.69
314.624	89.69
314.853	91.69
315.083	88.69
315.312	92.69
315.542	95.69
315.771	101.69
316.001	93.69
316.23	85.69
316.46	72.69
316.689	77.69
316.919	87.69
317.148	95.69
317.377	92.69
317.607	100.69
317.836	91.69
318.065	83.69
318.295	76.69
318.524	84.69
318.753	88.69
318.983	92.69
319.212	96.69
319.441	97.69
319.67	106.69
319.9	88.69
320.129	96.69
320.358	89.69
320.587	88.69
320.816	95.69
321.046	91.69
321.275	95.69
321.504	89.69
321.733	79.69
321.962	96.69
322.191	79.69
322.42	97.69
322.649	92.69
322.878	102.69
323.108	117.69
323.337	115.69
323.566	121.69
323.795	155.69
324.024	179.69
324.253	351.69
324.482	716.69
324.71	1509.69
324.939	1898.69
325.168	723.69
325.397	227.69
325.626	146.69
325.855	115.69
326.084	116.69
326.313	112.69
326.542	143.69
326.77	218.69
326.999	426.69
327.228	843.69
327.457	1487.69
327.686	1152.69
327.914	321.69
328.143	173.69
328.372	116.69
328.6	93.69
328.829	134.69
329.058	117.69
329.287	106.69
329.515	115.69
329.744	99.69
329.972	94.69
330.201	94.69
330.43	106.69
330.658	116.69
330.887	113.69
331.115	113.69
331.344	95.69
331.572	101.69
331.801	93.69
332.03	100.69
332.258	103.69
332.486	87.69
332.715	100.69
332.943	91.69
333.172	98.69
333.4	89.69
333.629	103.69
333.857	93.69
334.085	91.69
334.314	85.69
334.542	87.69
334.771	89.69
334.999	83.69
335.227	102.69
335.455	100.69
335.684	88.69
335.912	97.69
336.14	87.69
336.369	81.69
336.597	98.69
336.825	106.69
337.053	81.69
337.281	103.69
337.51	95.69
337.738	72.69
337.966	97.69
338.194	95.69
338.422	85.69
338.65	81.69
338.878	81.69
339.106	80.69
339.334	88.69
339.562	82.69
339.79	92.69
340.018	78.69
340.246	96.69
340.474	86.69
340.702	83.69
340.93	109.69
341.158	100.69
341.386	89.69
341.614	88.69
341.842	92.69
342.07	102.69
342.298	81.69
342.526	88.69
342.754	86.69
342.981	82.69
343.209	83.69
343.437	99.69
343.665	83.69
343.893	85.69
344.12	87.69
344.348	85.69
344.576	83.69
344.804	94.69
345.031	97.69
345.259	90.69
345.487	89.69
345.714	73.69
345.942	101.69
346.17	86.69
346.397	83.69
346.625	98.69
346.853	83.69
347.08	99.69
347.308	84.69
347.535	88.69
347.763	104.69
347.99	95.69
348.218	94.69
348.445	107.69
348.673	87.69
348.9	96.69
349.128	77.69
349.355	95.69
349.583	94.69
349.81	95.69
350.037	93.69
350.265	89.69
350.492	94.69
350.72	90.69
350.947	100.69
351.174	110.69
351.402	95.69
351.629	82.69
351.856	77.69
352.083	102.69
352.311	117.69
352.538	104.69
352.765	96.69
352.992	116.69
353.22	124.69
353.447	92.69
353.674	86.69
353.901	93.69
354.128	94.69
354.355	103.69
354.583	81.69
354.81	91.69
355.037	106.69
355.264	92.69
355.491	97.69
355.718	81.69
355.945	86.69
356.172	89.69
356.399	93.69
356.626	103.69
356.853	92.69
357.08	92.69
357.307	86.69
357.534	89.69
357.761	96.69
357.988	87.69
358.215	77.69
358.441	81.69
358.668	84.69
358.895	88.69
359.122	84.69
359.349	82.69
359.576	86.69
359.802	109.69
360.029	104.69
360.256	111.69
360.483	113.69
360.709	108.69
360.936	97.69
361.163	92.69
361.39	89.69
361.616	102.69
361.843	74.69
362.07	84.69
362.296	92.69
362.523	87.69
362.749	86.69
362.976	78.69
363.203	89.69
363.429	91.69
363.656	93.69
363.882	85.69
364.109	93.69
364.335	91.69
364.562	103.69
364.788	102.69
365.015	85.69
365.241	98.69
365.468	86.69
365.694	108.69
365.92	105.69
366.147	98.69
366.373	96.69
366.599	89.69
366.826	100.69
367.052	103.69
367.278	79.69
367.505	93.69
367.731	92.69
367.957	96.69
368.184	93.69
368.41	101.69
368.636	113.69
368.862	108.69
369.089	104.69
369.315	91.69
369.541	82.69
369.767	77.69
369.993	102.69
370.219	91.69
370.445	101.69
370.672	100.69
370.898	98.69
371.124	86.69
371.35	79.69
371.576	76.69
371.802	63.69
372.028	79.69
372.254	81.69
372.48	80.69
372.706	90.69
372.932	93.69
373.158	80.69
373.384	89.69
373.61	69.69
373.835	95.69
374.061	76.69
374.287	84.69
374.513	80.69
374.739	85.69
374.965	94.69
375.191	71.69
375.416	94.69
375.642	80.69
375.868	87.69
376.094	90.69
376.319	99.69
376.545	110.69
376.771	83.69
376.997	102.69
377.222	87.69
377.448	90.69
377.674	88.69
377.899	78.69
378.125	78.69
378.35	95.69
378.576	88.69
378.802	94.69
379.027	90.69
379.253	99.69
379.478	95.69
379.704	93.69
379.929	101.69
380.155	87.69
380.38	84.69
380.606	92.69
380.831	89.69
381.057	92.69
381.282	81.69
381.507	102.69
381.733	85.69
381.958	87.69
382.184	100.69
382.409	93.69
382.634	111.69
382.86	99.69
383.085	101.69
383.31	92.69
383.535	95.69
383.761	96.69
383.986	104.69
384.211	91.69
384.436	104.69
384.662	87.69
384.887	108.69
385.112	102.69
385.337	99.69
385.562	91.69
385.787	104.69
386.013	112.69
386.238	104.69
386.463	93.69
386.688	106.69
386.913	109.69
387.138	103.69
387.363	106.69
387.588	102.69
387.813	86.69
388.038	103.69
388.263	119.69
388.488	100.69
388.713	99.69
388.938	95.69
389.163	88.69
389.387	97.69
389.612	87.69
389.837	92.69
390.062	100.69
390.287	87.69
390.512	91.69
390.736	103.69
390.961	90.69
391.186	83.69
391.411	95.69
391.636	102.69
391.86	90.69
392.085	86.69
392.31	92.69
392.534	87.69
392.759	92.69
392.984	86.69
393.208	86.69
393.433	70.69
393.658	82.69
393.882	67.69
394.107	69.69
394.331	87.69
394.556	81.69
394.78	87.69
395.005	84.69
395.229	80.69
395.454	94.69
395.678	83.69
395.903	97.69
396.127	94.69
396.352	67.69
396.576	76.69
396.801	100.69
397.025	75.69
397.249	107.69
397.474	87.69
397.698	78.69
397.922	75.69
398.147	92.69
398.371	78.69
398.595	81.69
398.82	93.69
399.044	81.69
399.268	85.69
399.492	78.69
399.717	83.69
399.941	100.69
400.165	92.69
400.389	77.69
400.613	77.69
400.837	91.69
401.062	94.69
401.286	80.69
401.51	77.69
401.734	87.69
401.958	84.69
402.182	135.69
402.406	148.69
402.63	101.69
402.854	94.69
403.078	80.69
403.302	73.69
403.526	85.69
403.75	85.69
403.974	100.69
404.198	87.69
404.422	94.69
404.645	75.69
404.869	91.69
405.093	79.69
405.317	100.69
405.541	86.69
405.765	101.69
405.988	108.69
406.212	165.69
406.436	206.69
406.66	130.69
406.883	91.69
407.107	83.69
407.331	96.69
407.555	108.69
407.778	98.69
408.002	95.69
408.226	86.69
408.449	91.69
408.673	89.69
408.896	92.69
409.12	85.69
409.344	84.69
409.567	77.69
409.791	83.69
410.014	82.69
410.238	89.69
410.461	91.69
410.685	80.69
410.908	90.69
411.132	93.69
411.355	106.69
411.578	93.69
411.802	79.69
412.025	81.69
412.249	83.69
412.472	85.69
412.695	87.69
412.919	67.69
413.142	98.69
413.365	78.69
413.589	100.69
413.812	80.69
414.035	92.69
414.258	91.69
414.482	89.69
414.705	81.69
414.928	89.69
415.151	84.69
415.374	82.69
415.597	95.69
415.821	90.69
416.044	90.69
416.267	84.69
416.49	75.69
416.713	76.69
416.936	80.69
417.159	78.69
417.382	96.69
417.605	85.69
417.828	76.69
418.051	99.69
418.274	93.69
418.497	88.69
418.72	77.69
418.943	96.69
419.166	88.69
419.389	89.69
419.611	88.69
419.834	68.69
420.057	81.69
420.28	85.69
420.503	85.69
420.726	84.69
420.948	97.69
421.171	102.69
421.394	101.69
421.617	101.69
421.839	88.69
422.062	95.69
422.285	94.69
422.507	104.69
422.73	114.69
422.953	111.69
423.175	84.69
423.398	90.69
423.621	95.69
423.843	105.69
424.066	87.69
424.288	81.69
424.511	101.69
424.733	90.69
424.956	95.69
425.178	96.69
425.401	91.69
425.623	89.69
425.846	102.69
426.068	102.69
426.291	88.69
426.513	86.69
426.735	85.69
426.958	80.69
427.18	105.69
427.402	132.69
427.625	157.69
427.847	109.69
428.069	98.69
428.292	84.69
428.514	83.69
428.736	84.69
428.958	90.69
429.181	87.69
429.403	84.69
429.625	92.69
429.847	97.69
430.069	101.69
430.292	95.69
430.514	91.69
430.736	71.69
430.958	87.69
431.18	101.69
431.402	84.69
431.624	86.69
431.846	81.69
432.068	88.69
432.29	94.69
432.512	83.69
432.734	80.69
432.956	95.69
433.178	97.69
433.4	102.69
433.622	93.69
433.844	93.69
434.066	92.69
434.287	89.69
434.509	87.69
434.731	80.69
434.953	85.69
435.175	87.69
435.397	76.69
435.618	109.69
435.84	94.69
436.062	123.69
436.284	108.69
436.505	99.69
436.727	97.69
436.949	90.69
437.17	84.69
437.392	88.69
437.614	91.69
437.835	99.69
438.057	110.69
438.278	120.69
438.5	88.69
438.721	108.69
438.943	111.69
439.165	86.69
439.386	99.69
439.608	90.69
439.829	88.69
440.05	113.69
440.272	128.69
440.493	83.69
440.715	94.69
440.936	98.69
441.158	84.69
441.379	74.69
441.6	103.69
441.822	94.69
442.043	105.69
442.264	93.69
442.486	91.69
442.707	85.69
442.928	97.69
443.149	100.69
443.371	118.69
443.592	94.69
443.813	112.69
444.034	95.69
444.255	100.69
444.476	70.69
444.698	77.69
444.919	74.69
445.14	115.69
445.361	109.69
445.582	111.69
445.803	123.69
446.024	133.69
446.245	118.69
446.466	97.69
446.687	91.69
446.908	97.69
447.129	93.69
447.35	85.69
447.571	98.69
447.792	84.69
448.013	101.69
448.234	116.69
448.455	91.69
448.675	105.69
448.896	107.69
449.117	92.69
449.338	92.69
449.559	132.69
449.779	137.69
450	95.69
450.221	84.69
450.442	65.69
450.662	77.69
450.883	85.69
451.104	113.69
451.324	91.69
451.545	80.69
451.766	95.69
451.986	75.69
452.207	88.69
452.428	81.69
452.648	88.69
452.869	93.69
453.089	103.69
453.31	106.69
453.53	88.69
453.751	80.69
453.971	95.69
454.192	100.69
454.412	98.69
454.633	81.69
454.853	76.69
455.073	81.69
455.294	95.69
455.514	94.69
455.734	83.69
455.955	91.69
456.175	87.69
456.395	87.69
456.616	90.69
456.836	92.69
457.056	91.69
457.276	75.69
457.497	64.69
457.717	75.69
457.937	86.69
458.157	87.69
458.377	92.69
458.598	103.69
458.818	124.69
459.038	141.69
459.258	118.69
459.478	102.69
459.698	103.69
459.918	89.69
460.138	93.69
460.358	79.69
460.578	88.69
460.798	85.69
461.018	81.69
461.238	78.69
461.458	74.69
461.678	83.69
461.898	92.69
462.118	85.69
462.338	82.69
462.558	86.69
462.777	80.69
462.997	77.69
463.217	89.69
463.437	80.69
463.657	77.69
463.876	73.69
464.096	87.69
464.316	108.69
464.536	88.69
464.755	101.69
464.975	113.69
465.195	143.69
465.414	149.69
465.634	97.69
465.854	83.69
466.073	74.69
466.293	83.69
466.512	89.69
466.732	96.69
466.951	79.69
467.171	85.69
467.391	91.69
467.61	107.69
467.829	84.69
468.049	91.69
468.268	87.69
468.488	84.69
468.707	79.69
468.927	86.69
469.146	80.69
469.365	84.69
469.585	76.69
469.804	88.69
470.023	84.69
470.243	104.69
470.462	87.69
470.681	95.69
470.901	94.69
471.12	90.69
471.339	85.69
471.558	89.69
471.777	92.69
471.997	94.69
472.216	74.69
472.435	81.69
472.654	84.69
472.873	81.69
473.092	85.69
473.311	86.69
473.53	88.69
473.749	74.69
473.968	91.69
474.187	97.69
474.406	92.69
474.625	86.69
474.844	84.69
475.063	91.69
475.282	83.69
475.501	94.69
475.72	99.69
475.939	92.69
476.158	96.69
476.377	89.69
476.596	92.69
476.814	91.69
477.033	93.69
477.252	104.69
477.471	85.69
477.69	84.69
477.908	93.69
478.127	97.69
478.346	82.69
478.564	87.69
478.783	81.69
479.002	92.69
479.22	100.69
479.439	91.69
479.658	92.69
479.876	96.69
480.095	72.69
480.313	87.69
480.532	96.69
480.751	97.69
480.969	87.69
481.188	87.69
481.406	95.69
481.624	75.69
481.843	91.69
482.061	87.69
482.28	92.69
482.498	85.69
482.717	84.69
482.935	72.69
483.153	77.69
483.372	86.69
483.59	90.69
483.808	80.69
484.027	79.69
484.245	102.69
484.463	90.69
484.681	96.69
484.9	96.69
485.118	92.69
485.336	89.69
485.554	116.69
485.772	97.69
485.99	106.69
486.209	94.69
486.427	100.69
486.645	108.69
486.863	113.69
487.081	92.69
487.299	97.69
487.517	102.69
487.735	100.69
487.953	103.69
488.171	88.69
488.389	95.69
488.607	95.69
488.825	88.69
489.043	89.69
489.261	79.69
489.479	87.69
489.696	81.69
489.914	91.69
490.132	77.69
490.35	104.69
490.568	80.69
490.786	86.69
491.003	82.69
491.221	87.69
491.439	76.69
491.657	82.69
491.874	87.69
492.092	88.69
492.31	76.69
492.527	86.69
492.745	85.69
492.963	81.69
493.18	88.69
493.398	96.69
493.615	91.69
493.833	99.69
494.05	88.69
494.268	93.69
494.485	88.69
494.703	71.69
494.92	80.69
495.138	81.69
495.355	92.69
495.573	80.69
495.79	87.69
496.008	88.69
496.225	86.69
496.442	95.69
496.66	94.69
496.877	81.69
497.094	93.69
497.312	103.69
497.529	96.69
497.746	91.69
497.963	100.69
498.181	91.69
498.398	98.69
498.615	108.69
498.832	99.69
499.049	85.69
499.267	87.69
499.484	72.69
499.701	101.69
499.918	107.69
500.135	88.69
500.352	90.69
500.569	87.69
500.786	78.69
501.003	92.69
501.22	85.69
501.437	88.69
501.654	100.69
501.871	100.69
502.088	92.69
502.305	107.69
502.522	91.69
502.739	84.69
502.956	88.69
503.172	99.69
503.389	89.69
503.606	88.69
503.823	86.69
504.04	89.69
504.256	89.69
504.473	89.69
504.69	89.69
504.907	77.69
505.123	90.69
505.34	88.69
505.557	87.69
505.773	96.69
505.99	88.69
506.207	86.69
506.423	91.69
506.64	93.69
506.856	93.69
507.073	84.69
507.289	104.69
507.506	102.69
507.722	120.69
507.939	85.69
508.155	83.69
508.372	76.69
508.588	95.69
508.805	79.69
509.021	95.69
509.238	106.69
509.454	88.69
509.67	101.69
509.887	103.69
510.103	118.69
510.319	203.69
510.536	714.69
510.752	2235.69
510.968	622.69
511.184	139.69
511.401	99.69
511.617	82.69
511.833	85.69
512.049	94.69
512.265	85.69
512.481	94.69
512.698	99.69
512.914	90.69
513.13	86.69
513.346	96.69
513.562	79.69
513.778	76.69
513.994	87.69
514.21	97.69
514.426	120.69
514.642	134.69
514.858	120.69
515.074	154.69
515.29	413.69
515.506	1351.69
515.721	501.69
515.937	153.69
516.153	108.69
516.369	94.69
516.585	99.69
