Data from Uncirc_2008_H10_HRD10591_00015.txt Node
Date: Wed Jan 03 10:15:33 EST 2024
User: Yrep
Spectrometer: HR+D1059
Trigger mode: 1
Integration Time (sec): 1.000000E-1
Scans to average: 1
Electric dark correction enabled: true
Nonlinearity correction enabled: false
Boxcar width: 0
XAxis mode: Wavelengths
Number of Pixels in Spectrum: 2048
>>>>>Begin Spectral Data<<<<<
223.165	-26.5
223.4	-26.5
223.635	-26.5
223.869	-25.5
224.104	-35.5
224.338	-11.5
224.573	2.5
224.808	-8.5
225.042	-11.5
225.277	6.5
225.511	3.5
225.746	-0.5
225.98	16.5
226.215	1.5
226.449	13.5
226.683	21.5
226.918	33.5
227.152	20.5
227.387	32.5
227.621	53.5
227.856	48.5
228.09	47.5
228.324	47.5
228.559	64.5
228.793	51.5
229.027	55.5
229.262	69.5
229.496	73.5
229.73	85.5
229.964	73.5
230.199	82.5
230.433	70.5
230.667	75.5
230.901	81.5
231.136	88.5
231.37	80.5
231.604	77.5
231.838	73.5
232.072	87.5
232.306	73.5
232.541	69.5
232.775	80.5
233.009	78.5
233.243	84.5
233.477	94.5
233.711	80.5
233.945	82.5
234.179	64.5
234.413	73.5
234.647	90.5
234.881	81.5
235.115	87.5
235.349	91.5
235.583	92.5
235.817	81.5
236.051	69.5
236.285	75.5
236.519	74.5
236.753	80.5
236.987	85.5
237.221	82.5
237.455	85.5
237.689	72.5
237.922	88.5
238.156	71.5
238.39	77.5
238.624	52.5
238.858	69.5
239.091	90.5
239.325	90.5
239.559	90.5
239.793	77.5
240.027	77.5
240.26	64.5
240.494	76.5
240.728	91.5
240.961	84.5
241.195	62.5
241.429	76.5
241.662	64.5
241.896	101.5
242.13	80.5
242.363	93.5
242.597	84.5
242.83	80.5
243.064	81.5
243.298	74.5
243.531	86.5
243.765	77.5
243.998	70.5
244.232	85.5
244.465	82.5
244.699	74.5
244.932	77.5
245.166	80.5
245.399	86.5
245.633	80.5
245.866	61.5
246.099	73.5
246.333	75.5
246.566	80.5
246.8	92.5
247.033	92.5
247.266	85.5
247.5	82.5
247.733	85.5
247.966	74.5
248.2	69.5
248.433	81.5
248.666	72.5
248.899	76.5
249.133	97.5
249.366	89.5
249.599	101.5
249.832	91.5
250.066	89.5
250.299	87.5
250.532	76.5
250.765	87.5
250.998	77.5
251.231	83.5
251.465	88.5
251.698	94.5
251.931	79.5
252.164	83.5
252.397	81.5
252.63	84.5
252.863	76.5
253.096	87.5
253.329	86.5
253.562	80.5
253.795	86.5
254.028	75.5
254.261	77.5
254.494	77.5
254.727	89.5
254.96	76.5
255.193	88.5
255.426	91.5
255.659	87.5
255.892	82.5
256.124	84.5
256.357	79.5
256.59	78.5
256.823	78.5
257.056	89.5
257.289	89.5
257.521	90.5
257.754	74.5
257.987	83.5
258.22	83.5
258.452	90.5
258.685	68.5
258.918	93.5
259.151	82.5
259.383	95.5
259.616	82.5
259.849	85.5
260.081	73.5
260.314	68.5
260.547	82.5
260.779	89.5
261.012	69.5
261.244	91.5
261.477	95.5
261.71	84.5
261.942	107.5
262.175	100.5
262.407	88.5
262.64	68.5
262.872	71.5
263.105	90.5
263.337	79.5
263.57	84.5
263.802	97.5
264.035	78.5
264.267	80.5
264.499	80.5
264.732	88.5
264.964	75.5
265.197	82.5
265.429	87.5
265.661	79.5
265.894	82.5
266.126	93.5
266.358	79.5
266.591	82.5
266.823	85.5
267.055	83.5
267.287	83.5
267.52	93.5
267.752	75.5
267.984	78.5
268.216	87.5
268.448	92.5
268.681	71.5
268.913	86.5
269.145	94.5
269.377	76.5
269.609	86.5
269.841	93.5
270.073	72.5
270.306	69.5
270.538	88.5
270.77	83.5
271.002	89.5
271.234	84.5
271.466	86.5
271.698	98.5
271.93	83.5
272.162	82.5
272.394	86.5
272.626	82.5
272.858	75.5
273.09	84.5
273.322	98.5
273.553	85.5
273.785	91.5
274.017	87.5
274.249	85.5
274.481	80.5
274.713	89.5
274.945	82.5
275.176	82.5
275.408	84.5
275.64	97.5
275.872	83.5
276.104	101.5
276.335	81.5
276.567	101.5
276.799	102.5
277.031	90.5
277.262	93.5
277.494	82.5
277.726	81.5
277.957	75.5
278.189	82.5
278.421	100.5
278.652	93.5
278.884	94.5
279.115	87.5
279.347	83.5
279.579	80.5
279.81	83.5
280.042	92.5
280.273	75.5
280.505	85.5
280.736	83.5
280.968	99.5
281.199	95.5
281.431	94.5
281.662	95.5
281.894	84.5
282.125	89.5
282.356	119.5
282.588	128.5
282.819	124.5
283.051	81.5
283.282	82.5
283.513	82.5
283.745	78.5
283.976	88.5
284.207	89.5
284.439	86.5
284.67	77.5
284.901	73.5
285.132	89.5
285.364	88.5
285.595	79.5
285.826	83.5
286.057	80.5
286.288	96.5
286.52	85.5
286.751	95.5
286.982	84.5
287.213	82.5
287.444	100.5
287.675	99.5
287.906	94.5
288.138	82.5
288.369	86.5
288.6	75.5
288.831	72.5
289.062	91.5
289.293	88.5
289.524	90.5
289.755	95.5
289.986	85.5
290.217	95.5
290.448	84.5
290.679	92.5
290.91	96.5
291.141	84.5
291.371	81.5
291.602	81.5
291.833	97.5
292.064	95.5
292.295	86.5
292.526	80.5
292.757	84.5
292.987	88.5
293.218	90.5
293.449	89.5
293.68	78.5
293.91	94.5
294.141	98.5
294.372	91.5
294.603	92.5
294.833	77.5
295.064	87.5
295.295	80.5
295.525	95.5
295.756	100.5
295.987	111.5
296.217	135.5
296.448	110.5
296.679	93.5
296.909	91.5
297.14	74.5
297.37	90.5
297.601	81.5
297.831	99.5
298.062	97.5
298.292	89.5
298.523	79.5
298.753	87.5
298.984	92.5
299.214	86.5
299.445	77.5
299.675	93.5
299.905	96.5
300.136	76.5
300.366	84.5
300.597	80.5
300.827	89.5
301.057	106.5
301.288	96.5
301.518	95.5
301.748	90.5
301.979	104.5
302.209	97.5
302.439	101.5
302.669	82.5
302.9	95.5
303.13	85.5
303.36	88.5
303.59	95.5
303.82	95.5
304.051	94.5
304.281	91.5
304.511	83.5
304.741	101.5
304.971	95.5
305.201	95.5
305.431	95.5
305.661	80.5
305.891	101.5
306.121	99.5
306.352	92.5
306.582	113.5
306.812	94.5
307.042	95.5
307.272	106.5
307.502	97.5
307.731	95.5
307.961	92.5
308.191	75.5
308.421	94.5
308.651	84.5
308.881	98.5
309.111	91.5
309.341	89.5
309.571	100.5
309.8	98.5
310.03	107.5
310.26	104.5
310.49	103.5
310.72	94.5
310.949	108.5
311.179	92.5
311.409	95.5
311.639	103.5
311.868	94.5
312.098	83.5
312.328	106.5
312.557	97.5
312.787	95.5
313.017	105.5
313.246	100.5
313.476	96.5
313.706	96.5
313.935	100.5
314.165	107.5
314.394	99.5
314.624	106.5
314.853	98.5
315.083	98.5
315.312	83.5
315.542	97.5
315.771	104.5
316.001	88.5
316.23	88.5
316.46	85.5
316.689	81.5
316.919	99.5
317.148	92.5
317.377	100.5
317.607	86.5
317.836	96.5
318.065	88.5
318.295	88.5
318.524	104.5
318.753	78.5
318.983	96.5
319.212	98.5
319.441	95.5
319.67	109.5
319.9	85.5
320.129	81.5
320.358	95.5
320.587	97.5
320.816	109.5
321.046	98.5
321.275	94.5
321.504	88.5
321.733	98.5
321.962	98.5
322.191	101.5
322.42	106.5
322.649	111.5
322.878	111.5
323.108	112.5
323.337	117.5
323.566	129.5
323.795	136.5
324.024	196.5
324.253	350.5
324.482	761.5
324.71	1569.5
324.939	2066.5
325.168	751.5
325.397	222.5
325.626	130.5
325.855	136.5
326.084	133.5
326.313	124.5
326.542	141.5
326.77	220.5
326.999	425.5
327.228	869.5
327.457	1588.5
327.686	1283.5
327.914	342.5
328.143	161.5
328.372	149.5
328.6	120.5
328.829	132.5
329.058	132.5
329.287	129.5
329.515	110.5
329.744	113.5
329.972	105.5
330.201	103.5
330.43	108.5
330.658	111.5
330.887	131.5
331.115	121.5
331.344	96.5
331.572	88.5
331.801	95.5
332.03	121.5
332.258	93.5
332.486	90.5
332.715	104.5
332.943	93.5
333.172	102.5
333.4	101.5
333.629	106.5
333.857	102.5
334.085	110.5
334.314	82.5
334.542	91.5
334.771	98.5
334.999	100.5
335.227	104.5
335.455	109.5
335.684	81.5
335.912	97.5
336.14	101.5
336.369	82.5
336.597	87.5
336.825	86.5
337.053	94.5
337.281	99.5
337.51	102.5
337.738	95.5
337.966	91.5
338.194	97.5
338.422	95.5
338.65	96.5
338.878	98.5
339.106	99.5
339.334	93.5
339.562	102.5
339.79	98.5
340.018	88.5
340.246	79.5
340.474	85.5
340.702	96.5
340.93	86.5
341.158	90.5
341.386	93.5
341.614	101.5
341.842	94.5
342.07	96.5
342.298	88.5
342.526	99.5
342.754	92.5
342.981	103.5
343.209	98.5
343.437	97.5
343.665	93.5
343.893	95.5
344.12	92.5
344.348	99.5
344.576	95.5
344.804	80.5
345.031	104.5
345.259	103.5
345.487	100.5
345.714	98.5
345.942	92.5
346.17	94.5
346.397	99.5
346.625	105.5
346.853	95.5
347.08	98.5
347.308	89.5
347.535	107.5
347.763	89.5
347.99	97.5
348.218	92.5
348.445	100.5
348.673	109.5
348.9	98.5
349.128	96.5
349.355	90.5
349.583	95.5
349.81	84.5
350.037	92.5
350.265	106.5
350.492	93.5
350.72	93.5
350.947	97.5
351.174	128.5
351.402	108.5
351.629	107.5
351.856	91.5
352.083	109.5
352.311	91.5
352.538	108.5
352.765	106.5
352.992	120.5
353.22	104.5
353.447	106.5
353.674	98.5
353.901	96.5
354.128	102.5
354.355	89.5
354.583	103.5
354.81	85.5
355.037	101.5
355.264	97.5
355.491	93.5
355.718	92.5
355.945	91.5
356.172	104.5
356.399	99.5
356.626	92.5
356.853	104.5
357.08	90.5
357.307	88.5
357.534	101.5
357.761	91.5
357.988	96.5
358.215	97.5
358.441	97.5
358.668	93.5
358.895	88.5
359.122	105.5
359.349	101.5
359.576	98.5
359.802	96.5
360.029	106.5
360.256	116.5
360.483	101.5
360.709	99.5
360.936	83.5
361.163	92.5
361.39	96.5
361.616	91.5
361.843	90.5
362.07	93.5
362.296	100.5
362.523	103.5
362.749	93.5
362.976	89.5
363.203	89.5
363.429	97.5
363.656	90.5
363.882	92.5
364.109	93.5
364.335	104.5
364.562	92.5
364.788	95.5
365.015	103.5
365.241	110.5
365.468	101.5
365.694	100.5
365.92	103.5
366.147	90.5
366.373	87.5
366.599	92.5
366.826	92.5
367.052	79.5
367.278	95.5
367.505	108.5
367.731	102.5
367.957	111.5
368.184	100.5
368.41	107.5
368.636	111.5
368.862	111.5
369.089	102.5
369.315	89.5
369.541	90.5
369.767	85.5
369.993	99.5
370.219	74.5
370.445	95.5
370.672	82.5
370.898	84.5
371.124	97.5
371.35	94.5
371.576	91.5
371.802	86.5
372.028	84.5
372.254	87.5
372.48	90.5
372.706	92.5
372.932	92.5
373.158	104.5
373.384	93.5
373.61	86.5
373.835	102.5
374.061	97.5
374.287	88.5
374.513	78.5
374.739	81.5
374.965	85.5
375.191	84.5
375.416	108.5
375.642	95.5
375.868	83.5
376.094	103.5
376.319	96.5
376.545	102.5
376.771	108.5
376.997	89.5
377.222	91.5
377.448	97.5
377.674	100.5
377.899	86.5
378.125	100.5
378.35	96.5
378.576	105.5
378.802	85.5
379.027	93.5
379.253	103.5
379.478	111.5
379.704	95.5
379.929	95.5
380.155	95.5
380.38	97.5
380.606	110.5
380.831	101.5
381.057	104.5
381.282	87.5
381.507	105.5
381.733	102.5
381.958	97.5
382.184	118.5
382.409	98.5
382.634	91.5
382.86	93.5
383.085	97.5
383.31	100.5
383.535	104.5
383.761	99.5
383.986	119.5
384.211	101.5
384.436	107.5
384.662	103.5
384.887	102.5
385.112	107.5
385.337	120.5
385.562	108.5
385.787	116.5
386.013	112.5
386.238	123.5
386.463	99.5
386.688	109.5
386.913	108.5
387.138	106.5
387.363	115.5
387.588	107.5
387.813	102.5
388.038	99.5
388.263	115.5
388.488	114.5
388.713	111.5
388.938	99.5
389.163	92.5
389.387	92.5
389.612	92.5
389.837	103.5
390.062	97.5
390.287	100.5
390.512	96.5
390.736	77.5
390.961	92.5
391.186	92.5
391.411	99.5
391.636	93.5
391.86	94.5
392.085	88.5
392.31	104.5
392.534	88.5
392.759	91.5
392.984	94.5
393.208	96.5
393.433	93.5
393.658	85.5
393.882	86.5
394.107	81.5
394.331	91.5
394.556	89.5
394.78	90.5
395.005	90.5
395.229	80.5
395.454	92.5
395.678	87.5
395.903	91.5
396.127	87.5
396.352	100.5
396.576	89.5
396.801	86.5
397.025	90.5
397.249	85.5
397.474	89.5
397.698	87.5
397.922	102.5
398.147	86.5
398.371	87.5
398.595	95.5
398.82	85.5
399.044	85.5
399.268	89.5
399.492	89.5
399.717	103.5
399.941	89.5
400.165	91.5
400.389	89.5
400.613	83.5
400.837	90.5
401.062	94.5
401.286	94.5
401.51	80.5
401.734	92.5
401.958	114.5
402.182	123.5
402.406	146.5
402.63	101.5
402.854	104.5
403.078	101.5
403.302	85.5
403.526	92.5
403.75	96.5
403.974	95.5
404.198	82.5
404.422	91.5
404.645	88.5
404.869	89.5
405.093	102.5
405.317	91.5
405.541	101.5
405.765	107.5
405.988	109.5
406.212	152.5
406.436	200.5
406.66	136.5
406.883	101.5
407.107	93.5
407.331	103.5
407.555	107.5
407.778	105.5
408.002	92.5
408.226	86.5
408.449	77.5
408.673	106.5
408.896	111.5
409.12	84.5
409.344	88.5
409.567	84.5
409.791	95.5
410.014	90.5
410.238	102.5
410.461	95.5
410.685	95.5
410.908	104.5
411.132	108.5
411.355	90.5
411.578	100.5
411.802	110.5
412.025	105.5
412.249	106.5
412.472	96.5
412.695	95.5
412.919	85.5
413.142	108.5
413.365	91.5
413.589	90.5
413.812	96.5
414.035	87.5
414.258	85.5
414.482	82.5
414.705	101.5
414.928	98.5
415.151	109.5
415.374	94.5
415.597	83.5
415.821	83.5
416.044	86.5
416.267	89.5
416.49	98.5
416.713	99.5
416.936	91.5
417.159	107.5
417.382	93.5
417.605	98.5
417.828	96.5
418.051	81.5
418.274	80.5
418.497	107.5
418.72	94.5
418.943	95.5
419.166	84.5
419.389	86.5
419.611	67.5
419.834	99.5
420.057	91.5
420.28	85.5
420.503	104.5
420.726	90.5
420.948	99.5
421.171	79.5
421.394	88.5
421.617	101.5
421.839	95.5
422.062	89.5
422.285	110.5
422.507	111.5
422.73	106.5
422.953	103.5
423.175	79.5
423.398	94.5
423.621	93.5
423.843	75.5
424.066	98.5
424.288	94.5
424.511	100.5
424.733	95.5
424.956	104.5
425.178	88.5
425.401	96.5
425.623	98.5
425.846	92.5
426.068	97.5
426.291	96.5
426.513	80.5
426.735	101.5
426.958	86.5
427.18	111.5
427.402	129.5
427.625	172.5
427.847	125.5
428.069	107.5
428.292	93.5
428.514	93.5
428.736	89.5
428.958	94.5
429.181	96.5
429.403	84.5
429.625	73.5
429.847	103.5
430.069	90.5
430.292	95.5
430.514	90.5
430.736	91.5
430.958	94.5
431.18	85.5
431.402	81.5
431.624	89.5
431.846	84.5
432.068	78.5
432.29	85.5
432.512	84.5
432.734	109.5
432.956	99.5
433.178	111.5
433.4	92.5
433.622	108.5
433.844	103.5
434.066	90.5
434.287	90.5
434.509	91.5
434.731	91.5
434.953	76.5
435.175	87.5
435.397	94.5
435.618	96.5
435.84	108.5
436.062	123.5
436.284	99.5
436.505	97.5
436.727	97.5
436.949	85.5
437.17	99.5
437.392	100.5
437.614	92.5
437.835	94.5
438.057	116.5
438.278	111.5
438.5	116.5
438.721	105.5
438.943	107.5
439.165	91.5
439.386	84.5
439.608	105.5
439.829	95.5
440.05	115.5
440.272	130.5
440.493	104.5
440.715	92.5
440.936	89.5
441.158	93.5
441.379	84.5
441.6	82.5
441.822	103.5
442.043	99.5
442.264	104.5
442.486	106.5
442.707	94.5
442.928	108.5
443.149	114.5
443.371	116.5
443.592	97.5
443.813	101.5
444.034	104.5
444.255	90.5
444.476	91.5
444.698	85.5
444.919	93.5
445.14	125.5
445.361	120.5
445.582	112.5
445.803	139.5
446.024	127.5
446.245	125.5
446.466	103.5
446.687	74.5
446.908	94.5
447.129	92.5
447.35	88.5
447.571	93.5
447.792	94.5
448.013	91.5
448.234	108.5
448.455	98.5
448.675	102.5
448.896	112.5
449.117	96.5
449.338	109.5
449.559	112.5
449.779	149.5
450	88.5
450.221	87.5
450.442	95.5
450.662	108.5
450.883	105.5
451.104	106.5
451.324	98.5
451.545	80.5
451.766	83.5
451.986	92.5
452.207	74.5
452.428	93.5
452.648	98.5
452.869	107.5
453.089	112.5
453.31	106.5
453.53	110.5
453.751	100.5
453.971	97.5
454.192	100.5
454.412	100.5
454.633	92.5
454.853	101.5
455.073	88.5
455.294	88.5
455.514	100.5
455.734	89.5
455.955	77.5
456.175	99.5
456.395	81.5
456.616	86.5
456.836	78.5
457.056	83.5
457.276	76.5
457.497	87.5
457.717	91.5
457.937	85.5
458.157	101.5
458.377	96.5
458.598	111.5
458.818	123.5
459.038	135.5
459.258	106.5
459.478	80.5
459.698	89.5
459.918	86.5
460.138	83.5
460.358	89.5
460.578	82.5
460.798	105.5
461.018	83.5
461.238	88.5
461.458	100.5
461.678	94.5
461.898	87.5
462.118	92.5
462.338	96.5
462.558	88.5
462.777	75.5
462.997	76.5
463.217	85.5
463.437	90.5
463.657	92.5
463.876	93.5
464.096	83.5
464.316	86.5
464.536	90.5
464.755	96.5
464.975	108.5
465.195	150.5
465.414	143.5
465.634	114.5
465.854	103.5
466.073	104.5
466.293	88.5
466.512	94.5
466.732	77.5
466.951	73.5
467.171	89.5
467.391	95.5
467.61	98.5
467.829	106.5
468.049	92.5
468.268	83.5
468.488	90.5
468.707	82.5
468.927	83.5
469.146	93.5
469.365	91.5
469.585	87.5
469.804	102.5
470.023	87.5
470.243	112.5
470.462	94.5
470.681	110.5
470.901	97.5
471.12	91.5
471.339	75.5
471.558	83.5
471.777	95.5
471.997	77.5
472.216	91.5
472.435	98.5
472.654	79.5
472.873	70.5
473.092	94.5
473.311	92.5
473.53	76.5
473.749	87.5
473.968	97.5
474.187	103.5
474.406	96.5
474.625	93.5
474.844	92.5
475.063	87.5
475.282	73.5
475.501	98.5
475.72	107.5
475.939	98.5
476.158	86.5
476.377	89.5
476.596	91.5
476.814	95.5
477.033	86.5
477.252	83.5
477.471	94.5
477.69	81.5
477.908	89.5
478.127	100.5
478.346	88.5
478.564	78.5
478.783	91.5
479.002	89.5
479.22	93.5
479.439	93.5
479.658	85.5
479.876	80.5
480.095	88.5
480.313	96.5
480.532	104.5
480.751	88.5
480.969	87.5
481.188	98.5
481.406	96.5
481.624	100.5
481.843	90.5
482.061	75.5
482.28	77.5
482.498	89.5
482.717	103.5
482.935	95.5
483.153	99.5
483.372	88.5
483.59	82.5
483.808	92.5
484.027	73.5
484.245	98.5
484.463	93.5
484.681	108.5
484.9	92.5
485.118	79.5
485.336	75.5
485.554	108.5
485.772	107.5
485.99	91.5
486.209	106.5
486.427	108.5
486.645	100.5
486.863	107.5
487.081	91.5
487.299	100.5
487.517	100.5
487.735	101.5
487.953	102.5
488.171	86.5
488.389	98.5
488.607	92.5
488.825	78.5
489.043	89.5
489.261	93.5
489.479	98.5
489.696	81.5
489.914	96.5
490.132	83.5
490.35	93.5
490.568	96.5
490.786	95.5
491.003	89.5
491.221	96.5
491.439	104.5
491.657	87.5
491.874	96.5
492.092	82.5
492.31	92.5
492.527	96.5
492.745	91.5
492.963	84.5
493.18	107.5
493.398	89.5
493.615	96.5
493.833	93.5
494.05	96.5
494.268	90.5
494.485	107.5
494.703	89.5
494.92	92.5
495.138	89.5
495.355	87.5
495.573	85.5
495.79	80.5
496.008	95.5
496.225	87.5
496.442	95.5
496.66	93.5
496.877	95.5
497.094	93.5
497.312	96.5
497.529	83.5
497.746	86.5
497.963	92.5
498.181	97.5
498.398	88.5
498.615	104.5
498.832	110.5
499.049	91.5
499.267	87.5
499.484	93.5
499.701	92.5
499.918	83.5
500.135	96.5
500.352	96.5
500.569	86.5
500.786	84.5
501.003	88.5
501.22	93.5
501.437	100.5
501.654	108.5
501.871	98.5
502.088	82.5
502.305	95.5
502.522	79.5
502.739	89.5
502.956	85.5
503.172	74.5
503.389	91.5
503.606	98.5
503.823	103.5
504.04	94.5
504.256	84.5
504.473	81.5
504.69	95.5
504.907	100.5
505.123	94.5
505.34	92.5
505.557	89.5
505.773	84.5
505.99	99.5
506.207	85.5
506.423	83.5
506.64	79.5
506.856	86.5
507.073	96.5
507.289	83.5
507.506	107.5
507.722	110.5
507.939	91.5
508.155	85.5
508.372	99.5
508.588	100.5
508.805	110.5
509.021	92.5
509.238	104.5
509.454	92.5
509.67	98.5
509.887	112.5
510.103	125.5
510.319	197.5
510.536	762.5
510.752	2330.5
510.968	659.5
511.184	148.5
511.401	113.5
511.617	98.5
511.833	96.5
512.049	95.5
512.265	94.5
512.481	101.5
512.698	101.5
512.914	91.5
513.13	95.5
513.346	103.5
513.562	106.5
513.778	116.5
513.994	96.5
514.21	115.5
514.426	125.5
514.642	117.5
514.858	120.5
515.074	159.5
515.29	410.5
515.506	1460.5
515.721	543.5
515.937	150.5
516.153	104.5
516.369	100.5
516.585	97.5
516.801	87.5
517.016	94.5
517.232	97.5
517.448	91.5
517.664	97.5
517.879	96.5
518.095	92.5
518.311	89.5
518.527	83.5
518.742	106.5
518.958	96.5
519.173	91.5
519.389	88.5
519.605	97.5
519.82	94.5
520.036	101.5
520.251	106.5
520.467	113.5
520.682	102.5
520.898	111.5
521.113	120.5
521.329	140.5
521.544	209.5
521.76	547.5
521.975	2331.5
522.19	1423.5
522.406	298.5
522.621	126.5
522.836	116.5
523.052	81.5
523.267	105.5
523.482	91.5
523.698	103.5
523.913	134.5
524.128	123.5
524.343	97.5
524.559	98.5
524.774	89.5
524.989	99.5
525.204	113.5
525.419	101.5
525.634	101.5
525.849	79.5
526.064	90.5
526.28	92.5
526.495	81.5
526.71	91.5
526.925	79.5
527.14	81.5
527.355	88.5
527.57	97.5
527.785	99.5
527.999	82.5
528.214	107.5
528.429	87.5
528.644	89.5
528.859	95.5
529.074	95.5
529.289	110.5
529.503	186.5
529.718	103.5
529.933	93.5
530.148	93.5
530.363	101.5
530.577	96.5
530.792	89.5
531.007	94.5
531.221	89.5
531.436	72.5
531.651	100.5
531.865	89.5
532.08	100.5
532.295	107.5
532.509	107.5
532.724	96.5
532.938	90.5
533.153	96.5
533.367	90.5
533.582	97.5
533.796	85.5
534.011	99.5
534.225	84.5
534.44	88.5
534.654	111.5
