Data from Uncirc_2008_H10_HRD10591_00080.txt Node
Date: Wed Jan 03 10:15:46 EST 2024
User: Yrep
Spectrometer: HR+D1059
Trigger mode: 1
Integration Time (sec): 1.000000E-1
Scans to average: 1
Electric dark correction enabled: true
Nonlinearity correction enabled: false
Boxcar width: 0
XAxis mode: Wavelengths
Number of Pixels in Spectrum: 2048
>>>>>Begin Spectral Data<<<<<
223.165	-17.69
223.4	-17.69
223.635	-17.69
223.869	-19.69
224.104	-4.69
224.338	-15.69
224.573	-19.69
224.808	-12.69
225.042	-0.69
225.277	0.31
225.511	-10.69
225.746	-17.69
225.98	9.31
226.215	9.31
226.449	27.31
226.683	26.31
226.918	24.31
227.152	22.31
227.387	32.31
227.621	46.31
227.856	56.31
228.09	37.31
228.324	42.31
228.559	56.31
228.793	52.31
229.027	49.31
229.262	84.31
229.496	75.31
229.73	78.31
229.964	72.31
230.199	74.31
230.433	76.31
230.667	79.31
230.901	79.31
231.136	84.31
231.37	85.31
231.604	89.31
231.838	81.31
232.072	88.31
232.306	65.31
232.541	72.31
232.775	92.31
233.009	88.31
233.243	70.31
233.477	90.31
233.711	82.31
233.945	84.31
234.179	83.31
234.413	78.31
234.647	72.31
234.881	76.31
235.115	74.31
235.349	72.31
235.583	67.31
235.817	85.31
236.051	93.31
236.285	75.31
236.519	93.31
236.753	76.31
236.987	78.31
237.221	74.31
237.455	88.31
237.689	89.31
237.922	81.31
238.156	85.31
238.39	74.31
238.624	70.31
238.858	74.31
239.091	64.31
239.325	82.31
239.559	70.31
239.793	90.31
240.027	69.31
240.26	90.31
240.494	69.31
240.728	84.31
240.961	78.31
241.195	74.31
241.429	81.31
241.662	92.31
241.896	78.31
242.13	72.31
242.363	88.31
242.597	83.31
242.83	78.31
243.064	77.31
243.298	68.31
243.531	80.31
243.765	84.31
243.998	89.31
244.232	70.31
244.465	89.31
244.699	71.31
244.932	77.31
245.166	82.31
245.399	77.31
245.633	80.31
245.866	79.31
246.099	86.31
246.333	92.31
246.566	79.31
246.8	82.31
247.033	77.31
247.266	76.31
247.5	68.31
247.733	80.31
247.966	83.31
248.2	82.31
248.433	80.31
248.666	94.31
248.899	90.31
249.133	80.31
249.366	87.31
249.599	108.31
249.832	85.31
250.066	90.31
250.299	85.31
250.532	76.31
250.765	91.31
250.998	88.31
251.231	78.31
251.465	81.31
251.698	83.31
251.931	83.31
252.164	82.31
252.397	97.31
252.63	81.31
252.863	80.31
253.096	70.31
253.329	69.31
253.562	92.31
253.795	78.31
254.028	90.31
254.261	95.31
254.494	77.31
254.727	73.31
254.96	92.31
255.193	92.31
255.426	89.31
255.659	80.31
255.892	80.31
256.124	73.31
256.357	78.31
256.59	93.31
256.823	91.31
257.056	83.31
257.289	98.31
257.521	100.31
257.754	80.31
257.987	91.31
258.22	75.31
258.452	84.31
258.685	97.31
258.918	77.31
259.151	72.31
259.383	86.31
259.616	79.31
259.849	79.31
260.081	88.31
260.314	85.31
260.547	86.31
260.779	107.31
261.012	108.31
261.244	86.31
261.477	72.31
261.71	94.31
261.942	105.31
262.175	109.31
262.407	82.31
262.64	81.31
262.872	90.31
263.105	84.31
263.337	69.31
263.57	86.31
263.802	94.31
264.035	94.31
264.267	91.31
264.499	86.31
264.732	81.31
264.964	75.31
265.197	89.31
265.429	90.31
265.661	108.31
265.894	83.31
266.126	71.31
266.358	90.31
266.591	92.31
266.823	84.31
267.055	85.31
267.287	87.31
267.52	86.31
267.752	95.31
267.984	105.31
268.216	95.31
268.448	93.31
268.681	77.31
268.913	79.31
269.145	91.31
269.377	75.31
269.609	86.31
269.841	83.31
270.073	78.31
270.306	88.31
270.538	84.31
270.77	92.31
271.002	91.31
271.234	92.31
271.466	80.31
271.698	74.31
271.93	94.31
272.162	82.31
272.394	94.31
272.626	81.31
272.858	77.31
273.09	85.31
273.322	73.31
273.553	79.31
273.785	88.31
274.017	74.31
274.249	72.31
274.481	85.31
274.713	99.31
274.945	94.31
275.176	91.31
275.408	91.31
275.64	82.31
275.872	93.31
276.104	93.31
276.335	92.31
276.567	92.31
276.799	97.31
277.031	101.31
277.262	93.31
277.494	102.31
277.726	84.31
277.957	77.31
278.189	85.31
278.421	88.31
278.652	99.31
278.884	80.31
279.115	104.31
279.347	93.31
279.579	94.31
279.81	97.31
280.042	98.31
280.273	88.31
280.505	81.31
280.736	74.31
280.968	86.31
281.199	74.31
281.431	94.31
281.662	93.31
281.894	86.31
282.125	93.31
282.356	99.31
282.588	141.31
282.819	118.31
283.051	91.31
283.282	81.31
283.513	95.31
283.745	96.31
283.976	89.31
284.207	98.31
284.439	77.31
284.67	74.31
284.901	88.31
285.132	84.31
285.364	65.31
285.595	100.31
285.826	98.31
286.057	92.31
286.288	80.31
286.52	95.31
286.751	88.31
286.982	95.31
287.213	88.31
287.444	95.31
287.675	94.31
287.906	92.31
288.138	100.31
288.369	90.31
288.6	92.31
288.831	93.31
289.062	90.31
289.293	77.31
289.524	81.31
289.755	92.31
289.986	78.31
290.217	92.31
290.448	87.31
290.679	97.31
290.91	100.31
291.141	88.31
291.371	92.31
291.602	82.31
291.833	86.31
292.064	90.31
292.295	111.31
292.526	96.31
292.757	100.31
292.987	96.31
293.218	88.31
293.449	68.31
293.68	103.31
293.91	94.31
294.141	115.31
294.372	86.31
294.603	94.31
294.833	92.31
295.064	86.31
295.295	89.31
295.525	87.31
295.756	90.31
295.987	115.31
296.217	122.31
296.448	130.31
296.679	108.31
296.909	105.31
297.14	90.31
297.37	90.31
297.601	81.31
297.831	87.31
298.062	77.31
298.292	91.31
298.523	96.31
298.753	99.31
298.984	88.31
299.214	91.31
299.445	91.31
299.675	106.31
299.905	89.31
300.136	79.31
300.366	109.31
300.597	81.31
300.827	110.31
301.057	81.31
301.288	93.31
301.518	96.31
301.748	113.31
301.979	94.31
302.209	86.31
302.439	90.31
302.669	102.31
302.9	96.31
303.13	93.31
303.36	101.31
303.59	106.31
303.82	91.31
304.051	99.31
304.281	109.31
304.511	99.31
304.741	77.31
304.971	90.31
305.201	88.31
305.431	98.31
305.661	89.31
305.891	101.31
306.121	95.31
306.352	92.31
306.582	94.31
306.812	90.31
307.042	84.31
307.272	101.31
307.502	101.31
307.731	97.31
307.961	97.31
308.191	94.31
308.421	87.31
308.651	100.31
308.881	90.31
309.111	93.31
309.341	101.31
309.571	95.31
309.8	99.31
310.03	91.31
310.26	89.31
310.49	95.31
310.72	90.31
310.949	106.31
311.179	101.31
311.409	102.31
311.639	95.31
311.868	93.31
312.098	83.31
312.328	105.31
312.557	119.31
312.787	93.31
313.017	84.31
313.246	98.31
313.476	84.31
313.706	95.31
313.935	109.31
314.165	100.31
314.394	113.31
314.624	81.31
314.853	105.31
315.083	96.31
315.312	82.31
315.542	91.31
315.771	94.31
316.001	105.31
316.23	88.31
316.46	90.31
316.689	92.31
316.919	99.31
317.148	85.31
317.377	89.31
317.607	94.31
317.836	91.31
318.065	96.31
318.295	116.31
318.524	96.31
318.753	89.31
318.983	90.31
319.212	116.31
319.441	103.31
319.67	122.31
319.9	103.31
320.129	87.31
320.358	95.31
320.587	93.31
320.816	108.31
321.046	94.31
321.275	95.31
321.504	92.31
321.733	94.31
321.962	96.31
322.191	105.31
322.42	104.31
322.649	105.31
322.878	104.31
323.108	112.31
323.337	120.31
323.566	130.31
323.795	145.31
324.024	197.31
324.253	337.31
324.482	724.31
324.71	1483.31
324.939	1961.31
325.168	741.31
325.397	233.31
325.626	142.31
325.855	136.31
326.084	133.31
326.313	127.31
326.542	153.31
326.77	206.31
326.999	415.31
327.228	866.31
327.457	1538.31
327.686	1244.31
327.914	336.31
328.143	164.31
328.372	144.31
328.6	117.31
328.829	114.31
329.058	121.31
329.287	128.31
329.515	105.31
329.744	103.31
329.972	108.31
330.201	95.31
330.43	110.31
330.658	120.31
330.887	141.31
331.115	117.31
331.344	100.31
331.572	104.31
331.801	98.31
332.03	94.31
332.258	94.31
332.486	91.31
332.715	101.31
332.943	100.31
333.172	97.31
333.4	88.31
333.629	91.31
333.857	98.31
334.085	110.31
334.314	103.31
334.542	100.31
334.771	102.31
334.999	112.31
335.227	105.31
335.455	93.31
335.684	99.31
335.912	110.31
336.14	97.31
336.369	97.31
336.597	103.31
336.825	94.31
337.053	91.31
337.281	94.31
337.51	89.31
337.738	99.31
337.966	92.31
338.194	83.31
338.422	98.31
338.65	106.31
338.878	94.31
339.106	99.31
339.334	95.31
339.562	95.31
339.79	99.31
340.018	93.31
340.246	88.31
340.474	83.31
340.702	80.31
340.93	91.31
341.158	84.31
341.386	101.31
341.614	77.31
341.842	96.31
342.07	100.31
342.298	92.31
342.526	94.31
342.754	89.31
342.981	95.31
343.209	85.31
343.437	98.31
343.665	106.31
343.893	84.31
344.12	94.31
344.348	88.31
344.576	90.31
344.804	89.31
345.031	86.31
345.259	104.31
345.487	92.31
345.714	98.31
345.942	91.31
346.17	106.31
346.397	104.31
346.625	89.31
346.853	97.31
347.08	104.31
347.308	101.31
347.535	92.31
347.763	109.31
347.99	100.31
348.218	100.31
348.445	104.31
348.673	90.31
348.9	110.31
349.128	106.31
349.355	105.31
349.583	104.31
349.81	97.31
350.037	90.31
350.265	101.31
350.492	93.31
350.72	109.31
350.947	93.31
351.174	120.31
351.402	96.31
351.629	95.31
351.856	107.31
352.083	104.31
352.311	94.31
352.538	111.31
352.765	107.31
352.992	117.31
353.22	109.31
353.447	102.31
353.674	121.31
353.901	106.31
354.128	103.31
354.355	95.31
354.583	123.31
354.81	107.31
355.037	99.31
355.264	100.31
355.491	98.31
355.718	92.31
355.945	96.31
356.172	95.31
356.399	88.31
356.626	93.31
356.853	100.31
357.08	109.31
357.307	109.31
357.534	94.31
357.761	84.31
357.988	105.31
358.215	96.31
358.441	93.31
358.668	100.31
358.895	103.31
359.122	98.31
359.349	95.31
359.576	104.31
359.802	89.31
360.029	109.31
360.256	114.31
360.483	90.31
360.709	95.31
360.936	103.31
361.163	99.31
361.39	91.31
361.616	94.31
361.843	100.31
362.07	95.31
362.296	114.31
362.523	80.31
362.749	95.31
362.976	100.31
363.203	89.31
363.429	92.31
363.656	89.31
363.882	91.31
364.109	102.31
364.335	89.31
364.562	104.31
364.788	91.31
365.015	96.31
365.241	96.31
365.468	108.31
365.694	106.31
365.92	94.31
366.147	92.31
366.373	93.31
366.599	105.31
366.826	102.31
367.052	85.31
367.278	98.31
367.505	80.31
367.731	112.31
367.957	100.31
368.184	81.31
368.41	101.31
368.636	111.31
368.862	118.31
369.089	97.31
369.315	100.31
369.541	102.31
369.767	86.31
369.993	85.31
370.219	92.31
370.445	87.31
370.672	112.31
370.898	99.31
371.124	96.31
371.35	92.31
371.576	97.31
371.802	93.31
372.028	105.31
372.254	97.31
372.48	98.31
372.706	96.31
372.932	97.31
373.158	93.31
373.384	100.31
373.61	100.31
373.835	94.31
374.061	111.31
374.287	91.31
374.513	83.31
374.739	84.31
374.965	100.31
375.191	105.31
375.416	91.31
375.642	90.31
375.868	90.31
376.094	105.31
376.319	82.31
376.545	97.31
376.771	92.31
376.997	103.31
377.222	83.31
377.448	105.31
377.674	94.31
377.899	94.31
378.125	94.31
378.35	88.31
378.576	97.31
378.802	90.31
379.027	91.31
379.253	94.31
379.478	91.31
379.704	110.31
379.929	93.31
380.155	84.31
380.38	89.31
380.606	95.31
380.831	97.31
381.057	94.31
381.282	77.31
381.507	99.31
381.733	108.31
381.958	92.31
382.184	106.31
382.409	110.31
382.634	99.31
382.86	94.31
383.085	109.31
383.31	95.31
383.535	100.31
383.761	118.31
383.986	99.31
384.211	87.31
384.436	96.31
384.662	108.31
384.887	95.31
385.112	93.31
385.337	113.31
385.562	107.31
385.787	112.31
386.013	94.31
386.238	107.31
386.463	100.31
386.688	109.31
386.913	97.31
387.138	99.31
387.363	97.31
387.588	100.31
387.813	98.31
388.038	115.31
388.263	97.31
388.488	104.31
388.713	109.31
388.938	92.31
389.163	100.31
389.387	97.31
389.612	107.31
389.837	101.31
390.062	86.31
390.287	88.31
390.512	97.31
390.736	98.31
390.961	94.31
391.186	92.31
391.411	103.31
391.636	91.31
391.86	97.31
392.085	96.31
392.31	118.31
392.534	85.31
392.759	95.31
392.984	77.31
393.208	86.31
393.433	91.31
393.658	101.31
393.882	89.31
394.107	81.31
394.331	92.31
394.556	95.31
394.78	89.31
395.005	91.31
395.229	85.31
395.454	94.31
395.678	100.31
395.903	85.31
396.127	96.31
396.352	96.31
396.576	97.31
396.801	92.31
397.025	88.31
397.249	78.31
397.474	103.31
397.698	95.31
397.922	88.31
398.147	92.31
398.371	86.31
398.595	88.31
398.82	74.31
399.044	95.31
399.268	84.31
399.492	89.31
399.717	85.31
399.941	87.31
400.165	79.31
400.389	93.31
400.613	83.31
400.837	83.31
401.062	93.31
401.286	84.31
401.51	72.31
401.734	92.31
401.958	108.31
402.182	117.31
402.406	155.31
402.63	113.31
402.854	100.31
403.078	91.31
403.302	83.31
403.526	85.31
403.75	91.31
403.974	95.31
404.198	100.31
404.422	99.31
404.645	92.31
404.869	85.31
405.093	93.31
405.317	84.31
405.541	99.31
405.765	95.31
405.988	119.31
406.212	171.31
406.436	205.31
406.66	139.31
406.883	99.31
407.107	99.31
407.331	95.31
407.555	109.31
407.778	96.31
408.002	89.31
408.226	104.31
408.449	102.31
408.673	90.31
408.896	84.31
409.12	86.31
409.344	101.31
409.567	100.31
409.791	100.31
410.014	109.31
410.238	104.31
410.461	99.31
410.685	97.31
410.908	125.31
411.132	124.31
411.355	105.31
411.578	98.31
411.802	100.31
412.025	105.31
412.249	101.31
412.472	92.31
412.695	99.31
412.919	103.31
413.142	93.31
413.365	74.31
413.589	96.31
413.812	98.31
414.035	89.31
414.258	78.31
414.482	66.31
414.705	84.31
414.928	101.31
415.151	81.31
415.374	104.31
415.597	101.31
415.821	89.31
416.044	86.31
416.267	93.31
416.49	81.31
416.713	97.31
416.936	87.31
417.159	101.31
417.382	77.31
417.605	85.31
417.828	89.31
418.051	76.31
418.274	94.31
418.497	87.31
418.72	80.31
418.943	81.31
419.166	86.31
419.389	104.31
419.611	90.31
419.834	105.31
420.057	92.31
420.28	90.31
420.503	72.31
420.726	91.31
420.948	99.31
421.171	100.31
421.394	86.31
421.617	83.31
421.839	110.31
422.062	85.31
422.285	85.31
422.507	94.31
422.73	97.31
422.953	98.31
423.175	103.31
423.398	92.31
423.621	95.31
423.843	102.31
424.066	81.31
424.288	90.31
424.511	95.31
424.733	107.31
424.956	101.31
425.178	104.31
425.401	105.31
425.623	113.31
425.846	91.31
426.068	82.31
426.291	86.31
426.513	96.31
426.735	84.31
426.958	92.31
427.18	99.31
427.402	129.31
427.625	165.31
427.847	118.31
428.069	92.31
428.292	85.31
428.514	91.31
428.736	90.31
428.958	89.31
429.181	87.31
429.403	79.31
429.625	91.31
429.847	102.31
430.069	109.31
430.292	101.31
430.514	84.31
430.736	81.31
430.958	83.31
431.18	90.31
431.402	80.31
431.624	85.31
431.846	89.31
432.068	90.31
432.29	94.31
432.512	93.31
432.734	91.31
432.956	104.31
433.178	105.31
433.4	93.31
433.622	72.31
433.844	95.31
434.066	91.31
434.287	92.31
434.509	76.31
434.731	101.31
434.953	86.31
435.175	99.31
435.397	90.31
435.618	94.31
435.84	117.31
436.062	120.31
436.284	122.31
436.505	100.31
436.727	94.31
436.949	101.31
437.17	94.31
437.392	89.31
437.614	93.31
437.835	95.31
438.057	120.31
438.278	116.31
438.5	110.31
438.721	125.31
438.943	115.31
439.165	87.31
439.386	104.31
439.608	89.31
439.829	93.31
440.05	125.31
440.272	136.31
440.493	95.31
440.715	91.31
440.936	88.31
441.158	101.31
441.379	80.31
441.6	93.31
441.822	100.31
442.043	92.31
442.264	101.31
442.486	106.31
442.707	98.31
442.928	110.31
443.149	128.31
443.371	125.31
443.592	101.31
443.813	101.31
444.034	123.31
444.255	85.31
444.476	95.31
444.698	84.31
444.919	97.31
445.14	127.31
445.361	129.31
445.582	118.31
445.803	135.31
446.024	114.31
446.245	146.31
446.466	109.31
446.687	94.31
446.908	88.31
447.129	86.31
447.35	102.31
447.571	85.31
447.792	105.31
448.013	102.31
448.234	103.31
448.455	110.31
448.675	103.31
448.896	117.31
449.117	98.31
449.338	95.31
449.559	121.31
449.779	133.31
450	93.31
450.221	86.31
450.442	96.31
450.662	89.31
450.883	92.31
451.104	99.31
451.324	95.31
451.545	98.31
451.766	98.31
451.986	98.31
452.207	100.31
452.428	84.31
452.648	83.31
452.869	112.31
453.089	109.31
453.31	111.31
453.53	97.31
453.751	101.31
453.971	94.31
454.192	104.31
454.412	93.31
454.633	97.31
454.853	91.31
455.073	101.31
455.294	97.31
455.514	91.31
455.734	90.31
455.955	102.31
456.175	92.31
456.395	78.31
456.616	86.31
456.836	89.31
457.056	81.31
457.276	86.31
457.497	85.31
457.717	96.31
457.937	92.31
458.157	95.31
458.377	103.31
458.598	103.31
458.818	147.31
459.038	143.31
459.258	107.31
459.478	79.31
459.698	99.31
459.918	96.31
460.138	89.31
460.358	91.31
460.578	99.31
460.798	83.31
461.018	81.31
461.238	84.31
461.458	100.31
461.678	91.31
461.898	84.31
462.118	98.31
462.338	86.31
462.558	87.31
462.777	88.31
462.997	99.31
463.217	73.31
463.437	83.31
463.657	83.31
463.876	78.31
464.096	76.31
464.316	89.31
464.536	94.31
464.755	99.31
464.975	103.31
465.195	158.31
465.414	156.31
465.634	93.31
465.854	85.31
466.073	89.31
466.293	87.31
466.512	91.31
466.732	96.31
466.951	98.31
467.171	119.31
467.391	95.31
467.61	99.31
467.829	96.31
468.049	86.31
468.268	77.31
468.488	101.31
468.707	80.31
468.927	93.31
469.146	91.31
469.365	89.31
469.585	77.31
469.804	82.31
470.023	102.31
470.243	84.31
470.462	115.31
470.681	115.31
470.901	90.31
471.12	82.31
471.339	100.31
471.558	86.31
471.777	89.31
471.997	91.31
472.216	88.31
472.435	89.31
472.654	90.31
472.873	81.31
473.092	98.31
473.311	88.31
473.53	81.31
473.749	79.31
473.968	94.31
474.187	112.31
474.406	101.31
474.625	86.31
474.844	92.31
475.063	100.31
475.282	92.31
475.501	94.31
475.72	86.31
475.939	83.31
476.158	85.31
476.377	88.31
476.596	78.31
476.814	96.31
477.033	100.31
477.252	81.31
477.471	78.31
477.69	99.31
477.908	91.31
478.127	88.31
478.346	80.31
478.564	93.31
478.783	88.31
479.002	99.31
479.22	101.31
479.439	109.31
479.658	112.31
479.876	100.31
480.095	96.31
480.313	84.31
480.532	97.31
480.751	88.31
480.969	71.31
481.188	93.31
481.406	85.31
481.624	93.31
481.843	96.31
482.061	84.31
482.28	95.31
482.498	82.31
482.717	86.31
482.935	90.31
483.153	97.31
483.372	95.31
483.59	89.31
483.808	99.31
484.027	91.31
484.245	100.31
484.463	93.31
484.681	116.31
484.9	88.31
485.118	88.31
485.336	93.31
485.554	120.31
485.772	105.31
485.99	106.31
486.209	102.31
486.427	96.31
486.645	83.31
486.863	112.31
487.081	120.31
487.299	90.31
487.517	98.31
487.735	89.31
487.953	99.31
488.171	92.31
488.389	93.31
488.607	103.31
488.825	99.31
489.043	88.31
489.261	95.31
489.479	94.31
489.696	93.31
489.914	89.31
490.132	87.31
490.35	87.31
490.568	90.31
490.786	109.31
491.003	86.31
491.221	83.31
491.439	94.31
491.657	108.31
491.874	99.31
492.092	94.31
492.31	93.31
492.527	94.31
492.745	104.31
492.963	94.31
493.18	90.31
493.398	81.31
493.615	82.31
493.833	95.31
494.05	103.31
494.268	86.31
494.485	91.31
494.703	94.31
494.92	91.31
495.138	94.31
495.355	90.31
495.573	93.31
495.79	94.31
496.008	80.31
496.225	96.31
496.442	92.31
496.66	96.31
496.877	103.31
497.094	93.31
497.312	98.31
497.529	103.31
497.746	90.31
497.963	89.31
498.181	90.31
498.398	110.31
498.615	128.31
498.832	109.31
499.049	87.31
499.267	89.31
499.484	99.31
499.701	88.31
499.918	92.31
500.135	94.31
500.352	97.31
500.569	100.31
500.786	88.31
501.003	95.31
501.22	89.31
501.437	94.31
501.654	89.31
501.871	101.31
502.088	95.31
502.305	94.31
502.522	99.31
502.739	100.31
502.956	100.31
503.172	82.31
503.389	101.31
503.606	105.31
503.823	100.31
504.04	96.31
504.256	92.31
504.473	85.31
504.69	85.31
504.907	99.31
505.123	78.31
505.34	93.31
505.557	96.31
505.773	85.31
505.99	99.31
506.207	96.31
506.423	82.31
506.64	97.31
506.856	92.31
507.073	77.31
507.289	92.31
507.506	99.31
507.722	112.31
507.939	108.31
508.155	89.31
508.372	85.31
508.588	104.31
508.805	106.31
509.021	93.31
509.238	96.31
509.454	94.31
509.67	95.31
509.887	104.31
510.103	149.31
510.319	213.31
510.536	732.31
510.752	2240.31
510.968	645.31
511.184	157.31
511.401	113.31
511.617	94.31
511.833	94.31
512.049	108.31
512.265	85.31
512.481	93.31
512.698	101.31
512.914	102.31
513.13	92.31
513.346	83.31
513.562	95.31
513.778	98.31
513.994	90.31
514.21	90.31
514.426	105.31
514.642	134.31
514.858	133.31
