Data from Uncirc_2008_H10_HRD10591_00049.txt Node
Date: Wed Jan 03 10:15:40 EST 2024
User: Yrep
Spectrometer: HR+D1059
Trigger mode: 1
Integration Time (sec): 1.000000E-1
Scans to average: 1
Electric dark correction enabled: true
Nonlinearity correction enabled: false
Boxcar width: 0
XAxis mode: Wavelengths
Number of Pixels in Spectrum: 2048
>>>>>Begin Spectral Data<<<<<
223.165	-3.94
223.4	-3.94
223.635	-3.94
223.869	-15.94
224.104	-12.94
224.338	-20.94
224.573	-21.94
224.808	-6.94
225.042	-15.94
225.277	-9.94
225.511	-18.94
225.746	11.06
225.98	18.06
226.215	12.06
226.449	14.06
226.683	19.06
226.918	19.06
227.152	34.06
227.387	38.06
227.621	49.06
227.856	47.06
228.09	51.06
228.324	51.06
228.559	56.06
228.793	72.06
229.027	74.06
229.262	75.06
229.496	83.06
229.73	74.06
229.964	85.06
230.199	78.06
230.433	78.06
230.667	80.06
230.901	74.06
231.136	87.06
231.37	86.06
231.604	79.06
231.838	93.06
232.072	97.06
232.306	75.06
232.541	73.06
232.775	89.06
233.009	66.06
233.243	100.06
233.477	93.06
233.711	92.06
233.945	81.06
234.179	79.06
234.413	69.06
234.647	74.06
234.881	86.06
235.115	77.06
235.349	77.06
235.583	73.06
235.817	89.06
236.051	90.06
236.285	88.06
236.519	77.06
236.753	78.06
236.987	94.06
237.221	80.06
237.455	87.06
237.689	82.06
237.922	88.06
238.156	83.06
238.39	80.06
238.624	89.06
238.858	89.06
239.091	78.06
239.325	81.06
239.559	81.06
239.793	76.06
240.027	79.06
240.26	81.06
240.494	84.06
240.728	84.06
240.961	84.06
241.195	80.06
241.429	84.06
241.662	74.06
241.896	94.06
242.13	82.06
242.363	78.06
242.597	84.06
242.83	80.06
243.064	88.06
243.298	81.06
243.531	88.06
243.765	85.06
243.998	86.06
244.232	74.06
244.465	92.06
244.699	78.06
244.932	82.06
245.166	69.06
245.399	85.06
245.633	82.06
245.866	81.06
246.099	71.06
246.333	74.06
246.566	86.06
246.8	92.06
247.033	78.06
247.266	85.06
247.5	87.06
247.733	74.06
247.966	83.06
248.2	84.06
248.433	91.06
248.666	90.06
248.899	93.06
249.133	97.06
249.366	85.06
249.599	90.06
249.832	82.06
250.066	82.06
250.299	85.06
250.532	80.06
250.765	74.06
250.998	88.06
251.231	85.06
251.465	78.06
251.698	93.06
251.931	99.06
252.164	82.06
252.397	70.06
252.63	83.06
252.863	91.06
253.096	83.06
253.329	92.06
253.562	73.06
253.795	87.06
254.028	78.06
254.261	89.06
254.494	94.06
254.727	94.06
254.96	90.06
255.193	64.06
255.426	84.06
255.659	79.06
255.892	84.06
256.124	90.06
256.357	77.06
256.59	86.06
256.823	91.06
257.056	86.06
257.289	92.06
257.521	101.06
257.754	92.06
257.987	82.06
258.22	76.06
258.452	92.06
258.685	94.06
258.918	80.06
259.151	87.06
259.383	80.06
259.616	90.06
259.849	85.06
260.081	88.06
260.314	84.06
260.547	77.06
260.779	79.06
261.012	83.06
261.244	80.06
261.477	101.06
261.71	95.06
261.942	106.06
262.175	116.06
262.407	92.06
262.64	97.06
262.872	86.06
263.105	83.06
263.337	95.06
263.57	88.06
263.802	87.06
264.035	94.06
264.267	93.06
264.499	70.06
264.732	89.06
264.964	83.06
265.197	85.06
265.429	86.06
265.661	71.06
265.894	91.06
266.126	81.06
266.358	89.06
266.591	87.06
266.823	92.06
267.055	85.06
267.287	91.06
267.52	95.06
267.752	94.06
267.984	92.06
268.216	86.06
268.448	109.06
268.681	88.06
268.913	92.06
269.145	82.06
269.377	87.06
269.609	89.06
269.841	78.06
270.073	83.06
270.306	83.06
270.538	103.06
270.77	76.06
271.002	88.06
271.234	84.06
271.466	77.06
271.698	104.06
271.93	102.06
272.162	86.06
272.394	84.06
272.626	88.06
272.858	93.06
273.09	89.06
273.322	102.06
273.553	93.06
273.785	87.06
274.017	75.06
274.249	85.06
274.481	92.06
274.713	82.06
274.945	93.06
275.176	86.06
275.408	86.06
275.64	78.06
275.872	79.06
276.104	99.06
276.335	90.06
276.567	101.06
276.799	104.06
277.031	100.06
277.262	90.06
277.494	92.06
277.726	86.06
277.957	82.06
278.189	103.06
278.421	87.06
278.652	96.06
278.884	79.06
279.115	83.06
279.347	80.06
279.579	95.06
279.81	90.06
280.042	109.06
280.273	90.06
280.505	90.06
280.736	93.06
280.968	95.06
281.199	99.06
281.431	81.06
281.662	88.06
281.894	95.06
282.125	113.06
282.356	98.06
282.588	129.06
282.819	118.06
283.051	95.06
283.282	92.06
283.513	94.06
283.745	89.06
283.976	102.06
284.207	82.06
284.439	83.06
284.67	87.06
284.901	76.06
285.132	74.06
285.364	84.06
285.595	85.06
285.826	96.06
286.057	87.06
286.288	85.06
286.52	93.06
286.751	100.06
286.982	78.06
287.213	84.06
287.444	85.06
287.675	91.06
287.906	102.06
288.138	96.06
288.369	98.06
288.6	97.06
288.831	102.06
289.062	82.06
289.293	99.06
289.524	85.06
289.755	85.06
289.986	95.06
290.217	62.06
290.448	87.06
290.679	105.06
290.91	85.06
291.141	85.06
291.371	102.06
291.602	99.06
291.833	92.06
292.064	95.06
292.295	99.06
292.526	101.06
292.757	99.06
292.987	102.06
293.218	95.06
293.449	100.06
293.68	84.06
293.91	94.06
294.141	98.06
294.372	99.06
294.603	90.06
294.833	109.06
295.064	81.06
295.295	88.06
295.525	90.06
295.756	96.06
295.987	110.06
296.217	110.06
296.448	130.06
296.679	102.06
296.909	99.06
297.14	87.06
297.37	112.06
297.601	106.06
297.831	104.06
298.062	91.06
298.292	78.06
298.523	90.06
298.753	78.06
298.984	88.06
299.214	99.06
299.445	83.06
299.675	100.06
299.905	98.06
300.136	93.06
300.366	77.06
300.597	110.06
300.827	92.06
301.057	101.06
301.288	100.06
301.518	98.06
301.748	96.06
301.979	97.06
302.209	79.06
302.439	103.06
302.669	91.06
302.9	103.06
303.13	98.06
303.36	97.06
303.59	113.06
303.82	108.06
304.051	110.06
304.281	91.06
304.511	96.06
304.741	88.06
304.971	82.06
305.201	92.06
305.431	90.06
305.661	97.06
305.891	109.06
306.121	100.06
306.352	90.06
306.582	91.06
306.812	86.06
307.042	82.06
307.272	98.06
307.502	98.06
307.731	91.06
307.961	102.06
308.191	92.06
308.421	95.06
308.651	83.06
308.881	98.06
309.111	94.06
309.341	98.06
309.571	104.06
309.8	98.06
310.03	97.06
310.26	110.06
310.49	92.06
310.72	97.06
310.949	85.06
311.179	92.06
311.409	89.06
311.639	95.06
311.868	107.06
312.098	114.06
312.328	102.06
312.557	103.06
312.787	105.06
313.017	99.06
313.246	96.06
313.476	92.06
313.706	95.06
313.935	108.06
314.165	108.06
314.394	107.06
314.624	107.06
314.853	97.06
315.083	100.06
315.312	94.06
315.542	96.06
315.771	85.06
316.001	86.06
316.23	92.06
316.46	88.06
316.689	107.06
316.919	103.06
317.148	87.06
317.377	103.06
317.607	96.06
317.836	106.06
318.065	112.06
318.295	100.06
318.524	83.06
318.753	98.06
318.983	85.06
319.212	105.06
319.441	106.06
319.67	108.06
319.9	101.06
320.129	90.06
320.358	102.06
320.587	88.06
320.816	111.06
321.046	109.06
321.275	118.06
321.504	103.06
321.733	101.06
321.962	104.06
322.191	94.06
322.42	106.06
322.649	97.06
322.878	116.06
323.108	114.06
323.337	126.06
323.566	126.06
323.795	160.06
324.024	183.06
324.253	343.06
324.482	708.06
324.71	1398.06
324.939	1834.06
325.168	686.06
325.397	220.06
325.626	155.06
325.855	119.06
326.084	116.06
326.313	125.06
326.542	131.06
326.77	202.06
326.999	392.06
327.228	804.06
327.457	1405.06
327.686	1138.06
327.914	330.06
328.143	182.06
328.372	134.06
328.6	121.06
328.829	101.06
329.058	116.06
329.287	123.06
329.515	114.06
329.744	104.06
329.972	88.06
330.201	106.06
330.43	109.06
330.658	114.06
330.887	119.06
331.115	116.06
331.344	108.06
331.572	107.06
331.801	119.06
332.03	122.06
332.258	103.06
332.486	99.06
332.715	95.06
332.943	96.06
333.172	117.06
333.4	106.06
333.629	103.06
333.857	109.06
334.085	94.06
334.314	96.06
334.542	104.06
334.771	92.06
334.999	98.06
335.227	92.06
335.455	100.06
335.684	94.06
335.912	93.06
336.14	98.06
336.369	101.06
336.597	90.06
336.825	102.06
337.053	95.06
337.281	87.06
337.51	100.06
337.738	100.06
337.966	99.06
338.194	106.06
338.422	105.06
338.65	98.06
338.878	91.06
339.106	105.06
339.334	90.06
339.562	107.06
339.79	102.06
340.018	95.06
340.246	110.06
340.474	97.06
340.702	94.06
340.93	85.06
341.158	94.06
341.386	84.06
341.614	107.06
341.842	93.06
342.07	82.06
342.298	95.06
342.526	95.06
342.754	81.06
342.981	94.06
343.209	89.06
343.437	99.06
343.665	96.06
343.893	96.06
344.12	91.06
344.348	92.06
344.576	88.06
344.804	94.06
345.031	90.06
345.259	104.06
345.487	99.06
345.714	98.06
345.942	94.06
346.17	107.06
346.397	79.06
346.625	97.06
346.853	84.06
347.08	94.06
347.308	103.06
347.535	111.06
347.763	106.06
347.99	99.06
348.218	104.06
348.445	86.06
348.673	93.06
348.9	101.06
349.128	106.06
349.355	92.06
349.583	99.06
349.81	90.06
350.037	96.06
350.265	102.06
350.492	101.06
350.72	111.06
350.947	100.06
351.174	94.06
351.402	113.06
351.629	108.06
351.856	100.06
352.083	112.06
352.311	113.06
352.538	126.06
352.765	97.06
352.992	116.06
353.22	118.06
353.447	113.06
353.674	113.06
353.901	101.06
354.128	103.06
354.355	107.06
354.583	103.06
354.81	93.06
355.037	112.06
355.264	99.06
355.491	90.06
355.718	94.06
355.945	95.06
356.172	91.06
356.399	87.06
356.626	101.06
356.853	98.06
357.08	97.06
357.307	107.06
357.534	104.06
357.761	105.06
357.988	100.06
358.215	88.06
358.441	96.06
358.668	108.06
358.895	96.06
359.122	103.06
359.349	101.06
359.576	94.06
359.802	115.06
360.029	100.06
360.256	93.06
360.483	95.06
360.709	92.06
360.936	111.06
361.163	88.06
361.39	103.06
361.616	90.06
361.843	91.06
362.07	98.06
362.296	104.06
362.523	104.06
362.749	95.06
362.976	105.06
363.203	96.06
363.429	82.06
363.656	95.06
363.882	97.06
364.109	83.06
364.335	94.06
364.562	87.06
364.788	86.06
365.015	102.06
365.241	95.06
365.468	101.06
365.694	119.06
365.92	93.06
366.147	91.06
366.373	93.06
366.599	97.06
366.826	102.06
367.052	90.06
367.278	92.06
367.505	91.06
367.731	93.06
367.957	87.06
368.184	86.06
368.41	91.06
368.636	124.06
368.862	113.06
369.089	99.06
369.315	98.06
369.541	76.06
369.767	93.06
369.993	93.06
370.219	107.06
370.445	91.06
370.672	98.06
370.898	97.06
371.124	98.06
371.35	102.06
371.576	93.06
371.802	85.06
372.028	81.06
372.254	76.06
372.48	92.06
372.706	83.06
372.932	95.06
373.158	93.06
373.384	110.06
373.61	98.06
373.835	87.06
374.061	86.06
374.287	87.06
374.513	93.06
374.739	102.06
374.965	92.06
375.191	107.06
375.416	100.06
375.642	93.06
375.868	97.06
376.094	109.06
376.319	82.06
376.545	91.06
376.771	85.06
376.997	102.06
377.222	94.06
377.448	94.06
377.674	83.06
377.899	96.06
378.125	101.06
378.35	101.06
378.576	91.06
378.802	92.06
379.027	100.06
379.253	88.06
379.478	87.06
379.704	83.06
379.929	87.06
380.155	103.06
380.38	101.06
380.606	113.06
380.831	107.06
381.057	101.06
381.282	95.06
381.507	75.06
381.733	104.06
381.958	105.06
382.184	101.06
382.409	105.06
382.634	102.06
382.86	106.06
383.085	106.06
383.31	100.06
383.535	98.06
383.761	86.06
383.986	106.06
384.211	105.06
384.436	106.06
384.662	107.06
384.887	117.06
385.112	103.06
385.337	99.06
385.562	106.06
385.787	106.06
386.013	112.06
386.238	119.06
386.463	113.06
386.688	113.06
386.913	100.06
387.138	106.06
387.363	105.06
387.588	96.06
387.813	96.06
388.038	107.06
388.263	115.06
388.488	111.06
388.713	111.06
388.938	107.06
389.163	99.06
389.387	100.06
389.612	113.06
389.837	111.06
390.062	95.06
390.287	91.06
390.512	104.06
390.736	94.06
390.961	103.06
391.186	78.06
391.411	90.06
391.636	91.06
391.86	88.06
392.085	91.06
392.31	84.06
392.534	92.06
392.759	98.06
392.984	79.06
393.208	95.06
393.433	95.06
393.658	85.06
393.882	95.06
394.107	77.06
394.331	77.06
394.556	86.06
394.78	106.06
395.005	83.06
395.229	97.06
395.454	88.06
395.678	97.06
395.903	84.06
396.127	92.06
396.352	90.06
396.576	95.06
396.801	99.06
397.025	93.06
397.249	82.06
397.474	88.06
397.698	82.06
397.922	92.06
398.147	94.06
398.371	92.06
398.595	95.06
398.82	91.06
399.044	92.06
399.268	94.06
399.492	94.06
399.717	87.06
399.941	83.06
400.165	102.06
400.389	80.06
400.613	81.06
400.837	84.06
401.062	74.06
401.286	92.06
401.51	102.06
401.734	101.06
401.958	110.06
402.182	129.06
402.406	142.06
402.63	112.06
402.854	96.06
403.078	94.06
403.302	86.06
403.526	98.06
403.75	103.06
403.974	85.06
404.198	97.06
404.422	86.06
404.645	87.06
404.869	95.06
405.093	102.06
405.317	96.06
405.541	94.06
405.765	109.06
405.988	109.06
406.212	179.06
406.436	194.06
406.66	112.06
406.883	96.06
407.107	91.06
407.331	102.06
407.555	99.06
407.778	90.06
408.002	96.06
408.226	85.06
408.449	90.06
408.673	92.06
408.896	107.06
409.12	85.06
409.344	83.06
409.567	94.06
409.791	92.06
410.014	108.06
410.238	88.06
410.461	101.06
410.685	98.06
410.908	104.06
411.132	114.06
411.355	110.06
411.578	88.06
411.802	100.06
412.025	96.06
412.249	77.06
412.472	94.06
412.695	95.06
412.919	93.06
413.142	96.06
413.365	94.06
413.589	96.06
413.812	107.06
414.035	95.06
414.258	92.06
414.482	92.06
414.705	91.06
414.928	104.06
415.151	101.06
415.374	103.06
415.597	91.06
415.821	104.06
416.044	90.06
416.267	102.06
416.49	80.06
416.713	92.06
416.936	87.06
417.159	87.06
417.382	97.06
417.605	83.06
417.828	103.06
418.051	92.06
418.274	97.06
418.497	85.06
418.72	104.06
418.943	95.06
419.166	86.06
419.389	95.06
419.611	85.06
419.834	86.06
420.057	79.06
420.28	83.06
420.503	96.06
420.726	94.06
420.948	94.06
421.171	106.06
421.394	103.06
421.617	94.06
421.839	93.06
422.062	85.06
422.285	97.06
422.507	118.06
422.73	106.06
422.953	102.06
423.175	97.06
423.398	87.06
423.621	94.06
423.843	99.06
424.066	77.06
424.288	82.06
424.511	94.06
424.733	103.06
424.956	102.06
425.178	92.06
425.401	101.06
425.623	102.06
425.846	88.06
426.068	106.06
426.291	80.06
426.513	91.06
426.735	86.06
426.958	100.06
427.18	94.06
427.402	129.06
427.625	144.06
427.847	116.06
428.069	87.06
428.292	94.06
428.514	101.06
428.736	87.06
428.958	80.06
429.181	84.06
429.403	80.06
429.625	83.06
429.847	92.06
430.069	107.06
430.292	91.06
430.514	94.06
430.736	79.06
430.958	88.06
431.18	76.06
431.402	83.06
431.624	84.06
431.846	88.06
432.068	78.06
432.29	101.06
432.512	110.06
432.734	92.06
432.956	98.06
433.178	93.06
433.4	99.06
433.622	100.06
433.844	91.06
434.066	106.06
434.287	91.06
434.509	104.06
434.731	93.06
434.953	100.06
435.175	87.06
435.397	104.06
435.618	97.06
435.84	82.06
436.062	116.06
436.284	109.06
436.505	95.06
436.727	106.06
436.949	97.06
437.17	86.06
437.392	74.06
437.614	104.06
437.835	99.06
438.057	110.06
438.278	117.06
438.5	108.06
438.721	116.06
438.943	91.06
439.165	90.06
439.386	84.06
439.608	96.06
439.829	105.06
440.05	126.06
440.272	122.06
440.493	100.06
440.715	84.06
440.936	104.06
441.158	98.06
441.379	102.06
441.6	103.06
441.822	96.06
442.043	88.06
442.264	90.06
442.486	103.06
442.707	102.06
442.928	94.06
443.149	117.06
443.371	107.06
443.592	100.06
443.813	98.06
444.034	111.06
444.255	95.06
444.476	106.06
444.698	96.06
444.919	100.06
445.14	147.06
445.361	110.06
445.582	99.06
445.803	117.06
446.024	123.06
446.245	132.06
446.466	123.06
446.687	90.06
446.908	105.06
447.129	101.06
447.35	86.06
447.571	93.06
447.792	98.06
448.013	106.06
448.234	94.06
448.455	91.06
448.675	131.06
448.896	102.06
449.117	110.06
449.338	115.06
449.559	123.06
449.779	128.06
450	86.06
450.221	93.06
450.442	96.06
450.662	110.06
450.883	110.06
451.104	114.06
451.324	97.06
451.545	86.06
451.766	94.06
451.986	99.06
452.207	94.06
452.428	95.06
452.648	103.06
452.869	98.06
453.089	114.06
453.31	120.06
453.53	89.06
453.751	98.06
453.971	97.06
454.192	111.06
454.412	85.06
454.633	92.06
454.853	86.06
455.073	89.06
455.294	95.06
455.514	96.06
455.734	95.06
455.955	99.06
456.175	99.06
456.395	87.06
456.616	83.06
456.836	90.06
457.056	78.06
457.276	87.06
457.497	90.06
457.717	76.06
457.937	98.06
458.157	86.06
458.377	91.06
458.598	114.06
458.818	140.06
459.038	147.06
459.258	111.06
459.478	91.06
459.698	81.06
459.918	104.06
460.138	87.06
460.358	91.06
460.578	78.06
460.798	94.06
461.018	102.06
461.238	102.06
461.458	95.06
461.678	82.06
461.898	71.06
462.118	112.06
462.338	89.06
462.558	93.06
462.777	80.06
462.997	97.06
463.217	105.06
463.437	98.06
463.657	87.06
463.876	96.06
464.096	100.06
464.316	96.06
464.536	92.06
464.755	94.06
464.975	94.06
465.195	134.06
465.414	141.06
465.634	102.06
465.854	106.06
466.073	89.06
466.293	87.06
466.512	84.06
466.732	88.06
466.951	101.06
467.171	96.06
467.391	102.06
467.61	109.06
467.829	103.06
468.049	96.06
468.268	88.06
468.488	98.06
468.707	78.06
468.927	96.06
469.146	84.06
469.365	98.06
469.585	95.06
469.804	99.06
470.023	99.06
470.243	105.06
470.462	99.06
470.681	125.06
470.901	100.06
471.12	90.06
471.339	95.06
471.558	86.06
471.777	83.06
471.997	98.06
472.216	89.06
472.435	92.06
472.654	96.06
472.873	91.06
473.092	93.06
473.311	73.06
473.53	81.06
473.749	85.06
473.968	98.06
474.187	100.06
474.406	98.06
474.625	79.06
474.844	102.06
475.063	79.06
475.282	82.06
475.501	79.06
475.72	109.06
475.939	96.06
476.158	99.06
476.377	93.06
476.596	96.06
476.814	112.06
477.033	91.06
477.252	81.06
477.471	92.06
477.69	85.06
477.908	94.06
478.127	107.06
478.346	91.06
478.564	87.06
478.783	98.06
479.002	91.06
479.22	97.06
479.439	99.06
479.658	103.06
479.876	95.06
480.095	92.06
480.313	96.06
480.532	90.06
480.751	99.06
480.969	87.06
481.188	101.06
481.406	93.06
481.624	87.06
481.843	94.06
482.061	84.06
482.28	93.06
482.498	84.06
482.717	99.06
482.935	91.06
483.153	94.06
483.372	98.06
483.59	94.06
483.808	99.06
484.027	93.06
484.245	106.06
484.463	101.06
484.681	97.06
484.9	88.06
485.118	88.06
485.336	95.06
485.554	110.06
485.772	102.06
485.99	102.06
486.209	109.06
486.427	100.06
486.645	94.06
486.863	114.06
487.081	110.06
487.299	92.06
487.517	110.06
487.735	115.06
487.953	106.06
488.171	99.06
488.389	105.06
488.607	98.06
488.825	107.06
489.043	94.06
489.261	102.06
489.479	80.06
489.696	99.06
489.914	110.06
490.132	92.06
490.35	88.06
490.568	92.06
490.786	97.06
491.003	90.06
491.221	91.06
491.439	101.06
491.657	97.06
491.874	105.06
492.092	102.06
492.31	83.06
492.527	83.06
492.745	95.06
492.963	88.06
493.18	101.06
493.398	100.06
493.615	98.06
493.833	103.06
494.05	94.06
494.268	81.06
494.485	102.06
494.703	102.06
494.92	92.06
495.138	90.06
495.355	93.06
495.573	95.06
495.79	78.06
496.008	89.06
496.225	95.06
496.442	99.06
496.66	102.06
496.877	93.06
497.094	99.06
497.312	119.06
497.529	108.06
497.746	112.06
497.963	86.06
498.181	103.06
498.398	99.06
498.615	111.06
498.832	102.06
499.049	94.06
499.267	104.06
499.484	99.06
499.701	102.06
499.918	95.06
500.135	85.06
500.352	95.06
500.569	89.06
500.786	92.06
501.003	100.06
501.22	98.06
501.437	94.06
501.654	93.06
501.871	101.06
502.088	95.06
502.305	91.06
502.522	104.06
502.739	90.06
502.956	84.06
503.172	94.06
503.389	107.06
503.606	117.06
503.823	98.06
504.04	92.06
504.256	88.06
504.473	101.06
504.69	92.06
504.907	95.06
505.123	100.06
505.34	93.06
505.557	100.06
505.773	76.06
505.99	92.06
506.207	96.06
506.423	92.06
506.64	101.06
506.856	101.06
507.073	97.06
507.289	98.06
507.506	102.06
507.722	106.06
507.939	98.06
508.155	107.06
508.372	106.06
508.588	100.06
508.805	103.06
509.021	104.06
509.238	85.06
509.454	91.06
509.67	98.06
509.887	116.06
510.103	130.06
510.319	190.06
510.536	669.06
510.752	2023.06
510.968	574.06
511.184	152.06
511.401	112.06
511.617	104.06
511.833	97.06
512.049	118.06
512.265	90.06
512.481	94.06
512.698	108.06
512.914	100.06
513.13	99.06
513.346	78.06
513.562	94.06
513.778	97.06
513.994	102.06
