Data from Uncirc_2008_H10_HRD10591_00086.txt Node
Date: Wed Jan 03 10:15:48 EST 2024
User: Yrep
Spectrometer: HR+D1059
Trigger mode: 1
Integration Time (sec): 1.000000E-1
Scans to average: 1
Electric dark correction enabled: true
Nonlinearity correction enabled: false
Boxcar width: 0
XAxis mode: Wavelengths
Number of Pixels in Spectrum: 2048
>>>>>Begin Spectral Data<<<<<
223.165	-20.31
223.4	-20.31
223.635	-20.31
223.869	-15.31
224.104	-20.31
224.338	-24.31
224.573	-5.31
224.808	-17.31
225.042	-9.31
225.277	-3.31
225.511	-2.31
225.746	-2.31
225.98	13.69
226.215	14.69
226.449	6.69
226.683	23.69
226.918	25.69
227.152	35.69
227.387	32.69
227.621	49.69
227.856	38.69
228.09	53.69
228.324	59.69
228.559	51.69
228.793	49.69
229.027	73.69
229.262	70.69
229.496	69.69
229.73	80.69
229.964	73.69
230.199	70.69
230.433	73.69
230.667	77.69
230.901	80.69
231.136	82.69
231.37	71.69
231.604	87.69
231.838	81.69
232.072	73.69
232.306	81.69
232.541	94.69
232.775	77.69
233.009	87.69
233.243	83.69
233.477	81.69
233.711	83.69
233.945	59.69
234.179	77.69
234.413	69.69
234.647	73.69
234.881	64.69
235.115	71.69
235.349	82.69
235.583	83.69
235.817	78.69
236.051	78.69
236.285	88.69
236.519	73.69
236.753	73.69
236.987	89.69
237.221	85.69
237.455	82.69
237.689	78.69
237.922	85.69
238.156	77.69
238.39	81.69
238.624	78.69
238.858	81.69
239.091	67.69
239.325	93.69
239.559	83.69
239.793	73.69
240.027	82.69
240.26	86.69
240.494	81.69
240.728	82.69
240.961	74.69
241.195	76.69
241.429	71.69
241.662	82.69
241.896	71.69
242.13	80.69
242.363	81.69
242.597	77.69
242.83	74.69
243.064	73.69
243.298	77.69
243.531	80.69
243.765	79.69
243.998	58.69
244.232	72.69
244.465	75.69
244.699	96.69
244.932	71.69
245.166	75.69
245.399	95.69
245.633	69.69
245.866	63.69
246.099	79.69
246.333	64.69
246.566	55.69
246.8	70.69
247.033	69.69
247.266	83.69
247.5	86.69
247.733	79.69
247.966	78.69
248.2	90.69
248.433	90.69
248.666	72.69
248.899	85.69
249.133	89.69
249.366	101.69
249.599	103.69
249.832	80.69
250.066	79.69
250.299	72.69
250.532	89.69
250.765	71.69
250.998	75.69
251.231	78.69
251.465	73.69
251.698	75.69
251.931	64.69
252.164	74.69
252.397	85.69
252.63	79.69
252.863	83.69
253.096	95.69
253.329	84.69
253.562	89.69
253.795	93.69
254.028	78.69
254.261	70.69
254.494	97.69
254.727	94.69
254.96	69.69
255.193	72.69
255.426	74.69
255.659	79.69
255.892	93.69
256.124	81.69
256.357	81.69
256.59	91.69
256.823	89.69
257.056	85.69
257.289	72.69
257.521	81.69
257.754	82.69
257.987	76.69
258.22	77.69
258.452	76.69
258.685	86.69
258.918	83.69
259.151	79.69
259.383	86.69
259.616	75.69
259.849	79.69
260.081	78.69
260.314	84.69
260.547	77.69
260.779	84.69
261.012	75.69
261.244	77.69
261.477	93.69
261.71	96.69
261.942	113.69
262.175	114.69
262.407	91.69
262.64	84.69
262.872	96.69
263.105	88.69
263.337	94.69
263.57	77.69
263.802	79.69
264.035	86.69
264.267	87.69
264.499	81.69
264.732	92.69
264.964	68.69
265.197	73.69
265.429	83.69
265.661	77.69
265.894	92.69
266.126	88.69
266.358	83.69
266.591	75.69
266.823	83.69
267.055	94.69
267.287	74.69
267.52	85.69
267.752	73.69
267.984	77.69
268.216	87.69
268.448	89.69
268.681	87.69
268.913	79.69
269.145	82.69
269.377	81.69
269.609	92.69
269.841	80.69
270.073	83.69
270.306	87.69
270.538	89.69
270.77	83.69
271.002	81.69
271.234	80.69
271.466	83.69
271.698	75.69
271.93	91.69
272.162	89.69
272.394	97.69
272.626	95.69
272.858	91.69
273.09	80.69
273.322	87.69
273.553	82.69
273.785	89.69
274.017	82.69
274.249	92.69
274.481	90.69
274.713	89.69
274.945	97.69
275.176	88.69
275.408	88.69
275.64	91.69
275.872	91.69
276.104	101.69
276.335	109.69
276.567	101.69
276.799	105.69
277.031	90.69
277.262	78.69
277.494	83.69
277.726	78.69
277.957	84.69
278.189	87.69
278.421	96.69
278.652	88.69
278.884	82.69
279.115	85.69
279.347	82.69
279.579	94.69
279.81	74.69
280.042	96.69
280.273	97.69
280.505	87.69
280.736	76.69
280.968	82.69
281.199	82.69
281.431	93.69
281.662	69.69
281.894	75.69
282.125	106.69
282.356	113.69
282.588	135.69
282.819	100.69
283.051	75.69
283.282	85.69
283.513	98.69
283.745	89.69
283.976	93.69
284.207	86.69
284.439	102.69
284.67	84.69
284.901	96.69
285.132	80.69
285.364	83.69
285.595	89.69
285.826	93.69
286.057	102.69
286.288	94.69
286.52	82.69
286.751	75.69
286.982	85.69
287.213	79.69
287.444	86.69
287.675	94.69
287.906	89.69
288.138	99.69
288.369	94.69
288.6	98.69
288.831	95.69
289.062	89.69
289.293	82.69
289.524	95.69
289.755	93.69
289.986	90.69
290.217	87.69
290.448	93.69
290.679	88.69
290.91	81.69
291.141	73.69
291.371	71.69
291.602	80.69
291.833	103.69
292.064	99.69
292.295	89.69
292.526	77.69
292.757	95.69
292.987	81.69
293.218	91.69
293.449	98.69
293.68	80.69
293.91	85.69
294.141	97.69
294.372	92.69
294.603	99.69
294.833	83.69
295.064	78.69
295.295	83.69
295.525	86.69
295.756	96.69
295.987	108.69
296.217	133.69
296.448	112.69
296.679	93.69
296.909	83.69
297.14	83.69
297.37	94.69
297.601	86.69
297.831	93.69
298.062	104.69
298.292	91.69
298.523	107.69
298.753	83.69
298.984	89.69
299.214	95.69
299.445	79.69
299.675	98.69
299.905	91.69
300.136	74.69
300.366	88.69
300.597	84.69
300.827	106.69
301.057	108.69
301.288	112.69
301.518	95.69
301.748	98.69
301.979	106.69
302.209	72.69
302.439	91.69
302.669	89.69
302.9	83.69
303.13	86.69
303.36	93.69
303.59	94.69
303.82	106.69
304.051	87.69
304.281	88.69
304.511	82.69
304.741	88.69
304.971	83.69
305.201	95.69
305.431	81.69
305.661	98.69
305.891	79.69
306.121	89.69
306.352	90.69
306.582	102.69
306.812	104.69
307.042	85.69
307.272	97.69
307.502	96.69
307.731	83.69
307.961	81.69
308.191	78.69
308.421	102.69
308.651	80.69
308.881	87.69
309.111	77.69
309.341	88.69
309.571	106.69
309.8	93.69
310.03	94.69
310.26	105.69
310.49	97.69
310.72	83.69
310.949	102.69
311.179	93.69
311.409	95.69
311.639	80.69
311.868	83.69
312.098	91.69
312.328	98.69
312.557	106.69
312.787	104.69
313.017	93.69
313.246	88.69
313.476	91.69
313.706	96.69
313.935	97.69
314.165	114.69
314.394	97.69
314.624	84.69
314.853	90.69
315.083	86.69
315.312	76.69
315.542	87.69
315.771	88.69
316.001	89.69
316.23	90.69
316.46	90.69
316.689	97.69
316.919	84.69
317.148	96.69
317.377	92.69
317.607	76.69
317.836	96.69
318.065	95.69
318.295	96.69
318.524	85.69
318.753	85.69
318.983	80.69
319.212	112.69
319.441	99.69
319.67	97.69
319.9	85.69
320.129	98.69
320.358	89.69
320.587	84.69
320.816	101.69
321.046	103.69
321.275	97.69
321.504	93.69
321.733	95.69
321.962	99.69
322.191	94.69
322.42	90.69
322.649	106.69
322.878	119.69
323.108	121.69
323.337	121.69
323.566	133.69
323.795	154.69
324.024	191.69
324.253	366.69
324.482	753.69
324.71	1486.69
324.939	1961.69
325.168	712.69
325.397	232.69
325.626	149.69
325.855	119.69
326.084	134.69
326.313	133.69
326.542	145.69
326.77	205.69
326.999	442.69
327.228	852.69
327.457	1527.69
327.686	1194.69
327.914	340.69
328.143	185.69
328.372	129.69
328.6	117.69
328.829	110.69
329.058	113.69
329.287	120.69
329.515	102.69
329.744	88.69
329.972	106.69
330.201	106.69
330.43	114.69
330.658	107.69
330.887	129.69
331.115	108.69
331.344	91.69
331.572	95.69
331.801	90.69
332.03	106.69
332.258	98.69
332.486	101.69
332.715	96.69
332.943	99.69
333.172	95.69
333.4	105.69
333.629	104.69
333.857	99.69
334.085	95.69
334.314	97.69
334.542	84.69
334.771	83.69
334.999	93.69
335.227	97.69
335.455	84.69
335.684	93.69
335.912	89.69
336.14	109.69
336.369	103.69
336.597	85.69
336.825	89.69
337.053	97.69
337.281	97.69
337.51	81.69
337.738	104.69
337.966	88.69
338.194	106.69
338.422	82.69
338.65	92.69
338.878	88.69
339.106	86.69
339.334	90.69
339.562	87.69
339.79	90.69
340.018	72.69
340.246	87.69
340.474	89.69
340.702	88.69
340.93	98.69
341.158	82.69
341.386	97.69
341.614	96.69
341.842	87.69
342.07	89.69
342.298	77.69
342.526	76.69
342.754	89.69
342.981	81.69
343.209	94.69
343.437	87.69
343.665	87.69
343.893	97.69
344.12	75.69
344.348	75.69
344.576	93.69
344.804	88.69
345.031	90.69
345.259	99.69
345.487	104.69
345.714	90.69
345.942	114.69
346.17	101.69
346.397	97.69
346.625	106.69
346.853	91.69
347.08	94.69
347.308	95.69
347.535	81.69
347.763	97.69
347.99	102.69
348.218	96.69
348.445	89.69
348.673	81.69
348.9	110.69
349.128	88.69
349.355	98.69
349.583	89.69
349.81	81.69
350.037	100.69
350.265	94.69
350.492	95.69
350.72	103.69
350.947	112.69
351.174	109.69
351.402	117.69
351.629	106.69
351.856	87.69
352.083	90.69
352.311	103.69
352.538	94.69
352.765	101.69
352.992	117.69
353.22	105.69
353.447	97.69
353.674	96.69
353.901	97.69
354.128	92.69
354.355	90.69
354.583	97.69
354.81	97.69
355.037	90.69
355.264	83.69
355.491	105.69
355.718	100.69
355.945	94.69
356.172	97.69
356.399	96.69
356.626	92.69
356.853	96.69
357.08	91.69
357.307	97.69
357.534	83.69
357.761	105.69
357.988	102.69
358.215	106.69
358.441	106.69
358.668	96.69
358.895	90.69
359.122	81.69
359.349	96.69
359.576	87.69
359.802	83.69
360.029	103.69
360.256	102.69
360.483	91.69
360.709	81.69
360.936	96.69
361.163	100.69
361.39	91.69
361.616	95.69
361.843	86.69
362.07	88.69
362.296	90.69
362.523	96.69
362.749	105.69
362.976	93.69
363.203	87.69
363.429	87.69
363.656	87.69
363.882	88.69
364.109	101.69
364.335	99.69
364.562	96.69
364.788	92.69
365.015	87.69
365.241	90.69
365.468	100.69
365.694	107.69
365.92	88.69
366.147	101.69
366.373	101.69
366.599	94.69
366.826	88.69
367.052	97.69
367.278	92.69
367.505	96.69
367.731	88.69
367.957	95.69
368.184	92.69
368.41	86.69
368.636	107.69
368.862	100.69
369.089	87.69
369.315	89.69
369.541	96.69
369.767	80.69
369.993	93.69
370.219	97.69
370.445	86.69
370.672	95.69
370.898	83.69
371.124	82.69
371.35	106.69
371.576	85.69
371.802	93.69
372.028	81.69
372.254	93.69
372.48	93.69
372.706	90.69
372.932	93.69
373.158	97.69
373.384	79.69
373.61	89.69
373.835	83.69
374.061	91.69
374.287	81.69
374.513	87.69
374.739	87.69
374.965	78.69
375.191	104.69
375.416	84.69
375.642	85.69
375.868	99.69
376.094	99.69
376.319	95.69
376.545	95.69
376.771	96.69
376.997	79.69
377.222	93.69
377.448	90.69
377.674	64.69
377.899	90.69
378.125	83.69
378.35	81.69
378.576	97.69
378.802	89.69
379.027	81.69
379.253	102.69
379.478	107.69
379.704	91.69
379.929	101.69
380.155	90.69
380.38	108.69
380.606	92.69
380.831	101.69
381.057	97.69
381.282	94.69
381.507	92.69
381.733	83.69
381.958	104.69
382.184	91.69
382.409	101.69
382.634	120.69
382.86	110.69
383.085	94.69
383.31	99.69
383.535	112.69
383.761	90.69
383.986	94.69
384.211	90.69
384.436	111.69
384.662	110.69
384.887	112.69
385.112	118.69
385.337	98.69
385.562	105.69
385.787	110.69
386.013	106.69
386.238	107.69
386.463	108.69
386.688	119.69
386.913	105.69
387.138	100.69
387.363	89.69
387.588	91.69
387.813	97.69
388.038	97.69
388.263	114.69
388.488	104.69
388.713	103.69
388.938	100.69
389.163	99.69
389.387	98.69
389.612	94.69
389.837	96.69
390.062	96.69
390.287	95.69
390.512	81.69
390.736	92.69
390.961	89.69
391.186	95.69
391.411	97.69
391.636	86.69
391.86	91.69
392.085	88.69
392.31	74.69
392.534	79.69
392.759	92.69
392.984	83.69
393.208	90.69
393.433	85.69
393.658	71.69
393.882	81.69
394.107	90.69
394.331	83.69
394.556	89.69
394.78	86.69
395.005	89.69
395.229	94.69
395.454	99.69
395.678	78.69
395.903	103.69
396.127	85.69
396.352	84.69
396.576	87.69
396.801	94.69
397.025	75.69
397.249	81.69
397.474	79.69
397.698	87.69
397.922	70.69
398.147	79.69
398.371	80.69
398.595	81.69
398.82	80.69
399.044	79.69
399.268	78.69
399.492	91.69
399.717	101.69
399.941	89.69
400.165	100.69
400.389	82.69
400.613	82.69
400.837	88.69
401.062	91.69
401.286	96.69
401.51	90.69
401.734	91.69
401.958	90.69
402.182	106.69
402.406	141.69
402.63	104.69
402.854	85.69
403.078	83.69
403.302	80.69
403.526	77.69
403.75	94.69
403.974	97.69
404.198	91.69
404.422	87.69
404.645	93.69
404.869	97.69
405.093	96.69
405.317	91.69
405.541	106.69
405.765	94.69
405.988	103.69
406.212	168.69
406.436	191.69
406.66	127.69
406.883	95.69
407.107	92.69
407.331	86.69
407.555	87.69
407.778	88.69
408.002	92.69
408.226	89.69
408.449	82.69
408.673	93.69
408.896	91.69
409.12	90.69
409.344	82.69
409.567	95.69
409.791	90.69
410.014	93.69
410.238	87.69
410.461	97.69
410.685	93.69
410.908	98.69
411.132	101.69
411.355	102.69
411.578	100.69
411.802	97.69
412.025	92.69
412.249	95.69
412.472	88.69
412.695	82.69
412.919	88.69
413.142	91.69
413.365	74.69
413.589	82.69
413.812	96.69
414.035	86.69
414.258	86.69
414.482	88.69
414.705	93.69
414.928	90.69
415.151	93.69
415.374	93.69
415.597	91.69
415.821	92.69
416.044	84.69
416.267	94.69
416.49	95.69
416.713	83.69
416.936	82.69
417.159	90.69
417.382	74.69
417.605	91.69
417.828	96.69
418.051	105.69
418.274	88.69
418.497	82.69
418.72	90.69
418.943	77.69
419.166	86.69
419.389	89.69
419.611	75.69
419.834	81.69
420.057	78.69
420.28	73.69
420.503	86.69
420.726	92.69
420.948	90.69
421.171	98.69
421.394	106.69
421.617	96.69
421.839	99.69
422.062	96.69
422.285	87.69
422.507	91.69
422.73	94.69
422.953	90.69
423.175	81.69
423.398	93.69
423.621	105.69
423.843	82.69
424.066	94.69
424.288	95.69
424.511	91.69
424.733	84.69
424.956	119.69
425.178	98.69
425.401	94.69
425.623	97.69
425.846	97.69
426.068	88.69
426.291	91.69
426.513	81.69
426.735	87.69
426.958	89.69
427.18	104.69
427.402	127.69
427.625	153.69
427.847	125.69
428.069	96.69
428.292	78.69
428.514	73.69
428.736	83.69
428.958	81.69
429.181	92.69
429.403	83.69
429.625	96.69
429.847	94.69
430.069	95.69
430.292	91.69
430.514	97.69
430.736	87.69
430.958	96.69
431.18	88.69
431.402	73.69
431.624	82.69
431.846	81.69
432.068	76.69
432.29	87.69
432.512	90.69
432.734	98.69
432.956	97.69
433.178	99.69
433.4	112.69
433.622	93.69
433.844	94.69
434.066	84.69
434.287	96.69
434.509	93.69
434.731	89.69
434.953	91.69
435.175	91.69
435.397	89.69
435.618	85.69
435.84	98.69
436.062	120.69
436.284	93.69
436.505	107.69
436.727	106.69
436.949	110.69
437.17	82.69
437.392	94.69
437.614	82.69
437.835	105.69
438.057	121.69
438.278	109.69
438.5	101.69
438.721	102.69
438.943	107.69
439.165	104.69
439.386	82.69
439.608	96.69
439.829	83.69
440.05	109.69
440.272	130.69
440.493	93.69
440.715	86.69
440.936	86.69
441.158	91.69
441.379	87.69
441.6	86.69
441.822	96.69
442.043	91.69
442.264	103.69
442.486	98.69
442.707	111.69
442.928	89.69
443.149	134.69
443.371	113.69
443.592	93.69
443.813	100.69
444.034	121.69
444.255	96.69
444.476	92.69
444.698	85.69
444.919	101.69
445.14	118.69
445.361	133.69
445.582	100.69
445.803	123.69
446.024	119.69
446.245	121.69
446.466	108.69
446.687	83.69
446.908	90.69
447.129	89.69
447.35	89.69
447.571	100.69
447.792	85.69
448.013	87.69
448.234	101.69
448.455	89.69
448.675	111.69
448.896	116.69
449.117	109.69
449.338	110.69
449.559	122.69
449.779	133.69
450	87.69
450.221	95.69
450.442	83.69
450.662	88.69
450.883	103.69
451.104	102.69
451.324	88.69
451.545	93.69
451.766	97.69
451.986	97.69
452.207	79.69
452.428	78.69
452.648	88.69
452.869	101.69
453.089	94.69
453.31	106.69
453.53	88.69
453.751	93.69
453.971	87.69
454.192	113.69
454.412	93.69
454.633	94.69
454.853	88.69
455.073	85.69
455.294	85.69
455.514	72.69
455.734	77.69
455.955	89.69
456.175	76.69
456.395	92.69
456.616	92.69
456.836	85.69
457.056	78.69
457.276	86.69
457.497	86.69
457.717	75.69
457.937	97.69
458.157	93.69
458.377	82.69
458.598	102.69
458.818	141.69
459.038	138.69
459.258	115.69
459.478	82.69
459.698	75.69
459.918	97.69
460.138	81.69
460.358	75.69
460.578	96.69
460.798	73.69
461.018	92.69
461.238	83.69
461.458	89.69
461.678	98.69
461.898	88.69
462.118	85.69
462.338	73.69
462.558	81.69
462.777	70.69
462.997	88.69
463.217	93.69
463.437	89.69
463.657	90.69
463.876	81.69
464.096	81.69
464.316	84.69
464.536	92.69
464.755	85.69
464.975	101.69
465.195	151.69
465.414	143.69
465.634	87.69
465.854	83.69
466.073	100.69
466.293	91.69
466.512	87.69
466.732	86.69
466.951	83.69
467.171	97.69
467.391	92.69
467.61	102.69
467.829	72.69
468.049	94.69
468.268	82.69
468.488	94.69
468.707	83.69
468.927	81.69
469.146	77.69
469.365	96.69
469.585	82.69
469.804	89.69
470.023	96.69
470.243	91.69
470.462	92.69
470.681	101.69
470.901	87.69
471.12	94.69
471.339	87.69
471.558	78.69
471.777	93.69
471.997	83.69
472.216	78.69
472.435	99.69
472.654	95.69
472.873	94.69
473.092	96.69
473.311	94.69
473.53	104.69
473.749	94.69
473.968	103.69
474.187	101.69
474.406	104.69
474.625	84.69
474.844	106.69
475.063	80.69
475.282	98.69
475.501	86.69
475.72	79.69
475.939	87.69
476.158	86.69
476.377	89.69
476.596	99.69
476.814	94.69
477.033	94.69
477.252	81.69
477.471	81.69
477.69	94.69
477.908	90.69
478.127	83.69
478.346	94.69
478.564	101.69
478.783	93.69
479.002	98.69
479.22	87.69
479.439	91.69
479.658	85.69
479.876	90.69
480.095	94.69
480.313	86.69
480.532	83.69
480.751	79.69
480.969	80.69
481.188	90.69
481.406	94.69
481.624	95.69
481.843	90.69
482.061	80.69
482.28	94.69
482.498	85.69
482.717	72.69
482.935	88.69
483.153	82.69
483.372	82.69
483.59	85.69
483.808	88.69
484.027	81.69
484.245	114.69
484.463	102.69
484.681	98.69
484.9	81.69
485.118	87.69
485.336	102.69
485.554	105.69
485.772	105.69
485.99	109.69
486.209	106.69
486.427	99.69
486.645	97.69
486.863	109.69
487.081	88.69
487.299	90.69
487.517	101.69
487.735	94.69
487.953	82.69
488.171	75.69
488.389	103.69
488.607	89.69
488.825	100.69
489.043	89.69
489.261	87.69
489.479	88.69
489.696	88.69
489.914	94.69
490.132	87.69
490.35	106.69
490.568	88.69
490.786	86.69
491.003	88.69
491.221	105.69
491.439	97.69
491.657	95.69
491.874	97.69
492.092	82.69
492.31	80.69
492.527	93.69
492.745	88.69
492.963	100.69
493.18	83.69
493.398	88.69
493.615	96.69
493.833	119.69
494.05	92.69
494.268	93.69
494.485	83.69
494.703	95.69
494.92	96.69
495.138	89.69
495.355	91.69
495.573	98.69
495.79	97.69
496.008	77.69
496.225	106.69
496.442	90.69
496.66	85.69
496.877	96.69
497.094	91.69
497.312	84.69
497.529	96.69
497.746	93.69
497.963	85.69
498.181	86.69
498.398	91.69
498.615	109.69
498.832	104.69
499.049	95.69
499.267	85.69
499.484	89.69
499.701	88.69
499.918	87.69
500.135	82.69
500.352	84.69
500.569	95.69
500.786	91.69
501.003	82.69
501.22	82.69
501.437	89.69
501.654	89.69
501.871	97.69
502.088	91.69
502.305	98.69
502.522	93.69
502.739	90.69
502.956	87.69
503.172	86.69
503.389	83.69
503.606	98.69
503.823	86.69
504.04	87.69
504.256	88.69
504.473	95.69
504.69	83.69
504.907	90.69
505.123	90.69
505.34	87.69
505.557	80.69
505.773	83.69
505.99	78.69
506.207	84.69
506.423	99.69
506.64	97.69
506.856	82.69
507.073	101.69
507.289	83.69
507.506	95.69
507.722	113.69
507.939	109.69
508.155	103.69
508.372	88.69
508.588	86.69
508.805	98.69
509.021	110.69
509.238	108.69
509.454	97.69
509.67	96.69
509.887	102.69
510.103	130.69
510.319	211.69
510.536	682.69
510.752	2154.69
510.968	615.69
511.184	155.69
511.401	124.69
511.617	106.69
511.833	89.69
512.049	97.69
512.265	103.69
512.481	95.69
512.698	98.69
512.914	88.69
513.13	87.69
513.346	86.69
513.562	90.69
513.778	93.69
513.994	98.69
514.21	105.69
514.426	111.69
514.642	130.69
514.858	131.69
515.074	156.69
515.29	399.69
515.506	1296.69
515.721	473.69
515.937	126.69
516.153	107.69
