Data from Uncirc_2008_H10_HRD10591_00022.txt Node
Date: Wed Jan 03 10:15:35 EST 2024
User: Yrep
Spectrometer: HR+D1059
Trigger mode: 1
Integration Time (sec): 1.000000E-1
Scans to average: 1
Electric dark correction enabled: true
Nonlinearity correction enabled: false
Boxcar width: 0
XAxis mode: Wavelengths
Number of Pixels in Spectrum: 2048
>>>>>Begin Spectral Data<<<<<
223.165	-10.56
223.4	-10.56
223.635	-10.56
223.869	-14.56
224.104	-16.56
224.338	-2.56
224.573	-14.56
224.808	-23.56
225.042	-0.56
225.277	0.44
225.511	-15.56
225.746	-10.56
225.98	5.44
226.215	8.44
226.449	14.44
226.683	23.44
226.918	30.44
227.152	26.44
227.387	33.44
227.621	38.44
227.856	66.44
228.09	48.44
228.324	51.44
228.559	63.44
228.793	45.44
229.027	76.44
229.262	53.44
229.496	66.44
229.73	78.44
229.964	90.44
230.199	81.44
230.433	80.44
230.667	86.44
230.901	92.44
231.136	74.44
231.37	86.44
231.604	77.44
231.838	77.44
232.072	92.44
232.306	85.44
232.541	95.44
232.775	84.44
233.009	87.44
233.243	79.44
233.477	80.44
233.711	88.44
233.945	87.44
234.179	80.44
234.413	72.44
234.647	86.44
234.881	68.44
235.115	82.44
235.349	111.44
235.583	76.44
235.817	73.44
236.051	69.44
236.285	81.44
236.519	72.44
236.753	86.44
236.987	91.44
237.221	88.44
237.455	88.44
237.689	61.44
237.922	86.44
238.156	80.44
238.39	73.44
238.624	78.44
238.858	80.44
239.091	77.44
239.325	93.44
239.559	78.44
239.793	84.44
240.027	82.44
240.26	90.44
240.494	93.44
240.728	89.44
240.961	72.44
241.195	78.44
241.429	84.44
241.662	74.44
241.896	90.44
242.13	82.44
242.363	66.44
242.597	76.44
242.83	75.44
243.064	72.44
243.298	89.44
243.531	77.44
243.765	67.44
243.998	80.44
244.232	105.44
244.465	81.44
244.699	82.44
244.932	77.44
245.166	83.44
245.399	93.44
245.633	89.44
245.866	81.44
246.099	76.44
246.333	65.44
246.566	86.44
246.8	84.44
247.033	82.44
247.266	92.44
247.5	73.44
247.733	79.44
247.966	81.44
248.2	86.44
248.433	94.44
248.666	93.44
248.899	76.44
249.133	81.44
249.366	95.44
249.599	82.44
249.832	81.44
250.066	94.44
250.299	70.44
250.532	84.44
250.765	85.44
250.998	92.44
251.231	89.44
251.465	88.44
251.698	77.44
251.931	96.44
252.164	79.44
252.397	78.44
252.63	71.44
252.863	90.44
253.096	85.44
253.329	83.44
253.562	92.44
253.795	81.44
254.028	91.44
254.261	90.44
254.494	74.44
254.727	80.44
254.96	86.44
255.193	81.44
255.426	68.44
255.659	74.44
255.892	80.44
256.124	75.44
256.357	75.44
256.59	90.44
256.823	90.44
257.056	80.44
257.289	88.44
257.521	81.44
257.754	81.44
257.987	61.44
258.22	86.44
258.452	84.44
258.685	82.44
258.918	91.44
259.151	90.44
259.383	89.44
259.616	88.44
259.849	94.44
260.081	91.44
260.314	104.44
260.547	95.44
260.779	84.44
261.012	81.44
261.244	89.44
261.477	95.44
261.71	84.44
261.942	109.44
262.175	110.44
262.407	84.44
262.64	87.44
262.872	83.44
263.105	86.44
263.337	83.44
263.57	80.44
263.802	78.44
264.035	97.44
264.267	78.44
264.499	96.44
264.732	94.44
264.964	93.44
265.197	77.44
265.429	85.44
265.661	87.44
265.894	88.44
266.126	89.44
266.358	76.44
266.591	70.44
266.823	92.44
267.055	85.44
267.287	94.44
267.52	77.44
267.752	83.44
267.984	88.44
268.216	91.44
268.448	88.44
268.681	92.44
268.913	81.44
269.145	73.44
269.377	82.44
269.609	79.44
269.841	85.44
270.073	69.44
270.306	100.44
270.538	97.44
270.77	81.44
271.002	91.44
271.234	90.44
271.466	92.44
271.698	83.44
271.93	81.44
272.162	73.44
272.394	91.44
272.626	88.44
272.858	89.44
273.09	84.44
273.322	86.44
273.553	85.44
273.785	81.44
274.017	79.44
274.249	88.44
274.481	105.44
274.713	90.44
274.945	94.44
275.176	90.44
275.408	87.44
275.64	89.44
275.872	91.44
276.104	98.44
276.335	81.44
276.567	104.44
276.799	105.44
277.031	100.44
277.262	79.44
277.494	92.44
277.726	85.44
277.957	78.44
278.189	91.44
278.421	86.44
278.652	86.44
278.884	96.44
279.115	92.44
279.347	80.44
279.579	86.44
279.81	70.44
280.042	88.44
280.273	92.44
280.505	88.44
280.736	89.44
280.968	90.44
281.199	94.44
281.431	98.44
281.662	86.44
281.894	105.44
282.125	92.44
282.356	116.44
282.588	134.44
282.819	106.44
283.051	89.44
283.282	82.44
283.513	76.44
283.745	89.44
283.976	80.44
284.207	76.44
284.439	86.44
284.67	85.44
284.901	78.44
285.132	79.44
285.364	88.44
285.595	93.44
285.826	98.44
286.057	92.44
286.288	83.44
286.52	76.44
286.751	94.44
286.982	91.44
287.213	83.44
287.444	91.44
287.675	84.44
287.906	88.44
288.138	88.44
288.369	95.44
288.6	93.44
288.831	98.44
289.062	107.44
289.293	99.44
289.524	93.44
289.755	75.44
289.986	91.44
290.217	98.44
290.448	93.44
290.679	78.44
290.91	82.44
291.141	78.44
291.371	95.44
291.602	95.44
291.833	96.44
292.064	82.44
292.295	99.44
292.526	91.44
292.757	84.44
292.987	103.44
293.218	90.44
293.449	101.44
293.68	86.44
293.91	81.44
294.141	80.44
294.372	83.44
294.603	93.44
294.833	90.44
295.064	83.44
295.295	95.44
295.525	96.44
295.756	105.44
295.987	104.44
296.217	131.44
296.448	122.44
296.679	96.44
296.909	104.44
297.14	85.44
297.37	99.44
297.601	102.44
297.831	93.44
298.062	90.44
298.292	99.44
298.523	91.44
298.753	98.44
298.984	101.44
299.214	87.44
299.445	100.44
299.675	84.44
299.905	88.44
300.136	92.44
300.366	89.44
300.597	100.44
300.827	107.44
301.057	106.44
301.288	106.44
301.518	89.44
301.748	88.44
301.979	88.44
302.209	99.44
302.439	90.44
302.669	92.44
302.9	82.44
303.13	91.44
303.36	86.44
303.59	91.44
303.82	96.44
304.051	97.44
304.281	87.44
304.511	96.44
304.741	83.44
304.971	82.44
305.201	81.44
305.431	96.44
305.661	90.44
305.891	95.44
306.121	100.44
306.352	108.44
306.582	106.44
306.812	98.44
307.042	95.44
307.272	92.44
307.502	85.44
307.731	97.44
307.961	97.44
308.191	93.44
308.421	88.44
308.651	87.44
308.881	98.44
309.111	99.44
309.341	82.44
309.571	92.44
309.8	100.44
310.03	90.44
310.26	104.44
310.49	94.44
310.72	98.44
310.949	91.44
311.179	97.44
311.409	92.44
311.639	89.44
311.868	70.44
312.098	76.44
312.328	97.44
312.557	86.44
312.787	100.44
313.017	94.44
313.246	100.44
313.476	101.44
313.706	90.44
313.935	98.44
314.165	85.44
314.394	107.44
314.624	85.44
314.853	86.44
315.083	107.44
315.312	99.44
315.542	92.44
315.771	98.44
316.001	100.44
316.23	85.44
316.46	85.44
316.689	96.44
316.919	91.44
317.148	97.44
317.377	99.44
317.607	95.44
317.836	96.44
318.065	89.44
318.295	90.44
318.524	88.44
318.753	90.44
318.983	105.44
319.212	105.44
319.441	111.44
319.67	108.44
319.9	106.44
320.129	105.44
320.358	97.44
320.587	88.44
320.816	103.44
321.046	104.44
321.275	90.44
321.504	101.44
321.733	89.44
321.962	95.44
322.191	106.44
322.42	101.44
322.649	124.44
322.878	121.44
323.108	111.44
323.337	105.44
323.566	127.44
323.795	124.44
324.024	191.44
324.253	363.44
324.482	736.44
324.71	1482.44
324.939	1938.44
325.168	732.44
325.397	222.44
325.626	144.44
325.855	139.44
326.084	128.44
326.313	117.44
326.542	157.44
326.77	221.44
326.999	426.44
327.228	844.44
327.457	1506.44
327.686	1216.44
327.914	332.44
328.143	170.44
328.372	131.44
328.6	123.44
328.829	107.44
329.058	117.44
329.287	134.44
329.515	115.44
329.744	99.44
329.972	103.44
330.201	107.44
330.43	106.44
330.658	117.44
330.887	128.44
331.115	120.44
331.344	101.44
331.572	94.44
331.801	95.44
332.03	105.44
332.258	81.44
332.486	93.44
332.715	99.44
332.943	110.44
333.172	87.44
333.4	103.44
333.629	102.44
333.857	124.44
334.085	96.44
334.314	90.44
334.542	90.44
334.771	116.44
334.999	105.44
335.227	92.44
335.455	86.44
335.684	86.44
335.912	91.44
336.14	106.44
336.369	96.44
336.597	98.44
336.825	97.44
337.053	104.44
337.281	85.44
337.51	94.44
337.738	86.44
337.966	101.44
338.194	82.44
338.422	101.44
338.65	76.44
338.878	87.44
339.106	76.44
339.334	93.44
339.562	102.44
339.79	84.44
340.018	94.44
340.246	98.44
340.474	85.44
340.702	113.44
340.93	86.44
341.158	99.44
341.386	94.44
341.614	101.44
341.842	90.44
342.07	103.44
342.298	88.44
342.526	99.44
342.754	77.44
342.981	92.44
343.209	87.44
343.437	90.44
343.665	102.44
343.893	89.44
344.12	85.44
344.348	81.44
344.576	83.44
344.804	93.44
345.031	92.44
345.259	96.44
345.487	86.44
345.714	75.44
345.942	80.44
346.17	94.44
346.397	95.44
346.625	90.44
346.853	98.44
347.08	89.44
347.308	97.44
347.535	102.44
347.763	89.44
347.99	102.44
348.218	132.44
348.445	112.44
348.673	96.44
348.9	101.44
349.128	87.44
349.355	83.44
349.583	107.44
349.81	100.44
350.037	116.44
350.265	97.44
350.492	95.44
350.72	102.44
350.947	93.44
351.174	97.44
351.402	113.44
351.629	103.44
351.856	103.44
352.083	114.44
352.311	120.44
352.538	123.44
352.765	100.44
352.992	111.44
353.22	107.44
353.447	95.44
353.674	105.44
353.901	100.44
354.128	102.44
354.355	92.44
354.583	106.44
354.81	99.44
355.037	105.44
355.264	100.44
355.491	92.44
355.718	97.44
355.945	105.44
356.172	100.44
356.399	107.44
356.626	92.44
356.853	86.44
357.08	93.44
357.307	97.44
357.534	95.44
357.761	97.44
357.988	94.44
358.215	102.44
358.441	104.44
358.668	90.44
358.895	89.44
359.122	94.44
359.349	99.44
359.576	110.44
359.802	114.44
360.029	106.44
360.256	92.44
360.483	94.44
360.709	89.44
360.936	98.44
361.163	84.44
361.39	101.44
361.616	106.44
361.843	105.44
362.07	94.44
362.296	106.44
362.523	107.44
362.749	112.44
362.976	77.44
363.203	91.44
363.429	86.44
363.656	88.44
363.882	90.44
364.109	89.44
364.335	93.44
364.562	100.44
364.788	92.44
365.015	92.44
365.241	111.44
365.468	97.44
365.694	104.44
365.92	95.44
366.147	97.44
366.373	89.44
366.599	97.44
366.826	95.44
367.052	100.44
367.278	90.44
367.505	100.44
367.731	97.44
367.957	85.44
368.184	85.44
368.41	86.44
368.636	94.44
368.862	108.44
369.089	111.44
369.315	94.44
369.541	112.44
369.767	93.44
369.993	89.44
370.219	101.44
370.445	93.44
370.672	92.44
370.898	75.44
371.124	90.44
371.35	90.44
371.576	85.44
371.802	96.44
372.028	92.44
372.254	94.44
372.48	93.44
372.706	79.44
372.932	94.44
373.158	103.44
373.384	94.44
373.61	78.44
373.835	88.44
374.061	96.44
374.287	83.44
374.513	97.44
374.739	86.44
374.965	101.44
375.191	82.44
375.416	94.44
375.642	85.44
375.868	95.44
376.094	94.44
376.319	97.44
376.545	93.44
376.771	98.44
376.997	90.44
377.222	94.44
377.448	92.44
377.674	97.44
377.899	95.44
378.125	107.44
378.35	97.44
378.576	85.44
378.802	108.44
379.027	97.44
379.253	104.44
379.478	104.44
379.704	93.44
379.929	103.44
380.155	89.44
380.38	104.44
380.606	92.44
380.831	86.44
381.057	86.44
381.282	91.44
381.507	108.44
381.733	91.44
381.958	86.44
382.184	113.44
382.409	104.44
382.634	115.44
382.86	108.44
383.085	100.44
383.31	109.44
383.535	106.44
383.761	97.44
383.986	101.44
384.211	105.44
384.436	108.44
384.662	111.44
384.887	89.44
385.112	104.44
385.337	104.44
385.562	109.44
385.787	107.44
386.013	125.44
386.238	118.44
386.463	113.44
386.688	127.44
386.913	104.44
387.138	116.44
387.363	107.44
387.588	97.44
387.813	102.44
388.038	108.44
388.263	116.44
388.488	120.44
388.713	112.44
388.938	93.44
389.163	89.44
389.387	93.44
389.612	103.44
389.837	92.44
390.062	106.44
390.287	96.44
390.512	94.44
390.736	113.44
390.961	91.44
391.186	98.44
391.411	100.44
391.636	107.44
391.86	94.44
392.085	84.44
392.31	78.44
392.534	88.44
392.759	92.44
392.984	88.44
393.208	96.44
393.433	83.44
393.658	83.44
393.882	82.44
394.107	80.44
394.331	85.44
394.556	96.44
394.78	91.44
395.005	84.44
395.229	90.44
395.454	80.44
395.678	75.44
395.903	85.44
396.127	89.44
396.352	91.44
396.576	80.44
396.801	90.44
397.025	88.44
397.249	92.44
397.474	92.44
397.698	92.44
397.922	88.44
398.147	94.44
398.371	85.44
398.595	99.44
398.82	82.44
399.044	84.44
399.268	95.44
399.492	83.44
399.717	114.44
399.941	81.44
400.165	104.44
400.389	86.44
400.613	90.44
400.837	91.44
401.062	94.44
401.286	84.44
401.51	102.44
401.734	85.44
401.958	89.44
402.182	112.44
402.406	162.44
402.63	111.44
402.854	96.44
403.078	105.44
403.302	75.44
403.526	100.44
403.75	77.44
403.974	92.44
404.198	79.44
404.422	92.44
404.645	82.44
404.869	96.44
405.093	97.44
405.317	82.44
405.541	97.44
405.765	100.44
405.988	123.44
406.212	163.44
406.436	185.44
406.66	142.44
406.883	94.44
407.107	92.44
407.331	96.44
407.555	82.44
407.778	99.44
408.002	92.44
408.226	94.44
408.449	80.44
408.673	88.44
408.896	85.44
409.12	99.44
409.344	97.44
409.567	94.44
409.791	98.44
410.014	112.44
410.238	90.44
410.461	103.44
410.685	90.44
410.908	98.44
411.132	100.44
411.355	96.44
411.578	93.44
411.802	100.44
412.025	84.44
412.249	86.44
412.472	98.44
412.695	83.44
412.919	88.44
413.142	88.44
413.365	77.44
413.589	86.44
413.812	104.44
414.035	86.44
414.258	90.44
414.482	82.44
414.705	98.44
414.928	94.44
415.151	102.44
415.374	90.44
415.597	91.44
415.821	95.44
416.044	81.44
416.267	82.44
416.49	90.44
416.713	96.44
416.936	96.44
417.159	84.44
417.382	82.44
417.605	98.44
417.828	90.44
418.051	101.44
418.274	86.44
418.497	100.44
418.72	96.44
418.943	104.44
419.166	92.44
419.389	87.44
419.611	85.44
419.834	83.44
420.057	87.44
420.28	84.44
420.503	80.44
420.726	93.44
420.948	92.44
421.171	87.44
421.394	92.44
421.617	83.44
421.839	100.44
422.062	88.44
422.285	92.44
422.507	106.44
422.73	109.44
422.953	81.44
423.175	85.44
423.398	89.44
423.621	83.44
423.843	94.44
424.066	111.44
424.288	89.44
424.511	99.44
424.733	97.44
424.956	97.44
425.178	88.44
425.401	102.44
425.623	105.44
425.846	98.44
426.068	95.44
426.291	94.44
426.513	76.44
426.735	79.44
426.958	102.44
427.18	107.44
427.402	118.44
427.625	154.44
427.847	120.44
428.069	101.44
428.292	96.44
428.514	95.44
428.736	85.44
428.958	85.44
429.181	87.44
429.403	113.44
429.625	93.44
429.847	92.44
430.069	94.44
430.292	92.44
430.514	93.44
430.736	89.44
430.958	98.44
431.18	86.44
431.402	102.44
431.624	84.44
431.846	82.44
432.068	87.44
432.29	92.44
432.512	88.44
432.734	88.44
432.956	94.44
433.178	86.44
433.4	113.44
433.622	107.44
433.844	81.44
434.066	81.44
434.287	100.44
434.509	76.44
434.731	92.44
434.953	86.44
435.175	94.44
435.397	101.44
435.618	93.44
435.84	98.44
436.062	129.44
436.284	99.44
436.505	104.44
436.727	109.44
436.949	97.44
437.17	92.44
437.392	89.44
437.614	100.44
437.835	118.44
438.057	118.44
438.278	116.44
438.5	99.44
438.721	116.44
438.943	92.44
439.165	89.44
439.386	84.44
439.608	96.44
439.829	103.44
440.05	131.44
440.272	131.44
440.493	92.44
440.715	90.44
440.936	107.44
441.158	85.44
441.379	91.44
441.6	96.44
441.822	96.44
442.043	83.44
442.264	96.44
442.486	93.44
442.707	96.44
442.928	104.44
443.149	109.44
443.371	116.44
443.592	105.44
443.813	109.44
444.034	107.44
444.255	95.44
444.476	96.44
444.698	81.44
444.919	80.44
445.14	128.44
445.361	129.44
445.582	99.44
445.803	129.44
446.024	116.44
446.245	128.44
446.466	100.44
446.687	98.44
446.908	89.44
447.129	96.44
447.35	101.44
447.571	88.44
447.792	93.44
448.013	95.44
448.234	93.44
448.455	96.44
448.675	99.44
448.896	115.44
449.117	105.44
449.338	101.44
449.559	116.44
449.779	133.44
450	100.44
450.221	87.44
450.442	92.44
450.662	79.44
450.883	96.44
451.104	122.44
451.324	99.44
451.545	81.44
451.766	85.44
451.986	99.44
452.207	97.44
452.428	93.44
452.648	89.44
452.869	108.44
453.089	135.44
453.31	108.44
453.53	102.44
453.751	97.44
453.971	109.44
454.192	104.44
454.412	85.44
454.633	79.44
454.853	80.44
455.073	82.44
455.294	102.44
455.514	99.44
455.734	93.44
455.955	78.44
456.175	84.44
456.395	99.44
456.616	90.44
456.836	85.44
457.056	104.44
457.276	100.44
457.497	81.44
457.717	90.44
457.937	83.44
458.157	104.44
458.377	78.44
458.598	108.44
458.818	128.44
459.038	150.44
459.258	105.44
459.478	98.44
459.698	90.44
459.918	87.44
460.138	94.44
460.358	98.44
460.578	91.44
460.798	79.44
461.018	75.44
461.238	86.44
461.458	79.44
461.678	92.44
461.898	107.44
462.118	105.44
462.338	98.44
462.558	94.44
462.777	82.44
462.997	93.44
463.217	90.44
463.437	77.44
463.657	100.44
463.876	91.44
464.096	98.44
464.316	99.44
464.536	90.44
464.755	104.44
464.975	108.44
465.195	161.44
465.414	160.44
465.634	100.44
465.854	94.44
466.073	82.44
466.293	91.44
466.512	88.44
466.732	89.44
466.951	99.44
467.171	106.44
467.391	82.44
467.61	105.44
467.829	106.44
468.049	89.44
468.268	99.44
468.488	82.44
468.707	88.44
468.927	98.44
469.146	88.44
469.365	89.44
469.585	96.44
469.804	105.44
470.023	99.44
470.243	95.44
470.462	104.44
470.681	99.44
470.901	86.44
471.12	78.44
471.339	88.44
471.558	86.44
471.777	101.44
471.997	103.44
472.216	104.44
472.435	98.44
472.654	85.44
472.873	84.44
473.092	100.44
473.311	91.44
473.53	96.44
473.749	89.44
473.968	104.44
474.187	106.44
474.406	89.44
474.625	82.44
474.844	82.44
475.063	87.44
475.282	95.44
475.501	93.44
475.72	84.44
475.939	90.44
476.158	107.44
476.377	83.44
476.596	91.44
476.814	100.44
477.033	97.44
477.252	83.44
477.471	96.44
477.69	106.44
477.908	80.44
478.127	98.44
478.346	83.44
478.564	94.44
478.783	97.44
479.002	94.44
479.22	107.44
479.439	85.44
479.658	92.44
479.876	98.44
480.095	76.44
480.313	80.44
480.532	100.44
480.751	97.44
480.969	98.44
481.188	90.44
481.406	89.44
481.624	98.44
481.843	97.44
482.061	91.44
482.28	97.44
482.498	105.44
482.717	89.44
482.935	86.44
483.153	89.44
483.372	106.44
483.59	90.44
483.808	77.44
484.027	89.44
484.245	90.44
484.463	93.44
484.681	97.44
484.9	100.44
485.118	104.44
485.336	94.44
485.554	97.44
485.772	98.44
485.99	103.44
486.209	95.44
486.427	131.44
486.645	116.44
486.863	91.44
487.081	101.44
487.299	94.44
487.517	98.44
487.735	96.44
487.953	84.44
488.171	90.44
488.389	94.44
488.607	106.44
488.825	101.44
489.043	98.44
489.261	106.44
489.479	94.44
489.696	90.44
489.914	94.44
490.132	89.44
490.35	103.44
490.568	77.44
490.786	90.44
491.003	88.44
491.221	84.44
491.439	89.44
491.657	93.44
491.874	88.44
492.092	96.44
492.31	89.44
492.527	86.44
492.745	80.44
492.963	78.44
493.18	88.44
493.398	97.44
493.615	98.44
493.833	105.44
494.05	93.44
494.268	87.44
494.485	83.44
494.703	91.44
494.92	91.44
495.138	91.44
495.355	95.44
495.573	95.44
495.79	93.44
496.008	105.44
496.225	109.44
496.442	86.44
496.66	106.44
496.877	90.44
497.094	88.44
497.312	86.44
497.529	99.44
497.746	104.44
497.963	101.44
498.181	97.44
498.398	110.44
498.615	112.44
498.832	116.44
499.049	112.44
499.267	90.44
499.484	97.44
499.701	80.44
499.918	99.44
500.135	77.44
500.352	99.44
500.569	85.44
500.786	97.44
501.003	97.44
501.22	94.44
501.437	119.44
501.654	98.44
501.871	106.44
502.088	90.44
502.305	82.44
502.522	94.44
502.739	80.44
502.956	95.44
503.172	89.44
503.389	99.44
503.606	100.44
503.823	98.44
504.04	90.44
504.256	93.44
504.473	84.44
504.69	110.44
504.907	100.44
505.123	92.44
505.34	94.44
505.557	89.44
505.773	86.44
505.99	91.44
506.207	99.44
506.423	97.44
506.64	82.44
506.856	93.44
507.073	97.44
507.289	91.44
507.506	99.44
507.722	113.44
507.939	121.44
508.155	110.44
508.372	93.44
508.588	101.44
508.805	91.44
509.021	94.44
509.238	100.44
509.454	93.44
509.67	98.44
509.887	114.44
510.103	139.44
510.319	216.44
510.536	735.44
510.752	2247.44
510.968	657.44
511.184	164.44
511.401	104.44
511.617	110.44
511.833	87.44
512.049	85.44
512.265	98.44
512.481	100.44
512.698	95.44
512.914	96.44
513.13	96.44
513.346	105.44
513.562	102.44
513.778	93.44
513.994	103.44
514.21	106.44
514.426	109.44
514.642	132.44
514.858	131.44
515.074	160.44
