Data from Uncirc_2008_H10_HRD10591_00020.txt Node
Date: Wed Jan 03 10:15:34 EST 2024
User: Yrep
Spectrometer: HR+D1059
Trigger mode: 1
Integration Time (sec): 1.000000E-1
Scans to average: 1
Electric dark correction enabled: true
Nonlinearity correction enabled: false
Boxcar width: 0
XAxis mode: Wavelengths
Number of Pixels in Spectrum: 2048
>>>>>Begin Spectral Data<<<<<
223.165	-13.12
223.4	-13.12
223.635	-13.12
223.869	-21.12
224.104	-16.12
224.338	-21.12
224.573	-22.12
224.808	-12.12
225.042	-1.12
225.277	-4.12
225.511	-9.12
225.746	16.88
225.98	6.88
226.215	3.88
226.449	11.88
226.683	23.88
226.918	34.88
227.152	21.88
227.387	29.88
227.621	35.88
227.856	42.88
228.09	47.88
228.324	48.88
228.559	43.88
228.793	50.88
229.027	55.88
229.262	58.88
229.496	64.88
229.73	85.88
229.964	77.88
230.199	68.88
230.433	70.88
230.667	73.88
230.901	75.88
231.136	75.88
231.37	80.88
231.604	69.88
231.838	78.88
232.072	82.88
232.306	77.88
232.541	84.88
232.775	69.88
233.009	83.88
233.243	77.88
233.477	77.88
233.711	71.88
233.945	74.88
234.179	71.88
234.413	73.88
234.647	94.88
234.881	90.88
235.115	79.88
235.349	75.88
235.583	74.88
235.817	83.88
236.051	77.88
236.285	72.88
236.519	68.88
236.753	77.88
236.987	85.88
237.221	69.88
237.455	83.88
237.689	72.88
237.922	85.88
238.156	73.88
238.39	77.88
238.624	83.88
238.858	75.88
239.091	70.88
239.325	68.88
239.559	75.88
239.793	59.88
240.027	83.88
240.26	81.88
240.494	67.88
240.728	69.88
240.961	92.88
241.195	76.88
241.429	85.88
241.662	72.88
241.896	80.88
242.13	73.88
242.363	80.88
242.597	77.88
242.83	77.88
243.064	82.88
243.298	77.88
243.531	66.88
243.765	75.88
243.998	69.88
244.232	78.88
244.465	72.88
244.699	68.88
244.932	83.88
245.166	65.88
245.399	83.88
245.633	71.88
245.866	68.88
246.099	78.88
246.333	78.88
246.566	73.88
246.8	84.88
247.033	87.88
247.266	83.88
247.5	53.88
247.733	79.88
247.966	73.88
248.2	63.88
248.433	84.88
248.666	68.88
248.899	64.88
249.133	70.88
249.366	74.88
249.599	94.88
249.832	82.88
250.066	75.88
250.299	89.88
250.532	88.88
250.765	86.88
250.998	83.88
251.231	70.88
251.465	74.88
251.698	92.88
251.931	81.88
252.164	87.88
252.397	78.88
252.63	79.88
252.863	75.88
253.096	67.88
253.329	90.88
253.562	86.88
253.795	82.88
254.028	70.88
254.261	82.88
254.494	87.88
254.727	75.88
254.96	78.88
255.193	86.88
255.426	76.88
255.659	77.88
255.892	73.88
256.124	68.88
256.357	73.88
256.59	77.88
256.823	66.88
257.056	82.88
257.289	77.88
257.521	76.88
257.754	66.88
257.987	90.88
258.22	66.88
258.452	87.88
258.685	82.88
258.918	77.88
259.151	80.88
259.383	101.88
259.616	83.88
259.849	79.88
260.081	84.88
260.314	75.88
260.547	73.88
260.779	69.88
261.012	75.88
261.244	80.88
261.477	80.88
261.71	63.88
261.942	108.88
262.175	111.88
262.407	96.88
262.64	86.88
262.872	78.88
263.105	75.88
263.337	80.88
263.57	76.88
263.802	82.88
264.035	86.88
264.267	70.88
264.499	76.88
264.732	77.88
264.964	78.88
265.197	72.88
265.429	89.88
265.661	85.88
265.894	74.88
266.126	72.88
266.358	69.88
266.591	76.88
266.823	89.88
267.055	70.88
267.287	86.88
267.52	71.88
267.752	79.88
267.984	84.88
268.216	85.88
268.448	82.88
268.681	78.88
268.913	90.88
269.145	92.88
269.377	69.88
269.609	66.88
269.841	81.88
270.073	85.88
270.306	89.88
270.538	83.88
270.77	77.88
271.002	91.88
271.234	85.88
271.466	73.88
271.698	91.88
271.93	81.88
272.162	80.88
272.394	78.88
272.626	74.88
272.858	81.88
273.09	91.88
273.322	88.88
273.553	91.88
273.785	69.88
274.017	77.88
274.249	84.88
274.481	73.88
274.713	87.88
274.945	89.88
275.176	92.88
275.408	85.88
275.64	83.88
275.872	67.88
276.104	66.88
276.335	94.88
276.567	91.88
276.799	118.88
277.031	96.88
277.262	94.88
277.494	87.88
277.726	91.88
277.957	80.88
278.189	77.88
278.421	79.88
278.652	83.88
278.884	82.88
279.115	84.88
279.347	71.88
279.579	88.88
279.81	87.88
280.042	83.88
280.273	84.88
280.505	85.88
280.736	93.88
280.968	84.88
281.199	81.88
281.431	89.88
281.662	83.88
281.894	93.88
282.125	95.88
282.356	115.88
282.588	132.88
282.819	102.88
283.051	82.88
283.282	86.88
283.513	75.88
283.745	86.88
283.976	84.88
284.207	86.88
284.439	80.88
284.67	81.88
284.901	71.88
285.132	79.88
285.364	93.88
285.595	93.88
285.826	73.88
286.057	92.88
286.288	76.88
286.52	80.88
286.751	97.88
286.982	96.88
287.213	86.88
287.444	88.88
287.675	89.88
287.906	81.88
288.138	85.88
288.369	85.88
288.6	94.88
288.831	83.88
289.062	85.88
289.293	84.88
289.524	83.88
289.755	80.88
289.986	92.88
290.217	75.88
290.448	84.88
290.679	102.88
290.91	86.88
291.141	83.88
291.371	81.88
291.602	79.88
291.833	84.88
292.064	74.88
292.295	78.88
292.526	77.88
292.757	89.88
292.987	79.88
293.218	74.88
293.449	76.88
293.68	78.88
293.91	77.88
294.141	92.88
294.372	84.88
294.603	90.88
294.833	71.88
295.064	87.88
295.295	84.88
295.525	75.88
295.756	68.88
295.987	100.88
296.217	116.88
296.448	90.88
296.679	82.88
296.909	86.88
297.14	80.88
297.37	76.88
297.601	79.88
297.831	94.88
298.062	87.88
298.292	91.88
298.523	90.88
298.753	83.88
298.984	82.88
299.214	87.88
299.445	83.88
299.675	68.88
299.905	86.88
300.136	90.88
300.366	82.88
300.597	91.88
300.827	76.88
301.057	95.88
301.288	99.88
301.518	98.88
301.748	88.88
301.979	96.88
302.209	86.88
302.439	83.88
302.669	85.88
302.9	80.88
303.13	89.88
303.36	91.88
303.59	96.88
303.82	98.88
304.051	87.88
304.281	90.88
304.511	85.88
304.741	86.88
304.971	73.88
305.201	83.88
305.431	81.88
305.661	67.88
305.891	87.88
306.121	91.88
306.352	91.88
306.582	91.88
306.812	98.88
307.042	93.88
307.272	80.88
307.502	83.88
307.731	86.88
307.961	85.88
308.191	91.88
308.421	78.88
308.651	94.88
308.881	85.88
309.111	78.88
309.341	81.88
309.571	100.88
309.8	102.88
310.03	100.88
310.26	90.88
310.49	77.88
310.72	81.88
310.949	102.88
311.179	84.88
311.409	79.88
311.639	91.88
311.868	91.88
312.098	72.88
312.328	85.88
312.557	91.88
312.787	89.88
313.017	111.88
313.246	81.88
313.476	76.88
313.706	85.88
313.935	77.88
314.165	92.88
314.394	95.88
314.624	88.88
314.853	87.88
315.083	84.88
315.312	90.88
315.542	77.88
315.771	95.88
316.001	71.88
316.23	83.88
316.46	99.88
316.689	89.88
316.919	92.88
317.148	99.88
317.377	80.88
317.607	101.88
317.836	89.88
318.065	82.88
318.295	79.88
318.524	84.88
318.753	86.88
318.983	94.88
319.212	87.88
319.441	114.88
319.67	96.88
319.9	74.88
320.129	87.88
320.358	94.88
320.587	90.88
320.816	97.88
321.046	87.88
321.275	75.88
321.504	77.88
321.733	90.88
321.962	90.88
322.191	107.88
322.42	102.88
322.649	100.88
322.878	99.88
323.108	96.88
323.337	115.88
323.566	128.88
323.795	140.88
324.024	185.88
324.253	384.88
324.482	744.88
324.71	1545.88
324.939	1962.88
325.168	748.88
325.397	205.88
325.626	139.88
325.855	116.88
326.084	119.88
326.313	126.88
326.542	144.88
326.77	194.88
326.999	423.88
327.228	878.88
327.457	1584.88
327.686	1218.88
327.914	336.88
328.143	155.88
328.372	126.88
328.6	94.88
328.829	107.88
329.058	122.88
329.287	126.88
329.515	98.88
329.744	95.88
329.972	94.88
330.201	93.88
330.43	106.88
330.658	110.88
330.887	120.88
331.115	120.88
331.344	93.88
331.572	99.88
331.801	94.88
332.03	80.88
332.258	86.88
332.486	88.88
332.715	102.88
332.943	97.88
333.172	92.88
333.4	99.88
333.629	89.88
333.857	106.88
334.085	104.88
334.314	91.88
334.542	99.88
334.771	85.88
334.999	93.88
335.227	81.88
335.455	102.88
335.684	85.88
335.912	87.88
336.14	89.88
336.369	91.88
336.597	95.88
336.825	108.88
337.053	96.88
337.281	85.88
337.51	94.88
337.738	101.88
337.966	101.88
338.194	81.88
338.422	95.88
338.65	87.88
338.878	84.88
339.106	85.88
339.334	79.88
339.562	81.88
339.79	81.88
340.018	93.88
340.246	111.88
340.474	86.88
340.702	83.88
340.93	88.88
341.158	99.88
341.386	89.88
341.614	94.88
341.842	91.88
342.07	91.88
342.298	85.88
342.526	86.88
342.754	88.88
342.981	80.88
343.209	88.88
343.437	88.88
343.665	88.88
343.893	88.88
344.12	87.88
344.348	92.88
344.576	91.88
344.804	87.88
345.031	77.88
345.259	111.88
345.487	90.88
345.714	86.88
345.942	90.88
346.17	88.88
346.397	90.88
346.625	86.88
346.853	82.88
347.08	92.88
347.308	89.88
347.535	92.88
347.763	90.88
347.99	87.88
348.218	94.88
348.445	84.88
348.673	84.88
348.9	98.88
349.128	94.88
349.355	68.88
349.583	83.88
349.81	90.88
350.037	90.88
350.265	82.88
350.492	77.88
350.72	86.88
350.947	97.88
351.174	93.88
351.402	104.88
351.629	99.88
351.856	88.88
352.083	91.88
352.311	102.88
352.538	99.88
352.765	109.88
352.992	105.88
353.22	91.88
353.447	95.88
353.674	105.88
353.901	92.88
354.128	102.88
354.355	95.88
354.583	99.88
354.81	101.88
355.037	95.88
355.264	86.88
355.491	98.88
355.718	86.88
355.945	96.88
356.172	86.88
356.399	86.88
356.626	92.88
356.853	96.88
357.08	90.88
357.307	87.88
357.534	94.88
357.761	79.88
357.988	98.88
358.215	101.88
358.441	90.88
358.668	80.88
358.895	86.88
359.122	82.88
359.349	70.88
359.576	88.88
359.802	98.88
360.029	99.88
360.256	106.88
360.483	94.88
360.709	92.88
360.936	78.88
361.163	90.88
361.39	76.88
361.616	93.88
361.843	99.88
362.07	88.88
362.296	88.88
362.523	89.88
362.749	100.88
362.976	86.88
363.203	84.88
363.429	77.88
363.656	94.88
363.882	92.88
364.109	89.88
364.335	90.88
364.562	84.88
364.788	89.88
365.015	104.88
365.241	93.88
365.468	93.88
365.694	112.88
365.92	84.88
366.147	84.88
366.373	76.88
366.599	68.88
366.826	87.88
367.052	76.88
367.278	85.88
367.505	91.88
367.731	110.88
367.957	93.88
368.184	79.88
368.41	89.88
368.636	84.88
368.862	109.88
369.089	95.88
369.315	91.88
369.541	104.88
369.767	95.88
369.993	82.88
370.219	81.88
370.445	78.88
370.672	87.88
370.898	83.88
371.124	96.88
371.35	101.88
371.576	70.88
371.802	89.88
372.028	75.88
372.254	83.88
372.48	89.88
372.706	78.88
372.932	91.88
373.158	93.88
373.384	91.88
373.61	93.88
373.835	74.88
374.061	89.88
374.287	84.88
374.513	84.88
374.739	76.88
374.965	80.88
375.191	101.88
375.416	90.88
375.642	89.88
375.868	89.88
376.094	77.88
376.319	90.88
376.545	84.88
376.771	77.88
376.997	86.88
377.222	88.88
377.448	89.88
377.674	79.88
377.899	83.88
378.125	99.88
378.35	63.88
378.576	82.88
378.802	96.88
379.027	78.88
379.253	91.88
379.478	91.88
379.704	100.88
379.929	86.88
380.155	88.88
380.38	92.88
380.606	83.88
380.831	91.88
381.057	84.88
381.282	86.88
381.507	83.88
381.733	78.88
381.958	101.88
382.184	105.88
382.409	93.88
382.634	98.88
382.86	91.88
383.085	83.88
383.31	98.88
383.535	88.88
383.761	100.88
383.986	88.88
384.211	88.88
384.436	89.88
384.662	94.88
384.887	107.88
385.112	101.88
385.337	93.88
385.562	95.88
385.787	104.88
386.013	116.88
386.238	119.88
386.463	104.88
386.688	107.88
386.913	93.88
387.138	103.88
387.363	102.88
387.588	98.88
387.813	101.88
388.038	100.88
388.263	118.88
388.488	106.88
388.713	96.88
388.938	102.88
389.163	76.88
389.387	89.88
389.612	89.88
389.837	78.88
390.062	91.88
390.287	88.88
390.512	82.88
390.736	77.88
390.961	87.88
391.186	93.88
391.411	82.88
391.636	92.88
391.86	79.88
392.085	77.88
392.31	75.88
392.534	68.88
392.759	87.88
392.984	93.88
393.208	85.88
393.433	86.88
393.658	84.88
393.882	86.88
394.107	83.88
394.331	85.88
394.556	71.88
394.78	92.88
395.005	81.88
395.229	94.88
395.454	92.88
395.678	86.88
395.903	90.88
396.127	83.88
396.352	76.88
396.576	81.88
396.801	92.88
397.025	76.88
397.249	89.88
397.474	82.88
397.698	78.88
397.922	74.88
398.147	85.88
398.371	73.88
398.595	89.88
398.82	98.88
399.044	72.88
399.268	78.88
399.492	79.88
399.717	80.88
399.941	89.88
400.165	88.88
400.389	86.88
400.613	72.88
400.837	90.88
401.062	87.88
401.286	84.88
401.51	78.88
401.734	99.88
401.958	93.88
402.182	109.88
402.406	141.88
402.63	108.88
402.854	92.88
403.078	95.88
403.302	71.88
403.526	77.88
403.75	90.88
403.974	99.88
404.198	90.88
404.422	74.88
404.645	74.88
404.869	101.88
405.093	88.88
405.317	80.88
405.541	94.88
405.765	88.88
405.988	106.88
406.212	157.88
406.436	197.88
406.66	129.88
406.883	116.88
407.107	93.88
407.331	80.88
407.555	86.88
407.778	85.88
408.002	85.88
408.226	98.88
408.449	83.88
408.673	86.88
408.896	83.88
409.12	86.88
409.344	89.88
409.567	93.88
409.791	89.88
410.014	85.88
410.238	85.88
410.461	80.88
410.685	86.88
410.908	92.88
411.132	104.88
411.355	94.88
411.578	98.88
411.802	78.88
412.025	83.88
412.249	86.88
412.472	85.88
412.695	74.88
412.919	92.88
413.142	77.88
413.365	80.88
413.589	91.88
413.812	79.88
414.035	86.88
414.258	79.88
414.482	94.88
414.705	77.88
414.928	91.88
415.151	93.88
415.374	93.88
415.597	70.88
415.821	86.88
416.044	84.88
416.267	87.88
416.49	86.88
416.713	86.88
416.936	85.88
417.159	88.88
417.382	82.88
417.605	80.88
417.828	87.88
418.051	85.88
418.274	79.88
418.497	75.88
418.72	74.88
418.943	80.88
419.166	86.88
419.389	90.88
419.611	86.88
419.834	81.88
420.057	83.88
420.28	76.88
420.503	80.88
420.726	88.88
420.948	83.88
421.171	96.88
421.394	95.88
421.617	83.88
421.839	80.88
422.062	90.88
422.285	88.88
422.507	80.88
422.73	85.88
422.953	78.88
423.175	80.88
423.398	88.88
423.621	86.88
423.843	78.88
424.066	94.88
424.288	93.88
424.511	86.88
424.733	86.88
424.956	103.88
425.178	92.88
425.401	99.88
425.623	90.88
425.846	87.88
426.068	84.88
426.291	99.88
426.513	72.88
426.735	79.88
426.958	87.88
427.18	104.88
427.402	132.88
427.625	138.88
427.847	111.88
428.069	91.88
428.292	77.88
428.514	89.88
428.736	84.88
428.958	82.88
429.181	80.88
429.403	83.88
429.625	86.88
429.847	79.88
430.069	86.88
430.292	80.88
430.514	90.88
430.736	89.88
430.958	97.88
431.18	86.88
431.402	94.88
431.624	85.88
431.846	63.88
432.068	72.88
432.29	76.88
432.512	79.88
432.734	84.88
432.956	97.88
433.178	87.88
433.4	98.88
433.622	84.88
433.844	80.88
434.066	86.88
434.287	94.88
434.509	80.88
434.731	77.88
434.953	92.88
435.175	90.88
435.397	76.88
435.618	98.88
435.84	94.88
436.062	124.88
436.284	100.88
436.505	86.88
436.727	94.88
436.949	86.88
437.17	80.88
437.392	74.88
437.614	83.88
437.835	111.88
438.057	103.88
438.278	94.88
438.5	99.88
438.721	108.88
438.943	103.88
439.165	79.88
439.386	82.88
439.608	91.88
439.829	110.88
440.05	123.88
440.272	130.88
440.493	86.88
440.715	81.88
440.936	84.88
441.158	89.88
441.379	86.88
441.6	89.88
441.822	86.88
442.043	87.88
442.264	91.88
442.486	88.88
442.707	80.88
442.928	102.88
443.149	111.88
443.371	123.88
443.592	104.88
443.813	108.88
444.034	101.88
444.255	97.88
444.476	91.88
444.698	95.88
444.919	83.88
445.14	112.88
445.361	114.88
445.582	101.88
445.803	125.88
446.024	129.88
446.245	118.88
446.466	98.88
446.687	87.88
446.908	90.88
447.129	89.88
447.35	84.88
447.571	93.88
447.792	72.88
448.013	111.88
448.234	103.88
448.455	99.88
448.675	115.88
448.896	105.88
449.117	103.88
449.338	109.88
449.559	107.88
449.779	132.88
450	103.88
450.221	71.88
450.442	86.88
450.662	106.88
450.883	91.88
451.104	104.88
451.324	90.88
451.545	85.88
451.766	86.88
451.986	74.88
452.207	85.88
452.428	92.88
452.648	84.88
452.869	101.88
453.089	103.88
453.31	96.88
453.53	88.88
453.751	91.88
453.971	95.88
454.192	105.88
454.412	88.88
454.633	83.88
454.853	86.88
455.073	77.88
455.294	81.88
455.514	95.88
455.734	93.88
455.955	91.88
456.175	85.88
456.395	73.88
456.616	87.88
456.836	88.88
457.056	64.88
457.276	87.88
457.497	80.88
457.717	86.88
457.937	69.88
458.157	86.88
458.377	97.88
458.598	86.88
458.818	129.88
459.038	124.88
459.258	101.88
459.478	87.88
459.698	81.88
459.918	79.88
460.138	74.88
460.358	72.88
460.578	86.88
460.798	89.88
461.018	88.88
461.238	80.88
461.458	80.88
461.678	78.88
461.898	71.88
462.118	83.88
462.338	95.88
462.558	84.88
462.777	97.88
462.997	91.88
463.217	84.88
463.437	77.88
463.657	91.88
463.876	91.88
464.096	87.88
464.316	88.88
464.536	83.88
464.755	102.88
464.975	102.88
465.195	146.88
465.414	143.88
465.634	94.88
465.854	79.88
466.073	96.88
466.293	73.88
466.512	80.88
466.732	84.88
466.951	74.88
467.171	90.88
467.391	95.88
467.61	97.88
467.829	83.88
468.049	87.88
468.268	82.88
468.488	73.88
468.707	83.88
468.927	84.88
469.146	77.88
469.365	78.88
469.585	95.88
469.804	92.88
470.023	96.88
470.243	82.88
470.462	87.88
470.681	95.88
470.901	82.88
471.12	93.88
471.339	90.88
471.558	86.88
471.777	79.88
471.997	94.88
472.216	91.88
472.435	72.88
472.654	73.88
472.873	76.88
473.092	95.88
473.311	104.88
473.53	79.88
473.749	74.88
473.968	80.88
474.187	98.88
474.406	94.88
474.625	91.88
474.844	92.88
475.063	95.88
475.282	77.88
475.501	72.88
475.72	86.88
475.939	92.88
476.158	88.88
476.377	79.88
476.596	90.88
476.814	81.88
477.033	88.88
477.252	96.88
477.471	74.88
477.69	77.88
477.908	84.88
478.127	88.88
478.346	83.88
478.564	83.88
478.783	88.88
479.002	86.88
479.22	86.88
479.439	77.88
479.658	99.88
479.876	78.88
480.095	78.88
480.313	66.88
480.532	82.88
480.751	94.88
480.969	98.88
481.188	99.88
481.406	85.88
481.624	91.88
481.843	84.88
482.061	71.88
482.28	94.88
482.498	78.88
482.717	90.88
482.935	79.88
483.153	79.88
483.372	78.88
483.59	73.88
483.808	85.88
484.027	80.88
484.245	83.88
484.463	81.88
484.681	84.88
484.9	86.88
485.118	80.88
485.336	92.88
485.554	98.88
485.772	93.88
485.99	89.88
486.209	99.88
486.427	91.88
486.645	100.88
486.863	102.88
487.081	100.88
487.299	85.88
487.517	86.88
487.735	88.88
487.953	98.88
488.171	95.88
488.389	105.88
488.607	74.88
488.825	87.88
489.043	72.88
489.261	91.88
489.479	92.88
489.696	87.88
489.914	76.88
490.132	87.88
490.35	75.88
490.568	89.88
490.786	82.88
491.003	79.88
491.221	79.88
491.439	85.88
491.657	96.88
491.874	91.88
492.092	95.88
492.31	103.88
492.527	85.88
492.745	86.88
492.963	88.88
493.18	87.88
493.398	87.88
493.615	95.88
493.833	92.88
494.05	82.88
494.268	93.88
494.485	91.88
494.703	87.88
494.92	84.88
495.138	88.88
495.355	99.88
495.573	92.88
495.79	102.88
496.008	101.88
496.225	77.88
496.442	91.88
496.66	79.88
496.877	90.88
497.094	88.88
497.312	87.88
497.529	91.88
497.746	89.88
497.963	85.88
498.181	80.88
498.398	92.88
498.615	112.88
498.832	109.88
499.049	85.88
499.267	78.88
499.484	83.88
499.701	90.88
499.918	82.88
500.135	86.88
500.352	82.88
500.569	77.88
500.786	83.88
501.003	85.88
501.22	74.88
501.437	78.88
501.654	105.88
501.871	115.88
502.088	78.88
502.305	86.88
502.522	77.88
502.739	93.88
502.956	92.88
503.172	82.88
503.389	116.88
503.606	93.88
503.823	92.88
504.04	96.88
504.256	91.88
504.473	85.88
504.69	91.88
504.907	82.88
505.123	91.88
505.34	90.88
505.557	85.88
505.773	78.88
505.99	89.88
506.207	84.88
506.423	84.88
506.64	88.88
506.856	87.88
507.073	97.88
507.289	88.88
507.506	93.88
507.722	130.88
507.939	94.88
508.155	101.88
508.372	83.88
508.588	75.88
508.805	90.88
509.021	88.88
509.238	86.88
509.454	99.88
509.67	108.88
509.887	111.88
510.103	117.88
510.319	198.88
510.536	719.88
510.752	2286.88
510.968	654.88
511.184	151.88
511.401	95.88
511.617	98.88
511.833	88.88
512.049	83.88
512.265	100.88
512.481	85.88
512.698	76.88
512.914	91.88
513.13	77.88
513.346	95.88
513.562	104.88
513.778	106.88
513.994	90.88
514.21	96.88
514.426	117.88
514.642	120.88
514.858	109.88
515.074	163.88
515.29	402.88
515.506	1362.88
515.721	511.88
515.937	150.88
516.153	106.88
516.369	109.88
516.585	88.88
516.801	79.88
517.016	83.88
517.232	95.88
517.448	89.88
