Data from Uncirc_2008_H10_HRD10591_00065.txt Node
Date: Wed Jan 03 10:15:43 EST 2024
User: Yrep
Spectrometer: HR+D1059
Trigger mode: 1
Integration Time (sec): 1.000000E-1
Scans to average: 1
Electric dark correction enabled: true
Nonlinearity correction enabled: false
Boxcar width: 0
XAxis mode: Wavelengths
Number of Pixels in Spectrum: 2048
>>>>>Begin Spectral Data<<<<<
223.165	-13.12
223.4	-13.12
223.635	-13.12
223.869	-18.12
224.104	-30.12
224.338	-14.12
224.573	-26.12
224.808	-17.12
225.042	-10.12
225.277	6.88
225.511	3.88
225.746	8.88
225.98	12.88
226.215	-3.12
226.449	18.88
226.683	18.88
226.918	36.88
227.152	24.88
227.387	32.88
227.621	34.88
227.856	37.88
228.09	36.88
228.324	55.88
228.559	61.88
228.793	53.88
229.027	65.88
229.262	63.88
229.496	63.88
229.73	87.88
229.964	78.88
230.199	68.88
230.433	74.88
230.667	62.88
230.901	69.88
231.136	80.88
231.37	70.88
231.604	72.88
231.838	86.88
232.072	78.88
232.306	85.88
232.541	76.88
232.775	83.88
233.009	81.88
233.243	88.88
233.477	65.88
233.711	81.88
233.945	84.88
234.179	82.88
234.413	85.88
234.647	63.88
234.881	85.88
235.115	86.88
235.349	78.88
235.583	76.88
235.817	69.88
236.051	77.88
236.285	89.88
236.519	76.88
236.753	71.88
236.987	76.88
237.221	77.88
237.455	82.88
237.689	60.88
237.922	75.88
238.156	85.88
238.39	70.88
238.624	82.88
238.858	71.88
239.091	72.88
239.325	73.88
239.559	75.88
239.793	78.88
240.027	64.88
240.26	80.88
240.494	81.88
240.728	68.88
240.961	84.88
241.195	68.88
241.429	65.88
241.662	80.88
241.896	74.88
242.13	73.88
242.363	66.88
242.597	72.88
242.83	89.88
243.064	80.88
243.298	81.88
243.531	61.88
243.765	80.88
243.998	79.88
244.232	84.88
244.465	77.88
244.699	66.88
244.932	82.88
245.166	76.88
245.399	81.88
245.633	70.88
245.866	81.88
246.099	71.88
246.333	71.88
246.566	79.88
246.8	80.88
247.033	69.88
247.266	70.88
247.5	67.88
247.733	76.88
247.966	89.88
248.2	100.88
248.433	86.88
248.666	65.88
248.899	97.88
249.133	74.88
249.366	84.88
249.599	94.88
249.832	82.88
250.066	84.88
250.299	81.88
250.532	83.88
250.765	88.88
250.998	65.88
251.231	86.88
251.465	55.88
251.698	87.88
251.931	83.88
252.164	82.88
252.397	84.88
252.63	74.88
252.863	79.88
253.096	79.88
253.329	92.88
253.562	79.88
253.795	89.88
254.028	72.88
254.261	82.88
254.494	73.88
254.727	78.88
254.96	83.88
255.193	73.88
255.426	64.88
255.659	70.88
255.892	80.88
256.124	86.88
256.357	95.88
256.59	95.88
256.823	82.88
257.056	74.88
257.289	83.88
257.521	78.88
257.754	72.88
257.987	80.88
258.22	83.88
258.452	64.88
258.685	85.88
258.918	78.88
259.151	90.88
259.383	80.88
259.616	69.88
259.849	77.88
260.081	74.88
260.314	76.88
260.547	75.88
260.779	86.88
261.012	94.88
261.244	79.88
261.477	82.88
261.71	97.88
261.942	104.88
262.175	105.88
262.407	94.88
262.64	76.88
262.872	74.88
263.105	90.88
263.337	90.88
263.57	91.88
263.802	94.88
264.035	73.88
264.267	77.88
264.499	71.88
264.732	90.88
264.964	84.88
265.197	80.88
265.429	95.88
265.661	82.88
265.894	82.88
266.126	78.88
266.358	92.88
266.591	87.88
266.823	79.88
267.055	79.88
267.287	79.88
267.52	89.88
267.752	85.88
267.984	88.88
268.216	86.88
268.448	85.88
268.681	85.88
268.913	88.88
269.145	87.88
269.377	90.88
269.609	82.88
269.841	91.88
270.073	82.88
270.306	86.88
270.538	82.88
270.77	77.88
271.002	97.88
271.234	81.88
271.466	81.88
271.698	81.88
271.93	86.88
272.162	92.88
272.394	73.88
272.626	78.88
272.858	64.88
273.09	86.88
273.322	81.88
273.553	76.88
273.785	89.88
274.017	88.88
274.249	75.88
274.481	91.88
274.713	72.88
274.945	87.88
275.176	80.88
275.408	82.88
275.64	78.88
275.872	80.88
276.104	89.88
276.335	87.88
276.567	94.88
276.799	96.88
277.031	93.88
277.262	85.88
277.494	72.88
277.726	80.88
277.957	79.88
278.189	85.88
278.421	93.88
278.652	69.88
278.884	89.88
279.115	91.88
279.347	91.88
279.579	95.88
279.81	97.88
280.042	81.88
280.273	81.88
280.505	85.88
280.736	81.88
280.968	84.88
281.199	83.88
281.431	78.88
281.662	78.88
281.894	88.88
282.125	81.88
282.356	104.88
282.588	133.88
282.819	103.88
283.051	97.88
283.282	80.88
283.513	91.88
283.745	76.88
283.976	83.88
284.207	86.88
284.439	82.88
284.67	87.88
284.901	81.88
285.132	76.88
285.364	81.88
285.595	69.88
285.826	95.88
286.057	91.88
286.288	91.88
286.52	89.88
286.751	93.88
286.982	82.88
287.213	81.88
287.444	84.88
287.675	80.88
287.906	90.88
288.138	92.88
288.369	87.88
288.6	77.88
288.831	101.88
289.062	91.88
289.293	93.88
289.524	82.88
289.755	81.88
289.986	87.88
290.217	77.88
290.448	84.88
290.679	86.88
290.91	95.88
291.141	81.88
291.371	81.88
291.602	85.88
291.833	90.88
292.064	94.88
292.295	88.88
292.526	86.88
292.757	77.88
292.987	94.88
293.218	94.88
293.449	81.88
293.68	81.88
293.91	103.88
294.141	93.88
294.372	77.88
294.603	88.88
294.833	88.88
295.064	86.88
295.295	62.88
295.525	78.88
295.756	99.88
295.987	120.88
296.217	123.88
296.448	116.88
296.679	91.88
296.909	83.88
297.14	84.88
297.37	98.88
297.601	91.88
297.831	87.88
298.062	80.88
298.292	95.88
298.523	89.88
298.753	91.88
298.984	91.88
299.214	73.88
299.445	88.88
299.675	83.88
299.905	95.88
300.136	86.88
300.366	85.88
300.597	94.88
300.827	95.88
301.057	94.88
301.288	97.88
301.518	93.88
301.748	97.88
301.979	97.88
302.209	85.88
302.439	77.88
302.669	95.88
302.9	94.88
303.13	89.88
303.36	92.88
303.59	101.88
303.82	107.88
304.051	93.88
304.281	86.88
304.511	92.88
304.741	82.88
304.971	91.88
305.201	70.88
305.431	94.88
305.661	91.88
305.891	101.88
306.121	91.88
306.352	98.88
306.582	93.88
306.812	88.88
307.042	86.88
307.272	97.88
307.502	94.88
307.731	96.88
307.961	102.88
308.191	92.88
308.421	87.88
308.651	91.88
308.881	102.88
309.111	98.88
309.341	97.88
309.571	92.88
309.8	93.88
310.03	82.88
310.26	97.88
310.49	98.88
310.72	88.88
310.949	108.88
311.179	91.88
311.409	91.88
311.639	92.88
311.868	88.88
312.098	88.88
312.328	96.88
312.557	88.88
312.787	95.88
313.017	106.88
313.246	82.88
313.476	86.88
313.706	86.88
313.935	98.88
314.165	94.88
314.394	99.88
314.624	101.88
314.853	101.88
315.083	92.88
315.312	65.88
315.542	79.88
315.771	88.88
316.001	99.88
316.23	94.88
316.46	90.88
316.689	90.88
316.919	81.88
317.148	92.88
317.377	98.88
317.607	94.88
317.836	80.88
318.065	89.88
318.295	108.88
318.524	82.88
318.753	90.88
318.983	101.88
319.212	87.88
319.441	79.88
319.67	94.88
319.9	98.88
320.129	94.88
320.358	93.88
320.587	100.88
320.816	99.88
321.046	101.88
321.275	97.88
321.504	81.88
321.733	85.88
321.962	92.88
322.191	96.88
322.42	101.88
322.649	106.88
322.878	118.88
323.108	110.88
323.337	130.88
323.566	128.88
323.795	141.88
324.024	189.88
324.253	361.88
324.482	692.88
324.71	1476.88
324.939	1880.88
325.168	704.88
325.397	214.88
325.626	134.88
325.855	118.88
326.084	127.88
326.313	117.88
326.542	140.88
326.77	223.88
326.999	407.88
327.228	844.88
327.457	1485.88
327.686	1172.88
327.914	323.88
328.143	172.88
328.372	122.88
328.6	116.88
328.829	105.88
329.058	130.88
329.287	118.88
329.515	112.88
329.744	98.88
329.972	94.88
330.201	96.88
330.43	96.88
330.658	119.88
330.887	117.88
331.115	96.88
331.344	103.88
331.572	101.88
331.801	106.88
332.03	84.88
332.258	106.88
332.486	94.88
332.715	104.88
332.943	93.88
333.172	98.88
333.4	86.88
333.629	96.88
333.857	108.88
334.085	100.88
334.314	100.88
334.542	82.88
334.771	92.88
334.999	90.88
335.227	104.88
335.455	79.88
335.684	88.88
335.912	93.88
336.14	94.88
336.369	84.88
336.597	93.88
336.825	90.88
337.053	97.88
337.281	82.88
337.51	100.88
337.738	88.88
337.966	106.88
338.194	101.88
338.422	88.88
338.65	93.88
338.878	101.88
339.106	87.88
339.334	91.88
339.562	89.88
339.79	82.88
340.018	85.88
340.246	98.88
340.474	80.88
340.702	80.88
340.93	97.88
341.158	90.88
341.386	95.88
341.614	85.88
341.842	88.88
342.07	82.88
342.298	90.88
342.526	88.88
342.754	78.88
342.981	94.88
343.209	95.88
343.437	81.88
343.665	97.88
343.893	87.88
344.12	94.88
344.348	89.88
344.576	75.88
344.804	75.88
345.031	107.88
345.259	96.88
345.487	74.88
345.714	85.88
345.942	88.88
346.17	88.88
346.397	76.88
346.625	87.88
346.853	85.88
347.08	97.88
347.308	91.88
347.535	96.88
347.763	95.88
347.99	111.88
348.218	97.88
348.445	101.88
348.673	94.88
348.9	95.88
349.128	89.88
349.355	92.88
349.583	95.88
349.81	106.88
350.037	88.88
350.265	98.88
350.492	80.88
350.72	92.88
350.947	107.88
351.174	100.88
351.402	112.88
351.629	91.88
351.856	88.88
352.083	101.88
352.311	103.88
352.538	93.88
352.765	91.88
352.992	102.88
353.22	97.88
353.447	111.88
353.674	95.88
353.901	96.88
354.128	93.88
354.355	100.88
354.583	89.88
354.81	95.88
355.037	109.88
355.264	99.88
355.491	92.88
355.718	86.88
355.945	85.88
356.172	112.88
356.399	106.88
356.626	99.88
356.853	90.88
357.08	106.88
357.307	82.88
357.534	97.88
357.761	95.88
357.988	87.88
358.215	85.88
358.441	93.88
358.668	92.88
358.895	98.88
359.122	86.88
359.349	102.88
359.576	85.88
359.802	92.88
360.029	111.88
360.256	101.88
360.483	91.88
360.709	79.88
360.936	95.88
361.163	90.88
361.39	81.88
361.616	97.88
361.843	92.88
362.07	89.88
362.296	105.88
362.523	98.88
362.749	83.88
362.976	102.88
363.203	93.88
363.429	87.88
363.656	89.88
363.882	89.88
364.109	87.88
364.335	68.88
364.562	90.88
364.788	96.88
365.015	101.88
365.241	95.88
365.468	102.88
365.694	92.88
365.92	92.88
366.147	87.88
366.373	96.88
366.599	82.88
366.826	93.88
367.052	84.88
367.278	93.88
367.505	92.88
367.731	80.88
367.957	90.88
368.184	91.88
368.41	94.88
368.636	109.88
368.862	117.88
369.089	98.88
369.315	96.88
369.541	88.88
369.767	79.88
369.993	103.88
370.219	88.88
370.445	102.88
370.672	89.88
370.898	85.88
371.124	93.88
371.35	92.88
371.576	82.88
371.802	82.88
372.028	92.88
372.254	97.88
372.48	95.88
372.706	103.88
372.932	91.88
373.158	90.88
373.384	80.88
373.61	93.88
373.835	98.88
374.061	82.88
374.287	89.88
374.513	81.88
374.739	79.88
374.965	84.88
375.191	105.88
375.416	81.88
375.642	88.88
375.868	97.88
376.094	84.88
376.319	92.88
376.545	89.88
376.771	75.88
376.997	83.88
377.222	96.88
377.448	98.88
377.674	84.88
377.899	91.88
378.125	84.88
378.35	103.88
378.576	84.88
378.802	73.88
379.027	85.88
379.253	104.88
379.478	92.88
379.704	82.88
379.929	97.88
380.155	89.88
380.38	81.88
380.606	99.88
380.831	83.88
381.057	103.88
381.282	102.88
381.507	90.88
381.733	96.88
381.958	85.88
382.184	89.88
382.409	83.88
382.634	90.88
382.86	87.88
383.085	99.88
383.31	96.88
383.535	91.88
383.761	82.88
383.986	112.88
384.211	101.88
384.436	92.88
384.662	96.88
384.887	89.88
385.112	97.88
385.337	94.88
385.562	91.88
385.787	108.88
386.013	107.88
386.238	109.88
386.463	98.88
386.688	116.88
386.913	106.88
387.138	84.88
387.363	101.88
387.588	97.88
387.813	81.88
388.038	100.88
388.263	107.88
388.488	95.88
388.713	99.88
388.938	100.88
389.163	92.88
389.387	96.88
389.612	93.88
389.837	87.88
390.062	88.88
390.287	86.88
390.512	84.88
390.736	92.88
390.961	85.88
391.186	89.88
391.411	95.88
391.636	84.88
391.86	80.88
392.085	95.88
392.31	89.88
392.534	100.88
392.759	105.88
392.984	94.88
393.208	71.88
393.433	66.88
393.658	89.88
393.882	81.88
394.107	81.88
394.331	90.88
394.556	77.88
394.78	85.88
395.005	80.88
395.229	82.88
395.454	89.88
395.678	80.88
395.903	89.88
396.127	89.88
396.352	90.88
396.576	79.88
396.801	91.88
397.025	91.88
397.249	71.88
397.474	72.88
397.698	89.88
397.922	88.88
398.147	85.88
398.371	84.88
398.595	75.88
398.82	86.88
399.044	90.88
399.268	73.88
399.492	86.88
399.717	77.88
399.941	89.88
400.165	73.88
400.389	98.88
400.613	82.88
400.837	97.88
401.062	96.88
401.286	101.88
401.51	99.88
401.734	101.88
401.958	89.88
402.182	120.88
402.406	145.88
402.63	105.88
402.854	92.88
403.078	102.88
403.302	92.88
403.526	77.88
403.75	89.88
403.974	77.88
404.198	80.88
404.422	81.88
404.645	88.88
404.869	88.88
405.093	94.88
405.317	94.88
405.541	91.88
405.765	100.88
405.988	108.88
406.212	152.88
406.436	209.88
406.66	149.88
406.883	93.88
407.107	87.88
407.331	90.88
407.555	81.88
407.778	98.88
408.002	84.88
408.226	69.88
408.449	89.88
408.673	71.88
408.896	98.88
409.12	101.88
409.344	90.88
409.567	90.88
409.791	77.88
410.014	93.88
410.238	86.88
410.461	93.88
410.685	82.88
410.908	94.88
411.132	92.88
411.355	97.88
411.578	110.88
411.802	88.88
412.025	77.88
412.249	93.88
412.472	82.88
412.695	80.88
412.919	92.88
413.142	81.88
413.365	88.88
413.589	85.88
413.812	86.88
414.035	82.88
414.258	90.88
414.482	84.88
414.705	74.88
414.928	90.88
415.151	88.88
415.374	86.88
415.597	97.88
415.821	89.88
416.044	84.88
416.267	71.88
416.49	80.88
416.713	81.88
416.936	97.88
417.159	85.88
417.382	88.88
417.605	96.88
417.828	89.88
418.051	94.88
418.274	86.88
418.497	87.88
418.72	81.88
418.943	74.88
419.166	84.88
419.389	84.88
419.611	70.88
419.834	86.88
420.057	82.88
420.28	70.88
420.503	87.88
420.726	93.88
420.948	102.88
421.171	88.88
421.394	92.88
421.617	75.88
421.839	92.88
422.062	69.88
422.285	87.88
422.507	94.88
422.73	100.88
422.953	83.88
423.175	104.88
423.398	78.88
423.621	78.88
423.843	74.88
424.066	94.88
424.288	86.88
424.511	85.88
424.733	103.88
424.956	101.88
425.178	98.88
425.401	92.88
425.623	97.88
425.846	82.88
426.068	81.88
426.291	79.88
426.513	96.88
426.735	78.88
426.958	94.88
427.18	95.88
427.402	118.88
427.625	125.88
427.847	108.88
428.069	95.88
428.292	72.88
428.514	84.88
428.736	100.88
428.958	79.88
429.181	75.88
429.403	89.88
429.625	77.88
429.847	87.88
430.069	99.88
430.292	92.88
430.514	79.88
430.736	71.88
430.958	89.88
431.18	106.88
431.402	83.88
431.624	74.88
431.846	75.88
432.068	78.88
432.29	68.88
432.512	77.88
432.734	85.88
432.956	97.88
433.178	89.88
433.4	94.88
433.622	95.88
433.844	79.88
434.066	94.88
434.287	88.88
434.509	71.88
434.731	80.88
434.953	86.88
435.175	83.88
435.397	99.88
435.618	82.88
435.84	82.88
436.062	132.88
436.284	106.88
436.505	102.88
436.727	93.88
436.949	87.88
437.17	84.88
437.392	80.88
437.614	89.88
437.835	96.88
438.057	108.88
438.278	91.88
438.5	107.88
438.721	109.88
438.943	101.88
439.165	89.88
439.386	77.88
439.608	97.88
439.829	109.88
440.05	105.88
440.272	117.88
440.493	101.88
440.715	74.88
440.936	79.88
441.158	102.88
441.379	85.88
441.6	76.88
441.822	98.88
442.043	81.88
442.264	85.88
442.486	92.88
442.707	85.88
442.928	116.88
443.149	112.88
443.371	112.88
443.592	97.88
443.813	100.88
444.034	94.88
444.255	107.88
444.476	78.88
444.698	85.88
444.919	79.88
445.14	132.88
445.361	93.88
445.582	95.88
445.803	118.88
446.024	109.88
446.245	132.88
446.466	112.88
446.687	86.88
446.908	90.88
447.129	89.88
447.35	89.88
447.571	94.88
447.792	100.88
448.013	85.88
448.234	103.88
448.455	105.88
448.675	104.88
448.896	125.88
449.117	94.88
449.338	94.88
449.559	114.88
449.779	116.88
450	94.88
450.221	88.88
450.442	97.88
450.662	86.88
450.883	93.88
451.104	102.88
451.324	95.88
451.545	75.88
451.766	92.88
451.986	87.88
452.207	78.88
452.428	79.88
452.648	95.88
452.869	101.88
453.089	105.88
453.31	109.88
453.53	85.88
453.751	89.88
453.971	113.88
454.192	108.88
454.412	90.88
454.633	77.88
454.853	67.88
455.073	89.88
455.294	82.88
455.514	80.88
455.734	68.88
455.955	88.88
456.175	93.88
456.395	89.88
456.616	71.88
456.836	79.88
457.056	92.88
457.276	81.88
457.497	80.88
457.717	76.88
457.937	84.88
458.157	93.88
458.377	105.88
458.598	107.88
458.818	137.88
459.038	140.88
459.258	112.88
459.478	95.88
459.698	80.88
459.918	74.88
460.138	82.88
460.358	76.88
460.578	91.88
460.798	86.88
461.018	82.88
461.238	89.88
461.458	82.88
461.678	89.88
461.898	81.88
462.118	92.88
462.338	79.88
462.558	90.88
462.777	84.88
462.997	89.88
463.217	83.88
463.437	79.88
463.657	83.88
463.876	80.88
464.096	82.88
464.316	93.88
464.536	87.88
464.755	93.88
464.975	109.88
465.195	144.88
465.414	137.88
465.634	84.88
465.854	94.88
466.073	77.88
466.293	83.88
466.512	95.88
466.732	76.88
466.951	94.88
467.171	91.88
467.391	85.88
467.61	94.88
467.829	88.88
468.049	106.88
468.268	80.88
468.488	76.88
468.707	73.88
468.927	70.88
469.146	89.88
469.365	84.88
469.585	87.88
469.804	89.88
470.023	100.88
470.243	77.88
470.462	93.88
470.681	96.88
470.901	93.88
471.12	71.88
471.339	76.88
471.558	80.88
471.777	87.88
471.997	100.88
472.216	86.88
472.435	82.88
472.654	87.88
472.873	86.88
473.092	74.88
473.311	96.88
473.53	87.88
473.749	91.88
473.968	84.88
474.187	82.88
474.406	79.88
474.625	87.88
474.844	95.88
475.063	76.88
475.282	78.88
475.501	74.88
475.72	96.88
475.939	73.88
476.158	83.88
476.377	79.88
476.596	89.88
476.814	92.88
477.033	97.88
477.252	88.88
477.471	90.88
477.69	77.88
477.908	89.88
478.127	76.88
478.346	92.88
478.564	98.88
478.783	116.88
479.002	97.88
479.22	70.88
479.439	94.88
479.658	92.88
479.876	101.88
480.095	102.88
480.313	78.88
480.532	86.88
480.751	94.88
480.969	92.88
481.188	90.88
481.406	78.88
481.624	90.88
481.843	98.88
482.061	90.88
482.28	84.88
482.498	80.88
482.717	81.88
482.935	87.88
483.153	93.88
483.372	89.88
483.59	78.88
483.808	96.88
484.027	83.88
484.245	72.88
484.463	81.88
484.681	84.88
484.9	82.88
485.118	96.88
485.336	97.88
485.554	82.88
485.772	92.88
485.99	109.88
486.209	108.88
486.427	87.88
486.645	114.88
486.863	108.88
487.081	81.88
487.299	95.88
487.517	97.88
487.735	78.88
487.953	103.88
488.171	91.88
488.389	95.88
488.607	98.88
488.825	94.88
489.043	88.88
489.261	85.88
489.479	88.88
489.696	90.88
489.914	98.88
490.132	95.88
490.35	100.88
490.568	92.88
490.786	95.88
491.003	97.88
491.221	94.88
491.439	77.88
491.657	92.88
491.874	78.88
492.092	91.88
492.31	98.88
492.527	92.88
492.745	90.88
492.963	90.88
493.18	92.88
493.398	86.88
493.615	84.88
493.833	84.88
494.05	98.88
494.268	93.88
494.485	101.88
494.703	92.88
494.92	91.88
495.138	80.88
495.355	84.88
495.573	93.88
495.79	104.88
496.008	107.88
496.225	91.88
496.442	80.88
496.66	90.88
496.877	89.88
497.094	87.88
497.312	86.88
497.529	93.88
497.746	86.88
497.963	94.88
498.181	77.88
498.398	87.88
498.615	109.88
498.832	94.88
499.049	89.88
499.267	89.88
499.484	94.88
499.701	83.88
499.918	91.88
500.135	87.88
500.352	87.88
500.569	91.88
500.786	87.88
501.003	95.88
501.22	97.88
501.437	87.88
501.654	93.88
501.871	101.88
502.088	87.88
502.305	94.88
502.522	85.88
502.739	97.88
502.956	85.88
503.172	88.88
503.389	105.88
503.606	86.88
503.823	106.88
504.04	86.88
504.256	81.88
504.473	68.88
504.69	75.88
504.907	87.88
505.123	77.88
505.34	81.88
505.557	98.88
505.773	104.88
505.99	92.88
506.207	82.88
506.423	100.88
506.64	96.88
506.856	77.88
507.073	88.88
507.289	82.88
507.506	90.88
507.722	118.88
507.939	108.88
508.155	101.88
508.372	99.88
508.588	91.88
508.805	102.88
509.021	96.88
509.238	111.88
509.454	99.88
509.67	85.88
509.887	95.88
510.103	124.88
510.319	204.88
510.536	700.88
510.752	2178.88
510.968	625.88
511.184	156.88
511.401	113.88
511.617	86.88
511.833	78.88
512.049	92.88
512.265	84.88
512.481	81.88
512.698	104.88
512.914	87.88
513.13	88.88
513.346	99.88
513.562	93.88
513.778	83.88
513.994	86.88
514.21	93.88
514.426	109.88
514.642	122.88
514.858	111.88
515.074	157.88
515.29	405.88
515.506	1275.88
515.721	496.88
515.937	147.88
516.153	103.88
516.369	96.88
516.585	95.88
516.801	99.88
