Data from Uncirc_2008_H10_HRD10591_00058.txt Node
Date: Wed Jan 03 10:15:42 EST 2024
User: Yrep
Spectrometer: HR+D1059
Trigger mode: 1
Integration Time (sec): 1.000000E-1
Scans to average: 1
Electric dark correction enabled: true
Nonlinearity correction enabled: false
Boxcar width: 0
XAxis mode: Wavelengths
Number of Pixels in Spectrum: 2048
>>>>>Begin Spectral Data<<<<<
223.165	-25.56
223.4	-25.56
223.635	-25.56
223.869	-11.56
224.104	-22.56
224.338	-14.56
224.573	-16.56
224.808	-0.56
225.042	-17.56
225.277	0.44
225.511	6.44
225.746	2.44
225.98	11.44
226.215	6.44
226.449	12.44
226.683	30.44
226.918	20.44
227.152	18.44
227.387	30.44
227.621	37.44
227.856	39.44
228.09	49.44
228.324	55.44
228.559	73.44
228.793	63.44
229.027	70.44
229.262	69.44
229.496	70.44
229.73	91.44
229.964	98.44
230.199	74.44
230.433	87.44
230.667	84.44
230.901	70.44
231.136	83.44
231.37	80.44
231.604	83.44
231.838	83.44
232.072	85.44
232.306	85.44
232.541	99.44
232.775	86.44
233.009	87.44
233.243	73.44
233.477	88.44
233.711	92.44
233.945	78.44
234.179	86.44
234.413	80.44
234.647	88.44
234.881	93.44
235.115	103.44
235.349	89.44
235.583	71.44
235.817	92.44
236.051	78.44
236.285	83.44
236.519	75.44
236.753	88.44
236.987	87.44
237.221	75.44
237.455	82.44
237.689	93.44
237.922	96.44
238.156	83.44
238.39	96.44
238.624	76.44
238.858	80.44
239.091	87.44
239.325	82.44
239.559	88.44
239.793	89.44
240.027	79.44
240.26	97.44
240.494	84.44
240.728	79.44
240.961	75.44
241.195	86.44
241.429	84.44
241.662	91.44
241.896	70.44
242.13	75.44
242.363	89.44
242.597	82.44
242.83	70.44
243.064	79.44
243.298	81.44
243.531	88.44
243.765	88.44
243.998	86.44
244.232	81.44
244.465	84.44
244.699	98.44
244.932	95.44
245.166	81.44
245.399	81.44
245.633	89.44
245.866	87.44
246.099	93.44
246.333	82.44
246.566	82.44
246.8	77.44
247.033	76.44
247.266	67.44
247.5	85.44
247.733	93.44
247.966	78.44
248.2	82.44
248.433	90.44
248.666	81.44
248.899	85.44
249.133	73.44
249.366	88.44
249.599	111.44
249.832	97.44
250.066	92.44
250.299	94.44
250.532	91.44
250.765	87.44
250.998	82.44
251.231	87.44
251.465	96.44
251.698	73.44
251.931	90.44
252.164	82.44
252.397	86.44
252.63	100.44
252.863	98.44
253.096	70.44
253.329	92.44
253.562	89.44
253.795	79.44
254.028	84.44
254.261	92.44
254.494	78.44
254.727	96.44
254.96	79.44
255.193	86.44
255.426	99.44
255.659	76.44
255.892	95.44
256.124	95.44
256.357	78.44
256.59	88.44
256.823	93.44
257.056	100.44
257.289	75.44
257.521	94.44
257.754	86.44
257.987	77.44
258.22	99.44
258.452	82.44
258.685	88.44
258.918	81.44
259.151	93.44
259.383	90.44
259.616	86.44
259.849	90.44
260.081	81.44
260.314	87.44
260.547	85.44
260.779	84.44
261.012	92.44
261.244	85.44
261.477	101.44
261.71	95.44
261.942	116.44
262.175	102.44
262.407	103.44
262.64	88.44
262.872	87.44
263.105	82.44
263.337	91.44
263.57	91.44
263.802	91.44
264.035	95.44
264.267	96.44
264.499	81.44
264.732	82.44
264.964	94.44
265.197	86.44
265.429	89.44
265.661	79.44
265.894	81.44
266.126	91.44
266.358	86.44
266.591	89.44
266.823	88.44
267.055	87.44
267.287	92.44
267.52	99.44
267.752	104.44
267.984	72.44
268.216	84.44
268.448	91.44
268.681	68.44
268.913	80.44
269.145	85.44
269.377	86.44
269.609	99.44
269.841	86.44
270.073	86.44
270.306	84.44
270.538	93.44
270.77	84.44
271.002	79.44
271.234	103.44
271.466	85.44
271.698	87.44
271.93	83.44
272.162	94.44
272.394	88.44
272.626	94.44
272.858	84.44
273.09	84.44
273.322	82.44
273.553	88.44
273.785	77.44
274.017	99.44
274.249	74.44
274.481	87.44
274.713	89.44
274.945	98.44
275.176	91.44
275.408	101.44
275.64	88.44
275.872	72.44
276.104	99.44
276.335	95.44
276.567	110.44
276.799	101.44
277.031	97.44
277.262	92.44
277.494	98.44
277.726	99.44
277.957	85.44
278.189	86.44
278.421	83.44
278.652	92.44
278.884	107.44
279.115	82.44
279.347	94.44
279.579	92.44
279.81	102.44
280.042	79.44
280.273	91.44
280.505	102.44
280.736	106.44
280.968	95.44
281.199	94.44
281.431	88.44
281.662	84.44
281.894	96.44
282.125	96.44
282.356	104.44
282.588	129.44
282.819	115.44
283.051	87.44
283.282	93.44
283.513	100.44
283.745	101.44
283.976	91.44
284.207	91.44
284.439	78.44
284.67	91.44
284.901	114.44
285.132	71.44
285.364	94.44
285.595	97.44
285.826	97.44
286.057	95.44
286.288	106.44
286.52	94.44
286.751	87.44
286.982	87.44
287.213	102.44
287.444	86.44
287.675	82.44
287.906	91.44
288.138	91.44
288.369	106.44
288.6	83.44
288.831	86.44
289.062	90.44
289.293	90.44
289.524	94.44
289.755	96.44
289.986	95.44
290.217	95.44
290.448	84.44
290.679	81.44
290.91	103.44
291.141	80.44
291.371	79.44
291.602	90.44
291.833	86.44
292.064	88.44
292.295	96.44
292.526	88.44
292.757	96.44
292.987	103.44
293.218	97.44
293.449	104.44
293.68	104.44
293.91	90.44
294.141	88.44
294.372	99.44
294.603	98.44
294.833	102.44
295.064	92.44
295.295	96.44
295.525	87.44
295.756	99.44
295.987	119.44
296.217	135.44
296.448	123.44
296.679	92.44
296.909	98.44
297.14	96.44
297.37	95.44
297.601	92.44
297.831	88.44
298.062	84.44
298.292	98.44
298.523	91.44
298.753	90.44
298.984	83.44
299.214	100.44
299.445	96.44
299.675	97.44
299.905	90.44
300.136	103.44
300.366	101.44
300.597	109.44
300.827	104.44
301.057	96.44
301.288	99.44
301.518	95.44
301.748	86.44
301.979	97.44
302.209	99.44
302.439	102.44
302.669	76.44
302.9	90.44
303.13	110.44
303.36	101.44
303.59	89.44
303.82	100.44
304.051	87.44
304.281	84.44
304.511	93.44
304.741	93.44
304.971	87.44
305.201	106.44
305.431	94.44
305.661	92.44
305.891	98.44
306.121	95.44
306.352	96.44
306.582	110.44
306.812	92.44
307.042	89.44
307.272	80.44
307.502	91.44
307.731	100.44
307.961	87.44
308.191	101.44
308.421	90.44
308.651	87.44
308.881	91.44
309.111	88.44
309.341	103.44
309.571	103.44
309.8	98.44
310.03	83.44
310.26	97.44
310.49	94.44
310.72	102.44
310.949	93.44
311.179	93.44
311.409	86.44
311.639	109.44
311.868	95.44
312.098	101.44
312.328	94.44
312.557	100.44
312.787	103.44
313.017	109.44
313.246	87.44
313.476	99.44
313.706	95.44
313.935	95.44
314.165	109.44
314.394	110.44
314.624	80.44
314.853	102.44
315.083	91.44
315.312	92.44
315.542	85.44
315.771	101.44
316.001	103.44
316.23	96.44
316.46	102.44
316.689	93.44
316.919	99.44
317.148	94.44
317.377	102.44
317.607	95.44
317.836	104.44
318.065	92.44
318.295	96.44
318.524	102.44
318.753	110.44
318.983	88.44
319.212	94.44
319.441	119.44
319.67	108.44
319.9	96.44
320.129	100.44
320.358	94.44
320.587	103.44
320.816	111.44
321.046	94.44
321.275	98.44
321.504	91.44
321.733	96.44
321.962	102.44
322.191	114.44
322.42	102.44
322.649	100.44
322.878	103.44
323.108	108.44
323.337	124.44
323.566	121.44
323.795	129.44
324.024	195.44
324.253	338.44
324.482	703.44
324.71	1327.44
324.939	1728.44
325.168	668.44
325.397	207.44
325.626	138.44
325.855	128.44
326.084	123.44
326.313	132.44
326.542	136.44
326.77	205.44
326.999	393.44
327.228	800.44
327.457	1387.44
327.686	1109.44
327.914	306.44
328.143	171.44
328.372	122.44
328.6	124.44
328.829	118.44
329.058	116.44
329.287	117.44
329.515	110.44
329.744	105.44
329.972	102.44
330.201	91.44
330.43	98.44
330.658	124.44
330.887	104.44
331.115	106.44
331.344	103.44
331.572	106.44
331.801	109.44
332.03	114.44
332.258	106.44
332.486	96.44
332.715	90.44
332.943	95.44
333.172	92.44
333.4	103.44
333.629	114.44
333.857	104.44
334.085	109.44
334.314	103.44
334.542	99.44
334.771	87.44
334.999	89.44
335.227	98.44
335.455	101.44
335.684	104.44
335.912	99.44
336.14	104.44
336.369	103.44
336.597	95.44
336.825	104.44
337.053	103.44
337.281	103.44
337.51	93.44
337.738	92.44
337.966	86.44
338.194	103.44
338.422	104.44
338.65	86.44
338.878	104.44
339.106	85.44
339.334	92.44
339.562	91.44
339.79	98.44
340.018	106.44
340.246	106.44
340.474	93.44
340.702	91.44
340.93	85.44
341.158	100.44
341.386	88.44
341.614	102.44
341.842	101.44
342.07	91.44
342.298	92.44
342.526	88.44
342.754	90.44
342.981	106.44
343.209	98.44
343.437	86.44
343.665	95.44
343.893	99.44
344.12	96.44
344.348	95.44
344.576	99.44
344.804	114.44
345.031	100.44
345.259	94.44
345.487	110.44
345.714	98.44
345.942	109.44
346.17	96.44
346.397	100.44
346.625	91.44
346.853	100.44
347.08	99.44
347.308	92.44
347.535	100.44
347.763	88.44
347.99	102.44
348.218	100.44
348.445	110.44
348.673	97.44
348.9	114.44
349.128	94.44
349.355	102.44
349.583	102.44
349.81	104.44
350.037	94.44
350.265	87.44
350.492	94.44
350.72	95.44
350.947	106.44
351.174	124.44
351.402	118.44
351.629	103.44
351.856	92.44
352.083	105.44
352.311	101.44
352.538	94.44
352.765	106.44
352.992	119.44
353.22	115.44
353.447	102.44
353.674	106.44
353.901	100.44
354.128	100.44
354.355	94.44
354.583	95.44
354.81	110.44
355.037	113.44
355.264	100.44
355.491	96.44
355.718	109.44
355.945	106.44
356.172	103.44
356.399	110.44
356.626	84.44
356.853	98.44
357.08	93.44
357.307	109.44
357.534	94.44
357.761	117.44
357.988	100.44
358.215	103.44
358.441	104.44
358.668	93.44
358.895	82.44
359.122	95.44
359.349	92.44
359.576	90.44
359.802	84.44
360.029	121.44
360.256	100.44
360.483	113.44
360.709	89.44
360.936	103.44
361.163	108.44
361.39	95.44
361.616	83.44
361.843	96.44
362.07	94.44
362.296	97.44
362.523	93.44
362.749	87.44
362.976	102.44
363.203	91.44
363.429	102.44
363.656	87.44
363.882	96.44
364.109	91.44
364.335	88.44
364.562	94.44
364.788	91.44
365.015	109.44
365.241	97.44
365.468	107.44
365.694	101.44
365.92	95.44
366.147	80.44
366.373	86.44
366.599	97.44
366.826	93.44
367.052	100.44
367.278	94.44
367.505	94.44
367.731	96.44
367.957	84.44
368.184	93.44
368.41	101.44
368.636	113.44
368.862	123.44
369.089	81.44
369.315	101.44
369.541	117.44
369.767	99.44
369.993	92.44
370.219	94.44
370.445	106.44
370.672	109.44
370.898	93.44
371.124	95.44
371.35	96.44
371.576	101.44
371.802	99.44
372.028	82.44
372.254	98.44
372.48	110.44
372.706	95.44
372.932	83.44
373.158	107.44
373.384	95.44
373.61	87.44
373.835	95.44
374.061	99.44
374.287	94.44
374.513	90.44
374.739	113.44
374.965	92.44
375.191	93.44
375.416	106.44
375.642	99.44
375.868	88.44
376.094	94.44
376.319	84.44
376.545	94.44
376.771	106.44
376.997	85.44
377.222	83.44
377.448	109.44
377.674	101.44
377.899	94.44
378.125	100.44
378.35	95.44
378.576	94.44
378.802	86.44
379.027	115.44
379.253	103.44
379.478	85.44
379.704	98.44
379.929	103.44
380.155	90.44
380.38	92.44
380.606	81.44
380.831	105.44
381.057	97.44
381.282	111.44
381.507	111.44
381.733	84.44
381.958	102.44
382.184	100.44
382.409	109.44
382.634	98.44
382.86	107.44
383.085	98.44
383.31	98.44
383.535	88.44
383.761	93.44
383.986	87.44
384.211	89.44
384.436	105.44
384.662	97.44
384.887	105.44
385.112	95.44
385.337	106.44
385.562	116.44
385.787	108.44
386.013	118.44
386.238	110.44
386.463	109.44
386.688	107.44
386.913	107.44
387.138	92.44
387.363	97.44
387.588	108.44
387.813	102.44
388.038	99.44
388.263	100.44
388.488	117.44
388.713	95.44
388.938	107.44
389.163	100.44
389.387	104.44
389.612	98.44
389.837	97.44
390.062	105.44
390.287	110.44
390.512	94.44
390.736	109.44
390.961	99.44
391.186	100.44
391.411	94.44
391.636	100.44
391.86	105.44
392.085	96.44
392.31	89.44
392.534	92.44
392.759	104.44
392.984	86.44
393.208	90.44
393.433	86.44
393.658	89.44
393.882	88.44
394.107	93.44
394.331	88.44
394.556	83.44
394.78	94.44
395.005	97.44
395.229	94.44
395.454	97.44
395.678	90.44
395.903	91.44
396.127	98.44
396.352	88.44
396.576	97.44
396.801	87.44
397.025	94.44
397.249	98.44
397.474	93.44
397.698	91.44
397.922	99.44
398.147	91.44
398.371	90.44
398.595	99.44
398.82	100.44
399.044	86.44
399.268	82.44
399.492	86.44
399.717	93.44
399.941	94.44
400.165	115.44
400.389	87.44
400.613	97.44
400.837	106.44
401.062	97.44
401.286	99.44
401.51	104.44
401.734	95.44
401.958	88.44
402.182	129.44
402.406	142.44
402.63	102.44
402.854	95.44
403.078	98.44
403.302	99.44
403.526	84.44
403.75	86.44
403.974	85.44
404.198	103.44
404.422	91.44
404.645	94.44
404.869	87.44
405.093	76.44
405.317	87.44
405.541	106.44
405.765	111.44
405.988	108.44
406.212	162.44
406.436	183.44
406.66	140.44
406.883	97.44
407.107	87.44
407.331	97.44
407.555	98.44
407.778	91.44
408.002	98.44
408.226	97.44
408.449	101.44
408.673	98.44
408.896	91.44
409.12	109.44
409.344	100.44
409.567	101.44
409.791	88.44
410.014	106.44
410.238	86.44
410.461	96.44
410.685	85.44
410.908	101.44
411.132	115.44
411.355	84.44
411.578	109.44
411.802	98.44
412.025	108.44
412.249	99.44
412.472	93.44
412.695	82.44
412.919	91.44
413.142	91.44
413.365	95.44
413.589	102.44
413.812	108.44
414.035	92.44
414.258	106.44
414.482	98.44
414.705	111.44
414.928	92.44
415.151	113.44
415.374	97.44
415.597	79.44
415.821	88.44
416.044	104.44
416.267	86.44
416.49	91.44
416.713	87.44
416.936	94.44
417.159	92.44
417.382	83.44
417.605	85.44
417.828	105.44
418.051	99.44
418.274	99.44
418.497	99.44
418.72	89.44
418.943	97.44
419.166	94.44
419.389	97.44
419.611	97.44
419.834	93.44
420.057	99.44
420.28	90.44
420.503	93.44
420.726	86.44
420.948	90.44
421.171	95.44
421.394	98.44
421.617	76.44
421.839	103.44
422.062	92.44
422.285	94.44
422.507	109.44
422.73	105.44
422.953	88.44
423.175	83.44
423.398	79.44
423.621	84.44
423.843	89.44
424.066	98.44
424.288	92.44
424.511	86.44
424.733	93.44
424.956	111.44
425.178	102.44
425.401	103.44
425.623	101.44
425.846	94.44
426.068	88.44
426.291	99.44
426.513	96.44
426.735	92.44
426.958	89.44
427.18	102.44
427.402	115.44
427.625	137.44
427.847	116.44
428.069	82.44
428.292	93.44
428.514	113.44
428.736	94.44
428.958	95.44
429.181	88.44
429.403	94.44
429.625	88.44
429.847	91.44
430.069	109.44
430.292	93.44
430.514	85.44
430.736	79.44
430.958	98.44
431.18	87.44
431.402	77.44
431.624	86.44
431.846	69.44
432.068	103.44
432.29	92.44
432.512	97.44
432.734	83.44
432.956	93.44
433.178	91.44
433.4	99.44
433.622	98.44
433.844	94.44
434.066	74.44
434.287	94.44
434.509	106.44
434.731	87.44
434.953	84.44
435.175	102.44
435.397	92.44
435.618	92.44
435.84	99.44
436.062	117.44
436.284	117.44
436.505	109.44
436.727	102.44
436.949	115.44
437.17	104.44
437.392	83.44
437.614	94.44
437.835	98.44
438.057	108.44
438.278	108.44
438.5	102.44
438.721	116.44
438.943	97.44
439.165	100.44
439.386	98.44
439.608	86.44
439.829	96.44
440.05	126.44
440.272	141.44
440.493	101.44
440.715	90.44
440.936	90.44
441.158	101.44
441.379	88.44
441.6	94.44
441.822	108.44
442.043	99.44
442.264	112.44
442.486	91.44
442.707	104.44
442.928	109.44
443.149	116.44
443.371	124.44
443.592	106.44
443.813	109.44
444.034	103.44
444.255	107.44
444.476	100.44
444.698	112.44
444.919	82.44
445.14	128.44
445.361	122.44
445.582	107.44
445.803	122.44
446.024	127.44
446.245	120.44
446.466	106.44
446.687	86.44
446.908	80.44
447.129	108.44
447.35	93.44
447.571	85.44
447.792	103.44
448.013	100.44
448.234	114.44
448.455	98.44
448.675	96.44
448.896	124.44
449.117	103.44
449.338	110.44
449.559	137.44
449.779	124.44
450	107.44
450.221	100.44
450.442	86.44
450.662	104.44
450.883	84.44
451.104	92.44
451.324	99.44
451.545	110.44
451.766	87.44
451.986	87.44
452.207	89.44
452.428	102.44
452.648	99.44
452.869	103.44
453.089	107.44
453.31	111.44
453.53	88.44
453.751	107.44
453.971	111.44
454.192	106.44
454.412	91.44
454.633	100.44
454.853	96.44
455.073	90.44
455.294	82.44
455.514	103.44
455.734	88.44
455.955	79.44
456.175	97.44
456.395	96.44
456.616	90.44
456.836	88.44
457.056	97.44
457.276	107.44
457.497	82.44
457.717	96.44
457.937	98.44
458.157	88.44
458.377	95.44
458.598	100.44
458.818	140.44
459.038	150.44
459.258	125.44
459.478	87.44
459.698	84.44
459.918	89.44
460.138	108.44
460.358	100.44
460.578	92.44
460.798	89.44
461.018	110.44
461.238	96.44
461.458	98.44
461.678	81.44
461.898	96.44
462.118	100.44
462.338	105.44
462.558	90.44
462.777	86.44
462.997	86.44
463.217	94.44
463.437	84.44
463.657	72.44
463.876	79.44
464.096	84.44
464.316	103.44
464.536	97.44
464.755	111.44
464.975	102.44
465.195	145.44
465.414	146.44
465.634	111.44
465.854	75.44
466.073	108.44
466.293	81.44
466.512	105.44
466.732	87.44
466.951	76.44
467.171	88.44
467.391	100.44
467.61	95.44
467.829	98.44
468.049	77.44
468.268	95.44
468.488	81.44
468.707	101.44
468.927	83.44
469.146	91.44
469.365	97.44
469.585	111.44
469.804	83.44
470.023	86.44
470.243	98.44
470.462	96.44
470.681	114.44
470.901	91.44
471.12	94.44
471.339	93.44
471.558	89.44
471.777	100.44
471.997	90.44
472.216	99.44
472.435	92.44
472.654	97.44
472.873	91.44
473.092	92.44
473.311	99.44
473.53	80.44
473.749	100.44
473.968	103.44
474.187	89.44
474.406	88.44
474.625	88.44
474.844	91.44
475.063	87.44
475.282	76.44
475.501	93.44
475.72	82.44
475.939	104.44
476.158	94.44
476.377	99.44
476.596	105.44
476.814	84.44
477.033	102.44
477.252	99.44
477.471	94.44
477.69	96.44
477.908	88.44
478.127	109.44
478.346	93.44
478.564	92.44
478.783	102.44
479.002	96.44
479.22	94.44
479.439	95.44
479.658	110.44
479.876	101.44
480.095	96.44
480.313	99.44
480.532	96.44
480.751	97.44
480.969	88.44
481.188	105.44
481.406	84.44
481.624	92.44
481.843	100.44
482.061	88.44
482.28	91.44
482.498	101.44
482.717	109.44
482.935	98.44
483.153	98.44
483.372	84.44
483.59	87.44
483.808	95.44
484.027	96.44
484.245	97.44
484.463	94.44
484.681	101.44
484.9	107.44
485.118	102.44
485.336	94.44
485.554	107.44
485.772	109.44
485.99	119.44
486.209	96.44
486.427	90.44
486.645	101.44
486.863	108.44
487.081	98.44
487.299	103.44
487.517	99.44
487.735	95.44
487.953	98.44
488.171	103.44
488.389	101.44
488.607	106.44
488.825	99.44
489.043	96.44
489.261	100.44
489.479	100.44
489.696	96.44
489.914	95.44
490.132	99.44
490.35	108.44
490.568	102.44
490.786	92.44
491.003	87.44
491.221	90.44
491.439	96.44
491.657	94.44
491.874	101.44
492.092	91.44
492.31	102.44
492.527	87.44
492.745	90.44
492.963	98.44
493.18	96.44
493.398	95.44
493.615	106.44
493.833	90.44
494.05	107.44
494.268	104.44
494.485	93.44
494.703	90.44
494.92	87.44
495.138	96.44
495.355	91.44
495.573	96.44
495.79	100.44
496.008	101.44
496.225	112.44
496.442	89.44
496.66	97.44
496.877	102.44
497.094	112.44
497.312	94.44
497.529	80.44
497.746	92.44
497.963	95.44
498.181	96.44
498.398	101.44
498.615	97.44
498.832	116.44
499.049	93.44
499.267	89.44
499.484	106.44
499.701	94.44
499.918	84.44
500.135	102.44
500.352	91.44
500.569	92.44
500.786	84.44
501.003	100.44
501.22	94.44
501.437	98.44
501.654	88.44
501.871	100.44
502.088	107.44
502.305	96.44
502.522	101.44
502.739	101.44
502.956	98.44
503.172	99.44
503.389	96.44
503.606	108.44
503.823	98.44
504.04	98.44
504.256	98.44
504.473	99.44
504.69	104.44
504.907	98.44
505.123	104.44
505.34	97.44
505.557	109.44
505.773	94.44
505.99	79.44
506.207	91.44
506.423	88.44
506.64	100.44
506.856	96.44
507.073	105.44
507.289	100.44
507.506	113.44
507.722	110.44
507.939	103.44
508.155	91.44
508.372	92.44
508.588	96.44
508.805	99.44
509.021	89.44
509.238	109.44
509.454	98.44
509.67	109.44
509.887	104.44
510.103	130.44
510.319	214.44
510.536	663.44
510.752	1954.44
510.968	590.44
511.184	151.44
511.401	100.44
511.617	110.44
511.833	92.44
512.049	97.44
512.265	97.44
512.481	96.44
512.698	94.44
512.914	90.44
513.13	96.44
513.346	105.44
513.562	89.44
513.778	101.44
513.994	102.44
