Data from Uncirc_2008_H10_HRD10591_00066.txt Node
Date: Wed Jan 03 10:15:44 EST 2024
User: Yrep
Spectrometer: HR+D1059
Trigger mode: 1
Integration Time (sec): 1.000000E-1
Scans to average: 1
Electric dark correction enabled: true
Nonlinearity correction enabled: false
Boxcar width: 0
XAxis mode: Wavelengths
Number of Pixels in Spectrum: 2048
>>>>>Begin Spectral Data<<<<<
223.165	2.75
223.4	2.75
223.635	2.75
223.869	-23.25
224.104	-19.25
224.338	-14.25
224.573	-11.25
224.808	-12.25
225.042	-6.25
225.277	-12.25
225.511	-5.25
225.746	-2.25
225.98	2.75
226.215	1.75
226.449	21.75
226.683	19.75
226.918	28.75
227.152	28.75
227.387	36.75
227.621	25.75
227.856	35.75
228.09	47.75
228.324	57.75
228.559	55.75
228.793	67.75
229.027	67.75
229.262	75.75
229.496	59.75
229.73	65.75
229.964	73.75
230.199	92.75
230.433	73.75
230.667	95.75
230.901	61.75
231.136	74.75
231.37	82.75
231.604	69.75
231.838	73.75
232.072	72.75
232.306	76.75
232.541	86.75
232.775	80.75
233.009	75.75
233.243	81.75
233.477	69.75
233.711	80.75
233.945	82.75
234.179	83.75
234.413	77.75
234.647	80.75
234.881	79.75
235.115	81.75
235.349	84.75
235.583	76.75
235.817	90.75
236.051	85.75
236.285	80.75
236.519	85.75
236.753	81.75
236.987	78.75
237.221	93.75
237.455	82.75
237.689	80.75
237.922	75.75
238.156	78.75
238.39	79.75
238.624	67.75
238.858	79.75
239.091	65.75
239.325	89.75
239.559	89.75
239.793	71.75
240.027	75.75
240.26	67.75
240.494	77.75
240.728	84.75
240.961	86.75
241.195	87.75
241.429	74.75
241.662	73.75
241.896	59.75
242.13	67.75
242.363	72.75
242.597	72.75
242.83	69.75
243.064	81.75
243.298	65.75
243.531	69.75
243.765	81.75
243.998	56.75
244.232	72.75
244.465	75.75
244.699	84.75
244.932	80.75
245.166	83.75
245.399	82.75
245.633	84.75
245.866	87.75
246.099	91.75
246.333	74.75
246.566	76.75
246.8	93.75
247.033	75.75
247.266	80.75
247.5	72.75
247.733	80.75
247.966	66.75
248.2	70.75
248.433	73.75
248.666	75.75
248.899	89.75
249.133	77.75
249.366	107.75
249.599	92.75
249.832	76.75
250.066	79.75
250.299	83.75
250.532	77.75
250.765	76.75
250.998	83.75
251.231	85.75
251.465	78.75
251.698	81.75
251.931	80.75
252.164	83.75
252.397	76.75
252.63	73.75
252.863	78.75
253.096	71.75
253.329	80.75
253.562	65.75
253.795	86.75
254.028	85.75
254.261	89.75
254.494	91.75
254.727	87.75
254.96	90.75
255.193	82.75
255.426	80.75
255.659	71.75
255.892	73.75
256.124	92.75
256.357	83.75
256.59	84.75
256.823	83.75
257.056	76.75
257.289	87.75
257.521	89.75
257.754	85.75
257.987	82.75
258.22	72.75
258.452	88.75
258.685	82.75
258.918	88.75
259.151	59.75
259.383	80.75
259.616	70.75
259.849	79.75
260.081	75.75
260.314	69.75
260.547	77.75
260.779	79.75
261.012	86.75
261.244	79.75
261.477	82.75
261.71	97.75
261.942	109.75
262.175	106.75
262.407	88.75
262.64	78.75
262.872	83.75
263.105	80.75
263.337	81.75
263.57	82.75
263.802	85.75
264.035	84.75
264.267	86.75
264.499	74.75
264.732	96.75
264.964	85.75
265.197	101.75
265.429	80.75
265.661	90.75
265.894	95.75
266.126	81.75
266.358	80.75
266.591	68.75
266.823	89.75
267.055	85.75
267.287	83.75
267.52	76.75
267.752	90.75
267.984	93.75
268.216	68.75
268.448	88.75
268.681	69.75
268.913	89.75
269.145	72.75
269.377	92.75
269.609	88.75
269.841	80.75
270.073	89.75
270.306	83.75
270.538	77.75
270.77	84.75
271.002	81.75
271.234	79.75
271.466	80.75
271.698	61.75
271.93	71.75
272.162	91.75
272.394	84.75
272.626	83.75
272.858	90.75
273.09	86.75
273.322	89.75
273.553	96.75
273.785	82.75
274.017	82.75
274.249	81.75
274.481	76.75
274.713	83.75
274.945	89.75
275.176	89.75
275.408	92.75
275.64	81.75
275.872	78.75
276.104	71.75
276.335	90.75
276.567	100.75
276.799	99.75
277.031	98.75
277.262	84.75
277.494	83.75
277.726	89.75
277.957	76.75
278.189	75.75
278.421	75.75
278.652	86.75
278.884	94.75
279.115	98.75
279.347	91.75
279.579	96.75
279.81	83.75
280.042	93.75
280.273	82.75
280.505	92.75
280.736	79.75
280.968	73.75
281.199	83.75
281.431	96.75
281.662	84.75
281.894	83.75
282.125	94.75
282.356	107.75
282.588	106.75
282.819	95.75
283.051	94.75
283.282	75.75
283.513	85.75
283.745	83.75
283.976	94.75
284.207	99.75
284.439	84.75
284.67	89.75
284.901	93.75
285.132	100.75
285.364	92.75
285.595	85.75
285.826	85.75
286.057	94.75
286.288	85.75
286.52	83.75
286.751	77.75
286.982	87.75
287.213	89.75
287.444	83.75
287.675	62.75
287.906	87.75
288.138	99.75
288.369	94.75
288.6	89.75
288.831	84.75
289.062	79.75
289.293	85.75
289.524	84.75
289.755	85.75
289.986	87.75
290.217	87.75
290.448	91.75
290.679	99.75
290.91	94.75
291.141	89.75
291.371	89.75
291.602	85.75
291.833	86.75
292.064	85.75
292.295	80.75
292.526	76.75
292.757	62.75
292.987	81.75
293.218	84.75
293.449	91.75
293.68	76.75
293.91	79.75
294.141	83.75
294.372	91.75
294.603	92.75
294.833	88.75
295.064	93.75
295.295	97.75
295.525	91.75
295.756	99.75
295.987	114.75
296.217	116.75
296.448	101.75
296.679	88.75
296.909	92.75
297.14	83.75
297.37	100.75
297.601	103.75
297.831	83.75
298.062	85.75
298.292	90.75
298.523	80.75
298.753	98.75
298.984	88.75
299.214	88.75
299.445	85.75
299.675	84.75
299.905	96.75
300.136	95.75
300.366	85.75
300.597	98.75
300.827	85.75
301.057	90.75
301.288	90.75
301.518	81.75
301.748	94.75
301.979	99.75
302.209	97.75
302.439	88.75
302.669	104.75
302.9	92.75
303.13	85.75
303.36	85.75
303.59	97.75
303.82	97.75
304.051	83.75
304.281	85.75
304.511	93.75
304.741	84.75
304.971	79.75
305.201	94.75
305.431	102.75
305.661	84.75
305.891	81.75
306.121	96.75
306.352	109.75
306.582	92.75
306.812	100.75
307.042	104.75
307.272	82.75
307.502	95.75
307.731	89.75
307.961	95.75
308.191	91.75
308.421	81.75
308.651	95.75
308.881	99.75
309.111	100.75
309.341	99.75
309.571	98.75
309.8	110.75
310.03	100.75
310.26	100.75
310.49	95.75
310.72	82.75
310.949	85.75
311.179	89.75
311.409	75.75
311.639	100.75
311.868	86.75
312.098	101.75
312.328	110.75
312.557	90.75
312.787	104.75
313.017	97.75
313.246	88.75
313.476	97.75
313.706	97.75
313.935	96.75
314.165	87.75
314.394	89.75
314.624	104.75
314.853	96.75
315.083	105.75
315.312	89.75
315.542	91.75
315.771	96.75
316.001	107.75
316.23	90.75
316.46	84.75
316.689	100.75
316.919	107.75
317.148	82.75
317.377	86.75
317.607	95.75
317.836	79.75
318.065	96.75
318.295	91.75
318.524	97.75
318.753	95.75
318.983	97.75
319.212	93.75
319.441	102.75
319.67	93.75
319.9	92.75
320.129	81.75
320.358	83.75
320.587	108.75
320.816	100.75
321.046	101.75
321.275	89.75
321.504	97.75
321.733	90.75
321.962	103.75
322.191	92.75
322.42	83.75
322.649	104.75
322.878	106.75
323.108	110.75
323.337	120.75
323.566	127.75
323.795	143.75
324.024	189.75
324.253	354.75
324.482	735.75
324.71	1467.75
324.939	1931.75
325.168	744.75
325.397	213.75
325.626	141.75
325.855	121.75
326.084	117.75
326.313	132.75
326.542	141.75
326.77	220.75
326.999	432.75
327.228	837.75
327.457	1487.75
327.686	1196.75
327.914	333.75
328.143	172.75
328.372	125.75
328.6	108.75
328.829	121.75
329.058	113.75
329.287	128.75
329.515	112.75
329.744	94.75
329.972	98.75
330.201	89.75
330.43	106.75
330.658	119.75
330.887	135.75
331.115	99.75
331.344	87.75
331.572	94.75
331.801	84.75
332.03	106.75
332.258	103.75
332.486	79.75
332.715	85.75
332.943	97.75
333.172	100.75
333.4	96.75
333.629	108.75
333.857	116.75
334.085	107.75
334.314	93.75
334.542	109.75
334.771	93.75
334.999	98.75
335.227	89.75
335.455	96.75
335.684	94.75
335.912	101.75
336.14	108.75
336.369	92.75
336.597	101.75
336.825	107.75
337.053	95.75
337.281	115.75
337.51	94.75
337.738	104.75
337.966	108.75
338.194	81.75
338.422	91.75
338.65	90.75
338.878	91.75
339.106	88.75
339.334	81.75
339.562	80.75
339.79	88.75
340.018	102.75
340.246	103.75
340.474	105.75
340.702	94.75
340.93	91.75
341.158	93.75
341.386	85.75
341.614	102.75
341.842	81.75
342.07	86.75
342.298	89.75
342.526	78.75
342.754	88.75
342.981	88.75
343.209	91.75
343.437	96.75
343.665	93.75
343.893	85.75
344.12	82.75
344.348	83.75
344.576	99.75
344.804	89.75
345.031	91.75
345.259	84.75
345.487	105.75
345.714	86.75
345.942	94.75
346.17	94.75
346.397	91.75
346.625	96.75
346.853	79.75
347.08	86.75
347.308	90.75
347.535	99.75
347.763	94.75
347.99	99.75
348.218	100.75
348.445	100.75
348.673	96.75
348.9	92.75
349.128	96.75
349.355	92.75
349.583	93.75
349.81	96.75
350.037	98.75
350.265	95.75
350.492	92.75
350.72	89.75
350.947	102.75
351.174	99.75
351.402	112.75
351.629	102.75
351.856	98.75
352.083	99.75
352.311	95.75
352.538	106.75
352.765	105.75
352.992	114.75
353.22	115.75
353.447	109.75
353.674	110.75
353.901	97.75
354.128	91.75
354.355	97.75
354.583	102.75
354.81	113.75
355.037	104.75
355.264	87.75
355.491	85.75
355.718	93.75
355.945	98.75
356.172	89.75
356.399	105.75
356.626	105.75
356.853	90.75
357.08	89.75
357.307	86.75
357.534	93.75
357.761	82.75
357.988	86.75
358.215	108.75
358.441	97.75
358.668	91.75
358.895	87.75
359.122	82.75
359.349	88.75
359.576	90.75
359.802	92.75
360.029	112.75
360.256	100.75
360.483	89.75
360.709	91.75
360.936	83.75
361.163	95.75
361.39	91.75
361.616	100.75
361.843	101.75
362.07	102.75
362.296	95.75
362.523	87.75
362.749	88.75
362.976	87.75
363.203	90.75
363.429	88.75
363.656	88.75
363.882	92.75
364.109	85.75
364.335	92.75
364.562	94.75
364.788	92.75
365.015	89.75
365.241	91.75
365.468	102.75
365.694	98.75
365.92	98.75
366.147	91.75
366.373	93.75
366.599	95.75
366.826	100.75
367.052	88.75
367.278	95.75
367.505	91.75
367.731	81.75
367.957	87.75
368.184	77.75
368.41	104.75
368.636	104.75
368.862	110.75
369.089	91.75
369.315	92.75
369.541	83.75
369.767	88.75
369.993	87.75
370.219	89.75
370.445	86.75
370.672	93.75
370.898	101.75
371.124	93.75
371.35	104.75
371.576	101.75
371.802	97.75
372.028	89.75
372.254	89.75
372.48	83.75
372.706	92.75
372.932	83.75
373.158	83.75
373.384	75.75
373.61	91.75
373.835	98.75
374.061	90.75
374.287	90.75
374.513	84.75
374.739	92.75
374.965	74.75
375.191	96.75
375.416	89.75
375.642	95.75
375.868	103.75
376.094	89.75
376.319	90.75
376.545	89.75
376.771	81.75
376.997	92.75
377.222	103.75
377.448	91.75
377.674	92.75
377.899	107.75
378.125	85.75
378.35	102.75
378.576	84.75
378.802	100.75
379.027	90.75
379.253	98.75
379.478	96.75
379.704	80.75
379.929	84.75
380.155	71.75
380.38	84.75
380.606	91.75
380.831	97.75
381.057	90.75
381.282	99.75
381.507	91.75
381.733	96.75
381.958	94.75
382.184	96.75
382.409	98.75
382.634	103.75
382.86	108.75
383.085	106.75
383.31	99.75
383.535	94.75
383.761	108.75
383.986	75.75
384.211	104.75
384.436	108.75
384.662	105.75
384.887	101.75
385.112	101.75
385.337	104.75
385.562	105.75
385.787	111.75
386.013	99.75
386.238	111.75
386.463	115.75
386.688	117.75
386.913	107.75
387.138	110.75
387.363	99.75
387.588	100.75
387.813	111.75
388.038	100.75
388.263	101.75
388.488	101.75
388.713	90.75
388.938	93.75
389.163	105.75
389.387	90.75
389.612	89.75
389.837	97.75
390.062	102.75
390.287	83.75
390.512	91.75
390.736	98.75
390.961	98.75
391.186	84.75
391.411	90.75
391.636	86.75
391.86	82.75
392.085	76.75
392.31	88.75
392.534	90.75
392.759	92.75
392.984	85.75
393.208	96.75
393.433	81.75
393.658	90.75
393.882	85.75
394.107	88.75
394.331	86.75
394.556	99.75
394.78	82.75
395.005	100.75
395.229	92.75
395.454	81.75
395.678	81.75
395.903	97.75
396.127	110.75
396.352	80.75
396.576	79.75
396.801	90.75
397.025	88.75
397.249	85.75
397.474	92.75
397.698	89.75
397.922	94.75
398.147	81.75
398.371	71.75
398.595	77.75
398.82	93.75
399.044	82.75
399.268	84.75
399.492	105.75
399.717	103.75
399.941	80.75
400.165	83.75
400.389	85.75
400.613	85.75
400.837	77.75
401.062	83.75
401.286	98.75
401.51	82.75
401.734	91.75
401.958	108.75
402.182	128.75
402.406	130.75
402.63	113.75
402.854	94.75
403.078	82.75
403.302	92.75
403.526	94.75
403.75	75.75
403.974	83.75
404.198	93.75
404.422	74.75
404.645	85.75
404.869	95.75
405.093	92.75
405.317	104.75
405.541	96.75
405.765	92.75
405.988	96.75
406.212	153.75
406.436	198.75
406.66	128.75
406.883	92.75
407.107	101.75
407.331	75.75
407.555	73.75
407.778	85.75
408.002	81.75
408.226	98.75
408.449	90.75
408.673	89.75
408.896	90.75
409.12	101.75
409.344	103.75
409.567	87.75
409.791	92.75
410.014	87.75
410.238	107.75
410.461	92.75
410.685	84.75
410.908	96.75
411.132	106.75
411.355	95.75
411.578	81.75
411.802	86.75
412.025	92.75
412.249	105.75
412.472	90.75
412.695	97.75
412.919	88.75
413.142	76.75
413.365	91.75
413.589	97.75
413.812	89.75
414.035	97.75
414.258	95.75
414.482	106.75
414.705	96.75
414.928	94.75
415.151	96.75
415.374	89.75
415.597	89.75
415.821	76.75
416.044	89.75
416.267	92.75
416.49	78.75
416.713	82.75
416.936	88.75
417.159	90.75
417.382	84.75
417.605	93.75
417.828	96.75
418.051	88.75
418.274	84.75
418.497	100.75
418.72	90.75
418.943	97.75
419.166	81.75
419.389	79.75
419.611	97.75
419.834	91.75
420.057	81.75
420.28	88.75
420.503	69.75
420.726	96.75
420.948	78.75
421.171	71.75
421.394	90.75
421.617	95.75
421.839	89.75
422.062	93.75
422.285	98.75
422.507	85.75
422.73	99.75
422.953	94.75
423.175	80.75
423.398	84.75
423.621	76.75
423.843	95.75
424.066	85.75
424.288	90.75
424.511	77.75
424.733	91.75
424.956	108.75
425.178	86.75
425.401	92.75
425.623	109.75
425.846	105.75
426.068	97.75
426.291	93.75
426.513	67.75
426.735	89.75
426.958	89.75
427.18	103.75
427.402	127.75
427.625	145.75
427.847	120.75
428.069	86.75
428.292	79.75
428.514	88.75
428.736	86.75
428.958	90.75
429.181	83.75
429.403	79.75
429.625	80.75
429.847	109.75
430.069	84.75
430.292	81.75
430.514	78.75
430.736	101.75
430.958	89.75
431.18	89.75
431.402	81.75
431.624	93.75
431.846	82.75
432.068	101.75
432.29	74.75
432.512	99.75
432.734	97.75
432.956	96.75
433.178	104.75
433.4	92.75
433.622	95.75
433.844	84.75
434.066	95.75
434.287	92.75
434.509	89.75
434.731	81.75
434.953	78.75
435.175	95.75
435.397	86.75
435.618	100.75
435.84	106.75
436.062	119.75
436.284	114.75
436.505	102.75
436.727	91.75
436.949	99.75
437.17	92.75
437.392	73.75
437.614	88.75
437.835	99.75
438.057	100.75
438.278	109.75
438.5	113.75
438.721	120.75
438.943	99.75
439.165	97.75
439.386	89.75
439.608	102.75
439.829	96.75
440.05	107.75
440.272	139.75
440.493	90.75
440.715	99.75
440.936	100.75
441.158	100.75
441.379	90.75
441.6	88.75
441.822	82.75
442.043	103.75
442.264	93.75
442.486	101.75
442.707	96.75
442.928	115.75
443.149	115.75
443.371	143.75
443.592	100.75
443.813	113.75
444.034	99.75
444.255	97.75
444.476	81.75
444.698	89.75
444.919	88.75
445.14	128.75
445.361	122.75
445.582	118.75
445.803	137.75
446.024	133.75
446.245	134.75
446.466	102.75
446.687	90.75
446.908	93.75
447.129	90.75
447.35	94.75
447.571	85.75
447.792	89.75
448.013	94.75
448.234	92.75
448.455	109.75
448.675	121.75
448.896	114.75
449.117	92.75
449.338	101.75
449.559	127.75
449.779	140.75
450	94.75
450.221	89.75
450.442	92.75
450.662	88.75
450.883	90.75
451.104	108.75
451.324	95.75
451.545	77.75
451.766	89.75
451.986	90.75
452.207	76.75
452.428	81.75
452.648	110.75
452.869	97.75
453.089	93.75
453.31	113.75
453.53	107.75
453.751	94.75
453.971	84.75
454.192	103.75
454.412	93.75
454.633	88.75
454.853	95.75
455.073	86.75
455.294	87.75
455.514	90.75
455.734	94.75
455.955	94.75
456.175	80.75
456.395	87.75
456.616	85.75
456.836	91.75
457.056	98.75
457.276	63.75
457.497	78.75
457.717	99.75
457.937	83.75
458.157	79.75
458.377	74.75
458.598	100.75
458.818	132.75
459.038	146.75
459.258	119.75
459.478	96.75
459.698	81.75
459.918	79.75
460.138	95.75
460.358	88.75
460.578	96.75
460.798	95.75
461.018	93.75
461.238	91.75
461.458	90.75
461.678	82.75
461.898	93.75
462.118	81.75
462.338	76.75
462.558	82.75
462.777	67.75
462.997	91.75
463.217	78.75
463.437	79.75
463.657	84.75
463.876	76.75
464.096	88.75
464.316	83.75
464.536	84.75
464.755	66.75
464.975	104.75
465.195	147.75
465.414	151.75
465.634	105.75
465.854	83.75
466.073	94.75
466.293	100.75
466.512	84.75
466.732	106.75
466.951	83.75
467.171	89.75
467.391	91.75
467.61	95.75
467.829	93.75
468.049	104.75
468.268	92.75
468.488	85.75
468.707	84.75
468.927	88.75
469.146	84.75
469.365	76.75
469.585	90.75
469.804	91.75
470.023	105.75
470.243	91.75
470.462	100.75
470.681	94.75
470.901	100.75
471.12	92.75
471.339	92.75
471.558	83.75
471.777	99.75
471.997	90.75
472.216	89.75
472.435	93.75
472.654	84.75
472.873	74.75
473.092	98.75
473.311	96.75
473.53	90.75
473.749	84.75
473.968	97.75
474.187	98.75
474.406	97.75
474.625	96.75
474.844	88.75
475.063	81.75
475.282	91.75
475.501	87.75
475.72	82.75
475.939	93.75
476.158	94.75
476.377	84.75
476.596	89.75
476.814	91.75
477.033	96.75
477.252	91.75
477.471	78.75
477.69	89.75
477.908	110.75
478.127	96.75
478.346	90.75
478.564	97.75
478.783	86.75
479.002	88.75
479.22	105.75
479.439	77.75
479.658	94.75
479.876	91.75
480.095	91.75
480.313	82.75
480.532	91.75
480.751	92.75
480.969	100.75
481.188	90.75
481.406	79.75
481.624	77.75
481.843	94.75
482.061	82.75
482.28	99.75
482.498	95.75
482.717	91.75
482.935	100.75
483.153	91.75
483.372	91.75
483.59	99.75
483.808	82.75
484.027	88.75
484.245	101.75
484.463	109.75
484.681	95.75
484.9	96.75
485.118	85.75
485.336	91.75
485.554	82.75
485.772	100.75
485.99	108.75
486.209	103.75
486.427	103.75
486.645	94.75
486.863	116.75
487.081	105.75
487.299	118.75
487.517	93.75
487.735	98.75
487.953	102.75
488.171	95.75
488.389	106.75
488.607	100.75
488.825	106.75
489.043	96.75
489.261	107.75
489.479	95.75
489.696	83.75
489.914	91.75
490.132	86.75
490.35	85.75
490.568	104.75
490.786	91.75
491.003	84.75
491.221	92.75
491.439	95.75
491.657	101.75
491.874	102.75
492.092	87.75
492.31	95.75
492.527	91.75
492.745	87.75
492.963	97.75
493.18	99.75
493.398	94.75
493.615	77.75
493.833	102.75
494.05	103.75
494.268	98.75
494.485	99.75
494.703	77.75
494.92	101.75
495.138	96.75
495.355	104.75
495.573	98.75
495.79	98.75
496.008	94.75
496.225	93.75
496.442	92.75
496.66	98.75
496.877	82.75
497.094	85.75
497.312	88.75
497.529	97.75
497.746	96.75
497.963	83.75
498.181	97.75
498.398	92.75
498.615	105.75
498.832	81.75
499.049	96.75
499.267	97.75
499.484	96.75
499.701	85.75
499.918	93.75
500.135	93.75
500.352	98.75
500.569	90.75
500.786	92.75
501.003	93.75
501.22	95.75
501.437	91.75
501.654	91.75
501.871	108.75
502.088	88.75
502.305	93.75
502.522	88.75
502.739	88.75
502.956	103.75
503.172	96.75
503.389	108.75
503.606	100.75
503.823	109.75
504.04	108.75
504.256	106.75
504.473	90.75
504.69	94.75
504.907	89.75
505.123	87.75
505.34	88.75
505.557	103.75
505.773	103.75
505.99	94.75
506.207	75.75
506.423	84.75
506.64	94.75
506.856	90.75
507.073	94.75
507.289	94.75
507.506	96.75
507.722	101.75
507.939	119.75
508.155	98.75
508.372	89.75
508.588	99.75
508.805	96.75
509.021	99.75
509.238	97.75
509.454	92.75
509.67	95.75
509.887	98.75
510.103	137.75
510.319	199.75
510.536	682.75
510.752	2079.75
510.968	577.75
511.184	154.75
511.401	107.75
511.617	108.75
511.833	90.75
512.049	84.75
512.265	91.75
512.481	97.75
512.698	96.75
512.914	74.75
513.13	98.75
513.346	111.75
513.562	90.75
513.778	90.75
513.994	95.75
514.21	105.75
514.426	132.75
514.642	123.75
514.858	122.75
515.074	167.75
515.29	410.75
515.506	1234.75
515.721	470.75
515.937	137.75
