Data from Uncirc_2008_H10_HRD10591_00088.txt Node
Date: Wed Jan 03 10:15:48 EST 2024
User: Yrep
Spectrometer: HR+D1059
Trigger mode: 1
Integration Time (sec): 1.000000E-1
Scans to average: 1
Electric dark correction enabled: true
Nonlinearity correction enabled: false
Boxcar width: 0
XAxis mode: Wavelengths
Number of Pixels in Spectrum: 2048
>>>>>Begin Spectral Data<<<<<
223.165	-17.75
223.4	-17.75
223.635	-17.75
223.869	-23.75
224.104	-24.75
224.338	-18.75
224.573	-14.75
224.808	-8.75
225.042	-11.75
225.277	-8.75
225.511	-2.75
225.746	-3.75
225.98	13.25
226.215	16.25
226.449	20.25
226.683	27.25
226.918	24.25
227.152	34.25
227.387	35.25
227.621	53.25
227.856	45.25
228.09	58.25
228.324	56.25
228.559	54.25
228.793	61.25
229.027	67.25
229.262	79.25
229.496	67.25
229.73	75.25
229.964	90.25
230.199	83.25
230.433	75.25
230.667	74.25
230.901	83.25
231.136	80.25
231.37	93.25
231.604	75.25
231.838	71.25
232.072	78.25
232.306	89.25
232.541	72.25
232.775	75.25
233.009	100.25
233.243	77.25
233.477	75.25
233.711	71.25
233.945	89.25
234.179	80.25
234.413	87.25
234.647	75.25
234.881	71.25
235.115	88.25
235.349	73.25
235.583	94.25
235.817	86.25
236.051	76.25
236.285	75.25
236.519	86.25
236.753	87.25
236.987	83.25
237.221	76.25
237.455	81.25
237.689	74.25
237.922	89.25
238.156	81.25
238.39	77.25
238.624	84.25
238.858	88.25
239.091	79.25
239.325	73.25
239.559	86.25
239.793	83.25
240.027	86.25
240.26	83.25
240.494	78.25
240.728	73.25
240.961	71.25
241.195	92.25
241.429	88.25
241.662	86.25
241.896	67.25
242.13	70.25
242.363	81.25
242.597	72.25
242.83	74.25
243.064	84.25
243.298	75.25
243.531	75.25
243.765	79.25
243.998	93.25
244.232	79.25
244.465	88.25
244.699	85.25
244.932	70.25
245.166	74.25
245.399	83.25
245.633	82.25
245.866	80.25
246.099	84.25
246.333	77.25
246.566	67.25
246.8	65.25
247.033	75.25
247.266	87.25
247.5	82.25
247.733	78.25
247.966	80.25
248.2	100.25
248.433	92.25
248.666	82.25
248.899	86.25
249.133	85.25
249.366	93.25
249.599	90.25
249.832	107.25
250.066	97.25
250.299	73.25
250.532	69.25
250.765	83.25
250.998	70.25
251.231	88.25
251.465	80.25
251.698	83.25
251.931	77.25
252.164	74.25
252.397	78.25
252.63	69.25
252.863	80.25
253.096	98.25
253.329	74.25
253.562	78.25
253.795	85.25
254.028	79.25
254.261	70.25
254.494	86.25
254.727	99.25
254.96	84.25
255.193	79.25
255.426	81.25
255.659	78.25
255.892	79.25
256.124	88.25
256.357	74.25
256.59	94.25
256.823	90.25
257.056	95.25
257.289	91.25
257.521	89.25
257.754	74.25
257.987	82.25
258.22	86.25
258.452	86.25
258.685	92.25
258.918	76.25
259.151	86.25
259.383	91.25
259.616	86.25
259.849	93.25
260.081	85.25
260.314	95.25
260.547	68.25
260.779	71.25
261.012	95.25
261.244	83.25
261.477	86.25
261.71	90.25
261.942	96.25
262.175	107.25
262.407	94.25
262.64	92.25
262.872	100.25
263.105	79.25
263.337	90.25
263.57	73.25
263.802	95.25
264.035	90.25
264.267	98.25
264.499	79.25
264.732	98.25
264.964	79.25
265.197	67.25
265.429	75.25
265.661	97.25
265.894	95.25
266.126	93.25
266.358	90.25
266.591	94.25
266.823	74.25
267.055	78.25
267.287	79.25
267.52	80.25
267.752	85.25
267.984	89.25
268.216	95.25
268.448	98.25
268.681	92.25
268.913	95.25
269.145	81.25
269.377	81.25
269.609	80.25
269.841	98.25
270.073	82.25
270.306	86.25
270.538	83.25
270.77	91.25
271.002	83.25
271.234	73.25
271.466	102.25
271.698	98.25
271.93	79.25
272.162	83.25
272.394	101.25
272.626	106.25
272.858	84.25
273.09	82.25
273.322	94.25
273.553	97.25
273.785	101.25
274.017	91.25
274.249	95.25
274.481	101.25
274.713	81.25
274.945	87.25
275.176	87.25
275.408	84.25
275.64	90.25
275.872	95.25
276.104	93.25
276.335	99.25
276.567	125.25
276.799	90.25
277.031	90.25
277.262	93.25
277.494	91.25
277.726	87.25
277.957	80.25
278.189	80.25
278.421	101.25
278.652	67.25
278.884	84.25
279.115	73.25
279.347	108.25
279.579	83.25
279.81	85.25
280.042	85.25
280.273	94.25
280.505	96.25
280.736	89.25
280.968	80.25
281.199	85.25
281.431	97.25
281.662	87.25
281.894	87.25
282.125	99.25
282.356	115.25
282.588	138.25
282.819	106.25
283.051	101.25
283.282	85.25
283.513	93.25
283.745	90.25
283.976	93.25
284.207	85.25
284.439	80.25
284.67	84.25
284.901	86.25
285.132	84.25
285.364	75.25
285.595	84.25
285.826	85.25
286.057	89.25
286.288	93.25
286.52	95.25
286.751	103.25
286.982	76.25
287.213	86.25
287.444	96.25
287.675	87.25
287.906	84.25
288.138	101.25
288.369	92.25
288.6	85.25
288.831	75.25
289.062	87.25
289.293	82.25
289.524	85.25
289.755	97.25
289.986	74.25
290.217	89.25
290.448	93.25
290.679	79.25
290.91	95.25
291.141	80.25
291.371	96.25
291.602	87.25
291.833	98.25
292.064	96.25
292.295	92.25
292.526	109.25
292.757	99.25
292.987	77.25
293.218	95.25
293.449	84.25
293.68	91.25
293.91	92.25
294.141	99.25
294.372	91.25
294.603	74.25
294.833	86.25
295.064	103.25
295.295	78.25
295.525	90.25
295.756	86.25
295.987	106.25
296.217	123.25
296.448	96.25
296.679	99.25
296.909	86.25
297.14	88.25
297.37	74.25
297.601	95.25
297.831	92.25
298.062	86.25
298.292	103.25
298.523	92.25
298.753	99.25
298.984	99.25
299.214	89.25
299.445	97.25
299.675	92.25
299.905	99.25
300.136	96.25
300.366	96.25
300.597	94.25
300.827	97.25
301.057	99.25
301.288	107.25
301.518	80.25
301.748	99.25
301.979	105.25
302.209	96.25
302.439	95.25
302.669	85.25
302.9	98.25
303.13	92.25
303.36	98.25
303.59	99.25
303.82	106.25
304.051	103.25
304.281	97.25
304.511	93.25
304.741	96.25
304.971	83.25
305.201	77.25
305.431	89.25
305.661	92.25
305.891	88.25
306.121	91.25
306.352	99.25
306.582	107.25
306.812	92.25
307.042	90.25
307.272	92.25
307.502	92.25
307.731	115.25
307.961	107.25
308.191	100.25
308.421	103.25
308.651	99.25
308.881	83.25
309.111	91.25
309.341	96.25
309.571	94.25
309.8	86.25
310.03	95.25
310.26	113.25
310.49	93.25
310.72	96.25
310.949	102.25
311.179	91.25
311.409	94.25
311.639	80.25
311.868	97.25
312.098	95.25
312.328	102.25
312.557	106.25
312.787	103.25
313.017	98.25
313.246	98.25
313.476	98.25
313.706	85.25
313.935	97.25
314.165	84.25
314.394	93.25
314.624	106.25
314.853	97.25
315.083	97.25
315.312	90.25
315.542	106.25
315.771	97.25
316.001	97.25
316.23	99.25
316.46	105.25
316.689	101.25
316.919	102.25
317.148	80.25
317.377	88.25
317.607	97.25
317.836	96.25
318.065	101.25
318.295	102.25
318.524	90.25
318.753	93.25
318.983	100.25
319.212	101.25
319.441	101.25
319.67	92.25
319.9	97.25
320.129	95.25
320.358	103.25
320.587	96.25
320.816	101.25
321.046	89.25
321.275	107.25
321.504	105.25
321.733	88.25
321.962	116.25
322.191	98.25
322.42	101.25
322.649	95.25
322.878	110.25
323.108	103.25
323.337	114.25
323.566	141.25
323.795	152.25
324.024	190.25
324.253	341.25
324.482	695.25
324.71	1458.25
324.939	1901.25
325.168	706.25
325.397	213.25
325.626	150.25
325.855	126.25
326.084	129.25
326.313	131.25
326.542	152.25
326.77	217.25
326.999	415.25
327.228	837.25
327.457	1489.25
327.686	1196.25
327.914	338.25
328.143	181.25
328.372	137.25
328.6	114.25
328.829	113.25
329.058	114.25
329.287	115.25
329.515	110.25
329.744	93.25
329.972	92.25
330.201	98.25
330.43	109.25
330.658	133.25
330.887	127.25
331.115	107.25
331.344	90.25
331.572	98.25
331.801	113.25
332.03	94.25
332.258	93.25
332.486	95.25
332.715	96.25
332.943	108.25
333.172	91.25
333.4	90.25
333.629	114.25
333.857	112.25
334.085	93.25
334.314	100.25
334.542	111.25
334.771	115.25
334.999	117.25
335.227	90.25
335.455	88.25
335.684	93.25
335.912	99.25
336.14	98.25
336.369	113.25
336.597	96.25
336.825	116.25
337.053	97.25
337.281	89.25
337.51	89.25
337.738	119.25
337.966	97.25
338.194	101.25
338.422	113.25
338.65	107.25
338.878	94.25
339.106	91.25
339.334	90.25
339.562	93.25
339.79	94.25
340.018	85.25
340.246	104.25
340.474	102.25
340.702	108.25
340.93	105.25
341.158	86.25
341.386	102.25
341.614	99.25
341.842	86.25
342.07	85.25
342.298	99.25
342.526	79.25
342.754	89.25
342.981	85.25
343.209	85.25
343.437	98.25
343.665	86.25
343.893	98.25
344.12	92.25
344.348	85.25
344.576	93.25
344.804	93.25
345.031	81.25
345.259	95.25
345.487	93.25
345.714	95.25
345.942	101.25
346.17	94.25
346.397	104.25
346.625	96.25
346.853	74.25
347.08	106.25
347.308	95.25
347.535	110.25
347.763	101.25
347.99	97.25
348.218	93.25
348.445	105.25
348.673	106.25
348.9	100.25
349.128	114.25
349.355	101.25
349.583	87.25
349.81	88.25
350.037	99.25
350.265	101.25
350.492	90.25
350.72	102.25
350.947	107.25
351.174	97.25
351.402	91.25
351.629	103.25
351.856	97.25
352.083	111.25
352.311	95.25
352.538	106.25
352.765	109.25
352.992	103.25
353.22	114.25
353.447	107.25
353.674	111.25
353.901	104.25
354.128	94.25
354.355	96.25
354.583	108.25
354.81	102.25
355.037	102.25
355.264	96.25
355.491	104.25
355.718	109.25
355.945	95.25
356.172	101.25
356.399	84.25
356.626	85.25
356.853	91.25
357.08	101.25
357.307	106.25
357.534	84.25
357.761	104.25
357.988	92.25
358.215	99.25
358.441	104.25
358.668	100.25
358.895	94.25
359.122	110.25
359.349	99.25
359.576	102.25
359.802	97.25
360.029	106.25
360.256	102.25
360.483	106.25
360.709	90.25
360.936	103.25
361.163	93.25
361.39	82.25
361.616	86.25
361.843	100.25
362.07	85.25
362.296	102.25
362.523	79.25
362.749	96.25
362.976	94.25
363.203	89.25
363.429	81.25
363.656	96.25
363.882	104.25
364.109	106.25
364.335	88.25
364.562	102.25
364.788	102.25
365.015	86.25
365.241	109.25
365.468	110.25
365.694	107.25
365.92	98.25
366.147	91.25
366.373	87.25
366.599	90.25
366.826	91.25
367.052	90.25
367.278	93.25
367.505	99.25
367.731	84.25
367.957	98.25
368.184	87.25
368.41	110.25
368.636	110.25
368.862	118.25
369.089	104.25
369.315	93.25
369.541	86.25
369.767	87.25
369.993	90.25
370.219	105.25
370.445	97.25
370.672	90.25
370.898	86.25
371.124	89.25
371.35	98.25
371.576	87.25
371.802	85.25
372.028	87.25
372.254	85.25
372.48	94.25
372.706	91.25
372.932	91.25
373.158	92.25
373.384	99.25
373.61	87.25
373.835	101.25
374.061	100.25
374.287	90.25
374.513	93.25
374.739	85.25
374.965	101.25
375.191	83.25
375.416	84.25
375.642	97.25
375.868	81.25
376.094	90.25
376.319	83.25
376.545	86.25
376.771	102.25
376.997	94.25
377.222	93.25
377.448	85.25
377.674	92.25
377.899	101.25
378.125	99.25
378.35	97.25
378.576	96.25
378.802	93.25
379.027	94.25
379.253	95.25
379.478	83.25
379.704	89.25
379.929	99.25
380.155	101.25
380.38	106.25
380.606	99.25
380.831	105.25
381.057	101.25
381.282	102.25
381.507	105.25
381.733	87.25
381.958	93.25
382.184	109.25
382.409	96.25
382.634	105.25
382.86	102.25
383.085	105.25
383.31	96.25
383.535	91.25
383.761	106.25
383.986	95.25
384.211	92.25
384.436	95.25
384.662	113.25
384.887	99.25
385.112	96.25
385.337	95.25
385.562	98.25
385.787	107.25
386.013	120.25
386.238	123.25
386.463	116.25
386.688	108.25
386.913	102.25
387.138	108.25
387.363	109.25
387.588	108.25
387.813	106.25
388.038	107.25
388.263	111.25
388.488	110.25
388.713	96.25
388.938	82.25
389.163	100.25
389.387	107.25
389.612	93.25
389.837	85.25
390.062	110.25
390.287	95.25
390.512	94.25
390.736	99.25
390.961	90.25
391.186	99.25
391.411	94.25
391.636	86.25
391.86	81.25
392.085	108.25
392.31	90.25
392.534	78.25
392.759	96.25
392.984	97.25
393.208	125.25
393.433	161.25
393.658	134.25
393.882	97.25
394.107	98.25
394.331	91.25
394.556	99.25
394.78	92.25
395.005	90.25
395.229	83.25
395.454	100.25
395.678	92.25
395.903	102.25
396.127	98.25
396.352	94.25
396.576	89.25
396.801	118.25
397.025	142.25
397.249	113.25
397.474	102.25
397.698	81.25
397.922	100.25
398.147	89.25
398.371	93.25
398.595	93.25
398.82	98.25
399.044	93.25
399.268	94.25
399.492	79.25
399.717	98.25
399.941	100.25
400.165	91.25
400.389	94.25
400.613	71.25
400.837	80.25
401.062	81.25
401.286	83.25
401.51	93.25
401.734	93.25
401.958	101.25
402.182	119.25
402.406	144.25
402.63	109.25
402.854	95.25
403.078	106.25
403.302	93.25
403.526	89.25
403.75	87.25
403.974	87.25
404.198	98.25
404.422	94.25
404.645	97.25
404.869	85.25
405.093	93.25
405.317	92.25
405.541	96.25
405.765	102.25
405.988	124.25
406.212	164.25
406.436	207.25
406.66	125.25
406.883	89.25
407.107	96.25
407.331	102.25
407.555	97.25
407.778	94.25
408.002	111.25
408.226	100.25
408.449	97.25
408.673	98.25
408.896	87.25
409.12	93.25
409.344	95.25
409.567	96.25
409.791	99.25
410.014	97.25
410.238	100.25
410.461	93.25
410.685	97.25
410.908	96.25
411.132	112.25
411.355	109.25
411.578	92.25
411.802	107.25
412.025	96.25
412.249	106.25
412.472	78.25
412.695	86.25
412.919	93.25
413.142	78.25
413.365	89.25
413.589	99.25
413.812	98.25
414.035	102.25
414.258	97.25
414.482	91.25
414.705	100.25
414.928	91.25
415.151	98.25
415.374	84.25
415.597	95.25
415.821	85.25
416.044	86.25
416.267	74.25
416.49	114.25
416.713	114.25
416.936	102.25
417.159	96.25
417.382	95.25
417.605	92.25
417.828	89.25
418.051	95.25
418.274	108.25
418.497	99.25
418.72	86.25
418.943	91.25
419.166	91.25
419.389	90.25
419.611	94.25
419.834	82.25
420.057	84.25
420.28	98.25
420.503	101.25
420.726	87.25
420.948	100.25
421.171	94.25
421.394	95.25
421.617	96.25
421.839	104.25
422.062	96.25
422.285	98.25
422.507	101.25
422.73	109.25
422.953	112.25
423.175	104.25
423.398	94.25
423.621	86.25
423.843	99.25
424.066	82.25
424.288	97.25
424.511	87.25
424.733	110.25
424.956	111.25
425.178	106.25
425.401	93.25
425.623	94.25
425.846	98.25
426.068	103.25
426.291	92.25
426.513	110.25
426.735	96.25
426.958	94.25
427.18	114.25
427.402	116.25
427.625	152.25
427.847	121.25
428.069	88.25
428.292	81.25
428.514	93.25
428.736	75.25
428.958	88.25
429.181	91.25
429.403	95.25
429.625	87.25
429.847	97.25
430.069	100.25
430.292	115.25
430.514	83.25
430.736	85.25
430.958	80.25
431.18	84.25
431.402	97.25
431.624	78.25
431.846	81.25
432.068	81.25
432.29	84.25
432.512	78.25
432.734	84.25
432.956	99.25
433.178	89.25
433.4	94.25
433.622	101.25
433.844	96.25
434.066	95.25
434.287	93.25
434.509	100.25
434.731	92.25
434.953	99.25
435.175	81.25
435.397	90.25
435.618	98.25
435.84	111.25
436.062	107.25
436.284	128.25
436.505	89.25
436.727	120.25
436.949	106.25
437.17	91.25
437.392	88.25
437.614	93.25
437.835	115.25
438.057	111.25
438.278	105.25
438.5	114.25
438.721	108.25
438.943	94.25
439.165	83.25
439.386	103.25
439.608	93.25
439.829	105.25
440.05	111.25
440.272	122.25
440.493	92.25
440.715	93.25
440.936	85.25
441.158	91.25
441.379	81.25
441.6	93.25
441.822	102.25
442.043	105.25
442.264	84.25
442.486	105.25
442.707	87.25
442.928	102.25
443.149	114.25
443.371	107.25
443.592	116.25
443.813	115.25
444.034	105.25
444.255	91.25
444.476	90.25
444.698	103.25
444.919	93.25
445.14	130.25
445.361	120.25
445.582	110.25
445.803	124.25
446.024	119.25
446.245	133.25
446.466	101.25
446.687	99.25
446.908	95.25
447.129	83.25
447.35	102.25
447.571	89.25
447.792	91.25
448.013	96.25
448.234	105.25
448.455	101.25
448.675	108.25
448.896	111.25
449.117	106.25
449.338	95.25
449.559	122.25
449.779	124.25
450	90.25
450.221	101.25
450.442	96.25
450.662	88.25
450.883	112.25
451.104	114.25
451.324	81.25
451.545	97.25
451.766	103.25
451.986	89.25
452.207	101.25
452.428	103.25
452.648	81.25
452.869	95.25
453.089	113.25
453.31	116.25
453.53	87.25
453.751	105.25
453.971	103.25
454.192	111.25
454.412	98.25
454.633	105.25
454.853	86.25
455.073	93.25
455.294	82.25
455.514	103.25
455.734	78.25
455.955	86.25
456.175	90.25
456.395	90.25
456.616	84.25
456.836	82.25
457.056	84.25
457.276	70.25
457.497	87.25
457.717	85.25
457.937	84.25
458.157	97.25
458.377	87.25
458.598	114.25
458.818	132.25
459.038	137.25
459.258	125.25
459.478	107.25
459.698	86.25
459.918	80.25
460.138	95.25
460.358	83.25
460.578	85.25
460.798	108.25
461.018	94.25
461.238	87.25
461.458	77.25
461.678	99.25
461.898	85.25
462.118	85.25
462.338	101.25
462.558	96.25
462.777	99.25
462.997	91.25
463.217	78.25
463.437	95.25
463.657	101.25
463.876	90.25
464.096	93.25
464.316	105.25
464.536	97.25
464.755	89.25
464.975	96.25
465.195	134.25
465.414	147.25
465.634	97.25
465.854	80.25
466.073	85.25
466.293	80.25
466.512	75.25
466.732	80.25
466.951	107.25
467.171	95.25
467.391	92.25
467.61	99.25
467.829	92.25
468.049	90.25
468.268	84.25
468.488	81.25
468.707	91.25
468.927	92.25
469.146	81.25
469.365	75.25
469.585	88.25
469.804	94.25
470.023	94.25
470.243	110.25
470.462	105.25
470.681	115.25
470.901	99.25
471.12	103.25
471.339	84.25
471.558	75.25
471.777	80.25
471.997	77.25
472.216	80.25
472.435	86.25
472.654	82.25
472.873	97.25
473.092	99.25
473.311	77.25
473.53	96.25
473.749	90.25
473.968	92.25
474.187	104.25
474.406	100.25
474.625	93.25
474.844	77.25
475.063	95.25
475.282	96.25
475.501	96.25
475.72	90.25
475.939	75.25
476.158	85.25
476.377	92.25
476.596	99.25
476.814	88.25
477.033	96.25
477.252	92.25
477.471	91.25
477.69	89.25
477.908	91.25
478.127	94.25
478.346	91.25
478.564	88.25
478.783	102.25
479.002	99.25
479.22	103.25
479.439	109.25
479.658	95.25
479.876	81.25
480.095	92.25
480.313	87.25
480.532	92.25
480.751	94.25
480.969	80.25
481.188	94.25
481.406	96.25
481.624	87.25
481.843	95.25
482.061	101.25
482.28	95.25
482.498	84.25
482.717	103.25
482.935	78.25
483.153	97.25
483.372	107.25
483.59	97.25
483.808	87.25
484.027	85.25
484.245	102.25
484.463	98.25
484.681	86.25
484.9	77.25
485.118	96.25
485.336	99.25
485.554	114.25
485.772	117.25
485.99	94.25
486.209	108.25
486.427	101.25
486.645	111.25
486.863	93.25
487.081	90.25
487.299	110.25
487.517	96.25
487.735	91.25
487.953	95.25
488.171	93.25
488.389	94.25
488.607	97.25
488.825	98.25
489.043	86.25
489.261	98.25
489.479	90.25
489.696	92.25
489.914	98.25
490.132	79.25
490.35	91.25
490.568	94.25
490.786	90.25
491.003	94.25
491.221	101.25
491.439	89.25
491.657	107.25
491.874	90.25
492.092	91.25
492.31	87.25
492.527	92.25
492.745	87.25
492.963	93.25
493.18	82.25
493.398	91.25
493.615	93.25
493.833	102.25
494.05	83.25
494.268	87.25
494.485	90.25
494.703	88.25
494.92	96.25
495.138	98.25
495.355	104.25
495.573	82.25
495.79	81.25
496.008	90.25
496.225	94.25
496.442	89.25
496.66	95.25
496.877	95.25
497.094	82.25
497.312	91.25
497.529	100.25
497.746	110.25
497.963	113.25
498.181	86.25
498.398	79.25
498.615	106.25
498.832	106.25
499.049	101.25
499.267	102.25
499.484	100.25
499.701	92.25
499.918	98.25
500.135	116.25
500.352	95.25
500.569	101.25
500.786	94.25
501.003	103.25
501.22	96.25
501.437	91.25
501.654	106.25
501.871	106.25
502.088	108.25
502.305	105.25
502.522	97.25
502.739	92.25
502.956	93.25
503.172	97.25
503.389	107.25
503.606	89.25
503.823	97.25
504.04	89.25
504.256	92.25
504.473	89.25
504.69	84.25
504.907	102.25
505.123	99.25
505.34	85.25
505.557	105.25
505.773	90.25
505.99	92.25
506.207	86.25
506.423	84.25
506.64	97.25
506.856	70.25
507.073	85.25
507.289	105.25
507.506	97.25
507.722	118.25
507.939	122.25
508.155	99.25
508.372	108.25
508.588	108.25
508.805	90.25
509.021	82.25
509.238	102.25
509.454	102.25
509.67	101.25
509.887	113.25
510.103	131.25
510.319	199.25
510.536	709.25
510.752	2127.25
510.968	591.25
511.184	145.25
511.401	116.25
511.617	91.25
511.833	105.25
512.049	97.25
512.265	82.25
512.481	89.25
512.698	87.25
512.914	91.25
513.13	89.25
513.346	94.25
513.562	102.25
513.778	109.25
513.994	109.25
514.21	110.25
514.426	118.25
514.642	122.25
