Data from Uncirc_2008_H10_HRD10591_00067.txt Node
Date: Wed Jan 03 10:15:44 EST 2024
User: Yrep
Spectrometer: HR+D1059
Trigger mode: 1
Integration Time (sec): 1.000000E-1
Scans to average: 1
Electric dark correction enabled: true
Nonlinearity correction enabled: false
Boxcar width: 0
XAxis mode: Wavelengths
Number of Pixels in Spectrum: 2048
>>>>>Begin Spectral Data<<<<<
223.165	-19.38
223.4	-19.38
223.635	-19.38
223.869	-27.38
224.104	-11.38
224.338	-11.38
224.573	-23.38
224.808	-17.38
225.042	-8.38
225.277	-14.38
225.511	1.62
225.746	4.62
225.98	5.62
226.215	25.62
226.449	16.62
226.683	27.62
226.918	23.62
227.152	27.62
227.387	36.62
227.621	30.62
227.856	33.62
228.09	52.62
228.324	40.62
228.559	57.62
228.793	60.62
229.027	66.62
229.262	77.62
229.496	69.62
229.73	71.62
229.964	66.62
230.199	58.62
230.433	74.62
230.667	77.62
230.901	61.62
231.136	89.62
231.37	67.62
231.604	82.62
231.838	64.62
232.072	88.62
232.306	85.62
232.541	76.62
232.775	82.62
233.009	76.62
233.243	71.62
233.477	91.62
233.711	82.62
233.945	76.62
234.179	62.62
234.413	74.62
234.647	72.62
234.881	71.62
235.115	80.62
235.349	83.62
235.583	81.62
235.817	85.62
236.051	76.62
236.285	88.62
236.519	62.62
236.753	68.62
236.987	72.62
237.221	80.62
237.455	75.62
237.689	71.62
237.922	82.62
238.156	81.62
238.39	80.62
238.624	70.62
238.858	75.62
239.091	79.62
239.325	81.62
239.559	66.62
239.793	68.62
240.027	82.62
240.26	71.62
240.494	72.62
240.728	75.62
240.961	69.62
241.195	82.62
241.429	82.62
241.662	47.62
241.896	69.62
242.13	97.62
242.363	80.62
242.597	68.62
242.83	88.62
243.064	67.62
243.298	80.62
243.531	68.62
243.765	65.62
243.998	69.62
244.232	88.62
244.465	68.62
244.699	76.62
244.932	71.62
245.166	70.62
245.399	72.62
245.633	73.62
245.866	64.62
246.099	72.62
246.333	65.62
246.566	69.62
246.8	75.62
247.033	76.62
247.266	87.62
247.5	77.62
247.733	84.62
247.966	87.62
248.2	94.62
248.433	84.62
248.666	82.62
248.899	93.62
249.133	72.62
249.366	102.62
249.599	97.62
249.832	81.62
250.066	77.62
250.299	73.62
250.532	71.62
250.765	81.62
250.998	77.62
251.231	77.62
251.465	82.62
251.698	85.62
251.931	80.62
252.164	68.62
252.397	75.62
252.63	84.62
252.863	77.62
253.096	75.62
253.329	79.62
253.562	82.62
253.795	87.62
254.028	94.62
254.261	68.62
254.494	69.62
254.727	83.62
254.96	76.62
255.193	85.62
255.426	90.62
255.659	86.62
255.892	76.62
256.124	78.62
256.357	69.62
256.59	86.62
256.823	80.62
257.056	86.62
257.289	80.62
257.521	62.62
257.754	94.62
257.987	74.62
258.22	75.62
258.452	76.62
258.685	74.62
258.918	70.62
259.151	69.62
259.383	85.62
259.616	90.62
259.849	67.62
260.081	71.62
260.314	80.62
260.547	79.62
260.779	68.62
261.012	80.62
261.244	81.62
261.477	86.62
261.71	81.62
261.942	106.62
262.175	95.62
262.407	84.62
262.64	93.62
262.872	80.62
263.105	88.62
263.337	83.62
263.57	77.62
263.802	91.62
264.035	66.62
264.267	68.62
264.499	78.62
264.732	83.62
264.964	91.62
265.197	86.62
265.429	96.62
265.661	73.62
265.894	73.62
266.126	85.62
266.358	79.62
266.591	77.62
266.823	81.62
267.055	84.62
267.287	87.62
267.52	79.62
267.752	92.62
267.984	89.62
268.216	70.62
268.448	76.62
268.681	84.62
268.913	79.62
269.145	67.62
269.377	86.62
269.609	91.62
269.841	77.62
270.073	70.62
270.306	66.62
270.538	83.62
270.77	91.62
271.002	82.62
271.234	77.62
271.466	72.62
271.698	72.62
271.93	88.62
272.162	84.62
272.394	85.62
272.626	96.62
272.858	77.62
273.09	84.62
273.322	73.62
273.553	82.62
273.785	74.62
274.017	73.62
274.249	89.62
274.481	66.62
274.713	82.62
274.945	80.62
275.176	80.62
275.408	94.62
275.64	85.62
275.872	77.62
276.104	85.62
276.335	79.62
276.567	96.62
276.799	103.62
277.031	95.62
277.262	76.62
277.494	73.62
277.726	73.62
277.957	81.62
278.189	94.62
278.421	100.62
278.652	88.62
278.884	74.62
279.115	87.62
279.347	82.62
279.579	92.62
279.81	71.62
280.042	84.62
280.273	81.62
280.505	87.62
280.736	75.62
280.968	93.62
281.199	85.62
281.431	96.62
281.662	81.62
281.894	72.62
282.125	92.62
282.356	113.62
282.588	116.62
282.819	108.62
283.051	75.62
283.282	92.62
283.513	93.62
283.745	93.62
283.976	88.62
284.207	92.62
284.439	78.62
284.67	84.62
284.901	76.62
285.132	77.62
285.364	70.62
285.595	91.62
285.826	98.62
286.057	78.62
286.288	92.62
286.52	97.62
286.751	81.62
286.982	81.62
287.213	87.62
287.444	76.62
287.675	89.62
287.906	93.62
288.138	89.62
288.369	79.62
288.6	85.62
288.831	79.62
289.062	105.62
289.293	82.62
289.524	88.62
289.755	92.62
289.986	84.62
290.217	79.62
290.448	82.62
290.679	85.62
290.91	94.62
291.141	86.62
291.371	88.62
291.602	93.62
291.833	95.62
292.064	81.62
292.295	88.62
292.526	87.62
292.757	74.62
292.987	89.62
293.218	92.62
293.449	97.62
293.68	91.62
293.91	88.62
294.141	86.62
294.372	77.62
294.603	92.62
294.833	86.62
295.064	73.62
295.295	77.62
295.525	86.62
295.756	106.62
295.987	102.62
296.217	122.62
296.448	106.62
296.679	89.62
296.909	82.62
297.14	80.62
297.37	88.62
297.601	88.62
297.831	81.62
298.062	80.62
298.292	90.62
298.523	91.62
298.753	76.62
298.984	70.62
299.214	83.62
299.445	84.62
299.675	91.62
299.905	92.62
300.136	80.62
300.366	93.62
300.597	76.62
300.827	79.62
301.057	107.62
301.288	101.62
301.518	86.62
301.748	84.62
301.979	91.62
302.209	93.62
302.439	94.62
302.669	69.62
302.9	78.62
303.13	86.62
303.36	92.62
303.59	92.62
303.82	97.62
304.051	94.62
304.281	102.62
304.511	87.62
304.741	82.62
304.971	75.62
305.201	80.62
305.431	96.62
305.661	87.62
305.891	87.62
306.121	105.62
306.352	92.62
306.582	90.62
306.812	88.62
307.042	80.62
307.272	97.62
307.502	89.62
307.731	92.62
307.961	85.62
308.191	90.62
308.421	101.62
308.651	88.62
308.881	77.62
309.111	90.62
309.341	90.62
309.571	99.62
309.8	91.62
310.03	95.62
310.26	91.62
310.49	82.62
310.72	90.62
310.949	94.62
311.179	95.62
311.409	89.62
311.639	97.62
311.868	94.62
312.098	80.62
312.328	87.62
312.557	104.62
312.787	78.62
313.017	101.62
313.246	95.62
313.476	96.62
313.706	81.62
313.935	97.62
314.165	101.62
314.394	83.62
314.624	87.62
314.853	80.62
315.083	97.62
315.312	86.62
315.542	94.62
315.771	110.62
316.001	100.62
316.23	93.62
316.46	93.62
316.689	97.62
316.919	91.62
317.148	92.62
317.377	81.62
317.607	95.62
317.836	100.62
318.065	74.62
318.295	89.62
318.524	88.62
318.753	98.62
318.983	89.62
319.212	88.62
319.441	104.62
319.67	89.62
319.9	86.62
320.129	82.62
320.358	79.62
320.587	93.62
320.816	93.62
321.046	106.62
321.275	92.62
321.504	89.62
321.733	93.62
321.962	111.62
322.191	111.62
322.42	100.62
322.649	99.62
322.878	116.62
323.108	118.62
323.337	110.62
323.566	128.62
323.795	141.62
324.024	172.62
324.253	314.62
324.482	742.62
324.71	1457.62
324.939	1881.62
325.168	700.62
325.397	227.62
325.626	132.62
325.855	123.62
326.084	127.62
326.313	125.62
326.542	140.62
326.77	196.62
326.999	393.62
327.228	826.62
327.457	1463.62
327.686	1160.62
327.914	316.62
328.143	170.62
328.372	113.62
328.6	109.62
328.829	99.62
329.058	121.62
329.287	129.62
329.515	103.62
329.744	119.62
329.972	94.62
330.201	97.62
330.43	96.62
330.658	114.62
330.887	136.62
331.115	109.62
331.344	104.62
331.572	87.62
331.801	102.62
332.03	111.62
332.258	96.62
332.486	80.62
332.715	93.62
332.943	93.62
333.172	99.62
333.4	89.62
333.629	107.62
333.857	93.62
334.085	97.62
334.314	102.62
334.542	89.62
334.771	92.62
334.999	93.62
335.227	83.62
335.455	89.62
335.684	81.62
335.912	97.62
336.14	91.62
336.369	107.62
336.597	86.62
336.825	93.62
337.053	94.62
337.281	96.62
337.51	87.62
337.738	93.62
337.966	88.62
338.194	97.62
338.422	81.62
338.65	91.62
338.878	101.62
339.106	85.62
339.334	90.62
339.562	78.62
339.79	95.62
340.018	97.62
340.246	79.62
340.474	98.62
340.702	81.62
340.93	87.62
341.158	91.62
341.386	104.62
341.614	87.62
341.842	89.62
342.07	96.62
342.298	84.62
342.526	87.62
342.754	100.62
342.981	94.62
343.209	71.62
343.437	87.62
343.665	82.62
343.893	101.62
344.12	97.62
344.348	87.62
344.576	101.62
344.804	73.62
345.031	77.62
345.259	92.62
345.487	100.62
345.714	96.62
345.942	103.62
346.17	78.62
346.397	73.62
346.625	100.62
346.853	77.62
347.08	86.62
347.308	108.62
347.535	87.62
347.763	89.62
347.99	107.62
348.218	97.62
348.445	93.62
348.673	101.62
348.9	88.62
349.128	72.62
349.355	99.62
349.583	104.62
349.81	91.62
350.037	104.62
350.265	100.62
350.492	89.62
350.72	81.62
350.947	95.62
351.174	102.62
351.402	106.62
351.629	114.62
351.856	103.62
352.083	105.62
352.311	97.62
352.538	109.62
352.765	90.62
352.992	118.62
353.22	106.62
353.447	103.62
353.674	90.62
353.901	96.62
354.128	86.62
354.355	100.62
354.583	98.62
354.81	90.62
355.037	96.62
355.264	101.62
355.491	89.62
355.718	96.62
355.945	88.62
356.172	106.62
356.399	90.62
356.626	90.62
356.853	110.62
357.08	80.62
357.307	89.62
357.534	81.62
357.761	91.62
357.988	90.62
358.215	90.62
358.441	82.62
358.668	98.62
358.895	95.62
359.122	89.62
359.349	88.62
359.576	70.62
359.802	85.62
360.029	89.62
360.256	95.62
360.483	92.62
360.709	82.62
360.936	96.62
361.163	80.62
361.39	103.62
361.616	100.62
361.843	76.62
362.07	86.62
362.296	89.62
362.523	93.62
362.749	85.62
362.976	100.62
363.203	88.62
363.429	88.62
363.656	85.62
363.882	95.62
364.109	94.62
364.335	81.62
364.562	88.62
364.788	79.62
365.015	90.62
365.241	101.62
365.468	101.62
365.694	119.62
365.92	92.62
366.147	82.62
366.373	84.62
366.599	82.62
366.826	87.62
367.052	84.62
367.278	90.62
367.505	89.62
367.731	85.62
367.957	91.62
368.184	107.62
368.41	93.62
368.636	105.62
368.862	106.62
369.089	101.62
369.315	96.62
369.541	75.62
369.767	99.62
369.993	81.62
370.219	88.62
370.445	90.62
370.672	100.62
370.898	77.62
371.124	97.62
371.35	80.62
371.576	81.62
371.802	66.62
372.028	87.62
372.254	83.62
372.48	78.62
372.706	79.62
372.932	81.62
373.158	82.62
373.384	93.62
373.61	78.62
373.835	94.62
374.061	73.62
374.287	88.62
374.513	87.62
374.739	86.62
374.965	84.62
375.191	79.62
375.416	90.62
375.642	82.62
375.868	90.62
376.094	97.62
376.319	95.62
376.545	86.62
376.771	84.62
376.997	72.62
377.222	91.62
377.448	96.62
377.674	95.62
377.899	99.62
378.125	84.62
378.35	94.62
378.576	96.62
378.802	89.62
379.027	81.62
379.253	100.62
379.478	103.62
379.704	92.62
379.929	83.62
380.155	103.62
380.38	94.62
380.606	88.62
380.831	84.62
381.057	93.62
381.282	106.62
381.507	93.62
381.733	98.62
381.958	104.62
382.184	101.62
382.409	94.62
382.634	93.62
382.86	104.62
383.085	109.62
383.31	103.62
383.535	82.62
383.761	101.62
383.986	90.62
384.211	92.62
384.436	94.62
384.662	95.62
384.887	93.62
385.112	101.62
385.337	110.62
385.562	107.62
385.787	106.62
386.013	109.62
386.238	100.62
386.463	104.62
386.688	106.62
386.913	110.62
387.138	99.62
387.363	100.62
387.588	96.62
387.813	96.62
388.038	100.62
388.263	116.62
388.488	100.62
388.713	81.62
388.938	90.62
389.163	87.62
389.387	116.62
389.612	93.62
389.837	81.62
390.062	102.62
390.287	81.62
390.512	89.62
390.736	85.62
390.961	88.62
391.186	99.62
391.411	76.62
391.636	92.62
391.86	96.62
392.085	76.62
392.31	86.62
392.534	89.62
392.759	78.62
392.984	92.62
393.208	82.62
393.433	81.62
393.658	95.62
393.882	86.62
394.107	85.62
394.331	74.62
394.556	90.62
394.78	88.62
395.005	81.62
395.229	84.62
395.454	86.62
395.678	89.62
395.903	89.62
396.127	95.62
396.352	77.62
396.576	80.62
396.801	78.62
397.025	92.62
397.249	69.62
397.474	72.62
397.698	82.62
397.922	80.62
398.147	78.62
398.371	93.62
398.595	80.62
398.82	88.62
399.044	88.62
399.268	80.62
399.492	103.62
399.717	94.62
399.941	84.62
400.165	87.62
400.389	92.62
400.613	85.62
400.837	76.62
401.062	94.62
401.286	72.62
401.51	89.62
401.734	78.62
401.958	92.62
402.182	124.62
402.406	142.62
402.63	94.62
402.854	96.62
403.078	94.62
403.302	92.62
403.526	87.62
403.75	83.62
403.974	85.62
404.198	89.62
404.422	80.62
404.645	91.62
404.869	112.62
405.093	102.62
405.317	85.62
405.541	94.62
405.765	85.62
405.988	94.62
406.212	146.62
406.436	199.62
406.66	129.62
406.883	92.62
407.107	89.62
407.331	100.62
407.555	88.62
407.778	103.62
408.002	90.62
408.226	78.62
408.449	76.62
408.673	71.62
408.896	92.62
409.12	97.62
409.344	79.62
409.567	90.62
409.791	78.62
410.014	91.62
410.238	76.62
410.461	88.62
410.685	90.62
410.908	88.62
411.132	101.62
411.355	93.62
411.578	81.62
411.802	87.62
412.025	89.62
412.249	106.62
412.472	85.62
412.695	92.62
412.919	77.62
413.142	86.62
413.365	90.62
413.589	80.62
413.812	86.62
414.035	93.62
414.258	87.62
414.482	104.62
414.705	93.62
414.928	97.62
415.151	89.62
415.374	90.62
415.597	81.62
415.821	89.62
416.044	89.62
416.267	96.62
416.49	86.62
416.713	101.62
416.936	94.62
417.159	81.62
417.382	93.62
417.605	92.62
417.828	86.62
418.051	91.62
418.274	80.62
418.497	87.62
418.72	71.62
418.943	82.62
419.166	80.62
419.389	77.62
419.611	77.62
419.834	88.62
420.057	74.62
420.28	89.62
420.503	73.62
420.726	86.62
420.948	87.62
421.171	103.62
421.394	87.62
421.617	77.62
421.839	96.62
422.062	84.62
422.285	96.62
422.507	90.62
422.73	95.62
422.953	93.62
423.175	84.62
423.398	81.62
423.621	95.62
423.843	80.62
424.066	95.62
424.288	88.62
424.511	85.62
424.733	104.62
424.956	94.62
425.178	99.62
425.401	94.62
425.623	105.62
425.846	89.62
426.068	95.62
426.291	95.62
426.513	77.62
426.735	81.62
426.958	93.62
427.18	95.62
427.402	131.62
427.625	152.62
427.847	85.62
428.069	88.62
428.292	89.62
428.514	89.62
428.736	89.62
428.958	80.62
429.181	76.62
429.403	83.62
429.625	87.62
429.847	82.62
430.069	95.62
430.292	85.62
430.514	75.62
430.736	78.62
430.958	86.62
431.18	86.62
431.402	77.62
431.624	87.62
431.846	95.62
432.068	85.62
432.29	83.62
432.512	86.62
432.734	86.62
432.956	97.62
433.178	94.62
433.4	96.62
433.622	99.62
433.844	95.62
434.066	81.62
434.287	86.62
434.509	84.62
434.731	94.62
434.953	85.62
435.175	72.62
435.397	91.62
435.618	93.62
435.84	102.62
436.062	100.62
436.284	100.62
436.505	101.62
436.727	103.62
436.949	101.62
437.17	79.62
437.392	65.62
437.614	88.62
437.835	99.62
438.057	112.62
438.278	94.62
438.5	98.62
438.721	112.62
438.943	75.62
439.165	82.62
439.386	79.62
439.608	80.62
439.829	94.62
440.05	96.62
440.272	116.62
440.493	99.62
440.715	90.62
440.936	79.62
441.158	89.62
441.379	78.62
441.6	73.62
441.822	98.62
442.043	86.62
442.264	84.62
442.486	94.62
442.707	91.62
442.928	102.62
443.149	124.62
443.371	100.62
443.592	104.62
443.813	112.62
444.034	110.62
444.255	81.62
444.476	80.62
444.698	79.62
444.919	91.62
445.14	119.62
445.361	116.62
445.582	106.62
445.803	122.62
446.024	130.62
446.245	132.62
446.466	116.62
446.687	95.62
446.908	99.62
447.129	94.62
447.35	96.62
447.571	82.62
447.792	77.62
448.013	99.62
448.234	86.62
448.455	97.62
448.675	99.62
448.896	106.62
449.117	94.62
449.338	94.62
449.559	113.62
449.779	130.62
450	82.62
450.221	85.62
450.442	82.62
450.662	99.62
450.883	93.62
451.104	111.62
451.324	88.62
451.545	86.62
451.766	85.62
451.986	81.62
452.207	89.62
452.428	93.62
452.648	103.62
452.869	102.62
453.089	114.62
453.31	114.62
453.53	92.62
453.751	91.62
453.971	85.62
454.192	93.62
454.412	75.62
454.633	91.62
454.853	82.62
455.073	80.62
455.294	90.62
455.514	87.62
455.734	84.62
455.955	81.62
456.175	91.62
456.395	73.62
456.616	87.62
456.836	80.62
457.056	86.62
457.276	85.62
457.497	94.62
457.717	82.62
457.937	83.62
458.157	64.62
458.377	63.62
458.598	82.62
458.818	141.62
459.038	133.62
459.258	122.62
459.478	105.62
459.698	88.62
459.918	88.62
460.138	80.62
460.358	88.62
460.578	87.62
460.798	93.62
461.018	64.62
461.238	86.62
461.458	95.62
461.678	81.62
461.898	77.62
462.118	80.62
462.338	74.62
462.558	85.62
462.777	85.62
462.997	76.62
463.217	87.62
463.437	87.62
463.657	78.62
463.876	96.62
464.096	84.62
464.316	105.62
464.536	81.62
464.755	92.62
464.975	94.62
465.195	153.62
465.414	160.62
465.634	93.62
465.854	78.62
466.073	89.62
466.293	85.62
466.512	89.62
466.732	89.62
466.951	70.62
467.171	89.62
467.391	90.62
467.61	100.62
467.829	91.62
468.049	95.62
468.268	91.62
468.488	85.62
468.707	77.62
468.927	88.62
469.146	82.62
469.365	87.62
469.585	87.62
469.804	88.62
470.023	87.62
470.243	78.62
470.462	84.62
470.681	94.62
470.901	84.62
471.12	86.62
471.339	74.62
471.558	85.62
471.777	82.62
471.997	88.62
472.216	99.62
472.435	89.62
472.654	84.62
472.873	103.62
473.092	79.62
473.311	93.62
473.53	92.62
473.749	93.62
473.968	96.62
474.187	114.62
474.406	86.62
474.625	80.62
474.844	90.62
475.063	71.62
475.282	85.62
475.501	84.62
475.72	82.62
475.939	92.62
476.158	87.62
476.377	74.62
476.596	84.62
476.814	85.62
477.033	87.62
477.252	90.62
477.471	85.62
477.69	86.62
477.908	77.62
478.127	87.62
478.346	94.62
478.564	96.62
478.783	100.62
479.002	100.62
479.22	91.62
479.439	98.62
479.658	111.62
479.876	91.62
480.095	87.62
480.313	87.62
480.532	91.62
480.751	81.62
480.969	79.62
481.188	92.62
481.406	91.62
481.624	84.62
481.843	86.62
482.061	86.62
482.28	85.62
482.498	81.62
482.717	86.62
482.935	110.62
483.153	85.62
483.372	91.62
483.59	96.62
483.808	80.62
484.027	93.62
484.245	91.62
484.463	97.62
484.681	89.62
484.9	79.62
485.118	100.62
485.336	101.62
485.554	98.62
485.772	94.62
485.99	89.62
486.209	106.62
486.427	106.62
486.645	88.62
486.863	92.62
487.081	101.62
487.299	90.62
487.517	92.62
487.735	87.62
487.953	88.62
488.171	95.62
488.389	89.62
488.607	91.62
488.825	102.62
489.043	98.62
489.261	77.62
489.479	93.62
489.696	79.62
489.914	91.62
490.132	86.62
490.35	88.62
490.568	95.62
490.786	90.62
491.003	89.62
491.221	92.62
491.439	87.62
491.657	82.62
491.874	88.62
492.092	94.62
492.31	79.62
492.527	98.62
492.745	84.62
492.963	86.62
493.18	90.62
493.398	95.62
493.615	89.62
493.833	88.62
494.05	84.62
494.268	95.62
494.485	89.62
494.703	81.62
494.92	87.62
495.138	90.62
495.355	81.62
495.573	84.62
495.79	90.62
496.008	80.62
496.225	96.62
496.442	88.62
496.66	96.62
496.877	82.62
497.094	92.62
497.312	102.62
497.529	94.62
497.746	87.62
497.963	83.62
498.181	82.62
498.398	93.62
498.615	97.62
498.832	97.62
499.049	86.62
499.267	81.62
499.484	100.62
499.701	87.62
499.918	89.62
500.135	84.62
500.352	89.62
500.569	88.62
500.786	88.62
501.003	92.62
501.22	78.62
501.437	74.62
501.654	89.62
501.871	77.62
502.088	85.62
502.305	93.62
502.522	88.62
502.739	91.62
502.956	90.62
503.172	93.62
503.389	89.62
503.606	100.62
503.823	92.62
504.04	94.62
504.256	93.62
504.473	82.62
504.69	101.62
504.907	90.62
505.123	101.62
505.34	91.62
505.557	92.62
505.773	89.62
505.99	79.62
506.207	92.62
506.423	78.62
506.64	80.62
506.856	89.62
507.073	83.62
507.289	91.62
507.506	90.62
507.722	98.62
507.939	117.62
508.155	89.62
508.372	92.62
508.588	96.62
508.805	92.62
509.021	91.62
509.238	103.62
509.454	100.62
509.67	97.62
509.887	114.62
510.103	120.62
510.319	218.62
510.536	708.62
510.752	2154.62
510.968	579.62
511.184	154.62
511.401	94.62
511.617	98.62
511.833	90.62
512.049	97.62
512.265	71.62
512.481	101.62
512.698	93.62
512.914	100.62
513.13	85.62
513.346	84.62
513.562	95.62
513.778	92.62
513.994	92.62
514.21	101.62
514.426	119.62
514.642	118.62
514.858	107.62
515.074	159.62
515.29	378.62
515.506	1248.62
515.721	478.62
515.937	140.62
516.153	87.62
516.369	94.62
516.585	83.62
516.801	88.62
