Data from Uncirc_2008_H10_HRD10591_00061.txt Node
Date: Wed Jan 03 10:15:43 EST 2024
User: Yrep
Spectrometer: HR+D1059
Trigger mode: 1
Integration Time (sec): 1.000000E-1
Scans to average: 1
Electric dark correction enabled: true
Nonlinearity correction enabled: false
Boxcar width: 0
XAxis mode: Wavelengths
Number of Pixels in Spectrum: 2048
>>>>>Begin Spectral Data<<<<<
223.165	-22.25
223.4	-22.25
223.635	-22.25
223.869	-24.25
224.104	-28.25
224.338	-25.25
224.573	-24.25
224.808	0.75
225.042	-6.25
225.277	-3.25
225.511	-0.25
225.746	-0.25
225.98	12.75
226.215	9.75
226.449	31.75
226.683	8.75
226.918	34.75
227.152	35.75
227.387	33.75
227.621	30.75
227.856	35.75
228.09	44.75
228.324	47.75
228.559	59.75
228.793	57.75
229.027	55.75
229.262	72.75
229.496	80.75
229.73	81.75
229.964	84.75
230.199	75.75
230.433	73.75
230.667	89.75
230.901	72.75
231.136	73.75
231.37	95.75
231.604	94.75
231.838	91.75
232.072	80.75
232.306	81.75
232.541	81.75
232.775	85.75
233.009	77.75
233.243	90.75
233.477	83.75
233.711	82.75
233.945	83.75
234.179	93.75
234.413	87.75
234.647	80.75
234.881	81.75
235.115	89.75
235.349	78.75
235.583	79.75
235.817	74.75
236.051	83.75
236.285	78.75
236.519	75.75
236.753	84.75
236.987	90.75
237.221	73.75
237.455	84.75
237.689	77.75
237.922	79.75
238.156	71.75
238.39	70.75
238.624	78.75
238.858	76.75
239.091	76.75
239.325	100.75
239.559	76.75
239.793	68.75
240.027	84.75
240.26	87.75
240.494	64.75
240.728	77.75
240.961	84.75
241.195	81.75
241.429	70.75
241.662	62.75
241.896	70.75
242.13	75.75
242.363	74.75
242.597	81.75
242.83	75.75
243.064	82.75
243.298	80.75
243.531	74.75
243.765	80.75
243.998	71.75
244.232	87.75
244.465	86.75
244.699	84.75
244.932	76.75
245.166	79.75
245.399	78.75
245.633	88.75
245.866	90.75
246.099	91.75
246.333	85.75
246.566	79.75
246.8	85.75
247.033	79.75
247.266	81.75
247.5	100.75
247.733	76.75
247.966	77.75
248.2	73.75
248.433	78.75
248.666	78.75
248.899	76.75
249.133	85.75
249.366	89.75
249.599	95.75
249.832	90.75
250.066	79.75
250.299	79.75
250.532	95.75
250.765	79.75
250.998	70.75
251.231	81.75
251.465	78.75
251.698	89.75
251.931	62.75
252.164	79.75
252.397	87.75
252.63	80.75
252.863	84.75
253.096	80.75
253.329	68.75
253.562	84.75
253.795	83.75
254.028	85.75
254.261	78.75
254.494	77.75
254.727	84.75
254.96	90.75
255.193	77.75
255.426	78.75
255.659	89.75
255.892	85.75
256.124	97.75
256.357	81.75
256.59	75.75
256.823	74.75
257.056	71.75
257.289	88.75
257.521	98.75
257.754	75.75
257.987	75.75
258.22	79.75
258.452	82.75
258.685	84.75
258.918	72.75
259.151	82.75
259.383	91.75
259.616	83.75
259.849	84.75
260.081	89.75
260.314	88.75
260.547	82.75
260.779	80.75
261.012	78.75
261.244	82.75
261.477	92.75
261.71	97.75
261.942	110.75
262.175	117.75
262.407	82.75
262.64	76.75
262.872	88.75
263.105	90.75
263.337	84.75
263.57	91.75
263.802	85.75
264.035	75.75
264.267	74.75
264.499	83.75
264.732	74.75
264.964	87.75
265.197	84.75
265.429	78.75
265.661	94.75
265.894	85.75
266.126	92.75
266.358	89.75
266.591	79.75
266.823	85.75
267.055	91.75
267.287	95.75
267.52	72.75
267.752	97.75
267.984	86.75
268.216	91.75
268.448	96.75
268.681	91.75
268.913	80.75
269.145	90.75
269.377	81.75
269.609	89.75
269.841	84.75
270.073	82.75
270.306	102.75
270.538	87.75
270.77	92.75
271.002	80.75
271.234	92.75
271.466	87.75
271.698	84.75
271.93	83.75
272.162	89.75
272.394	89.75
272.626	91.75
272.858	93.75
273.09	87.75
273.322	86.75
273.553	91.75
273.785	87.75
274.017	76.75
274.249	81.75
274.481	82.75
274.713	74.75
274.945	93.75
275.176	82.75
275.408	90.75
275.64	85.75
275.872	83.75
276.104	80.75
276.335	93.75
276.567	104.75
276.799	95.75
277.031	106.75
277.262	78.75
277.494	77.75
277.726	85.75
277.957	90.75
278.189	95.75
278.421	90.75
278.652	82.75
278.884	72.75
279.115	102.75
279.347	79.75
279.579	81.75
279.81	98.75
280.042	91.75
280.273	91.75
280.505	89.75
280.736	80.75
280.968	85.75
281.199	85.75
281.431	78.75
281.662	95.75
281.894	100.75
282.125	109.75
282.356	104.75
282.588	117.75
282.819	118.75
283.051	96.75
283.282	90.75
283.513	101.75
283.745	77.75
283.976	84.75
284.207	87.75
284.439	87.75
284.67	79.75
284.901	92.75
285.132	100.75
285.364	94.75
285.595	99.75
285.826	96.75
286.057	77.75
286.288	75.75
286.52	82.75
286.751	84.75
286.982	96.75
287.213	80.75
287.444	85.75
287.675	82.75
287.906	99.75
288.138	98.75
288.369	82.75
288.6	94.75
288.831	93.75
289.062	97.75
289.293	101.75
289.524	92.75
289.755	91.75
289.986	89.75
290.217	96.75
290.448	98.75
290.679	96.75
290.91	85.75
291.141	91.75
291.371	95.75
291.602	94.75
291.833	96.75
292.064	84.75
292.295	76.75
292.526	80.75
292.757	85.75
292.987	98.75
293.218	84.75
293.449	81.75
293.68	91.75
293.91	84.75
294.141	115.75
294.372	83.75
294.603	85.75
294.833	81.75
295.064	85.75
295.295	89.75
295.525	96.75
295.756	97.75
295.987	113.75
296.217	147.75
296.448	117.75
296.679	93.75
296.909	96.75
297.14	87.75
297.37	83.75
297.601	103.75
297.831	93.75
298.062	90.75
298.292	91.75
298.523	79.75
298.753	87.75
298.984	87.75
299.214	85.75
299.445	93.75
299.675	91.75
299.905	92.75
300.136	86.75
300.366	90.75
300.597	80.75
300.827	86.75
301.057	100.75
301.288	97.75
301.518	97.75
301.748	103.75
301.979	101.75
302.209	94.75
302.439	95.75
302.669	97.75
302.9	98.75
303.13	96.75
303.36	83.75
303.59	107.75
303.82	98.75
304.051	83.75
304.281	89.75
304.511	88.75
304.741	87.75
304.971	91.75
305.201	92.75
305.431	97.75
305.661	95.75
305.891	93.75
306.121	101.75
306.352	93.75
306.582	85.75
306.812	100.75
307.042	90.75
307.272	91.75
307.502	90.75
307.731	101.75
307.961	87.75
308.191	90.75
308.421	103.75
308.651	85.75
308.881	100.75
309.111	90.75
309.341	96.75
309.571	104.75
309.8	107.75
310.03	96.75
310.26	112.75
310.49	100.75
310.72	99.75
310.949	99.75
311.179	91.75
311.409	104.75
311.639	97.75
311.868	102.75
312.098	86.75
312.328	97.75
312.557	99.75
312.787	102.75
313.017	94.75
313.246	88.75
313.476	100.75
313.706	89.75
313.935	103.75
314.165	87.75
314.394	100.75
314.624	98.75
314.853	99.75
315.083	91.75
315.312	93.75
315.542	108.75
315.771	99.75
316.001	100.75
316.23	82.75
316.46	85.75
316.689	99.75
316.919	96.75
317.148	99.75
317.377	94.75
317.607	90.75
317.836	88.75
318.065	98.75
318.295	84.75
318.524	80.75
318.753	95.75
318.983	91.75
319.212	103.75
319.441	107.75
319.67	113.75
319.9	107.75
320.129	92.75
320.358	104.75
320.587	85.75
320.816	103.75
321.046	82.75
321.275	100.75
321.504	97.75
321.733	101.75
321.962	111.75
322.191	100.75
322.42	120.75
322.649	98.75
322.878	94.75
323.108	102.75
323.337	123.75
323.566	127.75
323.795	139.75
324.024	185.75
324.253	349.75
324.482	754.75
324.71	1490.75
324.939	1951.75
325.168	755.75
325.397	244.75
325.626	165.75
325.855	137.75
326.084	120.75
326.313	131.75
326.542	149.75
326.77	214.75
326.999	420.75
327.228	859.75
327.457	1551.75
327.686	1240.75
327.914	350.75
328.143	179.75
328.372	151.75
328.6	115.75
328.829	115.75
329.058	124.75
329.287	129.75
329.515	106.75
329.744	100.75
329.972	103.75
330.201	87.75
330.43	96.75
330.658	109.75
330.887	133.75
331.115	121.75
331.344	106.75
331.572	97.75
331.801	99.75
332.03	119.75
332.258	104.75
332.486	97.75
332.715	98.75
332.943	85.75
333.172	93.75
333.4	106.75
333.629	97.75
333.857	93.75
334.085	113.75
334.314	101.75
334.542	89.75
334.771	96.75
334.999	117.75
335.227	100.75
335.455	108.75
335.684	96.75
335.912	92.75
336.14	95.75
336.369	101.75
336.597	99.75
336.825	92.75
337.053	103.75
337.281	88.75
337.51	92.75
337.738	78.75
337.966	83.75
338.194	109.75
338.422	93.75
338.65	73.75
338.878	76.75
339.106	97.75
339.334	100.75
339.562	81.75
339.79	81.75
340.018	94.75
340.246	89.75
340.474	88.75
340.702	93.75
340.93	102.75
341.158	91.75
341.386	88.75
341.614	98.75
341.842	95.75
342.07	101.75
342.298	103.75
342.526	83.75
342.754	91.75
342.981	95.75
343.209	91.75
343.437	95.75
343.665	81.75
343.893	93.75
344.12	100.75
344.348	79.75
344.576	85.75
344.804	90.75
345.031	81.75
345.259	90.75
345.487	89.75
345.714	96.75
345.942	104.75
346.17	96.75
346.397	103.75
346.625	85.75
346.853	104.75
347.08	86.75
347.308	85.75
347.535	94.75
347.763	99.75
347.99	114.75
348.218	103.75
348.445	95.75
348.673	99.75
348.9	92.75
349.128	80.75
349.355	94.75
349.583	104.75
349.81	108.75
350.037	94.75
350.265	116.75
350.492	100.75
350.72	92.75
350.947	99.75
351.174	101.75
351.402	92.75
351.629	104.75
351.856	114.75
352.083	99.75
352.311	112.75
352.538	114.75
352.765	107.75
352.992	108.75
353.22	114.75
353.447	102.75
353.674	102.75
353.901	92.75
354.128	98.75
354.355	91.75
354.583	95.75
354.81	102.75
355.037	90.75
355.264	105.75
355.491	97.75
355.718	94.75
355.945	103.75
356.172	97.75
356.399	91.75
356.626	89.75
356.853	87.75
357.08	107.75
357.307	99.75
357.534	100.75
357.761	96.75
357.988	94.75
358.215	99.75
358.441	95.75
358.668	93.75
358.895	89.75
359.122	85.75
359.349	100.75
359.576	94.75
359.802	105.75
360.029	115.75
360.256	101.75
360.483	101.75
360.709	108.75
360.936	105.75
361.163	98.75
361.39	102.75
361.616	91.75
361.843	96.75
362.07	94.75
362.296	112.75
362.523	107.75
362.749	91.75
362.976	89.75
363.203	98.75
363.429	97.75
363.656	95.75
363.882	82.75
364.109	79.75
364.335	85.75
364.562	91.75
364.788	89.75
365.015	89.75
365.241	106.75
365.468	107.75
365.694	100.75
365.92	96.75
366.147	107.75
366.373	95.75
366.599	92.75
366.826	83.75
367.052	90.75
367.278	85.75
367.505	85.75
367.731	92.75
367.957	96.75
368.184	108.75
368.41	98.75
368.636	101.75
368.862	126.75
369.089	100.75
369.315	99.75
369.541	91.75
369.767	102.75
369.993	94.75
370.219	104.75
370.445	96.75
370.672	96.75
370.898	88.75
371.124	94.75
371.35	78.75
371.576	102.75
371.802	90.75
372.028	87.75
372.254	88.75
372.48	90.75
372.706	90.75
372.932	103.75
373.158	104.75
373.384	91.75
373.61	85.75
373.835	89.75
374.061	91.75
374.287	97.75
374.513	87.75
374.739	82.75
374.965	89.75
375.191	86.75
375.416	100.75
375.642	96.75
375.868	98.75
376.094	106.75
376.319	80.75
376.545	83.75
376.771	90.75
376.997	82.75
377.222	82.75
377.448	95.75
377.674	81.75
377.899	88.75
378.125	99.75
378.35	107.75
378.576	97.75
378.802	95.75
379.027	81.75
379.253	95.75
379.478	96.75
379.704	85.75
379.929	91.75
380.155	88.75
380.38	91.75
380.606	96.75
380.831	79.75
381.057	92.75
381.282	97.75
381.507	106.75
381.733	116.75
381.958	99.75
382.184	105.75
382.409	97.75
382.634	109.75
382.86	99.75
383.085	104.75
383.31	95.75
383.535	105.75
383.761	103.75
383.986	112.75
384.211	108.75
384.436	105.75
384.662	109.75
384.887	106.75
385.112	99.75
385.337	112.75
385.562	94.75
385.787	110.75
386.013	108.75
386.238	116.75
386.463	108.75
386.688	114.75
386.913	102.75
387.138	100.75
387.363	90.75
387.588	97.75
387.813	97.75
388.038	120.75
388.263	98.75
388.488	99.75
388.713	114.75
388.938	89.75
389.163	100.75
389.387	103.75
389.612	97.75
389.837	90.75
390.062	97.75
390.287	84.75
390.512	105.75
390.736	83.75
390.961	92.75
391.186	101.75
391.411	83.75
391.636	97.75
391.86	93.75
392.085	94.75
392.31	99.75
392.534	92.75
392.759	97.75
392.984	79.75
393.208	92.75
393.433	89.75
393.658	88.75
393.882	77.75
394.107	110.75
394.331	92.75
394.556	85.75
394.78	95.75
395.005	85.75
395.229	93.75
395.454	92.75
395.678	86.75
395.903	102.75
396.127	87.75
396.352	89.75
396.576	71.75
396.801	78.75
397.025	87.75
397.249	96.75
397.474	89.75
397.698	98.75
397.922	85.75
398.147	92.75
398.371	98.75
398.595	94.75
398.82	92.75
399.044	76.75
399.268	87.75
399.492	86.75
399.717	77.75
399.941	110.75
400.165	91.75
400.389	88.75
400.613	84.75
400.837	82.75
401.062	93.75
401.286	69.75
401.51	85.75
401.734	87.75
401.958	97.75
402.182	128.75
402.406	170.75
402.63	111.75
402.854	99.75
403.078	83.75
403.302	98.75
403.526	93.75
403.75	97.75
403.974	88.75
404.198	96.75
404.422	96.75
404.645	92.75
404.869	91.75
405.093	92.75
405.317	93.75
405.541	101.75
405.765	103.75
405.988	117.75
406.212	163.75
406.436	194.75
406.66	124.75
406.883	83.75
407.107	82.75
407.331	97.75
407.555	119.75
407.778	97.75
408.002	88.75
408.226	91.75
408.449	100.75
408.673	93.75
408.896	89.75
409.12	100.75
409.344	95.75
409.567	91.75
409.791	95.75
410.014	96.75
410.238	93.75
410.461	103.75
410.685	92.75
410.908	99.75
411.132	104.75
411.355	97.75
411.578	94.75
411.802	105.75
412.025	105.75
412.249	100.75
412.472	66.75
412.695	86.75
412.919	87.75
413.142	81.75
413.365	85.75
413.589	98.75
413.812	92.75
414.035	86.75
414.258	95.75
414.482	91.75
414.705	96.75
414.928	76.75
415.151	97.75
415.374	84.75
415.597	85.75
415.821	84.75
416.044	84.75
416.267	93.75
416.49	88.75
416.713	101.75
416.936	90.75
417.159	86.75
417.382	86.75
417.605	85.75
417.828	103.75
418.051	84.75
418.274	93.75
418.497	83.75
418.72	91.75
418.943	85.75
419.166	95.75
419.389	95.75
419.611	88.75
419.834	96.75
420.057	84.75
420.28	93.75
420.503	84.75
420.726	83.75
420.948	98.75
421.171	105.75
421.394	95.75
421.617	76.75
421.839	81.75
422.062	87.75
422.285	95.75
422.507	92.75
422.73	108.75
422.953	96.75
423.175	98.75
423.398	101.75
423.621	95.75
423.843	89.75
424.066	88.75
424.288	91.75
424.511	89.75
424.733	93.75
424.956	115.75
425.178	89.75
425.401	96.75
425.623	96.75
425.846	87.75
426.068	89.75
426.291	88.75
426.513	98.75
426.735	95.75
426.958	89.75
427.18	98.75
427.402	126.75
427.625	158.75
427.847	115.75
428.069	101.75
428.292	95.75
428.514	94.75
428.736	75.75
428.958	94.75
429.181	102.75
429.403	91.75
429.625	93.75
429.847	97.75
430.069	106.75
430.292	84.75
430.514	96.75
430.736	95.75
430.958	90.75
431.18	82.75
431.402	81.75
431.624	86.75
431.846	84.75
432.068	85.75
432.29	96.75
432.512	88.75
432.734	87.75
432.956	92.75
433.178	88.75
433.4	87.75
433.622	87.75
433.844	96.75
434.066	94.75
434.287	115.75
434.509	106.75
434.731	88.75
434.953	98.75
435.175	83.75
435.397	85.75
435.618	92.75
435.84	101.75
436.062	121.75
436.284	108.75
436.505	113.75
436.727	102.75
436.949	96.75
437.17	84.75
437.392	92.75
437.614	98.75
437.835	101.75
438.057	111.75
438.278	103.75
438.5	103.75
438.721	105.75
438.943	89.75
439.165	99.75
439.386	106.75
439.608	92.75
439.829	111.75
440.05	125.75
440.272	143.75
440.493	99.75
440.715	83.75
440.936	89.75
441.158	85.75
441.379	94.75
441.6	96.75
441.822	106.75
442.043	91.75
442.264	91.75
442.486	112.75
442.707	112.75
442.928	111.75
443.149	136.75
443.371	131.75
443.592	120.75
443.813	126.75
444.034	111.75
444.255	89.75
444.476	95.75
444.698	85.75
444.919	99.75
445.14	116.75
445.361	116.75
445.582	128.75
445.803	135.75
446.024	130.75
446.245	135.75
446.466	111.75
446.687	85.75
446.908	96.75
447.129	91.75
447.35	97.75
447.571	82.75
447.792	89.75
448.013	84.75
448.234	99.75
448.455	100.75
448.675	115.75
448.896	124.75
449.117	100.75
449.338	105.75
449.559	113.75
449.779	136.75
450	104.75
450.221	88.75
450.442	71.75
450.662	96.75
450.883	98.75
451.104	115.75
451.324	109.75
451.545	84.75
451.766	96.75
451.986	96.75
452.207	85.75
452.428	76.75
452.648	83.75
452.869	109.75
453.089	112.75
453.31	117.75
453.53	103.75
453.751	100.75
453.971	103.75
454.192	94.75
454.412	94.75
454.633	97.75
454.853	82.75
455.073	82.75
455.294	90.75
455.514	104.75
455.734	90.75
455.955	103.75
456.175	76.75
456.395	82.75
456.616	87.75
456.836	98.75
457.056	80.75
457.276	86.75
457.497	90.75
457.717	84.75
457.937	87.75
458.157	81.75
458.377	88.75
458.598	110.75
458.818	137.75
459.038	147.75
459.258	116.75
459.478	85.75
459.698	72.75
459.918	102.75
460.138	89.75
460.358	71.75
460.578	85.75
460.798	100.75
461.018	89.75
461.238	85.75
461.458	72.75
461.678	84.75
461.898	88.75
462.118	93.75
462.338	79.75
462.558	80.75
462.777	82.75
462.997	77.75
463.217	90.75
463.437	91.75
463.657	88.75
463.876	84.75
464.096	68.75
464.316	92.75
464.536	86.75
464.755	90.75
464.975	116.75
465.195	147.75
465.414	170.75
465.634	98.75
465.854	92.75
466.073	91.75
466.293	96.75
466.512	65.75
466.732	92.75
466.951	99.75
467.171	76.75
467.391	104.75
467.61	107.75
467.829	83.75
468.049	97.75
468.268	82.75
468.488	87.75
468.707	83.75
468.927	97.75
469.146	91.75
469.365	88.75
469.585	98.75
469.804	96.75
470.023	85.75
470.243	86.75
470.462	91.75
470.681	102.75
470.901	90.75
471.12	96.75
471.339	80.75
471.558	79.75
471.777	85.75
471.997	96.75
472.216	93.75
472.435	88.75
472.654	101.75
472.873	104.75
473.092	92.75
473.311	81.75
473.53	86.75
473.749	76.75
473.968	99.75
474.187	104.75
474.406	102.75
474.625	86.75
474.844	91.75
475.063	84.75
475.282	87.75
475.501	92.75
475.72	91.75
475.939	75.75
476.158	89.75
476.377	93.75
476.596	88.75
476.814	90.75
477.033	80.75
477.252	74.75
477.471	93.75
477.69	100.75
477.908	99.75
478.127	90.75
478.346	91.75
478.564	87.75
478.783	88.75
479.002	75.75
479.22	89.75
479.439	100.75
479.658	112.75
479.876	94.75
480.095	93.75
480.313	84.75
480.532	90.75
480.751	99.75
480.969	96.75
481.188	94.75
481.406	90.75
481.624	89.75
481.843	101.75
482.061	77.75
482.28	91.75
482.498	103.75
482.717	86.75
482.935	83.75
483.153	94.75
483.372	93.75
483.59	93.75
483.808	98.75
484.027	98.75
484.245	92.75
484.463	98.75
484.681	88.75
484.9	105.75
485.118	89.75
485.336	111.75
485.554	96.75
485.772	99.75
485.99	102.75
486.209	118.75
486.427	107.75
486.645	106.75
486.863	113.75
487.081	97.75
487.299	84.75
487.517	100.75
487.735	101.75
487.953	97.75
488.171	102.75
488.389	99.75
488.607	94.75
488.825	102.75
489.043	89.75
489.261	98.75
489.479	92.75
489.696	91.75
489.914	98.75
490.132	89.75
490.35	92.75
490.568	93.75
490.786	89.75
491.003	84.75
491.221	89.75
491.439	98.75
491.657	100.75
491.874	100.75
492.092	81.75
492.31	82.75
492.527	88.75
492.745	80.75
492.963	93.75
493.18	91.75
493.398	94.75
493.615	105.75
493.833	91.75
494.05	97.75
494.268	86.75
494.485	92.75
494.703	79.75
494.92	103.75
495.138	97.75
495.355	93.75
495.573	88.75
495.79	80.75
496.008	78.75
496.225	90.75
496.442	100.75
496.66	97.75
496.877	99.75
497.094	88.75
497.312	94.75
497.529	97.75
497.746	87.75
497.963	91.75
498.181	91.75
498.398	95.75
498.615	93.75
498.832	95.75
499.049	94.75
499.267	89.75
499.484	96.75
499.701	89.75
499.918	94.75
500.135	91.75
500.352	95.75
500.569	81.75
500.786	89.75
501.003	100.75
501.22	93.75
501.437	98.75
501.654	104.75
501.871	94.75
502.088	101.75
502.305	96.75
502.522	81.75
502.739	95.75
502.956	91.75
503.172	91.75
503.389	103.75
503.606	100.75
503.823	92.75
504.04	91.75
504.256	88.75
504.473	93.75
504.69	88.75
504.907	96.75
505.123	85.75
505.34	88.75
505.557	82.75
505.773	93.75
505.99	92.75
506.207	93.75
506.423	100.75
506.64	90.75
506.856	95.75
507.073	101.75
507.289	88.75
507.506	90.75
507.722	107.75
507.939	116.75
508.155	88.75
508.372	95.75
508.588	94.75
508.805	99.75
509.021	92.75
509.238	93.75
509.454	99.75
509.67	101.75
509.887	120.75
510.103	137.75
510.319	228.75
510.536	717.75
510.752	2249.75
510.968	642.75
511.184	148.75
511.401	103.75
511.617	91.75
511.833	92.75
512.049	105.75
512.265	88.75
512.481	90.75
512.698	89.75
512.914	98.75
513.13	97.75
513.346	89.75
513.562	100.75
513.778	90.75
513.994	101.75
514.21	106.75
514.426	121.75
514.642	146.75
514.858	117.75
515.074	155.75
515.29	432.75
515.506	1360.75
