Data from Uncirc_2008_H10_HRD10591_00045.txt Node
Date: Wed Jan 03 10:15:39 EST 2024
User: Yrep
Spectrometer: HR+D1059
Trigger mode: 1
Integration Time (sec): 1.000000E-1
Scans to average: 1
Electric dark correction enabled: true
Nonlinearity correction enabled: false
Boxcar width: 0
XAxis mode: Wavelengths
Number of Pixels in Spectrum: 2048
>>>>>Begin Spectral Data<<<<<
223.165	-8.06
223.4	-8.06
223.635	-8.06
223.869	-26.06
224.104	-16.06
224.338	-18.06
224.573	-21.06
224.808	-19.06
225.042	-1.06
225.277	-2.06
225.511	-5.06
225.746	11.94
225.98	14.94
226.215	14.94
226.449	4.94
226.683	16.94
226.918	25.94
227.152	26.94
227.387	46.94
227.621	37.94
227.856	45.94
228.09	53.94
228.324	32.94
228.559	56.94
228.793	73.94
229.027	66.94
229.262	77.94
229.496	77.94
229.73	77.94
229.964	73.94
230.199	71.94
230.433	68.94
230.667	80.94
230.901	79.94
231.136	63.94
231.37	68.94
231.604	64.94
231.838	82.94
232.072	87.94
232.306	76.94
232.541	86.94
232.775	78.94
233.009	81.94
233.243	83.94
233.477	79.94
233.711	72.94
233.945	98.94
234.179	77.94
234.413	83.94
234.647	67.94
234.881	72.94
235.115	68.94
235.349	75.94
235.583	80.94
235.817	86.94
236.051	89.94
236.285	69.94
236.519	82.94
236.753	75.94
236.987	78.94
237.221	68.94
237.455	86.94
237.689	74.94
237.922	88.94
238.156	82.94
238.39	76.94
238.624	67.94
238.858	81.94
239.091	64.94
239.325	95.94
239.559	68.94
239.793	77.94
240.027	69.94
240.26	74.94
240.494	57.94
240.728	58.94
240.961	74.94
241.195	61.94
241.429	74.94
241.662	74.94
241.896	70.94
242.13	73.94
242.363	70.94
242.597	66.94
242.83	78.94
243.064	82.94
243.298	80.94
243.531	79.94
243.765	79.94
243.998	96.94
244.232	77.94
244.465	81.94
244.699	71.94
244.932	79.94
245.166	77.94
245.399	79.94
245.633	77.94
245.866	71.94
246.099	90.94
246.333	81.94
246.566	72.94
246.8	72.94
247.033	77.94
247.266	79.94
247.5	77.94
247.733	77.94
247.966	80.94
248.2	86.94
248.433	75.94
248.666	85.94
248.899	82.94
249.133	84.94
249.366	86.94
249.599	102.94
249.832	73.94
250.066	80.94
250.299	83.94
250.532	76.94
250.765	82.94
250.998	71.94
251.231	77.94
251.465	77.94
251.698	73.94
251.931	72.94
252.164	53.94
252.397	79.94
252.63	77.94
252.863	93.94
253.096	80.94
253.329	79.94
253.562	80.94
253.795	76.94
254.028	71.94
254.261	76.94
254.494	89.94
254.727	87.94
254.96	85.94
255.193	73.94
255.426	80.94
255.659	82.94
255.892	91.94
256.124	64.94
256.357	64.94
256.59	78.94
256.823	67.94
257.056	73.94
257.289	85.94
257.521	78.94
257.754	72.94
257.987	89.94
258.22	90.94
258.452	86.94
258.685	79.94
258.918	78.94
259.151	70.94
259.383	73.94
259.616	86.94
259.849	82.94
260.081	82.94
260.314	73.94
260.547	82.94
260.779	90.94
261.012	76.94
261.244	64.94
261.477	96.94
261.71	82.94
261.942	90.94
262.175	93.94
262.407	97.94
262.64	74.94
262.872	80.94
263.105	87.94
263.337	85.94
263.57	71.94
263.802	86.94
264.035	90.94
264.267	82.94
264.499	95.94
264.732	73.94
264.964	82.94
265.197	86.94
265.429	69.94
265.661	77.94
265.894	79.94
266.126	91.94
266.358	75.94
266.591	84.94
266.823	90.94
267.055	58.94
267.287	77.94
267.52	77.94
267.752	93.94
267.984	83.94
268.216	84.94
268.448	85.94
268.681	86.94
268.913	94.94
269.145	92.94
269.377	88.94
269.609	72.94
269.841	85.94
270.073	71.94
270.306	83.94
270.538	84.94
270.77	87.94
271.002	100.94
271.234	93.94
271.466	99.94
271.698	93.94
271.93	73.94
272.162	94.94
272.394	73.94
272.626	79.94
272.858	80.94
273.09	81.94
273.322	72.94
273.553	70.94
273.785	82.94
274.017	86.94
274.249	86.94
274.481	84.94
274.713	65.94
274.945	85.94
275.176	79.94
275.408	81.94
275.64	84.94
275.872	84.94
276.104	94.94
276.335	94.94
276.567	97.94
276.799	99.94
277.031	86.94
277.262	87.94
277.494	74.94
277.726	73.94
277.957	78.94
278.189	85.94
278.421	84.94
278.652	87.94
278.884	80.94
279.115	71.94
279.347	103.94
279.579	85.94
279.81	86.94
280.042	102.94
280.273	78.94
280.505	69.94
280.736	82.94
280.968	94.94
281.199	83.94
281.431	89.94
281.662	86.94
281.894	82.94
282.125	96.94
282.356	115.94
282.588	119.94
282.819	110.94
283.051	79.94
283.282	92.94
283.513	72.94
283.745	82.94
283.976	89.94
284.207	85.94
284.439	82.94
284.67	89.94
284.901	92.94
285.132	84.94
285.364	75.94
285.595	88.94
285.826	94.94
286.057	84.94
286.288	84.94
286.52	95.94
286.751	81.94
286.982	85.94
287.213	85.94
287.444	88.94
287.675	89.94
287.906	95.94
288.138	81.94
288.369	89.94
288.6	98.94
288.831	79.94
289.062	88.94
289.293	72.94
289.524	67.94
289.755	95.94
289.986	93.94
290.217	91.94
290.448	86.94
290.679	92.94
290.91	92.94
291.141	82.94
291.371	78.94
291.602	90.94
291.833	87.94
292.064	87.94
292.295	92.94
292.526	89.94
292.757	86.94
292.987	88.94
293.218	87.94
293.449	87.94
293.68	90.94
293.91	94.94
294.141	88.94
294.372	78.94
294.603	87.94
294.833	90.94
295.064	88.94
295.295	73.94
295.525	81.94
295.756	98.94
295.987	94.94
296.217	121.94
296.448	110.94
296.679	76.94
296.909	90.94
297.14	76.94
297.37	92.94
297.601	76.94
297.831	93.94
298.062	93.94
298.292	81.94
298.523	84.94
298.753	91.94
298.984	84.94
299.214	94.94
299.445	99.94
299.675	96.94
299.905	86.94
300.136	73.94
300.366	83.94
300.597	95.94
300.827	98.94
301.057	81.94
301.288	91.94
301.518	70.94
301.748	91.94
301.979	79.94
302.209	82.94
302.439	81.94
302.669	97.94
302.9	97.94
303.13	89.94
303.36	83.94
303.59	104.94
303.82	94.94
304.051	84.94
304.281	84.94
304.511	85.94
304.741	84.94
304.971	79.94
305.201	79.94
305.431	96.94
305.661	86.94
305.891	89.94
306.121	90.94
306.352	94.94
306.582	95.94
306.812	85.94
307.042	88.94
307.272	95.94
307.502	82.94
307.731	103.94
307.961	89.94
308.191	82.94
308.421	86.94
308.651	81.94
308.881	97.94
309.111	85.94
309.341	78.94
309.571	89.94
309.8	90.94
310.03	95.94
310.26	81.94
310.49	94.94
310.72	85.94
310.949	99.94
311.179	96.94
311.409	88.94
311.639	82.94
311.868	102.94
312.098	101.94
312.328	90.94
312.557	98.94
312.787	101.94
313.017	95.94
313.246	97.94
313.476	86.94
313.706	100.94
313.935	100.94
314.165	83.94
314.394	88.94
314.624	97.94
314.853	94.94
315.083	93.94
315.312	95.94
315.542	90.94
315.771	86.94
316.001	86.94
316.23	90.94
316.46	71.94
316.689	79.94
316.919	84.94
317.148	98.94
317.377	91.94
317.607	86.94
317.836	102.94
318.065	90.94
318.295	92.94
318.524	86.94
318.753	89.94
318.983	94.94
319.212	99.94
319.441	100.94
319.67	118.94
319.9	89.94
320.129	68.94
320.358	96.94
320.587	80.94
320.816	97.94
321.046	88.94
321.275	97.94
321.504	92.94
321.733	93.94
321.962	92.94
322.191	93.94
322.42	97.94
322.649	106.94
322.878	97.94
323.108	123.94
323.337	108.94
323.566	138.94
323.795	146.94
324.024	185.94
324.253	353.94
324.482	762.94
324.71	1569.94
324.939	2024.94
325.168	756.94
325.397	234.94
325.626	142.94
325.855	125.94
326.084	132.94
326.313	126.94
326.542	160.94
326.77	224.94
326.999	427.94
327.228	912.94
327.457	1598.94
327.686	1274.94
327.914	318.94
328.143	172.94
328.372	140.94
328.6	118.94
328.829	126.94
329.058	108.94
329.287	123.94
329.515	96.94
329.744	88.94
329.972	101.94
330.201	107.94
330.43	106.94
330.658	112.94
330.887	137.94
331.115	110.94
331.344	93.94
331.572	102.94
331.801	92.94
332.03	86.94
332.258	97.94
332.486	92.94
332.715	84.94
332.943	97.94
333.172	93.94
333.4	106.94
333.629	95.94
333.857	105.94
334.085	101.94
334.314	99.94
334.542	88.94
334.771	98.94
334.999	91.94
335.227	102.94
335.455	90.94
335.684	100.94
335.912	87.94
336.14	93.94
336.369	102.94
336.597	98.94
336.825	95.94
337.053	84.94
337.281	95.94
337.51	102.94
337.738	94.94
337.966	87.94
338.194	82.94
338.422	81.94
338.65	84.94
338.878	93.94
339.106	85.94
339.334	87.94
339.562	81.94
339.79	81.94
340.018	98.94
340.246	88.94
340.474	94.94
340.702	103.94
340.93	84.94
341.158	92.94
341.386	90.94
341.614	92.94
341.842	81.94
342.07	84.94
342.298	105.94
342.526	92.94
342.754	96.94
342.981	89.94
343.209	95.94
343.437	96.94
343.665	88.94
343.893	91.94
344.12	94.94
344.348	89.94
344.576	104.94
344.804	85.94
345.031	86.94
345.259	76.94
345.487	85.94
345.714	90.94
345.942	89.94
346.17	95.94
346.397	88.94
346.625	88.94
346.853	102.94
347.08	95.94
347.308	97.94
347.535	93.94
347.763	88.94
347.99	89.94
348.218	100.94
348.445	90.94
348.673	95.94
348.9	84.94
349.128	94.94
349.355	99.94
349.583	105.94
349.81	84.94
350.037	78.94
350.265	97.94
350.492	89.94
350.72	80.94
350.947	90.94
351.174	106.94
351.402	91.94
351.629	102.94
351.856	102.94
352.083	90.94
352.311	93.94
352.538	109.94
352.765	103.94
352.992	109.94
353.22	111.94
353.447	101.94
353.674	92.94
353.901	93.94
354.128	98.94
354.355	96.94
354.583	102.94
354.81	107.94
355.037	96.94
355.264	90.94
355.491	96.94
355.718	81.94
355.945	89.94
356.172	101.94
356.399	101.94
356.626	91.94
356.853	81.94
357.08	92.94
357.307	96.94
357.534	91.94
357.761	76.94
357.988	98.94
358.215	104.94
358.441	95.94
358.668	90.94
358.895	84.94
359.122	79.94
359.349	88.94
359.576	108.94
359.802	95.94
360.029	111.94
360.256	91.94
360.483	100.94
360.709	81.94
360.936	84.94
361.163	88.94
361.39	84.94
361.616	94.94
361.843	98.94
362.07	97.94
362.296	83.94
362.523	97.94
362.749	101.94
362.976	96.94
363.203	89.94
363.429	89.94
363.656	99.94
363.882	89.94
364.109	89.94
364.335	87.94
364.562	83.94
364.788	93.94
365.015	103.94
365.241	96.94
365.468	107.94
365.694	94.94
365.92	84.94
366.147	102.94
366.373	90.94
366.599	87.94
366.826	96.94
367.052	80.94
367.278	77.94
367.505	80.94
367.731	97.94
367.957	84.94
368.184	97.94
368.41	116.94
368.636	109.94
368.862	109.94
369.089	94.94
369.315	102.94
369.541	75.94
369.767	88.94
369.993	93.94
370.219	82.94
370.445	86.94
370.672	90.94
370.898	90.94
371.124	87.94
371.35	84.94
371.576	85.94
371.802	89.94
372.028	81.94
372.254	78.94
372.48	82.94
372.706	80.94
372.932	90.94
373.158	84.94
373.384	90.94
373.61	80.94
373.835	80.94
374.061	85.94
374.287	82.94
374.513	102.94
374.739	101.94
374.965	85.94
375.191	83.94
375.416	84.94
375.642	91.94
375.868	89.94
376.094	89.94
376.319	101.94
376.545	90.94
376.771	86.94
376.997	79.94
377.222	92.94
377.448	90.94
377.674	86.94
377.899	91.94
378.125	95.94
378.35	83.94
378.576	85.94
378.802	82.94
379.027	98.94
379.253	84.94
379.478	82.94
379.704	81.94
379.929	77.94
380.155	104.94
380.38	99.94
380.606	87.94
380.831	77.94
381.057	90.94
381.282	93.94
381.507	81.94
381.733	85.94
381.958	99.94
382.184	94.94
382.409	95.94
382.634	101.94
382.86	106.94
383.085	121.94
383.31	82.94
383.535	97.94
383.761	104.94
383.986	94.94
384.211	81.94
384.436	89.94
384.662	101.94
384.887	95.94
385.112	109.94
385.337	97.94
385.562	96.94
385.787	111.94
386.013	108.94
386.238	112.94
386.463	104.94
386.688	109.94
386.913	97.94
387.138	104.94
387.363	112.94
387.588	106.94
387.813	103.94
388.038	117.94
388.263	98.94
388.488	107.94
388.713	105.94
388.938	90.94
389.163	109.94
389.387	76.94
389.612	98.94
389.837	103.94
390.062	98.94
390.287	95.94
390.512	87.94
390.736	90.94
390.961	97.94
391.186	98.94
391.411	98.94
391.636	102.94
391.86	99.94
392.085	94.94
392.31	74.94
392.534	77.94
392.759	84.94
392.984	84.94
393.208	79.94
393.433	88.94
393.658	85.94
393.882	82.94
394.107	81.94
394.331	79.94
394.556	78.94
394.78	85.94
395.005	71.94
395.229	101.94
395.454	85.94
395.678	93.94
395.903	81.94
396.127	93.94
396.352	91.94
396.576	75.94
396.801	86.94
397.025	82.94
397.249	88.94
397.474	72.94
397.698	82.94
397.922	86.94
398.147	81.94
398.371	87.94
398.595	77.94
398.82	78.94
399.044	74.94
399.268	81.94
399.492	79.94
399.717	88.94
399.941	89.94
400.165	79.94
400.389	91.94
400.613	74.94
400.837	88.94
401.062	89.94
401.286	76.94
401.51	86.94
401.734	100.94
401.958	99.94
402.182	119.94
402.406	141.94
402.63	105.94
402.854	90.94
403.078	81.94
403.302	104.94
403.526	84.94
403.75	76.94
403.974	104.94
404.198	81.94
404.422	88.94
404.645	88.94
404.869	95.94
405.093	97.94
405.317	87.94
405.541	75.94
405.765	97.94
405.988	111.94
406.212	154.94
406.436	186.94
406.66	138.94
406.883	104.94
407.107	91.94
407.331	88.94
407.555	103.94
407.778	93.94
408.002	100.94
408.226	75.94
408.449	68.94
408.673	81.94
408.896	86.94
409.12	90.94
409.344	91.94
409.567	90.94
409.791	85.94
410.014	102.94
410.238	100.94
410.461	95.94
410.685	70.94
410.908	106.94
411.132	100.94
411.355	101.94
411.578	88.94
411.802	88.94
412.025	93.94
412.249	96.94
412.472	87.94
412.695	95.94
412.919	91.94
413.142	97.94
413.365	90.94
413.589	83.94
413.812	79.94
414.035	93.94
414.258	81.94
414.482	76.94
414.705	96.94
414.928	89.94
415.151	96.94
415.374	110.94
415.597	83.94
415.821	82.94
416.044	90.94
416.267	88.94
416.49	89.94
416.713	103.94
416.936	92.94
417.159	88.94
417.382	71.94
417.605	97.94
417.828	97.94
418.051	84.94
418.274	90.94
418.497	107.94
418.72	82.94
418.943	82.94
419.166	86.94
419.389	87.94
419.611	82.94
419.834	98.94
420.057	63.94
420.28	82.94
420.503	89.94
420.726	95.94
420.948	87.94
421.171	84.94
421.394	97.94
421.617	80.94
421.839	82.94
422.062	98.94
422.285	113.94
422.507	89.94
422.73	102.94
422.953	77.94
423.175	91.94
423.398	91.94
423.621	80.94
423.843	83.94
424.066	87.94
424.288	95.94
424.511	93.94
424.733	81.94
424.956	105.94
425.178	101.94
425.401	104.94
425.623	89.94
425.846	70.94
426.068	101.94
426.291	81.94
426.513	87.94
426.735	90.94
426.958	90.94
427.18	97.94
427.402	124.94
427.625	154.94
427.847	108.94
428.069	93.94
428.292	92.94
428.514	77.94
428.736	73.94
428.958	81.94
429.181	89.94
429.403	85.94
429.625	79.94
429.847	89.94
430.069	100.94
430.292	95.94
430.514	72.94
430.736	80.94
430.958	78.94
431.18	85.94
431.402	89.94
431.624	85.94
431.846	77.94
432.068	87.94
432.29	85.94
432.512	94.94
432.734	90.94
432.956	88.94
433.178	89.94
433.4	85.94
433.622	83.94
433.844	91.94
434.066	87.94
434.287	76.94
434.509	77.94
434.731	88.94
434.953	78.94
435.175	86.94
435.397	98.94
435.618	95.94
435.84	100.94
436.062	108.94
436.284	108.94
436.505	104.94
436.727	97.94
436.949	100.94
437.17	89.94
437.392	79.94
437.614	95.94
437.835	105.94
438.057	122.94
438.278	99.94
438.5	102.94
438.721	109.94
438.943	80.94
439.165	89.94
439.386	86.94
439.608	99.94
439.829	107.94
440.05	100.94
440.272	137.94
440.493	103.94
440.715	93.94
440.936	80.94
441.158	86.94
441.379	89.94
441.6	101.94
441.822	97.94
442.043	93.94
442.264	85.94
442.486	85.94
442.707	90.94
442.928	91.94
443.149	105.94
443.371	129.94
443.592	100.94
443.813	104.94
444.034	101.94
444.255	80.94
444.476	89.94
444.698	84.94
444.919	89.94
445.14	126.94
445.361	132.94
445.582	110.94
445.803	126.94
446.024	134.94
446.245	130.94
446.466	103.94
446.687	82.94
446.908	102.94
447.129	88.94
447.35	89.94
447.571	108.94
447.792	82.94
448.013	88.94
448.234	106.94
448.455	81.94
448.675	107.94
448.896	107.94
449.117	87.94
449.338	109.94
449.559	124.94
449.779	120.94
450	92.94
450.221	90.94
450.442	89.94
450.662	94.94
450.883	101.94
451.104	106.94
451.324	111.94
451.545	93.94
451.766	87.94
451.986	91.94
452.207	88.94
452.428	89.94
452.648	100.94
452.869	97.94
453.089	111.94
453.31	96.94
453.53	95.94
453.751	95.94
453.971	104.94
454.192	116.94
454.412	69.94
454.633	83.94
454.853	81.94
455.073	92.94
455.294	75.94
455.514	95.94
455.734	92.94
455.955	79.94
456.175	92.94
456.395	64.94
456.616	86.94
456.836	115.94
457.056	79.94
457.276	90.94
457.497	77.94
457.717	89.94
457.937	85.94
458.157	87.94
458.377	88.94
458.598	98.94
458.818	131.94
459.038	136.94
459.258	100.94
459.478	80.94
459.698	88.94
459.918	74.94
460.138	74.94
460.358	79.94
460.578	97.94
460.798	81.94
461.018	92.94
461.238	91.94
461.458	105.94
461.678	89.94
461.898	83.94
462.118	71.94
462.338	81.94
462.558	86.94
462.777	71.94
462.997	88.94
463.217	79.94
463.437	78.94
463.657	70.94
463.876	88.94
464.096	91.94
464.316	85.94
464.536	101.94
464.755	80.94
464.975	101.94
465.195	144.94
465.414	135.94
465.634	102.94
465.854	88.94
466.073	90.94
466.293	88.94
466.512	97.94
466.732	87.94
466.951	83.94
467.171	91.94
467.391	81.94
467.61	84.94
467.829	79.94
468.049	72.94
468.268	89.94
468.488	75.94
468.707	71.94
468.927	82.94
469.146	78.94
469.365	85.94
469.585	81.94
469.804	101.94
470.023	77.94
470.243	96.94
470.462	96.94
470.681	109.94
470.901	104.94
471.12	95.94
471.339	91.94
471.558	91.94
471.777	87.94
471.997	92.94
472.216	96.94
472.435	88.94
472.654	88.94
472.873	101.94
473.092	76.94
473.311	78.94
473.53	97.94
473.749	75.94
473.968	97.94
474.187	104.94
474.406	102.94
474.625	102.94
474.844	89.94
475.063	86.94
475.282	91.94
475.501	90.94
475.72	100.94
475.939	100.94
476.158	93.94
476.377	81.94
476.596	95.94
476.814	96.94
477.033	90.94
477.252	87.94
477.471	82.94
477.69	95.94
477.908	82.94
478.127	85.94
478.346	77.94
478.564	79.94
478.783	78.94
479.002	79.94
479.22	88.94
479.439	92.94
479.658	92.94
479.876	80.94
480.095	85.94
480.313	88.94
480.532	90.94
480.751	88.94
480.969	98.94
481.188	94.94
481.406	99.94
481.624	84.94
481.843	79.94
482.061	88.94
482.28	81.94
482.498	98.94
482.717	92.94
482.935	90.94
483.153	103.94
483.372	86.94
483.59	93.94
483.808	85.94
484.027	98.94
484.245	102.94
484.463	96.94
484.681	110.94
484.9	95.94
485.118	102.94
485.336	99.94
485.554	92.94
485.772	102.94
485.99	95.94
486.209	98.94
486.427	88.94
486.645	100.94
486.863	109.94
487.081	101.94
487.299	99.94
487.517	84.94
487.735	91.94
487.953	89.94
488.171	83.94
488.389	92.94
488.607	93.94
488.825	85.94
489.043	83.94
489.261	90.94
489.479	98.94
489.696	100.94
489.914	98.94
490.132	90.94
490.35	90.94
490.568	91.94
490.786	92.94
491.003	88.94
491.221	107.94
491.439	89.94
491.657	96.94
491.874	101.94
492.092	84.94
492.31	76.94
492.527	81.94
492.745	87.94
492.963	83.94
493.18	98.94
493.398	81.94
493.615	86.94
493.833	115.94
494.05	95.94
494.268	96.94
494.485	104.94
494.703	93.94
494.92	99.94
495.138	92.94
495.355	93.94
495.573	97.94
495.79	81.94
496.008	94.94
496.225	82.94
496.442	97.94
496.66	103.94
496.877	99.94
497.094	98.94
497.312	100.94
497.529	81.94
497.746	88.94
497.963	105.94
498.181	108.94
498.398	90.94
498.615	102.94
498.832	96.94
499.049	77.94
499.267	89.94
499.484	91.94
499.701	88.94
499.918	94.94
500.135	88.94
500.352	92.94
500.569	91.94
500.786	87.94
501.003	89.94
501.22	93.94
501.437	96.94
501.654	111.94
501.871	100.94
502.088	87.94
502.305	92.94
502.522	80.94
502.739	95.94
502.956	100.94
503.172	88.94
503.389	104.94
503.606	112.94
503.823	102.94
504.04	81.94
504.256	80.94
504.473	88.94
504.69	95.94
504.907	93.94
505.123	83.94
505.34	88.94
505.557	103.94
505.773	90.94
505.99	86.94
506.207	86.94
506.423	93.94
506.64	107.94
506.856	105.94
507.073	77.94
507.289	89.94
507.506	104.94
507.722	105.94
507.939	106.94
508.155	117.94
508.372	80.94
508.588	100.94
508.805	85.94
509.021	86.94
509.238	107.94
509.454	102.94
509.67	101.94
509.887	101.94
510.103	121.94
510.319	191.94
510.536	687.94
510.752	2050.94
510.968	600.94
511.184	164.94
511.401	109.94
511.617	102.94
511.833	91.94
512.049	97.94
512.265	83.94
512.481	90.94
512.698	84.94
512.914	70.94
513.13	95.94
513.346	88.94
513.562	99.94
513.778	103.94
513.994	101.94
514.21	103.94
514.426	104.94
514.642	117.94
514.858	120.94
515.074	139.94
515.29	380.94
515.506	1199.94
515.721	461.94
515.937	149.94
516.153	110.94
516.369	88.94
