Data from Uncirc_2008_H10_HRD10591_00011.txt Node
Date: Wed Jan 03 10:15:33 EST 2024
User: Yrep
Spectrometer: HR+D1059
Trigger mode: 1
Integration Time (sec): 1.000000E-1
Scans to average: 1
Electric dark correction enabled: true
Nonlinearity correction enabled: false
Boxcar width: 0
XAxis mode: Wavelengths
Number of Pixels in Spectrum: 2048
>>>>>Begin Spectral Data<<<<<
223.165	-12.88
223.4	-12.88
223.635	-12.88
223.869	-8.88
224.104	-17.88
224.338	-22.88
224.573	-21.88
224.808	-6.88
225.042	-22.88
225.277	-14.88
225.511	-0.88
225.746	7.12
225.98	8.12
226.215	17.12
226.449	26.12
226.683	16.12
226.918	30.12
227.152	25.12
227.387	35.12
227.621	19.12
227.856	36.12
228.09	41.12
228.324	56.12
228.559	47.12
228.793	57.12
229.027	67.12
229.262	53.12
229.496	52.12
229.73	62.12
229.964	75.12
230.199	70.12
230.433	64.12
230.667	73.12
230.901	74.12
231.136	78.12
231.37	77.12
231.604	79.12
231.838	86.12
232.072	67.12
232.306	67.12
232.541	74.12
232.775	76.12
233.009	78.12
233.243	76.12
233.477	89.12
233.711	66.12
233.945	78.12
234.179	80.12
234.413	84.12
234.647	75.12
234.881	76.12
235.115	84.12
235.349	83.12
235.583	75.12
235.817	72.12
236.051	72.12
236.285	77.12
236.519	75.12
236.753	76.12
236.987	71.12
237.221	81.12
237.455	71.12
237.689	81.12
237.922	81.12
238.156	77.12
238.39	73.12
238.624	76.12
238.858	67.12
239.091	86.12
239.325	73.12
239.559	67.12
239.793	74.12
240.027	72.12
240.26	74.12
240.494	76.12
240.728	72.12
240.961	75.12
241.195	70.12
241.429	77.12
241.662	73.12
241.896	82.12
242.13	70.12
242.363	59.12
242.597	68.12
242.83	79.12
243.064	75.12
243.298	87.12
243.531	59.12
243.765	73.12
243.998	71.12
244.232	87.12
244.465	96.12
244.699	78.12
244.932	71.12
245.166	79.12
245.399	83.12
245.633	75.12
245.866	64.12
246.099	67.12
246.333	62.12
246.566	69.12
246.8	71.12
247.033	82.12
247.266	85.12
247.5	83.12
247.733	74.12
247.966	78.12
248.2	78.12
248.433	76.12
248.666	72.12
248.899	81.12
249.133	87.12
249.366	65.12
249.599	91.12
249.832	87.12
250.066	76.12
250.299	81.12
250.532	74.12
250.765	76.12
250.998	67.12
251.231	90.12
251.465	75.12
251.698	72.12
251.931	88.12
252.164	80.12
252.397	89.12
252.63	75.12
252.863	71.12
253.096	72.12
253.329	81.12
253.562	84.12
253.795	71.12
254.028	90.12
254.261	85.12
254.494	79.12
254.727	86.12
254.96	75.12
255.193	79.12
255.426	88.12
255.659	79.12
255.892	76.12
256.124	59.12
256.357	84.12
256.59	69.12
256.823	79.12
257.056	83.12
257.289	85.12
257.521	78.12
257.754	81.12
257.987	74.12
258.22	91.12
258.452	72.12
258.685	98.12
258.918	73.12
259.151	76.12
259.383	71.12
259.616	91.12
259.849	88.12
260.081	86.12
260.314	78.12
260.547	67.12
260.779	85.12
261.012	85.12
261.244	79.12
261.477	86.12
261.71	78.12
261.942	80.12
262.175	95.12
262.407	91.12
262.64	77.12
262.872	73.12
263.105	73.12
263.337	67.12
263.57	74.12
263.802	81.12
264.035	85.12
264.267	70.12
264.499	72.12
264.732	75.12
264.964	76.12
265.197	85.12
265.429	73.12
265.661	83.12
265.894	66.12
266.126	79.12
266.358	79.12
266.591	82.12
266.823	94.12
267.055	79.12
267.287	77.12
267.52	76.12
267.752	75.12
267.984	78.12
268.216	78.12
268.448	80.12
268.681	85.12
268.913	93.12
269.145	83.12
269.377	85.12
269.609	78.12
269.841	75.12
270.073	79.12
270.306	80.12
270.538	92.12
270.77	92.12
271.002	73.12
271.234	86.12
271.466	73.12
271.698	76.12
271.93	76.12
272.162	77.12
272.394	85.12
272.626	81.12
272.858	81.12
273.09	77.12
273.322	71.12
273.553	87.12
273.785	91.12
274.017	80.12
274.249	96.12
274.481	63.12
274.713	88.12
274.945	92.12
275.176	96.12
275.408	86.12
275.64	78.12
275.872	78.12
276.104	92.12
276.335	86.12
276.567	88.12
276.799	91.12
277.031	84.12
277.262	88.12
277.494	93.12
277.726	86.12
277.957	80.12
278.189	89.12
278.421	74.12
278.652	80.12
278.884	75.12
279.115	83.12
279.347	72.12
279.579	78.12
279.81	86.12
280.042	74.12
280.273	75.12
280.505	88.12
280.736	79.12
280.968	86.12
281.199	87.12
281.431	79.12
281.662	77.12
281.894	96.12
282.125	95.12
282.356	116.12
282.588	121.12
282.819	102.12
283.051	100.12
283.282	92.12
283.513	85.12
283.745	90.12
283.976	86.12
284.207	80.12
284.439	87.12
284.67	93.12
284.901	72.12
285.132	77.12
285.364	87.12
285.595	91.12
285.826	83.12
286.057	88.12
286.288	76.12
286.52	91.12
286.751	80.12
286.982	80.12
287.213	80.12
287.444	80.12
287.675	85.12
287.906	78.12
288.138	91.12
288.369	97.12
288.6	85.12
288.831	99.12
289.062	97.12
289.293	79.12
289.524	85.12
289.755	90.12
289.986	72.12
290.217	84.12
290.448	85.12
290.679	90.12
290.91	103.12
291.141	85.12
291.371	80.12
291.602	79.12
291.833	87.12
292.064	77.12
292.295	80.12
292.526	80.12
292.757	83.12
292.987	77.12
293.218	96.12
293.449	86.12
293.68	82.12
293.91	88.12
294.141	92.12
294.372	106.12
294.603	97.12
294.833	81.12
295.064	79.12
295.295	88.12
295.525	85.12
295.756	87.12
295.987	102.12
296.217	122.12
296.448	108.12
296.679	85.12
296.909	90.12
297.14	86.12
297.37	97.12
297.601	89.12
297.831	77.12
298.062	95.12
298.292	84.12
298.523	84.12
298.753	100.12
298.984	85.12
299.214	89.12
299.445	97.12
299.675	80.12
299.905	99.12
300.136	94.12
300.366	91.12
300.597	85.12
300.827	105.12
301.057	95.12
301.288	95.12
301.518	90.12
301.748	87.12
301.979	97.12
302.209	87.12
302.439	91.12
302.669	90.12
302.9	69.12
303.13	79.12
303.36	81.12
303.59	88.12
303.82	89.12
304.051	94.12
304.281	94.12
304.511	96.12
304.741	94.12
304.971	83.12
305.201	87.12
305.431	91.12
305.661	86.12
305.891	89.12
306.121	88.12
306.352	98.12
306.582	102.12
306.812	102.12
307.042	85.12
307.272	72.12
307.502	94.12
307.731	87.12
307.961	95.12
308.191	97.12
308.421	99.12
308.651	84.12
308.881	70.12
309.111	79.12
309.341	89.12
309.571	83.12
309.8	80.12
310.03	87.12
310.26	82.12
310.49	77.12
310.72	85.12
310.949	93.12
311.179	95.12
311.409	88.12
311.639	86.12
311.868	93.12
312.098	93.12
312.328	107.12
312.557	93.12
312.787	98.12
313.017	92.12
313.246	89.12
313.476	97.12
313.706	91.12
313.935	99.12
314.165	90.12
314.394	81.12
314.624	90.12
314.853	96.12
315.083	85.12
315.312	75.12
315.542	83.12
315.771	94.12
316.001	72.12
316.23	103.12
316.46	86.12
316.689	99.12
316.919	72.12
317.148	77.12
317.377	87.12
317.607	84.12
317.836	95.12
318.065	73.12
318.295	87.12
318.524	96.12
318.753	84.12
318.983	87.12
319.212	94.12
319.441	104.12
319.67	104.12
319.9	88.12
320.129	75.12
320.358	77.12
320.587	90.12
320.816	86.12
321.046	97.12
321.275	98.12
321.504	83.12
321.733	98.12
321.962	84.12
322.191	91.12
322.42	87.12
322.649	100.12
322.878	92.12
323.108	113.12
323.337	103.12
323.566	115.12
323.795	122.12
324.024	184.12
324.253	349.12
324.482	670.12
324.71	1371.12
324.939	1779.12
325.168	639.12
325.397	209.12
325.626	136.12
325.855	119.12
326.084	107.12
326.313	129.12
326.542	140.12
326.77	206.12
326.999	394.12
327.228	784.12
327.457	1388.12
327.686	1129.12
327.914	307.12
328.143	169.12
328.372	121.12
328.6	96.12
328.829	105.12
329.058	120.12
329.287	110.12
329.515	92.12
329.744	81.12
329.972	91.12
330.201	97.12
330.43	97.12
330.658	94.12
330.887	119.12
331.115	100.12
331.344	92.12
331.572	92.12
331.801	97.12
332.03	88.12
332.258	102.12
332.486	91.12
332.715	87.12
332.943	95.12
333.172	96.12
333.4	98.12
333.629	96.12
333.857	114.12
334.085	92.12
334.314	85.12
334.542	93.12
334.771	87.12
334.999	91.12
335.227	104.12
335.455	89.12
335.684	95.12
335.912	101.12
336.14	85.12
336.369	96.12
336.597	93.12
336.825	101.12
337.053	87.12
337.281	90.12
337.51	72.12
337.738	93.12
337.966	81.12
338.194	94.12
338.422	87.12
338.65	93.12
338.878	98.12
339.106	85.12
339.334	92.12
339.562	81.12
339.79	80.12
340.018	78.12
340.246	84.12
340.474	87.12
340.702	80.12
340.93	91.12
341.158	96.12
341.386	100.12
341.614	103.12
341.842	82.12
342.07	81.12
342.298	99.12
342.526	91.12
342.754	78.12
342.981	78.12
343.209	89.12
343.437	105.12
343.665	99.12
343.893	91.12
344.12	81.12
344.348	86.12
344.576	87.12
344.804	72.12
345.031	93.12
345.259	98.12
345.487	81.12
345.714	81.12
345.942	103.12
346.17	93.12
346.397	85.12
346.625	83.12
346.853	84.12
347.08	89.12
347.308	90.12
347.535	102.12
347.763	104.12
347.99	94.12
348.218	95.12
348.445	109.12
348.673	86.12
348.9	83.12
349.128	89.12
349.355	101.12
349.583	91.12
349.81	98.12
350.037	87.12
350.265	90.12
350.492	72.12
350.72	93.12
350.947	93.12
351.174	89.12
351.402	100.12
351.629	107.12
351.856	92.12
352.083	96.12
352.311	104.12
352.538	89.12
352.765	98.12
352.992	114.12
353.22	105.12
353.447	85.12
353.674	85.12
353.901	103.12
354.128	109.12
354.355	91.12
354.583	78.12
354.81	112.12
355.037	94.12
355.264	102.12
355.491	89.12
355.718	84.12
355.945	84.12
356.172	83.12
356.399	94.12
356.626	102.12
356.853	99.12
357.08	97.12
357.307	91.12
357.534	90.12
357.761	78.12
357.988	89.12
358.215	104.12
358.441	93.12
358.668	84.12
358.895	94.12
359.122	93.12
359.349	87.12
359.576	90.12
359.802	88.12
360.029	119.12
360.256	105.12
360.483	86.12
360.709	85.12
360.936	75.12
361.163	88.12
361.39	83.12
361.616	88.12
361.843	92.12
362.07	95.12
362.296	103.12
362.523	81.12
362.749	90.12
362.976	89.12
363.203	92.12
363.429	92.12
363.656	85.12
363.882	93.12
364.109	87.12
364.335	93.12
364.562	95.12
364.788	89.12
365.015	89.12
365.241	95.12
365.468	89.12
365.694	99.12
365.92	92.12
366.147	95.12
366.373	95.12
366.599	87.12
366.826	86.12
367.052	80.12
367.278	93.12
367.505	96.12
367.731	97.12
367.957	83.12
368.184	81.12
368.41	101.12
368.636	102.12
368.862	97.12
369.089	97.12
369.315	92.12
369.541	87.12
369.767	93.12
369.993	102.12
370.219	87.12
370.445	86.12
370.672	78.12
370.898	86.12
371.124	73.12
371.35	85.12
371.576	94.12
371.802	85.12
372.028	72.12
372.254	75.12
372.48	80.12
372.706	84.12
372.932	77.12
373.158	84.12
373.384	85.12
373.61	91.12
373.835	82.12
374.061	86.12
374.287	81.12
374.513	77.12
374.739	84.12
374.965	96.12
375.191	76.12
375.416	93.12
375.642	93.12
375.868	90.12
376.094	77.12
376.319	92.12
376.545	102.12
376.771	88.12
376.997	87.12
377.222	96.12
377.448	81.12
377.674	88.12
377.899	89.12
378.125	77.12
378.35	88.12
378.576	99.12
378.802	89.12
379.027	81.12
379.253	94.12
379.478	83.12
379.704	89.12
379.929	92.12
380.155	83.12
380.38	91.12
380.606	93.12
380.831	95.12
381.057	112.12
381.282	99.12
381.507	95.12
381.733	80.12
381.958	85.12
382.184	101.12
382.409	109.12
382.634	103.12
382.86	93.12
383.085	112.12
383.31	107.12
383.535	99.12
383.761	97.12
383.986	102.12
384.211	100.12
384.436	100.12
384.662	108.12
384.887	113.12
385.112	116.12
385.337	108.12
385.562	119.12
385.787	99.12
386.013	110.12
386.238	112.12
386.463	117.12
386.688	99.12
386.913	116.12
387.138	102.12
387.363	91.12
387.588	90.12
387.813	95.12
388.038	106.12
388.263	139.12
388.488	102.12
388.713	88.12
388.938	81.12
389.163	102.12
389.387	94.12
389.612	101.12
389.837	95.12
390.062	102.12
390.287	92.12
390.512	86.12
390.736	88.12
390.961	98.12
391.186	99.12
391.411	78.12
391.636	90.12
391.86	88.12
392.085	65.12
392.31	89.12
392.534	88.12
392.759	96.12
392.984	90.12
393.208	83.12
393.433	99.12
393.658	86.12
393.882	81.12
394.107	71.12
394.331	79.12
394.556	98.12
394.78	75.12
395.005	92.12
395.229	80.12
395.454	75.12
395.678	87.12
395.903	75.12
396.127	87.12
396.352	87.12
396.576	77.12
396.801	96.12
397.025	87.12
397.249	82.12
397.474	81.12
397.698	91.12
397.922	100.12
398.147	85.12
398.371	88.12
398.595	92.12
398.82	77.12
399.044	85.12
399.268	71.12
399.492	87.12
399.717	93.12
399.941	80.12
400.165	85.12
400.389	80.12
400.613	100.12
400.837	79.12
401.062	74.12
401.286	94.12
401.51	88.12
401.734	79.12
401.958	89.12
402.182	109.12
402.406	130.12
402.63	111.12
402.854	90.12
403.078	88.12
403.302	100.12
403.526	93.12
403.75	76.12
403.974	85.12
404.198	88.12
404.422	72.12
404.645	96.12
404.869	80.12
405.093	74.12
405.317	83.12
405.541	77.12
405.765	72.12
405.988	96.12
406.212	148.12
406.436	186.12
406.66	113.12
406.883	85.12
407.107	72.12
407.331	87.12
407.555	93.12
407.778	91.12
408.002	89.12
408.226	97.12
408.449	86.12
408.673	87.12
408.896	97.12
409.12	100.12
409.344	80.12
409.567	93.12
409.791	80.12
410.014	100.12
410.238	88.12
410.461	95.12
410.685	94.12
410.908	89.12
411.132	101.12
411.355	89.12
411.578	100.12
411.802	104.12
412.025	75.12
412.249	84.12
412.472	88.12
412.695	85.12
412.919	77.12
413.142	93.12
413.365	75.12
413.589	80.12
413.812	92.12
414.035	75.12
414.258	94.12
414.482	94.12
414.705	85.12
414.928	87.12
415.151	99.12
415.374	74.12
415.597	75.12
415.821	76.12
416.044	72.12
416.267	98.12
416.49	93.12
416.713	93.12
416.936	84.12
417.159	96.12
417.382	100.12
417.605	80.12
417.828	97.12
418.051	82.12
418.274	81.12
418.497	91.12
418.72	73.12
418.943	68.12
419.166	84.12
419.389	90.12
419.611	89.12
419.834	88.12
420.057	79.12
420.28	75.12
420.503	73.12
420.726	75.12
420.948	88.12
421.171	80.12
421.394	99.12
421.617	85.12
421.839	95.12
422.062	90.12
422.285	81.12
422.507	86.12
422.73	108.12
422.953	93.12
423.175	86.12
423.398	83.12
423.621	86.12
423.843	88.12
424.066	76.12
424.288	65.12
424.511	80.12
424.733	86.12
424.956	95.12
425.178	89.12
425.401	82.12
425.623	92.12
425.846	85.12
426.068	82.12
426.291	80.12
426.513	90.12
426.735	84.12
426.958	99.12
427.18	93.12
427.402	127.12
427.625	135.12
427.847	108.12
428.069	107.12
428.292	75.12
428.514	93.12
428.736	75.12
428.958	74.12
429.181	86.12
429.403	78.12
429.625	98.12
429.847	92.12
430.069	91.12
430.292	97.12
430.514	92.12
430.736	79.12
430.958	73.12
431.18	88.12
431.402	96.12
431.624	77.12
431.846	63.12
432.068	81.12
432.29	100.12
432.512	88.12
432.734	67.12
432.956	79.12
433.178	93.12
433.4	96.12
433.622	69.12
433.844	58.12
434.066	84.12
434.287	77.12
434.509	86.12
434.731	95.12
434.953	94.12
435.175	93.12
435.397	84.12
435.618	79.12
435.84	93.12
436.062	107.12
436.284	104.12
436.505	82.12
436.727	77.12
436.949	86.12
437.17	93.12
437.392	80.12
437.614	87.12
437.835	81.12
438.057	106.12
438.278	89.12
438.5	90.12
438.721	96.12
438.943	88.12
439.165	87.12
439.386	95.12
439.608	90.12
439.829	104.12
440.05	120.12
440.272	116.12
440.493	88.12
440.715	90.12
440.936	78.12
441.158	97.12
441.379	77.12
441.6	105.12
441.822	93.12
442.043	94.12
442.264	109.12
442.486	111.12
442.707	80.12
442.928	99.12
443.149	123.12
443.371	100.12
443.592	93.12
443.813	94.12
444.034	108.12
444.255	91.12
444.476	80.12
444.698	88.12
444.919	85.12
445.14	129.12
445.361	122.12
445.582	96.12
445.803	118.12
446.024	127.12
446.245	121.12
446.466	92.12
446.687	80.12
446.908	88.12
447.129	73.12
447.35	78.12
447.571	91.12
447.792	95.12
448.013	103.12
448.234	99.12
448.455	104.12
448.675	105.12
448.896	112.12
449.117	86.12
449.338	93.12
449.559	110.12
449.779	112.12
450	96.12
450.221	86.12
450.442	65.12
450.662	102.12
450.883	89.12
451.104	101.12
451.324	92.12
451.545	81.12
451.766	88.12
451.986	90.12
452.207	97.12
452.428	92.12
452.648	80.12
452.869	90.12
453.089	106.12
453.31	113.12
453.53	92.12
453.751	92.12
453.971	92.12
454.192	96.12
454.412	90.12
454.633	87.12
454.853	79.12
455.073	79.12
455.294	81.12
455.514	96.12
455.734	81.12
455.955	83.12
456.175	97.12
456.395	69.12
456.616	83.12
456.836	75.12
457.056	81.12
457.276	77.12
457.497	82.12
457.717	74.12
457.937	92.12
458.157	91.12
458.377	86.12
458.598	101.12
458.818	116.12
459.038	141.12
459.258	110.12
459.478	83.12
459.698	86.12
459.918	84.12
460.138	75.12
460.358	85.12
460.578	85.12
460.798	77.12
461.018	87.12
461.238	84.12
461.458	68.12
461.678	69.12
461.898	72.12
462.118	78.12
462.338	87.12
462.558	88.12
462.777	81.12
462.997	81.12
463.217	87.12
463.437	88.12
463.657	81.12
463.876	91.12
464.096	69.12
464.316	97.12
464.536	107.12
464.755	97.12
464.975	93.12
465.195	135.12
465.414	138.12
465.634	96.12
465.854	90.12
466.073	81.12
466.293	73.12
466.512	77.12
466.732	95.12
466.951	83.12
467.171	73.12
467.391	96.12
467.61	82.12
467.829	74.12
468.049	73.12
468.268	89.12
468.488	96.12
468.707	79.12
468.927	80.12
469.146	88.12
469.365	84.12
469.585	75.12
469.804	85.12
470.023	79.12
470.243	92.12
470.462	95.12
470.681	97.12
470.901	98.12
471.12	76.12
471.339	88.12
471.558	86.12
471.777	88.12
471.997	87.12
472.216	86.12
472.435	82.12
472.654	96.12
472.873	87.12
473.092	91.12
473.311	97.12
473.53	91.12
473.749	85.12
473.968	98.12
474.187	99.12
474.406	105.12
474.625	85.12
474.844	89.12
475.063	70.12
475.282	83.12
475.501	77.12
475.72	86.12
475.939	99.12
476.158	90.12
476.377	77.12
476.596	74.12
476.814	87.12
477.033	85.12
477.252	81.12
477.471	76.12
477.69	73.12
477.908	87.12
478.127	85.12
478.346	79.12
478.564	89.12
478.783	89.12
479.002	98.12
479.22	86.12
479.439	87.12
479.658	91.12
479.876	75.12
480.095	87.12
480.313	80.12
480.532	93.12
480.751	93.12
480.969	99.12
481.188	71.12
481.406	87.12
481.624	84.12
481.843	81.12
482.061	73.12
482.28	90.12
482.498	92.12
482.717	94.12
482.935	87.12
483.153	89.12
483.372	93.12
483.59	83.12
483.808	83.12
484.027	102.12
484.245	93.12
484.463	100.12
484.681	91.12
484.9	92.12
485.118	85.12
485.336	96.12
485.554	103.12
485.772	91.12
485.99	110.12
486.209	92.12
486.427	100.12
486.645	97.12
486.863	87.12
487.081	91.12
487.299	95.12
487.517	100.12
487.735	102.12
487.953	86.12
488.171	89.12
488.389	101.12
488.607	84.12
488.825	86.12
489.043	84.12
489.261	89.12
489.479	89.12
489.696	83.12
489.914	91.12
490.132	90.12
490.35	87.12
490.568	85.12
490.786	93.12
491.003	82.12
491.221	89.12
491.439	90.12
491.657	92.12
491.874	86.12
492.092	94.12
492.31	87.12
492.527	82.12
492.745	66.12
492.963	104.12
493.18	85.12
493.398	92.12
493.615	117.12
493.833	99.12
494.05	92.12
494.268	96.12
494.485	69.12
494.703	86.12
494.92	81.12
495.138	83.12
495.355	88.12
495.573	87.12
495.79	87.12
496.008	92.12
496.225	88.12
496.442	99.12
496.66	87.12
496.877	86.12
497.094	85.12
497.312	87.12
497.529	91.12
497.746	107.12
497.963	80.12
498.181	89.12
498.398	89.12
498.615	93.12
498.832	90.12
499.049	92.12
499.267	82.12
499.484	102.12
499.701	76.12
499.918	87.12
500.135	95.12
500.352	90.12
500.569	90.12
500.786	88.12
501.003	96.12
501.22	97.12
501.437	78.12
501.654	91.12
501.871	99.12
502.088	87.12
502.305	91.12
502.522	83.12
502.739	93.12
502.956	87.12
503.172	91.12
503.389	97.12
503.606	106.12
503.823	85.12
504.04	89.12
504.256	92.12
504.473	81.12
504.69	89.12
504.907	89.12
505.123	87.12
505.34	80.12
505.557	76.12
505.773	98.12
505.99	99.12
506.207	93.12
506.423	82.12
506.64	87.12
506.856	100.12
507.073	91.12
507.289	91.12
507.506	113.12
507.722	99.12
507.939	106.12
508.155	99.12
508.372	100.12
508.588	105.12
508.805	88.12
509.021	94.12
509.238	93.12
509.454	93.12
509.67	99.12
509.887	101.12
510.103	120.12
510.319	182.12
510.536	649.12
510.752	1973.12
510.968	587.12
511.184	147.12
511.401	96.12
511.617	83.12
511.833	99.12
512.049	93.12
512.265	93.12
512.481	88.12
512.698	90.12
512.914	98.12
513.13	87.12
513.346	89.12
513.562	80.12
513.778	90.12
513.994	89.12
514.21	85.12
514.426	88.12
514.642	116.12
514.858	115.12
515.074	139.12
515.29	372.12
515.506	1181.12
515.721	438.12
515.937	149.12
516.153	99.12
516.369	94.12
516.585	84.12
516.801	88.12
517.016	94.12
517.232	89.12
517.448	91.12
