Data from Uncirc_2008_H10_HRD10591_00054.txt Node
Date: Wed Jan 03 10:15:41 EST 2024
User: Yrep
Spectrometer: HR+D1059
Trigger mode: 1
Integration Time (sec): 1.000000E-1
Scans to average: 1
Electric dark correction enabled: true
Nonlinearity correction enabled: false
Boxcar width: 0
XAxis mode: Wavelengths
Number of Pixels in Spectrum: 2048
>>>>>Begin Spectral Data<<<<<
223.165	-19.38
223.4	-19.38
223.635	-19.38
223.869	-19.38
224.104	-12.38
224.338	-14.38
224.573	-18.38
224.808	-18.38
225.042	-21.38
225.277	-5.38
225.511	-4.38
225.746	6.62
225.98	12.62
226.215	19.62
226.449	15.62
226.683	9.62
226.918	31.62
227.152	37.62
227.387	33.62
227.621	38.62
227.856	35.62
228.09	26.62
228.324	52.62
228.559	54.62
228.793	50.62
229.027	74.62
229.262	52.62
229.496	65.62
229.73	79.62
229.964	84.62
230.199	53.62
230.433	78.62
230.667	83.62
230.901	92.62
231.136	74.62
231.37	81.62
231.604	89.62
231.838	72.62
232.072	76.62
232.306	75.62
232.541	76.62
232.775	74.62
233.009	72.62
233.243	67.62
233.477	84.62
233.711	81.62
233.945	71.62
234.179	84.62
234.413	82.62
234.647	67.62
234.881	79.62
235.115	55.62
235.349	87.62
235.583	68.62
235.817	78.62
236.051	84.62
236.285	81.62
236.519	85.62
236.753	79.62
236.987	81.62
237.221	80.62
237.455	69.62
237.689	79.62
237.922	78.62
238.156	78.62
238.39	84.62
238.624	62.62
238.858	75.62
239.091	67.62
239.325	71.62
239.559	93.62
239.793	73.62
240.027	70.62
240.26	64.62
240.494	79.62
240.728	71.62
240.961	69.62
241.195	85.62
241.429	77.62
241.662	73.62
241.896	72.62
242.13	90.62
242.363	79.62
242.597	73.62
242.83	67.62
243.064	72.62
243.298	76.62
243.531	69.62
243.765	76.62
243.998	59.62
244.232	70.62
244.465	96.62
244.699	84.62
244.932	83.62
245.166	70.62
245.399	67.62
245.633	60.62
245.866	79.62
246.099	95.62
246.333	77.62
246.566	68.62
246.8	84.62
247.033	70.62
247.266	78.62
247.5	76.62
247.733	65.62
247.966	80.62
248.2	67.62
248.433	82.62
248.666	77.62
248.899	81.62
249.133	79.62
249.366	97.62
249.599	91.62
249.832	93.62
250.066	68.62
250.299	87.62
250.532	88.62
250.765	76.62
250.998	75.62
251.231	75.62
251.465	71.62
251.698	74.62
251.931	71.62
252.164	67.62
252.397	66.62
252.63	80.62
252.863	73.62
253.096	90.62
253.329	69.62
253.562	77.62
253.795	78.62
254.028	73.62
254.261	84.62
254.494	78.62
254.727	64.62
254.96	78.62
255.193	76.62
255.426	83.62
255.659	76.62
255.892	68.62
256.124	61.62
256.357	71.62
256.59	74.62
256.823	89.62
257.056	86.62
257.289	82.62
257.521	69.62
257.754	77.62
257.987	80.62
258.22	84.62
258.452	84.62
258.685	101.62
258.918	68.62
259.151	69.62
259.383	82.62
259.616	79.62
259.849	68.62
260.081	88.62
260.314	79.62
260.547	88.62
260.779	76.62
261.012	76.62
261.244	81.62
261.477	84.62
261.71	90.62
261.942	108.62
262.175	113.62
262.407	80.62
262.64	86.62
262.872	85.62
263.105	86.62
263.337	87.62
263.57	79.62
263.802	89.62
264.035	92.62
264.267	79.62
264.499	74.62
264.732	77.62
264.964	76.62
265.197	75.62
265.429	93.62
265.661	79.62
265.894	77.62
266.126	89.62
266.358	94.62
266.591	84.62
266.823	78.62
267.055	90.62
267.287	61.62
267.52	92.62
267.752	75.62
267.984	86.62
268.216	76.62
268.448	80.62
268.681	78.62
268.913	73.62
269.145	93.62
269.377	96.62
269.609	80.62
269.841	84.62
270.073	79.62
270.306	79.62
270.538	89.62
270.77	80.62
271.002	66.62
271.234	77.62
271.466	77.62
271.698	70.62
271.93	94.62
272.162	77.62
272.394	95.62
272.626	92.62
272.858	80.62
273.09	84.62
273.322	89.62
273.553	84.62
273.785	73.62
274.017	84.62
274.249	86.62
274.481	81.62
274.713	82.62
274.945	90.62
275.176	76.62
275.408	89.62
275.64	85.62
275.872	92.62
276.104	85.62
276.335	92.62
276.567	100.62
276.799	98.62
277.031	98.62
277.262	84.62
277.494	93.62
277.726	92.62
277.957	74.62
278.189	86.62
278.421	74.62
278.652	80.62
278.884	85.62
279.115	86.62
279.347	77.62
279.579	94.62
279.81	81.62
280.042	72.62
280.273	78.62
280.505	92.62
280.736	92.62
280.968	78.62
281.199	76.62
281.431	84.62
281.662	102.62
281.894	77.62
282.125	87.62
282.356	97.62
282.588	117.62
282.819	92.62
283.051	73.62
283.282	83.62
283.513	74.62
283.745	90.62
283.976	87.62
284.207	81.62
284.439	84.62
284.67	88.62
284.901	76.62
285.132	71.62
285.364	91.62
285.595	82.62
285.826	84.62
286.057	86.62
286.288	82.62
286.52	92.62
286.751	83.62
286.982	94.62
287.213	76.62
287.444	84.62
287.675	80.62
287.906	101.62
288.138	75.62
288.369	74.62
288.6	90.62
288.831	74.62
289.062	102.62
289.293	85.62
289.524	88.62
289.755	75.62
289.986	78.62
290.217	81.62
290.448	84.62
290.679	91.62
290.91	84.62
291.141	109.62
291.371	80.62
291.602	80.62
291.833	88.62
292.064	75.62
292.295	92.62
292.526	95.62
292.757	81.62
292.987	95.62
293.218	87.62
293.449	85.62
293.68	65.62
293.91	99.62
294.141	79.62
294.372	95.62
294.603	84.62
294.833	75.62
295.064	82.62
295.295	90.62
295.525	78.62
295.756	89.62
295.987	97.62
296.217	125.62
296.448	100.62
296.679	88.62
296.909	95.62
297.14	87.62
297.37	80.62
297.601	71.62
297.831	68.62
298.062	75.62
298.292	90.62
298.523	97.62
298.753	83.62
298.984	79.62
299.214	79.62
299.445	95.62
299.675	91.62
299.905	99.62
300.136	87.62
300.366	103.62
300.597	75.62
300.827	90.62
301.057	104.62
301.288	90.62
301.518	79.62
301.748	81.62
301.979	93.62
302.209	88.62
302.439	85.62
302.669	96.62
302.9	94.62
303.13	71.62
303.36	85.62
303.59	85.62
303.82	99.62
304.051	98.62
304.281	88.62
304.511	89.62
304.741	80.62
304.971	91.62
305.201	87.62
305.431	79.62
305.661	86.62
305.891	76.62
306.121	89.62
306.352	95.62
306.582	90.62
306.812	90.62
307.042	81.62
307.272	91.62
307.502	86.62
307.731	81.62
307.961	95.62
308.191	85.62
308.421	84.62
308.651	88.62
308.881	97.62
309.111	73.62
309.341	83.62
309.571	92.62
309.8	99.62
310.03	97.62
310.26	107.62
310.49	104.62
310.72	85.62
310.949	88.62
311.179	96.62
311.409	84.62
311.639	101.62
311.868	100.62
312.098	93.62
312.328	99.62
312.557	96.62
312.787	86.62
313.017	98.62
313.246	86.62
313.476	96.62
313.706	84.62
313.935	92.62
314.165	81.62
314.394	89.62
314.624	91.62
314.853	87.62
315.083	89.62
315.312	100.62
315.542	100.62
315.771	95.62
316.001	88.62
316.23	77.62
316.46	76.62
316.689	78.62
316.919	76.62
317.148	86.62
317.377	95.62
317.607	89.62
317.836	95.62
318.065	102.62
318.295	87.62
318.524	93.62
318.753	80.62
318.983	92.62
319.212	91.62
319.441	89.62
319.67	94.62
319.9	101.62
320.129	91.62
320.358	96.62
320.587	104.62
320.816	96.62
321.046	102.62
321.275	96.62
321.504	92.62
321.733	89.62
321.962	87.62
322.191	104.62
322.42	107.62
322.649	95.62
322.878	101.62
323.108	116.62
323.337	110.62
323.566	131.62
323.795	145.62
324.024	196.62
324.253	334.62
324.482	763.62
324.71	1466.62
324.939	1952.62
325.168	724.62
325.397	222.62
325.626	137.62
325.855	124.62
326.084	125.62
326.313	121.62
326.542	145.62
326.77	206.62
326.999	436.62
327.228	846.62
327.457	1564.62
327.686	1197.62
327.914	326.62
328.143	175.62
328.372	133.62
328.6	107.62
328.829	94.62
329.058	109.62
329.287	109.62
329.515	106.62
329.744	97.62
329.972	106.62
330.201	86.62
330.43	107.62
330.658	112.62
330.887	112.62
331.115	112.62
331.344	114.62
331.572	103.62
331.801	94.62
332.03	89.62
332.258	102.62
332.486	90.62
332.715	85.62
332.943	106.62
333.172	96.62
333.4	97.62
333.629	115.62
333.857	113.62
334.085	101.62
334.314	97.62
334.542	93.62
334.771	98.62
334.999	98.62
335.227	104.62
335.455	75.62
335.684	87.62
335.912	92.62
336.14	104.62
336.369	91.62
336.597	85.62
336.825	79.62
337.053	87.62
337.281	89.62
337.51	82.62
337.738	101.62
337.966	96.62
338.194	83.62
338.422	86.62
338.65	87.62
338.878	97.62
339.106	76.62
339.334	79.62
339.562	97.62
339.79	79.62
340.018	87.62
340.246	95.62
340.474	93.62
340.702	85.62
340.93	74.62
341.158	88.62
341.386	97.62
341.614	88.62
341.842	92.62
342.07	79.62
342.298	89.62
342.526	72.62
342.754	74.62
342.981	97.62
343.209	92.62
343.437	93.62
343.665	89.62
343.893	94.62
344.12	77.62
344.348	103.62
344.576	89.62
344.804	102.62
345.031	97.62
345.259	85.62
345.487	91.62
345.714	90.62
345.942	98.62
346.17	93.62
346.397	82.62
346.625	88.62
346.853	88.62
347.08	80.62
347.308	87.62
347.535	94.62
347.763	105.62
347.99	87.62
348.218	87.62
348.445	91.62
348.673	92.62
348.9	83.62
349.128	85.62
349.355	87.62
349.583	81.62
349.81	92.62
350.037	90.62
350.265	82.62
350.492	104.62
350.72	97.62
350.947	97.62
351.174	99.62
351.402	80.62
351.629	96.62
351.856	107.62
352.083	91.62
352.311	94.62
352.538	93.62
352.765	92.62
352.992	101.62
353.22	103.62
353.447	100.62
353.674	99.62
353.901	96.62
354.128	98.62
354.355	104.62
354.583	102.62
354.81	99.62
355.037	95.62
355.264	96.62
355.491	93.62
355.718	86.62
355.945	103.62
356.172	88.62
356.399	82.62
356.626	81.62
356.853	91.62
357.08	93.62
357.307	78.62
357.534	90.62
357.761	99.62
357.988	88.62
358.215	87.62
358.441	99.62
358.668	95.62
358.895	88.62
359.122	90.62
359.349	86.62
359.576	87.62
359.802	104.62
360.029	107.62
360.256	101.62
360.483	102.62
360.709	77.62
360.936	92.62
361.163	86.62
361.39	91.62
361.616	93.62
361.843	99.62
362.07	96.62
362.296	96.62
362.523	92.62
362.749	81.62
362.976	99.62
363.203	87.62
363.429	75.62
363.656	101.62
363.882	76.62
364.109	93.62
364.335	98.62
364.562	99.62
364.788	92.62
365.015	89.62
365.241	91.62
365.468	98.62
365.694	93.62
365.92	95.62
366.147	102.62
366.373	80.62
366.599	67.62
366.826	86.62
367.052	84.62
367.278	82.62
367.505	77.62
367.731	91.62
367.957	92.62
368.184	82.62
368.41	95.62
368.636	105.62
368.862	107.62
369.089	100.62
369.315	85.62
369.541	85.62
369.767	90.62
369.993	97.62
370.219	76.62
370.445	87.62
370.672	67.62
370.898	89.62
371.124	98.62
371.35	85.62
371.576	90.62
371.802	76.62
372.028	86.62
372.254	73.62
372.48	100.62
372.706	86.62
372.932	91.62
373.158	101.62
373.384	90.62
373.61	78.62
373.835	88.62
374.061	78.62
374.287	85.62
374.513	79.62
374.739	91.62
374.965	91.62
375.191	85.62
375.416	87.62
375.642	78.62
375.868	69.62
376.094	90.62
376.319	79.62
376.545	103.62
376.771	84.62
376.997	77.62
377.222	89.62
377.448	81.62
377.674	74.62
377.899	81.62
378.125	91.62
378.35	95.62
378.576	81.62
378.802	79.62
379.027	93.62
379.253	88.62
379.478	94.62
379.704	79.62
379.929	85.62
380.155	82.62
380.38	87.62
380.606	87.62
380.831	103.62
381.057	87.62
381.282	95.62
381.507	100.62
381.733	80.62
381.958	81.62
382.184	92.62
382.409	98.62
382.634	91.62
382.86	92.62
383.085	91.62
383.31	92.62
383.535	89.62
383.761	83.62
383.986	78.62
384.211	80.62
384.436	93.62
384.662	98.62
384.887	99.62
385.112	103.62
385.337	94.62
385.562	86.62
385.787	84.62
386.013	114.62
386.238	103.62
386.463	99.62
386.688	92.62
386.913	100.62
387.138	95.62
387.363	101.62
387.588	98.62
387.813	93.62
388.038	108.62
388.263	102.62
388.488	100.62
388.713	91.62
388.938	85.62
389.163	95.62
389.387	96.62
389.612	77.62
389.837	90.62
390.062	92.62
390.287	81.62
390.512	87.62
390.736	104.62
390.961	89.62
391.186	89.62
391.411	87.62
391.636	88.62
391.86	73.62
392.085	79.62
392.31	74.62
392.534	89.62
392.759	91.62
392.984	81.62
393.208	97.62
393.433	93.62
393.658	85.62
393.882	91.62
394.107	81.62
394.331	84.62
394.556	82.62
394.78	95.62
395.005	76.62
395.229	83.62
395.454	100.62
395.678	86.62
395.903	90.62
396.127	92.62
396.352	93.62
396.576	76.62
396.801	70.62
397.025	71.62
397.249	86.62
397.474	84.62
397.698	77.62
397.922	82.62
398.147	83.62
398.371	79.62
398.595	80.62
398.82	78.62
399.044	106.62
399.268	86.62
399.492	89.62
399.717	80.62
399.941	88.62
400.165	85.62
400.389	76.62
400.613	67.62
400.837	89.62
401.062	71.62
401.286	87.62
401.51	85.62
401.734	87.62
401.958	96.62
402.182	121.62
402.406	133.62
402.63	110.62
402.854	88.62
403.078	81.62
403.302	91.62
403.526	96.62
403.75	79.62
403.974	80.62
404.198	83.62
404.422	89.62
404.645	85.62
404.869	84.62
405.093	91.62
405.317	86.62
405.541	105.62
405.765	101.62
405.988	113.62
406.212	156.62
406.436	183.62
406.66	123.62
406.883	99.62
407.107	80.62
407.331	92.62
407.555	99.62
407.778	77.62
408.002	74.62
408.226	78.62
408.449	81.62
408.673	81.62
408.896	91.62
409.12	107.62
409.344	80.62
409.567	83.62
409.791	83.62
410.014	95.62
410.238	100.62
410.461	99.62
410.685	89.62
410.908	97.62
411.132	108.62
411.355	90.62
411.578	97.62
411.802	72.62
412.025	75.62
412.249	91.62
412.472	104.62
412.695	96.62
412.919	88.62
413.142	94.62
413.365	94.62
413.589	91.62
413.812	86.62
414.035	92.62
414.258	90.62
414.482	87.62
414.705	83.62
414.928	95.62
415.151	90.62
415.374	89.62
415.597	95.62
415.821	93.62
416.044	87.62
416.267	87.62
416.49	94.62
416.713	86.62
416.936	75.62
417.159	88.62
417.382	93.62
417.605	83.62
417.828	93.62
418.051	92.62
418.274	104.62
418.497	75.62
418.72	79.62
418.943	88.62
419.166	84.62
419.389	90.62
419.611	74.62
419.834	89.62
420.057	92.62
420.28	89.62
420.503	89.62
420.726	73.62
420.948	89.62
421.171	96.62
421.394	109.62
421.617	92.62
421.839	81.62
422.062	85.62
422.285	87.62
422.507	99.62
422.73	103.62
422.953	87.62
423.175	99.62
423.398	86.62
423.621	80.62
423.843	81.62
424.066	78.62
424.288	83.62
424.511	81.62
424.733	89.62
424.956	101.62
425.178	91.62
425.401	105.62
425.623	94.62
425.846	98.62
426.068	93.62
426.291	91.62
426.513	85.62
426.735	100.62
426.958	90.62
427.18	94.62
427.402	99.62
427.625	143.62
427.847	120.62
428.069	86.62
428.292	89.62
428.514	88.62
428.736	83.62
428.958	82.62
429.181	93.62
429.403	92.62
429.625	93.62
429.847	89.62
430.069	85.62
430.292	91.62
430.514	87.62
430.736	96.62
430.958	107.62
431.18	100.62
431.402	82.62
431.624	72.62
431.846	81.62
432.068	75.62
432.29	94.62
432.512	85.62
432.734	84.62
432.956	92.62
433.178	88.62
433.4	92.62
433.622	89.62
433.844	70.62
434.066	95.62
434.287	98.62
434.509	81.62
434.731	92.62
434.953	66.62
435.175	81.62
435.397	85.62
435.618	84.62
435.84	103.62
436.062	123.62
436.284	103.62
436.505	111.62
436.727	107.62
436.949	96.62
437.17	82.62
437.392	77.62
437.614	100.62
437.835	114.62
438.057	103.62
438.278	113.62
438.5	100.62
438.721	111.62
438.943	104.62
439.165	81.62
439.386	90.62
439.608	89.62
439.829	96.62
440.05	109.62
440.272	133.62
440.493	96.62
440.715	85.62
440.936	84.62
441.158	79.62
441.379	87.62
441.6	104.62
441.822	90.62
442.043	79.62
442.264	91.62
442.486	95.62
442.707	99.62
442.928	108.62
443.149	111.62
443.371	123.62
443.592	119.62
443.813	122.62
444.034	104.62
444.255	113.62
444.476	95.62
444.698	87.62
444.919	84.62
445.14	118.62
445.361	101.62
445.582	110.62
445.803	123.62
446.024	122.62
446.245	121.62
446.466	95.62
446.687	75.62
446.908	70.62
447.129	77.62
447.35	94.62
447.571	88.62
447.792	89.62
448.013	97.62
448.234	99.62
448.455	88.62
448.675	105.62
448.896	97.62
449.117	106.62
449.338	110.62
449.559	140.62
449.779	138.62
450	87.62
450.221	91.62
450.442	100.62
450.662	77.62
450.883	84.62
451.104	112.62
451.324	100.62
451.545	84.62
451.766	86.62
451.986	94.62
452.207	95.62
452.428	87.62
452.648	87.62
452.869	95.62
453.089	118.62
453.31	104.62
453.53	76.62
453.751	93.62
453.971	91.62
454.192	92.62
454.412	96.62
454.633	76.62
454.853	82.62
455.073	81.62
455.294	92.62
455.514	104.62
455.734	93.62
455.955	81.62
456.175	73.62
456.395	88.62
456.616	81.62
456.836	86.62
457.056	84.62
457.276	84.62
457.497	90.62
457.717	87.62
457.937	82.62
458.157	77.62
458.377	70.62
458.598	96.62
458.818	119.62
459.038	148.62
459.258	101.62
459.478	98.62
459.698	72.62
459.918	78.62
460.138	86.62
460.358	87.62
460.578	93.62
460.798	93.62
461.018	92.62
461.238	83.62
461.458	85.62
461.678	80.62
461.898	84.62
462.118	88.62
462.338	87.62
462.558	71.62
462.777	100.62
462.997	75.62
463.217	86.62
463.437	77.62
463.657	87.62
463.876	75.62
464.096	87.62
464.316	80.62
464.536	89.62
464.755	103.62
464.975	93.62
465.195	144.62
465.414	130.62
465.634	95.62
465.854	84.62
466.073	99.62
466.293	81.62
466.512	84.62
466.732	92.62
466.951	81.62
467.171	85.62
467.391	76.62
467.61	95.62
467.829	82.62
468.049	82.62
468.268	105.62
468.488	74.62
468.707	90.62
468.927	87.62
469.146	90.62
469.365	85.62
469.585	85.62
469.804	76.62
470.023	84.62
470.243	81.62
470.462	92.62
470.681	88.62
470.901	88.62
471.12	71.62
471.339	99.62
471.558	77.62
471.777	71.62
471.997	79.62
472.216	86.62
472.435	90.62
472.654	90.62
472.873	91.62
473.092	84.62
473.311	86.62
473.53	86.62
473.749	90.62
473.968	98.62
474.187	87.62
474.406	101.62
474.625	80.62
474.844	86.62
475.063	82.62
475.282	96.62
475.501	80.62
475.72	95.62
475.939	76.62
476.158	75.62
476.377	81.62
476.596	94.62
476.814	95.62
477.033	94.62
477.252	74.62
477.471	81.62
477.69	94.62
477.908	85.62
478.127	86.62
478.346	84.62
478.564	79.62
478.783	82.62
479.002	89.62
479.22	102.62
479.439	104.62
479.658	95.62
479.876	89.62
480.095	90.62
480.313	95.62
480.532	86.62
480.751	94.62
480.969	84.62
481.188	97.62
481.406	83.62
481.624	87.62
481.843	88.62
482.061	73.62
482.28	80.62
482.498	79.62
482.717	83.62
482.935	105.62
483.153	101.62
483.372	101.62
483.59	96.62
483.808	89.62
484.027	74.62
484.245	96.62
484.463	88.62
484.681	97.62
484.9	107.62
485.118	85.62
485.336	95.62
485.554	104.62
485.772	89.62
485.99	110.62
486.209	107.62
486.427	109.62
486.645	115.62
486.863	104.62
487.081	96.62
487.299	97.62
487.517	107.62
487.735	100.62
487.953	80.62
488.171	91.62
488.389	104.62
488.607	93.62
488.825	92.62
489.043	93.62
489.261	87.62
489.479	77.62
489.696	86.62
489.914	88.62
490.132	91.62
490.35	91.62
490.568	75.62
490.786	91.62
491.003	75.62
491.221	83.62
491.439	86.62
491.657	99.62
491.874	84.62
492.092	92.62
492.31	86.62
492.527	76.62
492.745	82.62
492.963	87.62
493.18	83.62
493.398	76.62
493.615	106.62
493.833	89.62
494.05	84.62
494.268	89.62
494.485	96.62
494.703	82.62
494.92	96.62
495.138	93.62
495.355	79.62
495.573	93.62
495.79	94.62
496.008	80.62
496.225	92.62
496.442	89.62
496.66	88.62
496.877	103.62
497.094	89.62
497.312	86.62
497.529	78.62
497.746	87.62
497.963	98.62
498.181	95.62
498.398	91.62
498.615	103.62
498.832	96.62
499.049	76.62
499.267	80.62
499.484	99.62
499.701	91.62
499.918	85.62
500.135	82.62
500.352	92.62
500.569	95.62
500.786	85.62
501.003	80.62
501.22	76.62
501.437	87.62
501.654	110.62
501.871	106.62
502.088	97.62
502.305	93.62
502.522	106.62
502.739	82.62
502.956	102.62
503.172	88.62
503.389	97.62
503.606	95.62
503.823	99.62
504.04	93.62
504.256	92.62
504.473	97.62
504.69	95.62
504.907	87.62
505.123	92.62
505.34	80.62
505.557	92.62
505.773	100.62
505.99	94.62
506.207	80.62
506.423	88.62
506.64	99.62
506.856	94.62
507.073	78.62
507.289	93.62
507.506	98.62
507.722	104.62
507.939	106.62
508.155	95.62
508.372	80.62
508.588	98.62
508.805	91.62
509.021	94.62
509.238	86.62
509.454	91.62
509.67	99.62
509.887	103.62
510.103	132.62
510.319	206.62
510.536	686.62
510.752	2136.62
510.968	575.62
511.184	161.62
511.401	106.62
511.617	94.62
511.833	106.62
512.049	87.62
512.265	92.62
512.481	80.62
512.698	89.62
512.914	94.62
513.13	84.62
513.346	87.62
513.562	103.62
513.778	87.62
513.994	90.62
514.21	106.62
514.426	101.62
514.642	133.62
514.858	120.62
515.074	148.62
515.29	414.62
515.506	1248.62
515.721	477.62
515.937	141.62
516.153	107.62
516.369	97.62
516.585	89.62
516.801	99.62
