Data from Uncirc_2008_H10_HRD10591_00082.txt Node
Date: Wed Jan 03 10:15:47 EST 2024
User: Yrep
Spectrometer: HR+D1059
Trigger mode: 1
Integration Time (sec): 1.000000E-1
Scans to average: 1
Electric dark correction enabled: true
Nonlinearity correction enabled: false
Boxcar width: 0
XAxis mode: Wavelengths
Number of Pixels in Spectrum: 2048
>>>>>Begin Spectral Data<<<<<
223.165	-5.06
223.4	-5.06
223.635	-5.06
223.869	-19.06
224.104	-25.06
224.338	-17.06
224.573	-1.06
224.808	-0.06
225.042	-10.06
225.277	-7.06
225.511	-1.06
225.746	-1.06
225.98	-0.06
226.215	4.94
226.449	12.94
226.683	18.94
226.918	26.94
227.152	22.94
227.387	39.94
227.621	31.94
227.856	41.94
228.09	61.94
228.324	42.94
228.559	58.94
228.793	47.94
229.027	52.94
229.262	63.94
229.496	66.94
229.73	77.94
229.964	78.94
230.199	78.94
230.433	68.94
230.667	70.94
230.901	80.94
231.136	69.94
231.37	80.94
231.604	78.94
231.838	72.94
232.072	78.94
232.306	78.94
232.541	70.94
232.775	70.94
233.009	77.94
233.243	86.94
233.477	79.94
233.711	88.94
233.945	86.94
234.179	98.94
234.413	87.94
234.647	94.94
234.881	82.94
235.115	74.94
235.349	78.94
235.583	82.94
235.817	73.94
236.051	82.94
236.285	92.94
236.519	76.94
236.753	78.94
236.987	74.94
237.221	67.94
237.455	76.94
237.689	66.94
237.922	72.94
238.156	70.94
238.39	79.94
238.624	82.94
238.858	79.94
239.091	72.94
239.325	69.94
239.559	71.94
239.793	74.94
240.027	77.94
240.26	77.94
240.494	80.94
240.728	73.94
240.961	64.94
241.195	68.94
241.429	67.94
241.662	57.94
241.896	71.94
242.13	73.94
242.363	76.94
242.597	71.94
242.83	87.94
243.064	69.94
243.298	79.94
243.531	82.94
243.765	65.94
243.998	68.94
244.232	80.94
244.465	82.94
244.699	72.94
244.932	81.94
245.166	68.94
245.399	75.94
245.633	72.94
245.866	76.94
246.099	74.94
246.333	78.94
246.566	78.94
246.8	77.94
247.033	66.94
247.266	82.94
247.5	63.94
247.733	77.94
247.966	64.94
248.2	84.94
248.433	93.94
248.666	72.94
248.899	81.94
249.133	77.94
249.366	88.94
249.599	91.94
249.832	74.94
250.066	94.94
250.299	69.94
250.532	78.94
250.765	74.94
250.998	79.94
251.231	76.94
251.465	75.94
251.698	81.94
251.931	65.94
252.164	80.94
252.397	81.94
252.63	85.94
252.863	68.94
253.096	64.94
253.329	73.94
253.562	90.94
253.795	91.94
254.028	98.94
254.261	80.94
254.494	94.94
254.727	92.94
254.96	76.94
255.193	79.94
255.426	75.94
255.659	106.94
255.892	87.94
256.124	69.94
256.357	81.94
256.59	71.94
256.823	80.94
257.056	72.94
257.289	74.94
257.521	60.94
257.754	84.94
257.987	76.94
258.22	72.94
258.452	77.94
258.685	91.94
258.918	66.94
259.151	80.94
259.383	87.94
259.616	60.94
259.849	83.94
260.081	80.94
260.314	75.94
260.547	70.94
260.779	70.94
261.012	80.94
261.244	72.94
261.477	90.94
261.71	92.94
261.942	101.94
262.175	103.94
262.407	78.94
262.64	75.94
262.872	92.94
263.105	82.94
263.337	77.94
263.57	79.94
263.802	86.94
264.035	97.94
264.267	78.94
264.499	82.94
264.732	81.94
264.964	90.94
265.197	64.94
265.429	75.94
265.661	87.94
265.894	70.94
266.126	77.94
266.358	85.94
266.591	90.94
266.823	86.94
267.055	77.94
267.287	72.94
267.52	76.94
267.752	91.94
267.984	78.94
268.216	80.94
268.448	93.94
268.681	80.94
268.913	78.94
269.145	95.94
269.377	87.94
269.609	83.94
269.841	84.94
270.073	78.94
270.306	85.94
270.538	87.94
270.77	79.94
271.002	93.94
271.234	87.94
271.466	96.94
271.698	66.94
271.93	96.94
272.162	81.94
272.394	81.94
272.626	86.94
272.858	70.94
273.09	85.94
273.322	91.94
273.553	80.94
273.785	86.94
274.017	80.94
274.249	78.94
274.481	87.94
274.713	84.94
274.945	76.94
275.176	70.94
275.408	85.94
275.64	80.94
275.872	84.94
276.104	75.94
276.335	72.94
276.567	100.94
276.799	87.94
277.031	83.94
277.262	82.94
277.494	83.94
277.726	84.94
277.957	79.94
278.189	78.94
278.421	73.94
278.652	100.94
278.884	86.94
279.115	77.94
279.347	97.94
279.579	86.94
279.81	88.94
280.042	84.94
280.273	80.94
280.505	76.94
280.736	69.94
280.968	77.94
281.199	86.94
281.431	72.94
281.662	72.94
281.894	92.94
282.125	96.94
282.356	102.94
282.588	111.94
282.819	102.94
283.051	81.94
283.282	82.94
283.513	77.94
283.745	86.94
283.976	86.94
284.207	95.94
284.439	91.94
284.67	80.94
284.901	93.94
285.132	75.94
285.364	96.94
285.595	92.94
285.826	80.94
286.057	80.94
286.288	88.94
286.52	62.94
286.751	82.94
286.982	87.94
287.213	100.94
287.444	96.94
287.675	89.94
287.906	81.94
288.138	86.94
288.369	93.94
288.6	87.94
288.831	85.94
289.062	103.94
289.293	97.94
289.524	88.94
289.755	79.94
289.986	79.94
290.217	76.94
290.448	66.94
290.679	80.94
290.91	92.94
291.141	83.94
291.371	85.94
291.602	82.94
291.833	82.94
292.064	89.94
292.295	85.94
292.526	91.94
292.757	82.94
292.987	74.94
293.218	88.94
293.449	88.94
293.68	81.94
293.91	83.94
294.141	95.94
294.372	82.94
294.603	86.94
294.833	100.94
295.064	83.94
295.295	95.94
295.525	70.94
295.756	84.94
295.987	103.94
296.217	117.94
296.448	126.94
296.679	88.94
296.909	96.94
297.14	86.94
297.37	91.94
297.601	95.94
297.831	76.94
298.062	89.94
298.292	83.94
298.523	93.94
298.753	87.94
298.984	86.94
299.214	90.94
299.445	99.94
299.675	96.94
299.905	84.94
300.136	87.94
300.366	94.94
300.597	85.94
300.827	97.94
301.057	96.94
301.288	102.94
301.518	87.94
301.748	86.94
301.979	85.94
302.209	83.94
302.439	75.94
302.669	90.94
302.9	93.94
303.13	89.94
303.36	106.94
303.59	97.94
303.82	96.94
304.051	97.94
304.281	81.94
304.511	92.94
304.741	77.94
304.971	82.94
305.201	88.94
305.431	79.94
305.661	90.94
305.891	81.94
306.121	101.94
306.352	89.94
306.582	98.94
306.812	98.94
307.042	104.94
307.272	87.94
307.502	80.94
307.731	87.94
307.961	98.94
308.191	82.94
308.421	95.94
308.651	99.94
308.881	87.94
309.111	97.94
309.341	77.94
309.571	95.94
309.8	82.94
310.03	95.94
310.26	85.94
310.49	97.94
310.72	88.94
310.949	88.94
311.179	93.94
311.409	84.94
311.639	92.94
311.868	79.94
312.098	102.94
312.328	93.94
312.557	92.94
312.787	119.94
313.017	103.94
313.246	91.94
313.476	84.94
313.706	96.94
313.935	101.94
314.165	98.94
314.394	97.94
314.624	92.94
314.853	89.94
315.083	112.94
315.312	90.94
315.542	105.94
315.771	98.94
316.001	101.94
316.23	79.94
316.46	87.94
316.689	91.94
316.919	97.94
317.148	96.94
317.377	92.94
317.607	86.94
317.836	100.94
318.065	87.94
318.295	100.94
318.524	93.94
318.753	97.94
318.983	77.94
319.212	97.94
319.441	95.94
319.67	101.94
319.9	98.94
320.129	87.94
320.358	84.94
320.587	88.94
320.816	101.94
321.046	94.94
321.275	101.94
321.504	96.94
321.733	107.94
321.962	101.94
322.191	80.94
322.42	102.94
322.649	99.94
322.878	99.94
323.108	118.94
323.337	107.94
323.566	110.94
323.795	140.94
324.024	191.94
324.253	354.94
324.482	732.94
324.71	1468.94
324.939	1921.94
325.168	715.94
325.397	229.94
325.626	138.94
325.855	133.94
326.084	113.94
326.313	139.94
326.542	132.94
326.77	198.94
326.999	392.94
327.228	849.94
327.457	1492.94
327.686	1204.94
327.914	317.94
328.143	167.94
328.372	158.94
328.6	121.94
328.829	106.94
329.058	117.94
329.287	120.94
329.515	115.94
329.744	94.94
329.972	94.94
330.201	100.94
330.43	84.94
330.658	108.94
330.887	127.94
331.115	97.94
331.344	90.94
331.572	105.94
331.801	103.94
332.03	113.94
332.258	89.94
332.486	87.94
332.715	84.94
332.943	102.94
333.172	94.94
333.4	100.94
333.629	111.94
333.857	103.94
334.085	93.94
334.314	108.94
334.542	82.94
334.771	104.94
334.999	84.94
335.227	85.94
335.455	90.94
335.684	96.94
335.912	91.94
336.14	98.94
336.369	119.94
336.597	102.94
336.825	78.94
337.053	88.94
337.281	76.94
337.51	104.94
337.738	88.94
337.966	95.94
338.194	92.94
338.422	94.94
338.65	88.94
338.878	85.94
339.106	106.94
339.334	108.94
339.562	89.94
339.79	76.94
340.018	89.94
340.246	78.94
340.474	84.94
340.702	88.94
340.93	91.94
341.158	84.94
341.386	90.94
341.614	98.94
341.842	82.94
342.07	96.94
342.298	78.94
342.526	101.94
342.754	88.94
342.981	88.94
343.209	100.94
343.437	85.94
343.665	81.94
343.893	86.94
344.12	87.94
344.348	82.94
344.576	98.94
344.804	91.94
345.031	99.94
345.259	70.94
345.487	89.94
345.714	90.94
345.942	88.94
346.17	87.94
346.397	104.94
346.625	93.94
346.853	90.94
347.08	86.94
347.308	81.94
347.535	90.94
347.763	96.94
347.99	97.94
348.218	85.94
348.445	104.94
348.673	90.94
348.9	101.94
349.128	87.94
349.355	93.94
349.583	88.94
349.81	75.94
350.037	92.94
350.265	94.94
350.492	90.94
350.72	84.94
350.947	85.94
351.174	81.94
351.402	106.94
351.629	110.94
351.856	109.94
352.083	116.94
352.311	82.94
352.538	109.94
352.765	117.94
352.992	111.94
353.22	107.94
353.447	101.94
353.674	101.94
353.901	93.94
354.128	100.94
354.355	98.94
354.583	120.94
354.81	91.94
355.037	97.94
355.264	100.94
355.491	92.94
355.718	93.94
355.945	93.94
356.172	85.94
356.399	99.94
356.626	94.94
356.853	94.94
357.08	87.94
357.307	92.94
357.534	86.94
357.761	87.94
357.988	92.94
358.215	99.94
358.441	95.94
358.668	86.94
358.895	85.94
359.122	82.94
359.349	97.94
359.576	82.94
359.802	94.94
360.029	111.94
360.256	119.94
360.483	100.94
360.709	72.94
360.936	90.94
361.163	84.94
361.39	84.94
361.616	85.94
361.843	91.94
362.07	87.94
362.296	96.94
362.523	92.94
362.749	84.94
362.976	85.94
363.203	101.94
363.429	94.94
363.656	85.94
363.882	87.94
364.109	79.94
364.335	86.94
364.562	105.94
364.788	80.94
365.015	86.94
365.241	89.94
365.468	94.94
365.694	116.94
365.92	107.94
366.147	88.94
366.373	101.94
366.599	96.94
366.826	81.94
367.052	81.94
367.278	92.94
367.505	88.94
367.731	97.94
367.957	106.94
368.184	82.94
368.41	90.94
368.636	109.94
368.862	101.94
369.089	100.94
369.315	101.94
369.541	90.94
369.767	86.94
369.993	96.94
370.219	79.94
370.445	90.94
370.672	86.94
370.898	73.94
371.124	86.94
371.35	84.94
371.576	104.94
371.802	82.94
372.028	64.94
372.254	92.94
372.48	103.94
372.706	77.94
372.932	83.94
373.158	87.94
373.384	85.94
373.61	94.94
373.835	81.94
374.061	77.94
374.287	79.94
374.513	76.94
374.739	76.94
374.965	87.94
375.191	88.94
375.416	94.94
375.642	82.94
375.868	87.94
376.094	76.94
376.319	81.94
376.545	80.94
376.771	80.94
376.997	82.94
377.222	88.94
377.448	87.94
377.674	101.94
377.899	104.94
378.125	80.94
378.35	88.94
378.576	93.94
378.802	93.94
379.027	81.94
379.253	90.94
379.478	82.94
379.704	84.94
379.929	76.94
380.155	92.94
380.38	95.94
380.606	91.94
380.831	87.94
381.057	94.94
381.282	80.94
381.507	86.94
381.733	87.94
381.958	90.94
382.184	101.94
382.409	94.94
382.634	96.94
382.86	113.94
383.085	90.94
383.31	97.94
383.535	90.94
383.761	88.94
383.986	84.94
384.211	85.94
384.436	95.94
384.662	84.94
384.887	96.94
385.112	109.94
385.337	106.94
385.562	99.94
385.787	99.94
386.013	102.94
386.238	99.94
386.463	103.94
386.688	98.94
386.913	96.94
387.138	78.94
387.363	92.94
387.588	107.94
387.813	102.94
388.038	99.94
388.263	103.94
388.488	105.94
388.713	79.94
388.938	94.94
389.163	102.94
389.387	96.94
389.612	90.94
389.837	106.94
390.062	98.94
390.287	95.94
390.512	69.94
390.736	98.94
390.961	84.94
391.186	103.94
391.411	105.94
391.636	93.94
391.86	88.94
392.085	77.94
392.31	83.94
392.534	84.94
392.759	99.94
392.984	80.94
393.208	89.94
393.433	84.94
393.658	84.94
393.882	74.94
394.107	79.94
394.331	82.94
394.556	77.94
394.78	99.94
395.005	96.94
395.229	89.94
395.454	100.94
395.678	73.94
395.903	88.94
396.127	78.94
396.352	110.94
396.576	89.94
396.801	92.94
397.025	88.94
397.249	90.94
397.474	91.94
397.698	80.94
397.922	81.94
398.147	87.94
398.371	73.94
398.595	82.94
398.82	85.94
399.044	76.94
399.268	68.94
399.492	87.94
399.717	83.94
399.941	80.94
400.165	84.94
400.389	86.94
400.613	82.94
400.837	79.94
401.062	100.94
401.286	81.94
401.51	83.94
401.734	86.94
401.958	90.94
402.182	113.94
402.406	141.94
402.63	114.94
402.854	84.94
403.078	78.94
403.302	81.94
403.526	85.94
403.75	90.94
403.974	77.94
404.198	84.94
404.422	89.94
404.645	75.94
404.869	94.94
405.093	82.94
405.317	101.94
405.541	84.94
405.765	93.94
405.988	109.94
406.212	164.94
406.436	214.94
406.66	136.94
406.883	93.94
407.107	90.94
407.331	97.94
407.555	89.94
407.778	84.94
408.002	80.94
408.226	96.94
408.449	90.94
408.673	82.94
408.896	92.94
409.12	95.94
409.344	90.94
409.567	94.94
409.791	87.94
410.014	89.94
410.238	91.94
410.461	81.94
410.685	80.94
410.908	91.94
411.132	94.94
411.355	78.94
411.578	94.94
411.802	88.94
412.025	97.94
412.249	90.94
412.472	72.94
412.695	92.94
412.919	88.94
413.142	101.94
413.365	82.94
413.589	102.94
413.812	87.94
414.035	100.94
414.258	91.94
414.482	93.94
414.705	92.94
414.928	86.94
415.151	91.94
415.374	103.94
415.597	84.94
415.821	73.94
416.044	94.94
416.267	87.94
416.49	79.94
416.713	78.94
416.936	83.94
417.159	78.94
417.382	96.94
417.605	72.94
417.828	87.94
418.051	80.94
418.274	85.94
418.497	79.94
418.72	84.94
418.943	103.94
419.166	87.94
419.389	73.94
419.611	86.94
419.834	79.94
420.057	88.94
420.28	77.94
420.503	84.94
420.726	96.94
420.948	80.94
421.171	86.94
421.394	93.94
421.617	106.94
421.839	98.94
422.062	96.94
422.285	94.94
422.507	103.94
422.73	103.94
422.953	80.94
423.175	78.94
423.398	80.94
423.621	92.94
423.843	93.94
424.066	88.94
424.288	87.94
424.511	89.94
424.733	100.94
424.956	95.94
425.178	110.94
425.401	101.94
425.623	106.94
425.846	102.94
426.068	94.94
426.291	93.94
426.513	87.94
426.735	79.94
426.958	97.94
427.18	105.94
427.402	124.94
427.625	147.94
427.847	111.94
428.069	93.94
428.292	94.94
428.514	81.94
428.736	80.94
428.958	85.94
429.181	79.94
429.403	83.94
429.625	71.94
429.847	87.94
430.069	99.94
430.292	86.94
430.514	102.94
430.736	95.94
430.958	86.94
431.18	82.94
431.402	86.94
431.624	83.94
431.846	86.94
432.068	86.94
432.29	87.94
432.512	89.94
432.734	96.94
432.956	92.94
433.178	101.94
433.4	98.94
433.622	80.94
433.844	90.94
434.066	86.94
434.287	87.94
434.509	89.94
434.731	92.94
434.953	104.94
435.175	92.94
435.397	89.94
435.618	85.94
435.84	92.94
436.062	130.94
436.284	113.94
436.505	99.94
436.727	82.94
436.949	79.94
437.17	93.94
437.392	86.94
437.614	95.94
437.835	106.94
438.057	118.94
438.278	96.94
438.5	99.94
438.721	106.94
438.943	103.94
439.165	85.94
439.386	85.94
439.608	86.94
439.829	102.94
440.05	140.94
440.272	128.94
440.493	82.94
440.715	92.94
440.936	105.94
441.158	94.94
441.379	103.94
441.6	93.94
441.822	90.94
442.043	97.94
442.264	95.94
442.486	100.94
442.707	95.94
442.928	99.94
443.149	122.94
443.371	102.94
443.592	109.94
443.813	96.94
444.034	119.94
444.255	82.94
444.476	81.94
444.698	74.94
444.919	88.94
445.14	128.94
445.361	124.94
445.582	121.94
445.803	134.94
446.024	130.94
446.245	137.94
446.466	109.94
446.687	97.94
446.908	75.94
447.129	77.94
447.35	89.94
447.571	81.94
447.792	90.94
448.013	93.94
448.234	108.94
448.455	94.94
448.675	124.94
448.896	116.94
449.117	92.94
449.338	105.94
449.559	125.94
449.779	127.94
450	88.94
450.221	92.94
450.442	99.94
450.662	79.94
450.883	109.94
451.104	99.94
451.324	97.94
451.545	93.94
451.766	83.94
451.986	99.94
452.207	90.94
452.428	77.94
452.648	92.94
452.869	89.94
453.089	106.94
453.31	109.94
453.53	77.94
453.751	92.94
453.971	95.94
454.192	93.94
454.412	83.94
454.633	80.94
454.853	88.94
455.073	82.94
455.294	72.94
455.514	88.94
455.734	85.94
455.955	92.94
456.175	79.94
456.395	85.94
456.616	74.94
456.836	85.94
457.056	82.94
457.276	89.94
457.497	88.94
457.717	89.94
457.937	90.94
458.157	82.94
458.377	91.94
458.598	109.94
458.818	120.94
459.038	145.94
459.258	104.94
459.478	84.94
459.698	84.94
459.918	71.94
460.138	73.94
460.358	78.94
460.578	72.94
460.798	94.94
461.018	92.94
461.238	86.94
461.458	97.94
461.678	87.94
461.898	87.94
462.118	76.94
462.338	82.94
462.558	82.94
462.777	81.94
462.997	80.94
463.217	81.94
463.437	72.94
463.657	87.94
463.876	80.94
464.096	84.94
464.316	88.94
464.536	80.94
464.755	90.94
464.975	112.94
465.195	152.94
465.414	144.94
465.634	87.94
465.854	95.94
466.073	81.94
466.293	86.94
466.512	91.94
466.732	92.94
466.951	91.94
467.171	89.94
467.391	79.94
467.61	92.94
467.829	85.94
468.049	81.94
468.268	80.94
468.488	95.94
468.707	86.94
468.927	88.94
469.146	85.94
469.365	97.94
469.585	98.94
469.804	86.94
470.023	89.94
470.243	98.94
470.462	98.94
470.681	78.94
470.901	82.94
471.12	74.94
471.339	92.94
471.558	91.94
471.777	83.94
471.997	85.94
472.216	92.94
472.435	98.94
472.654	90.94
472.873	83.94
473.092	92.94
473.311	85.94
473.53	86.94
473.749	80.94
473.968	86.94
474.187	106.94
474.406	110.94
474.625	81.94
474.844	99.94
475.063	92.94
475.282	92.94
475.501	98.94
475.72	87.94
475.939	77.94
476.158	84.94
476.377	87.94
476.596	87.94
476.814	89.94
477.033	92.94
477.252	82.94
477.471	84.94
477.69	68.94
477.908	78.94
478.127	87.94
478.346	77.94
478.564	88.94
478.783	98.94
479.002	84.94
479.22	78.94
479.439	94.94
479.658	105.94
479.876	92.94
480.095	89.94
480.313	90.94
480.532	81.94
480.751	90.94
480.969	87.94
481.188	95.94
481.406	79.94
481.624	79.94
481.843	95.94
482.061	88.94
482.28	83.94
482.498	105.94
482.717	92.94
482.935	86.94
483.153	95.94
483.372	82.94
483.59	107.94
483.808	82.94
484.027	85.94
484.245	93.94
484.463	98.94
484.681	81.94
484.9	89.94
485.118	92.94
485.336	87.94
485.554	92.94
485.772	93.94
485.99	90.94
486.209	103.94
486.427	97.94
486.645	104.94
486.863	99.94
487.081	96.94
487.299	95.94
487.517	81.94
487.735	103.94
487.953	82.94
488.171	89.94
488.389	95.94
488.607	86.94
488.825	84.94
489.043	89.94
489.261	80.94
489.479	93.94
489.696	99.94
489.914	79.94
490.132	88.94
490.35	95.94
490.568	94.94
490.786	86.94
491.003	87.94
491.221	80.94
491.439	93.94
491.657	89.94
491.874	83.94
492.092	89.94
492.31	87.94
492.527	89.94
492.745	79.94
492.963	86.94
493.18	96.94
493.398	103.94
493.615	93.94
493.833	89.94
494.05	100.94
494.268	90.94
494.485	77.94
494.703	81.94
494.92	82.94
495.138	71.94
495.355	77.94
495.573	81.94
495.79	91.94
496.008	92.94
496.225	101.94
496.442	92.94
496.66	89.94
496.877	88.94
497.094	100.94
497.312	89.94
497.529	87.94
497.746	92.94
497.963	87.94
498.181	87.94
498.398	82.94
498.615	110.94
498.832	102.94
499.049	99.94
499.267	94.94
499.484	76.94
499.701	89.94
499.918	101.94
500.135	101.94
500.352	80.94
500.569	84.94
500.786	91.94
501.003	91.94
501.22	85.94
501.437	93.94
501.654	104.94
501.871	86.94
502.088	91.94
502.305	94.94
502.522	78.94
502.739	105.94
502.956	95.94
503.172	95.94
503.389	107.94
503.606	90.94
503.823	87.94
504.04	85.94
504.256	86.94
504.473	75.94
504.69	81.94
504.907	79.94
505.123	98.94
505.34	82.94
505.557	93.94
505.773	87.94
505.99	97.94
506.207	104.94
506.423	96.94
506.64	82.94
506.856	84.94
507.073	86.94
507.289	96.94
507.506	101.94
507.722	104.94
507.939	102.94
508.155	91.94
508.372	80.94
508.588	87.94
508.805	94.94
509.021	96.94
509.238	96.94
509.454	100.94
509.67	91.94
509.887	102.94
510.103	125.94
510.319	195.94
510.536	711.94
510.752	2169.94
510.968	628.94
511.184	145.94
511.401	98.94
511.617	89.94
511.833	96.94
512.049	94.94
512.265	89.94
512.481	89.94
512.698	98.94
512.914	97.94
513.13	109.94
513.346	93.94
513.562	84.94
513.778	95.94
513.994	99.94
514.21	96.94
514.426	127.94
514.642	133.94
514.858	111.94
515.074	157.94
515.29	416.94
515.506	1349.94
515.721	518.94
515.937	143.94
516.153	107.94
516.369	97.94
516.585	100.94
