Data from Uncirc_2008_H10_HRD10591_00043.txt Node
Date: Wed Jan 03 10:15:39 EST 2024
User: Yrep
Spectrometer: HR+D1059
Trigger mode: 1
Integration Time (sec): 1.000000E-1
Scans to average: 1
Electric dark correction enabled: true
Nonlinearity correction enabled: false
Boxcar width: 0
XAxis mode: Wavelengths
Number of Pixels in Spectrum: 2048
>>>>>Begin Spectral Data<<<<<
223.165	-13
223.4	-13
223.635	-13
223.869	-29
224.104	-26
224.338	-9
224.573	-8
224.808	-18
225.042	5
225.277	1
225.511	1
225.746	-2
225.98	-4
226.215	8
226.449	23
226.683	9
226.918	30
227.152	32
227.387	37
227.621	41
227.856	56
228.09	34
228.324	61
228.559	47
228.793	60
229.027	79
229.262	74
229.496	61
229.73	76
229.964	94
230.199	89
230.433	85
230.667	65
230.901	78
231.136	65
231.37	66
231.604	80
231.838	91
232.072	77
232.306	71
232.541	82
232.775	54
233.009	78
233.243	72
233.477	88
233.711	88
233.945	86
234.179	82
234.413	83
234.647	86
234.881	66
235.115	84
235.349	79
235.583	80
235.817	77
236.051	92
236.285	80
236.519	80
236.753	78
236.987	80
237.221	79
237.455	73
237.689	65
237.922	72
238.156	67
238.39	76
238.624	51
238.858	67
239.091	65
239.325	87
239.559	92
239.793	82
240.027	65
240.26	71
240.494	74
240.728	71
240.961	76
241.195	80
241.429	75
241.662	86
241.896	84
242.13	80
242.363	67
242.597	63
242.83	62
243.064	75
243.298	76
243.531	73
243.765	67
243.998	81
244.232	67
244.465	79
244.699	81
244.932	67
245.166	67
245.399	65
245.633	79
245.866	69
246.099	70
246.333	71
246.566	66
246.8	75
247.033	71
247.266	87
247.5	99
247.733	77
247.966	77
248.2	77
248.433	76
248.666	72
248.899	77
249.133	73
249.366	89
249.599	84
249.832	82
250.066	82
250.299	73
250.532	69
250.765	78
250.998	80
251.231	82
251.465	68
251.698	77
251.931	77
252.164	66
252.397	89
252.63	89
252.863	75
253.096	82
253.329	87
253.562	76
253.795	79
254.028	77
254.261	76
254.494	70
254.727	72
254.96	73
255.193	74
255.426	78
255.659	87
255.892	71
256.124	82
256.357	89
256.59	69
256.823	77
257.056	80
257.289	77
257.521	107
257.754	76
257.987	76
258.22	82
258.452	73
258.685	67
258.918	73
259.151	85
259.383	86
259.616	77
259.849	74
260.081	82
260.314	94
260.547	85
260.779	93
261.012	90
261.244	86
261.477	73
261.71	76
261.942	89
262.175	117
262.407	87
262.64	75
262.872	85
263.105	78
263.337	79
263.57	80
263.802	87
264.035	93
264.267	67
264.499	77
264.732	85
264.964	82
265.197	81
265.429	82
265.661	75
265.894	88
266.126	89
266.358	64
266.591	73
266.823	73
267.055	88
267.287	82
267.52	92
267.752	79
267.984	90
268.216	86
268.448	86
268.681	83
268.913	77
269.145	75
269.377	98
269.609	84
269.841	85
270.073	81
270.306	86
270.538	90
270.77	76
271.002	93
271.234	91
271.466	85
271.698	80
271.93	88
272.162	86
272.394	80
272.626	80
272.858	89
273.09	74
273.322	87
273.553	90
273.785	91
274.017	81
274.249	80
274.481	88
274.713	101
274.945	84
275.176	92
275.408	93
275.64	89
275.872	87
276.104	84
276.335	93
276.567	93
276.799	97
277.031	94
277.262	94
277.494	90
277.726	82
277.957	90
278.189	83
278.421	89
278.652	89
278.884	79
279.115	80
279.347	80
279.579	83
279.81	78
280.042	74
280.273	95
280.505	88
280.736	88
280.968	80
281.199	79
281.431	83
281.662	93
281.894	90
282.125	95
282.356	120
282.588	123
282.819	95
283.051	90
283.282	89
283.513	95
283.745	79
283.976	85
284.207	87
284.439	88
284.67	82
284.901	73
285.132	77
285.364	100
285.595	92
285.826	86
286.057	87
286.288	88
286.52	98
286.751	87
286.982	88
287.213	85
287.444	84
287.675	79
287.906	97
288.138	88
288.369	95
288.6	91
288.831	81
289.062	92
289.293	95
289.524	87
289.755	89
289.986	88
290.217	85
290.448	98
290.679	78
290.91	88
291.141	94
291.371	74
291.602	80
291.833	102
292.064	91
292.295	95
292.526	84
292.757	83
292.987	83
293.218	90
293.449	87
293.68	89
293.91	73
294.141	83
294.372	91
294.603	96
294.833	91
295.064	74
295.295	80
295.525	96
295.756	99
295.987	120
296.217	115
296.448	96
296.679	91
296.909	89
297.14	88
297.37	90
297.601	93
297.831	85
298.062	100
298.292	84
298.523	79
298.753	96
298.984	90
299.214	85
299.445	83
299.675	91
299.905	88
300.136	99
300.366	82
300.597	82
300.827	89
301.057	93
301.288	97
301.518	93
301.748	81
301.979	93
302.209	82
302.439	77
302.669	91
302.9	84
303.13	79
303.36	92
303.59	96
303.82	102
304.051	104
304.281	98
304.511	93
304.741	84
304.971	80
305.201	83
305.431	82
305.661	81
305.891	72
306.121	96
306.352	104
306.582	90
306.812	94
307.042	88
307.272	93
307.502	99
307.731	81
307.961	94
308.191	102
308.421	98
308.651	88
308.881	88
309.111	98
309.341	90
309.571	97
309.8	80
310.03	82
310.26	78
310.49	110
310.72	87
310.949	113
311.179	101
311.409	102
311.639	95
311.868	96
312.098	89
312.328	94
312.557	103
312.787	93
313.017	103
313.246	91
313.476	88
313.706	94
313.935	76
314.165	86
314.394	98
314.624	105
314.853	88
315.083	89
315.312	97
315.542	87
315.771	90
316.001	89
316.23	90
316.46	94
316.689	86
316.919	96
317.148	89
317.377	98
317.607	101
317.836	94
318.065	86
318.295	90
318.524	103
318.753	81
318.983	88
319.212	84
319.441	91
319.67	104
319.9	101
320.129	101
320.358	86
320.587	98
320.816	106
321.046	97
321.275	81
321.504	98
321.733	102
321.962	109
322.191	105
322.42	99
322.649	119
322.878	106
323.108	103
323.337	114
323.566	122
323.795	146
324.024	200
324.253	359
324.482	759
324.71	1499
324.939	1959
325.168	731
325.397	216
325.626	149
325.855	133
326.084	120
326.313	141
326.542	137
326.77	220
326.999	418
327.228	857
327.457	1530
327.686	1225
327.914	336
328.143	183
328.372	133
328.6	124
328.829	115
329.058	109
329.287	122
329.515	112
329.744	95
329.972	94
330.201	95
330.43	104
330.658	111
330.887	123
331.115	110
331.344	105
331.572	96
331.801	94
332.03	103
332.258	88
332.486	98
332.715	97
332.943	102
333.172	82
333.4	104
333.629	97
333.857	98
334.085	86
334.314	95
334.542	95
334.771	94
334.999	93
335.227	87
335.455	91
335.684	109
335.912	97
336.14	87
336.369	89
336.597	106
336.825	106
337.053	83
337.281	90
337.51	88
337.738	96
337.966	86
338.194	89
338.422	86
338.65	99
338.878	98
339.106	94
339.334	83
339.562	87
339.79	83
340.018	91
340.246	97
340.474	100
340.702	91
340.93	83
341.158	99
341.386	77
341.614	99
341.842	81
342.07	79
342.298	93
342.526	80
342.754	96
342.981	93
343.209	99
343.437	101
343.665	81
343.893	83
344.12	90
344.348	89
344.576	84
344.804	99
345.031	93
345.259	97
345.487	92
345.714	95
345.942	83
346.17	77
346.397	82
346.625	97
346.853	80
347.08	87
347.308	96
347.535	101
347.763	83
347.99	86
348.218	93
348.445	86
348.673	85
348.9	91
349.128	93
349.355	79
349.583	80
349.81	81
350.037	106
350.265	85
350.492	93
350.72	89
350.947	94
351.174	111
351.402	102
351.629	113
351.856	84
352.083	98
352.311	90
352.538	100
352.765	100
352.992	106
353.22	107
353.447	94
353.674	95
353.901	99
354.128	104
354.355	98
354.583	94
354.81	87
355.037	91
355.264	94
355.491	97
355.718	84
355.945	102
356.172	94
356.399	81
356.626	100
356.853	92
357.08	108
357.307	95
357.534	105
357.761	102
357.988	90
358.215	96
358.441	97
358.668	88
358.895	80
359.122	76
359.349	78
359.576	99
359.802	115
360.029	109
360.256	91
360.483	89
360.709	94
360.936	104
361.163	83
361.39	83
361.616	69
361.843	90
362.07	96
362.296	96
362.523	91
362.749	94
362.976	82
363.203	92
363.429	86
363.656	83
363.882	92
364.109	94
364.335	90
364.562	81
364.788	101
365.015	87
365.241	95
365.468	103
365.694	119
365.92	93
366.147	93
366.373	82
366.599	89
366.826	87
367.052	83
367.278	83
367.505	81
367.731	88
367.957	88
368.184	97
368.41	100
368.636	103
368.862	107
369.089	116
369.315	90
369.541	94
369.767	94
369.993	71
370.219	81
370.445	81
370.672	85
370.898	74
371.124	97
371.35	77
371.576	83
371.802	76
372.028	84
372.254	87
372.48	92
372.706	84
372.932	83
373.158	94
373.384	93
373.61	80
373.835	88
374.061	94
374.287	86
374.513	91
374.739	87
374.965	86
375.191	84
375.416	80
375.642	94
375.868	93
376.094	86
376.319	95
376.545	91
376.771	70
376.997	89
377.222	87
377.448	92
377.674	81
377.899	89
378.125	103
378.35	97
378.576	92
378.802	87
379.027	78
379.253	95
379.478	99
379.704	95
379.929	110
380.155	94
380.38	89
380.606	93
380.831	98
381.057	96
381.282	83
381.507	83
381.733	112
381.958	92
382.184	103
382.409	95
382.634	105
382.86	83
383.085	95
383.31	106
383.535	99
383.761	104
383.986	84
384.211	103
384.436	96
384.662	100
384.887	111
385.112	97
385.337	83
385.562	98
385.787	110
386.013	107
386.238	103
386.463	91
386.688	110
386.913	104
387.138	107
387.363	104
387.588	108
387.813	108
388.038	94
388.263	105
388.488	97
388.713	110
388.938	92
389.163	88
389.387	91
389.612	103
389.837	100
390.062	88
390.287	86
390.512	90
390.736	106
390.961	98
391.186	85
391.411	100
391.636	82
391.86	89
392.085	95
392.31	75
392.534	85
392.759	89
392.984	80
393.208	80
393.433	87
393.658	89
393.882	88
394.107	96
394.331	92
394.556	88
394.78	89
395.005	88
395.229	70
395.454	91
395.678	90
395.903	93
396.127	77
396.352	81
396.576	88
396.801	85
397.025	89
397.249	95
397.474	99
397.698	100
397.922	85
398.147	87
398.371	78
398.595	76
398.82	90
399.044	92
399.268	92
399.492	81
399.717	83
399.941	96
400.165	95
400.389	99
400.613	89
400.837	86
401.062	84
401.286	94
401.51	80
401.734	97
401.958	102
402.182	133
402.406	138
402.63	111
402.854	81
403.078	87
403.302	77
403.526	83
403.75	81
403.974	89
404.198	82
404.422	75
404.645	85
404.869	80
405.093	89
405.317	101
405.541	91
405.765	96
405.988	113
406.212	162
406.436	210
406.66	136
406.883	100
407.107	85
407.331	87
407.555	94
407.778	111
408.002	96
408.226	80
408.449	91
408.673	104
408.896	90
409.12	94
409.344	102
409.567	89
409.791	92
410.014	109
410.238	95
410.461	89
410.685	95
410.908	95
411.132	92
411.355	108
411.578	99
411.802	93
412.025	89
412.249	82
412.472	94
412.695	95
412.919	84
413.142	78
413.365	86
413.589	88
413.812	95
414.035	95
414.258	94
414.482	83
414.705	78
414.928	83
415.151	105
415.374	86
415.597	88
415.821	74
416.044	91
416.267	84
416.49	79
416.713	87
416.936	79
417.159	84
417.382	73
417.605	77
417.828	90
418.051	83
418.274	82
418.497	89
418.72	94
418.943	89
419.166	89
419.389	87
419.611	85
419.834	94
420.057	77
420.28	91
420.503	85
420.726	97
420.948	88
421.171	86
421.394	105
421.617	77
421.839	84
422.062	89
422.285	102
422.507	96
422.73	91
422.953	94
423.175	89
423.398	93
423.621	88
423.843	86
424.066	93
424.288	96
424.511	96
424.733	97
424.956	98
425.178	93
425.401	98
425.623	96
425.846	93
426.068	88
426.291	90
426.513	92
426.735	89
426.958	82
427.18	104
427.402	132
427.625	153
427.847	101
428.069	92
428.292	94
428.514	85
428.736	97
428.958	86
429.181	95
429.403	83
429.625	89
429.847	86
430.069	104
430.292	99
430.514	83
430.736	91
430.958	91
431.18	69
431.402	80
431.624	97
431.846	81
432.068	87
432.29	93
432.512	88
432.734	98
432.956	87
433.178	91
433.4	104
433.622	91
433.844	89
434.066	90
434.287	101
434.509	84
434.731	80
434.953	86
435.175	79
435.397	97
435.618	93
435.84	97
436.062	109
436.284	102
436.505	104
436.727	91
436.949	99
437.17	89
437.392	71
437.614	98
437.835	120
438.057	115
438.278	114
438.5	104
438.721	111
438.943	104
439.165	102
439.386	93
439.608	96
439.829	87
440.05	114
440.272	138
440.493	106
440.715	81
440.936	97
441.158	93
441.379	89
441.6	94
441.822	108
442.043	110
442.264	91
442.486	102
442.707	81
442.928	95
443.149	113
443.371	124
443.592	95
443.813	106
444.034	108
444.255	87
444.476	92
444.698	93
444.919	104
445.14	134
445.361	113
445.582	121
445.803	141
446.024	120
446.245	129
446.466	90
446.687	78
446.908	77
447.129	91
447.35	87
447.571	88
447.792	99
448.013	92
448.234	104
448.455	103
448.675	116
448.896	127
449.117	97
449.338	89
449.559	113
449.779	141
450	103
450.221	97
450.442	90
450.662	99
450.883	118
451.104	117
451.324	81
451.545	78
451.766	85
451.986	102
452.207	90
452.428	84
452.648	89
452.869	102
453.089	111
453.31	109
453.53	91
453.751	98
453.971	92
454.192	113
454.412	99
454.633	80
454.853	90
455.073	82
455.294	94
455.514	105
455.734	90
455.955	85
456.175	83
456.395	79
456.616	86
456.836	93
457.056	99
457.276	97
457.497	90
457.717	61
457.937	87
458.157	90
458.377	88
458.598	94
458.818	133
459.038	153
459.258	109
459.478	90
459.698	75
459.918	95
460.138	90
460.358	81
460.578	96
460.798	95
461.018	86
461.238	83
461.458	89
461.678	93
461.898	89
462.118	89
462.338	99
462.558	74
462.777	90
462.997	89
463.217	83
463.437	97
463.657	95
463.876	90
464.096	89
464.316	83
464.536	75
464.755	90
464.975	106
465.195	149
465.414	155
465.634	91
465.854	98
466.073	78
466.293	86
466.512	78
466.732	85
466.951	78
467.171	95
467.391	103
467.61	101
467.829	98
468.049	95
468.268	102
468.488	76
468.707	78
468.927	95
469.146	87
469.365	97
469.585	93
469.804	95
470.023	108
470.243	83
470.462	103
470.681	110
470.901	91
471.12	71
471.339	82
471.558	89
471.777	92
471.997	103
472.216	86
472.435	93
472.654	87
472.873	87
473.092	78
473.311	89
473.53	90
473.749	88
473.968	87
474.187	121
474.406	93
474.625	72
474.844	86
475.063	88
475.282	86
475.501	65
475.72	90
475.939	87
476.158	95
476.377	84
476.596	89
476.814	94
477.033	97
477.252	87
477.471	97
477.69	88
477.908	91
478.127	91
478.346	90
478.564	87
478.783	98
479.002	78
479.22	85
479.439	96
479.658	102
479.876	85
480.095	93
480.313	90
480.532	93
480.751	95
480.969	93
481.188	95
481.406	71
481.624	95
481.843	82
482.061	85
482.28	84
482.498	82
482.717	88
482.935	92
483.153	85
483.372	75
483.59	93
483.808	87
484.027	96
484.245	95
484.463	85
484.681	93
484.9	95
485.118	90
485.336	87
485.554	98
485.772	102
485.99	106
486.209	102
486.427	89
486.645	111
486.863	117
487.081	109
487.299	86
487.517	96
487.735	98
487.953	93
488.171	105
488.389	95
488.607	102
488.825	96
489.043	86
489.261	90
489.479	83
489.696	96
489.914	89
490.132	81
490.35	96
490.568	93
490.786	89
491.003	86
491.221	95
491.439	97
491.657	104
491.874	98
492.092	91
492.31	88
492.527	92
492.745	91
492.963	89
493.18	95
493.398	108
493.615	110
493.833	98
494.05	97
494.268	76
494.485	88
494.703	84
494.92	89
495.138	72
495.355	94
495.573	98
495.79	89
496.008	99
496.225	113
496.442	94
496.66	100
496.877	84
497.094	99
497.312	92
497.529	99
497.746	83
497.963	79
498.181	81
498.398	88
498.615	112
498.832	104
499.049	95
499.267	89
499.484	83
499.701	91
499.918	83
500.135	106
500.352	95
500.569	87
500.786	93
501.003	93
501.22	95
501.437	89
501.654	93
501.871	112
502.088	107
502.305	89
502.522	81
502.739	75
502.956	86
503.172	101
503.389	100
503.606	96
503.823	95
504.04	108
504.256	98
504.473	82
504.69	76
504.907	93
505.123	92
505.34	94
505.557	102
505.773	91
505.99	84
506.207	94
506.423	90
506.64	80
506.856	93
507.073	101
507.289	85
507.506	95
507.722	95
507.939	108
508.155	97
508.372	94
508.588	81
508.805	84
509.021	90
509.238	104
509.454	95
509.67	100
509.887	110
510.103	138
510.319	190
510.536	750
510.752	2267
510.968	651
511.184	158
511.401	111
511.617	86
511.833	88
512.049	84
512.265	97
512.481	100
512.698	95
512.914	91
513.13	88
513.346	102
513.562	94
513.778	103
513.994	97
514.21	100
514.426	106
514.642	117
514.858	120
515.074	165
515.29	426
515.506	1393
515.721	509
515.937	141
516.153	102
516.369	103
516.585	96
516.801	96
517.016	95
517.232	103
517.448	101
517.664	90
517.879	93
518.095	90
518.311	99
518.527	99
518.742	84
518.958	89
519.173	97
519.389	90
519.605	102
519.82	103
520.036	95
520.251	126
520.467	109
520.682	107
520.898	102
521.113	106
521.329	131
521.544	190
521.76	524
521.975	2221
522.19	1404
522.406	289
522.621	119
522.836	89
523.052	98
523.267	95
523.482	94
523.698	86
523.913	109
524.128	102
524.343	92
524.559	81
524.774	99
524.989	102
525.204	100
525.419	102
525.634	104
525.849	89
526.064	84
526.28	98
526.495	99
526.71	95
526.925	81
527.14	91
527.355	89
527.57	85
527.785	102
527.999	99
528.214	99
528.429	110
528.644	96
528.859	91
529.074	94
529.289	114
529.503	154
529.718	115
529.933	87
530.148	87
530.363	79
530.577	95
530.792	82
531.007	82
531.221	88
531.436	94
531.651	86
531.865	74
532.08	92
532.295	91
532.509	102
532.724	98
532.938	103
533.153	86
533.367	85
533.582	76
533.796	91
534.011	97
534.225	98
534.44	90
534.654	97
534.868	93
535.083	93
535.297	93
535.511	104
535.726	91
535.94	92
536.154	83
536.369	82
536.583	78
536.797	84
537.011	80
537.225	89
537.44	88
537.654	83
537.868	91
538.082	84
538.296	81
538.51	87
538.724	97
538.938	94
539.153	89
539.367	104
539.581	90
539.795	87
540.009	91
540.222	80
540.436	93
540.65	89
540.864	92
541.078	88
541.292	84
541.506	99
541.72	85
541.934	78
542.147	80
542.361	92
542.575	87
542.789	83
543.002	81
543.216	94
543.43	100
543.644	90
543.857	96
544.071	81
544.285	89
544.498	80
544.712	89
544.925	71
545.139	90
545.352	82
545.566	97
545.779	76
545.993	88
546.206	83
546.42	83
546.633	98
546.847	78
547.06	81
547.274	95
547.487	88
547.7	92
547.914	74
548.127	78
548.34	88
548.554	87
548.767	74
548.98	79
549.193	76
549.407	83
549.62	96
549.833	86
550.046	89
550.259	88
550.473	92
550.686	86
550.899	98
551.112	86
551.325	86
551.538	86
551.751	90
551.964	104
552.177	92
552.39	88
552.603	87
552.816	90
553.029	86
553.242	97
553.455	93
553.667	88
553.88	95
554.093	105
554.306	97
554.519	88
554.732	82
554.944	86
555.157	92
555.37	86
555.583	93
555.795	91
556.008	82
556.221	80
556.433	97
556.646	91
556.859	96
557.071	83
557.284	105
557.496	97
557.709	76
557.921	75
558.134	91
558.346	96
558.559	87
558.771	90
558.984	86
559.196	95
559.409	89
559.621	83
559.833	80
560.046	84
560.258	100
560.47	81
560.683	86
560.895	85
561.107	89
561.32	86
561.532	89
561.744	85
561.956	99
562.168	92
562.381	94
562.593	99
562.805	98
563.017	93
563.229	104
563.441	88
563.653	103
563.865	80
564.077	85
564.289	98
564.501	92
564.713	101
564.925	91
565.137	90
565.349	89
565.561	93
565.773	79
565.985	94
566.197	96
566.408	83
566.62	95
566.832	104
567.044	95
567.255	82
567.467	90
567.679	89
567.891	94
568.102	89
568.314	83
568.526	92
568.737	88
568.949	74
569.161	96
569.372	89
569.584	86
569.795	89
570.007	96
570.218	241
570.43	150
570.641	86
570.853	81
571.064	105
571.276	89
571.487	96
571.698	92
571.91	93
572.121	82
572.333	85
572.544	87
572.755	93
572.966	83
573.178	79
573.389	103
573.6	90
573.811	97
574.023	85
574.234	91
574.445	91
574.656	83
574.867	81
575.078	97
575.289	93
575.501	87
575.712	93
575.923	85
576.134	91
576.345	76
576.556	92
576.767	82
576.978	93
577.188	91
577.399	96
577.61	103
577.821	96
578.032	129
578.243	277
578.454	754
578.665	209
578.875	104
579.086	92
579.297	89
579.508	75
579.718	87
579.929	83
580.14	81
580.35	100
580.561	102
580.772	84
580.982	89
581.193	86
581.403	87
581.614	93
581.825	87
582.035	86
582.246	103
582.456	92
582.667	85
582.877	98
583.087	88
583.298	89
583.508	90
583.719	94
583.929	90
584.139	80
584.35	82
584.56	83
584.77	83
584.981	85
585.191	98
585.401	92
