Data from Uncirc_2008_H10_HRD10591_00037.txt Node
Date: Wed Jan 03 10:15:38 EST 2024
User: Yrep
Spectrometer: HR+D1059
Trigger mode: 1
Integration Time (sec): 1.000000E-1
Scans to average: 1
Electric dark correction enabled: true
Nonlinearity correction enabled: false
Boxcar width: 0
XAxis mode: Wavelengths
Number of Pixels in Spectrum: 2048
>>>>>Begin Spectral Data<<<<<
223.165	-14.81
223.4	-14.81
223.635	-14.81
223.869	-33.81
224.104	-13.81
224.338	-7.81
224.573	-21.81
224.808	-7.81
225.042	2.19
225.277	-3.81
225.511	-2.81
225.746	-0.81
225.98	1.19
226.215	8.19
226.449	23.19
226.683	20.19
226.918	24.19
227.152	28.19
227.387	37.19
227.621	14.19
227.856	21.19
228.09	50.19
228.324	44.19
228.559	50.19
228.793	166.19
229.027	432.19
229.262	512.19
229.496	581.19
229.73	792.19
229.964	777.19
230.199	529.19
230.433	460.19
230.667	452.19
230.901	462.19
231.136	424.19
231.37	432.19
231.604	430.19
231.838	432.19
232.072	469.19
232.306	457.19
232.541	457.19
232.775	442.19
233.009	458.19
233.243	469.19
233.477	452.19
233.711	488.19
233.945	513.19
234.179	494.19
234.413	493.19
234.647	502.19
234.881	492.19
235.115	512.19
235.349	547.19
235.583	559.19
235.817	580.19
236.051	601.19
236.285	593.19
236.519	599.19
236.753	681.19
236.987	904.19
237.221	1372.19
237.455	1461.19
237.689	877.19
237.922	726.19
238.156	694.19
238.39	646.19
238.624	630.19
238.858	631.19
239.091	634.19
239.325	622.19
239.559	657.19
239.793	672.19
240.027	780.19
240.26	888.19
240.494	957.19
240.728	936.19
240.961	872.19
241.195	830.19
241.429	805.19
241.662	743.19
241.896	745.19
242.13	742.19
242.363	718.19
242.597	770.19
242.83	785.19
243.064	808.19
243.298	827.19
243.531	796.19
243.765	817.19
243.998	828.19
244.232	815.19
244.465	866.19
244.699	855.19
244.932	846.19
245.166	849.19
245.399	885.19
245.633	855.19
245.866	900.19
246.099	897.19
246.333	893.19
246.566	911.19
246.8	941.19
247.033	978.19
247.266	1018.19
247.5	1065.19
247.733	1109.19
247.966	1125.19
248.2	1088.19
248.433	1104.19
248.666	1168.19
248.899	1285.19
249.133	1432.19
249.366	1434.19
249.599	1264.19
249.832	1154.19
250.066	1169.19
250.299	1189.19
250.532	1272.19
250.765	1432.19
250.998	1643.19
251.231	1556.19
251.465	1422.19
251.698	1357.19
251.931	1371.19
252.164	1341.19
252.397	1377.19
252.63	1412.19
252.863	1512.19
253.096	1627.19
253.329	1682.19
253.562	1600.19
253.795	1493.19
254.028	1505.19
254.261	1554.19
254.494	1761.19
254.727	2120.19
254.96	2193.19
255.193	1904.19
255.426	1702.19
255.659	1547.19
255.892	1490.19
256.124	1492.19
256.357	1476.19
256.59	1478.19
256.823	1423.19
257.056	1449.19
257.289	1469.19
257.521	1500.19
257.754	1468.19
257.987	1464.19
258.22	1489.19
258.452	1498.19
258.685	1513.19
258.918	1561.19
259.151	1544.19
259.383	1630.19
259.616	1682.19
259.849	1697.19
260.081	1842.19
260.314	2016.19
260.547	2006.19
260.779	1810.19
261.012	1696.19
261.244	1670.19
261.477	1612.19
261.71	1641.19
261.942	1697.19
262.175	1700.19
262.407	1673.19
262.64	1598.19
262.872	1584.19
263.105	1564.19
263.337	1598.19
263.57	1574.19
263.802	1631.19
264.035	1596.19
264.267	1641.19
264.499	1654.19
264.732	1618.19
264.964	1626.19
265.197	1627.19
265.429	1662.19
265.661	1652.19
265.894	1687.19
266.126	1673.19
266.358	1691.19
266.591	1711.19
266.823	1820.19
267.055	1817.19
267.287	1804.19
267.52	1796.19
267.752	1810.19
267.984	1831.19
268.216	1844.19
268.448	1894.19
268.681	1975.19
268.913	2103.19
269.145	2293.19
269.377	2312.19
269.609	2199.19
269.841	2172.19
270.073	2293.19
270.306	2627.19
270.538	2743.19
270.77	2609.19
271.002	2431.19
271.234	2450.19
271.466	2592.19
271.698	2688.19
271.93	2647.19
272.162	2679.19
272.394	2620.19
272.626	2457.19
272.858	2314.19
273.09	2255.19
273.322	2228.19
273.553	2221.19
273.785	2179.19
274.017	2167.19
274.249	2202.19
274.481	2258.19
274.713	2228.19
274.945	2236.19
275.176	2242.19
275.408	2184.19
275.64	2206.19
275.872	2159.19
276.104	2236.19
276.335	2250.19
276.567	2315.19
276.799	2460.19
277.031	2742.19
277.262	2806.19
277.494	2764.19
277.726	2509.19
277.957	2430.19
278.189	2393.19
278.421	2305.19
278.652	2314.19
278.884	2311.19
279.115	2274.19
279.347	2312.19
279.579	2319.19
279.81	2326.19
280.042	2277.19
280.273	2298.19
280.505	2372.19
280.736	2358.19
280.968	2365.19
281.199	2329.19
281.431	2392.19
281.662	2403.19
281.894	2451.19
282.125	2459.19
282.356	2638.19
282.588	2756.19
282.819	2570.19
283.051	2516.19
283.282	2460.19
283.513	2534.19
283.745	2574.19
283.976	2608.19
284.207	2609.19
284.439	2591.19
284.67	2540.19
284.901	2624.19
285.132	2588.19
285.364	2536.19
285.595	2540.19
285.826	2574.19
286.057	2656.19
286.288	2634.19
286.52	2591.19
286.751	2596.19
286.982	2670.19
287.213	2649.19
287.444	2728.19
287.675	2789.19
287.906	2854.19
288.138	2825.19
288.369	2875.19
288.6	2848.19
288.831	2797.19
289.062	2793.19
289.293	2790.19
289.524	2773.19
289.755	2758.19
289.986	2769.19
290.217	2734.19
290.448	2750.19
290.679	2745.19
290.91	2721.19
291.141	2740.19
291.371	2746.19
291.602	2814.19
291.833	2724.19
292.064	2734.19
292.295	2766.19
292.526	2771.19
292.757	2808.19
292.987	2732.19
293.218	2746.19
293.449	2838.19
293.68	2844.19
293.91	2830.19
294.141	2813.19
294.372	2766.19
294.603	2817.19
294.833	2806.19
295.064	2818.19
295.295	2843.19
295.525	2870.19
295.756	2870.19
295.987	2966.19
296.217	3096.19
296.448	3028.19
296.679	2912.19
296.909	2924.19
297.14	2888.19
297.37	2960.19
297.601	2996.19
297.831	2987.19
298.062	3044.19
298.292	3064.19
298.523	3104.19
298.753	3067.19
298.984	3040.19
299.214	3081.19
299.445	3012.19
299.675	3082.19
299.905	3139.19
300.136	3040.19
300.366	3126.19
300.597	3223.19
300.827	3240.19
301.057	3291.19
301.288	3371.19
301.518	3256.19
301.748	3274.19
301.979	3373.19
302.209	3316.19
302.439	3351.19
302.669	3296.19
302.9	3244.19
303.13	3249.19
303.36	3282.19
303.59	3294.19
303.82	3338.19
304.051	3332.19
304.281	3300.19
304.511	3257.19
304.741	3242.19
304.971	3286.19
305.201	3202.19
305.431	3204.19
305.661	3245.19
305.891	3209.19
306.121	3225.19
306.352	3307.19
306.582	3267.19
306.812	3213.19
307.042	3237.19
307.272	3225.19
307.502	3229.19
307.731	3263.19
307.961	3245.19
308.191	3225.19
308.421	3222.19
308.651	3287.19
308.881	3305.19
309.111	3295.19
309.341	3366.19
309.571	3416.19
309.8	3471.19
310.03	3528.19
310.26	3557.19
310.49	3553.19
310.72	3706.19
310.949	3734.19
311.179	3736.19
311.409	3554.19
311.639	3579.19
311.868	3599.19
312.098	3693.19
312.328	3753.19
312.557	3896.19
312.787	3908.19
313.017	3812.19
313.246	3730.19
313.476	3665.19
313.706	3726.19
313.935	3808.19
314.165	3911.19
314.394	3903.19
314.624	3866.19
314.853	3833.19
315.083	3744.19
315.312	3642.19
315.542	3658.19
315.771	3621.19
316.001	3590.19
316.23	3678.19
316.46	3674.19
316.689	3681.19
316.919	3774.19
317.148	3746.19
317.377	3735.19
317.607	3724.19
317.836	3675.19
318.065	3648.19
318.295	3627.19
318.524	3661.19
318.753	3639.19
318.983	3608.19
319.212	3646.19
319.441	3728.19
319.67	3656.19
319.9	3653.19
320.129	3671.19
320.358	3734.19
320.587	3656.19
320.816	3783.19
321.046	3809.19
321.275	3748.19
321.504	3750.19
321.733	3843.19
321.962	3882.19
322.191	3952.19
322.42	4050.19
322.649	4094.19
322.878	4191.19
323.108	4302.19
323.337	4522.19
323.566	4591.19
323.795	4867.19
324.024	5492.19
324.253	7189.19
324.482	10748.19
324.71	15056.19
324.939	15602.19
325.168	12788.19
325.397	6500.19
325.626	5223.19
325.855	4754.19
326.084	4703.19
326.313	4669.19
326.542	4802.19
326.77	5436.19
326.999	6864.19
327.228	9996.19
327.457	14132.19
327.686	13317.19
327.914	7202.19
328.143	5654.19
328.372	5339.19
328.6	5147.19
328.829	5084.19
329.058	5275.19
329.287	5176.19
329.515	4893.19
329.744	4696.19
329.972	4645.19
330.201	4733.19
330.43	4952.19
330.658	5361.19
330.887	5667.19
331.115	5300.19
331.344	4865.19
331.572	4862.19
331.801	4896.19
332.03	4925.19
332.258	4920.19
332.486	4876.19
332.715	5018.19
332.943	5112.19
333.172	5288.19
333.4	5347.19
333.629	5481.19
333.857	5494.19
334.085	5447.19
334.314	5331.19
334.542	5216.19
334.771	5227.19
334.999	5146.19
335.227	5171.19
335.455	5053.19
335.684	4938.19
335.912	4896.19
336.14	4955.19
336.369	4923.19
336.597	4909.19
336.825	4850.19
337.053	4800.19
337.281	4687.19
337.51	4732.19
337.738	4644.19
337.966	4613.19
338.194	4659.19
338.422	4569.19
338.65	4474.19
338.878	4525.19
339.106	4453.19
339.334	4458.19
339.562	4384.19
339.79	4340.19
340.018	4367.19
340.246	4393.19
340.474	4402.19
340.702	4340.19
340.93	4363.19
341.158	4385.19
341.386	4345.19
341.614	4334.19
341.842	4252.19
342.07	4278.19
342.298	4306.19
342.526	4268.19
342.754	4231.19
342.981	4335.19
343.209	4361.19
343.437	4626.19
343.665	4903.19
343.893	5129.19
344.12	5154.19
344.348	4958.19
344.576	4726.19
344.804	4757.19
345.031	4645.19
345.259	4552.19
345.487	4425.19
345.714	4306.19
345.942	4230.19
346.17	4190.19
346.397	4185.19
346.625	4205.19
346.853	4099.19
347.08	4136.19
347.308	4208.19
347.535	4219.19
347.763	4257.19
347.99	4234.19
348.218	4253.19
348.445	4328.19
348.673	4173.19
348.9	4163.19
349.128	4055.19
349.355	4060.19
349.583	3964.19
349.81	4134.19
350.037	4006.19
350.265	3976.19
350.492	4123.19
350.72	4087.19
350.947	4167.19
351.174	4164.19
351.402	4205.19
351.629	4128.19
351.856	4097.19
352.083	4217.19
352.311	4180.19
352.538	4194.19
352.765	4173.19
352.992	4112.19
353.22	4108.19
353.447	4052.19
353.674	4027.19
353.901	3928.19
354.128	3927.19
354.355	3949.19
354.583	3938.19
354.81	3937.19
355.037	3906.19
355.264	3875.19
355.491	3861.19
355.718	3984.19
355.945	3878.19
356.172	3933.19
356.399	3944.19
356.626	3918.19
356.853	3896.19
357.08	3922.19
357.307	3890.19
357.534	3957.19
357.761	3959.19
357.988	3953.19
358.215	3900.19
358.441	4004.19
358.668	3980.19
358.895	4040.19
359.122	4024.19
359.349	4066.19
359.576	4239.19
359.802	4448.19
360.029	4581.19
360.256	4568.19
360.483	4395.19
360.709	4237.19
360.936	4144.19
361.163	4153.19
361.39	4134.19
361.616	4192.19
361.843	4145.19
362.07	4124.19
362.296	4185.19
362.523	4080.19
362.749	4153.19
362.976	4073.19
363.203	4000.19
363.429	4013.19
363.656	4077.19
363.882	4008.19
364.109	4010.19
364.335	4012.19
364.562	3992.19
364.788	4006.19
365.015	4039.19
365.241	3965.19
365.468	4076.19
365.694	4086.19
365.92	4077.19
366.147	4036.19
366.373	4012.19
366.599	4009.19
366.826	3971.19
367.052	3913.19
367.278	3992.19
367.505	4006.19
367.731	3998.19
367.957	4030.19
368.184	4101.19
368.41	4131.19
368.636	4201.19
368.862	4302.19
369.089	4134.19
369.315	4127.19
369.541	4080.19
369.767	4153.19
369.993	4132.19
370.219	4142.19
370.445	4141.19
370.672	4173.19
370.898	4160.19
371.124	4234.19
371.35	4329.19
371.576	4234.19
371.802	4289.19
372.028	4268.19
372.254	4291.19
372.48	4293.19
372.706	4405.19
372.932	4441.19
373.158	4407.19
373.384	4335.19
373.61	4304.19
373.835	4370.19
374.061	4372.19
374.287	4428.19
374.513	4454.19
374.739	4637.19
374.965	4768.19
375.191	4730.19
375.416	4624.19
375.642	4454.19
375.868	4503.19
376.094	4378.19
376.319	4335.19
376.545	4370.19
376.771	4328.19
376.997	4320.19
377.222	4379.19
377.448	4330.19
377.674	4313.19
377.899	4247.19
378.125	4264.19
378.35	4238.19
378.576	4218.19
378.802	4264.19
379.027	4232.19
379.253	4257.19
379.478	4220.19
379.704	4264.19
379.929	4309.19
380.155	4291.19
380.38	4252.19
380.606	4302.19
380.831	4287.19
381.057	4374.19
381.282	4313.19
381.507	4322.19
381.733	4378.19
381.958	4410.19
382.184	4441.19
382.409	4518.19
382.634	4508.19
382.86	4578.19
383.085	4665.19
383.31	4657.19
383.535	4704.19
383.761	4822.19
383.986	4827.19
384.211	4870.19
384.436	5022.19
384.662	5080.19
384.887	5195.19
385.112	5112.19
385.337	5157.19
385.562	5184.19
385.787	5141.19
386.013	5297.19
386.238	5326.19
386.463	5260.19
386.688	5281.19
386.913	5097.19
387.138	5096.19
387.363	5186.19
387.588	5072.19
387.813	5134.19
388.038	5104.19
388.263	5174.19
388.488	5219.19
388.713	5142.19
388.938	5102.19
389.163	5101.19
389.387	5132.19
389.612	5094.19
389.837	5052.19
390.062	5012.19
390.287	5053.19
390.512	5075.19
390.736	5166.19
390.961	5213.19
391.186	5283.19
391.411	5487.19
391.636	5615.19
391.86	5745.19
392.085	5790.19
392.31	5632.19
392.534	5582.19
392.759	5432.19
392.984	5345.19
393.208	5325.19
393.433	5350.19
393.658	5376.19
393.882	5326.19
394.107	5381.19
394.331	5412.19
394.556	5382.19
394.78	5467.19
395.005	5557.19
395.229	5481.19
395.454	5694.19
395.678	5834.19
395.903	5832.19
396.127	5824.19
396.352	5684.19
396.576	5461.19
396.801	5425.19
397.025	5554.19
397.249	5658.19
397.474	5817.19
397.698	5847.19
397.922	5954.19
398.147	6004.19
398.371	6124.19
398.595	6269.19
398.82	6615.19
399.044	7138.19
399.268	7863.19
399.492	9024.19
399.717	9598.19
399.941	9300.19
400.165	8702.19
400.389	8046.19
400.613	7238.19
400.837	6842.19
401.062	6586.19
401.286	6564.19
401.51	6500.19
401.734	6490.19
401.958	6584.19
402.182	6695.19
402.406	6733.19
402.63	6814.19
402.854	7064.19
403.078	7061.19
403.302	7201.19
403.526	7253.19
403.75	7391.19
403.974	7397.19
404.198	7320.19
404.422	7433.19
404.645	7293.19
404.869	7290.19
405.093	7349.19
405.317	7453.19
405.541	7471.19
405.765	7160.19
405.988	7132.19
406.212	7336.19
406.436	7492.19
406.66	7685.19
406.883	7716.19
407.107	8193.19
407.331	8815.19
407.555	9289.19
407.778	8904.19
408.002	8205.19
408.226	7851.19
408.449	7712.19
408.673	7652.19
408.896	7760.19
409.12	7946.19
409.344	7492.19
409.567	7029.19
409.791	7096.19
410.014	6944.19
410.238	6970.19
410.461	6924.19
410.685	6973.19
410.908	7044.19
411.132	7317.19
411.355	7314.19
411.578	7000.19
411.802	6673.19
412.025	6671.19
412.249	6727.19
412.472	6710.19
412.695	6537.19
412.919	6446.19
413.142	6397.19
413.365	6351.19
413.589	6447.19
413.812	6341.19
414.035	6161.19
414.258	6372.19
414.482	6444.19
414.705	6433.19
414.928	6359.19
415.151	6401.19
415.374	6368.19
415.597	6351.19
415.821	6228.19
416.044	6283.19
416.267	6240.19
416.49	6191.19
416.713	6110.19
416.936	6250.19
417.159	6293.19
417.382	6266.19
417.605	6267.19
417.828	6432.19
418.051	6662.19
418.274	6446.19
418.497	6404.19
418.72	6520.19
418.943	6494.19
419.166	6876.19
419.389	7233.19
419.611	7065.19
419.834	6812.19
420.057	6739.19
420.28	6464.19
420.503	6364.19
420.726	6396.19
420.948	6563.19
421.171	7024.19
421.394	6990.19
421.617	6440.19
421.839	6575.19
422.062	6642.19
422.285	6748.19
422.507	7480.19
422.73	8013.19
422.953	7420.19
423.175	6990.19
423.398	6976.19
423.621	6913.19
423.843	7260.19
424.066	7200.19
424.288	7161.19
424.511	7309.19
424.733	7708.19
424.956	8214.19
425.178	7737.19
425.401	7909.19
425.623	7641.19
425.846	6874.19
426.068	6665.19
426.291	6522.19
426.513	6520.19
426.735	6625.19
426.958	7112.19
427.18	7841.19
427.402	9027.19
427.625	8997.19
427.847	7496.19
428.069	6729.19
428.292	6397.19
428.514	6030.19
428.736	5896.19
428.958	5956.19
429.181	5774.19
429.403	5822.19
429.625	5946.19
429.847	6290.19
430.069	6840.19
430.292	6396.19
430.514	5846.19
430.736	5788.19
430.958	5699.19
431.18	5678.19
431.402	5713.19
431.624	5593.19
431.846	5728.19
432.068	5730.19
432.29	5806.19
432.512	5646.19
432.734	5765.19
432.956	5677.19
433.178	5880.19
433.4	5879.19
433.622	5677.19
433.844	5795.19
434.066	5706.19
434.287	5883.19
434.509	6150.19
434.731	6340.19
434.953	6462.19
435.175	6560.19
435.397	6681.19
435.618	6641.19
435.84	6961.19
436.062	7746.19
436.284	7782.19
436.505	6560.19
436.727	6235.19
436.949	5890.19
437.17	5893.19
437.392	5751.19
437.614	6032.19
437.835	6340.19
438.057	7262.19
438.278	7952.19
438.5	7918.19
438.721	8674.19
438.943	7631.19
439.165	6444.19
439.386	6238.19
439.608	6275.19
439.829	6346.19
440.05	6660.19
440.272	7096.19
440.493	6423.19
440.715	6079.19
440.936	6103.19
441.158	6113.19
441.379	6381.19
441.6	6594.19
441.822	6782.19
442.043	7308.19
442.264	8037.19
442.486	7817.19
442.707	6959.19
442.928	6779.19
443.149	6937.19
443.371	7161.19
443.592	7749.19
443.813	8695.19
444.034	8712.19
444.255	7602.19
444.476	7358.19
444.698	7490.19
444.919	7689.19
445.14	7477.19
445.361	7272.19
445.582	7383.19
445.803	7989.19
446.024	8662.19
446.245	8294.19
446.466	7442.19
446.687	6427.19
446.908	6202.19
447.129	5822.19
447.35	5724.19
447.571	5600.19
447.792	5535.19
448.013	5564.19
448.234	5881.19
448.455	6594.19
448.675	7762.19
448.896	8200.19
449.117	6783.19
449.338	6956.19
449.559	8238.19
449.779	8498.19
450	6446.19
450.221	5790.19
450.442	5553.19
450.662	5449.19
450.883	5544.19
451.104	5599.19
451.324	5392.19
451.545	5342.19
451.766	5182.19
451.986	5041.19
452.207	5054.19
452.428	4967.19
452.648	5150.19
452.869	5063.19
453.089	5153.19
453.31	5292.19
453.53	5006.19
453.751	5084.19
453.971	5078.19
454.192	5188.19
454.412	5002.19
454.633	4943.19
454.853	4888.19
455.073	4994.19
455.294	5325.19
455.514	5848.19
455.734	5420.19
455.955	4768.19
456.175	4646.19
456.395	4657.19
456.616	4604.19
456.836	4600.19
457.056	4596.19
457.276	4525.19
457.497	4739.19
457.717	4692.19
457.937	4838.19
458.157	4828.19
458.377	4958.19
458.598	5248.19
458.818	6026.19
459.038	6738.19
459.258	6584.19
459.478	5844.19
459.698	5845.19
459.918	5902.19
460.138	6007.19
460.358	6249.19
460.578	6292.19
460.798	6383.19
461.018	6353.19
461.238	6192.19
461.458	6208.19
461.678	6127.19
461.898	6343.19
462.118	6359.19
462.338	6723.19
462.558	6791.19
462.777	7164.19
462.997	7797.19
463.217	8044.19
463.437	7908.19
463.657	7350.19
463.876	7060.19
464.096	7208.19
464.316	7093.19
464.536	7192.19
464.755	6908.19
464.975	6866.19
465.195	7102.19
465.414	7085.19
465.634	6218.19
465.854	5910.19
466.073	5676.19
466.293	5510.19
466.512	5385.19
466.732	5194.19
466.951	5207.19
467.171	5197.19
467.391	5324.19
467.61	5294.19
467.829	5288.19
468.049	5198.19
468.268	5018.19
468.488	4975.19
468.707	4930.19
468.927	5046.19
469.146	4949.19
469.365	5047.19
469.585	5047.19
469.804	5317.19
470.023	5400.19
470.243	5394.19
470.462	5481.19
470.681	5582.19
470.901	5495.19
471.12	5450.19
471.339	5316.19
471.558	5272.19
471.777	5179.19
471.997	5075.19
472.216	5018.19
472.435	4922.19
472.654	4996.19
472.873	4883.19
473.092	4936.19
473.311	4983.19
473.53	4959.19
473.749	5100.19
473.968	5605.19
474.187	6686.19
474.406	6203.19
474.625	5280.19
474.844	5053.19
475.063	4961.19
475.282	4991.19
475.501	5113.19
475.72	5137.19
475.939	5082.19
476.158	5119.19
476.377	5218.19
476.596	5160.19
476.814	5320.19
477.033	5437.19
477.252	5416.19
477.471	5485.19
477.69	5648.19
477.908	5764.19
478.127	5802.19
478.346	6023.19
478.564	6058.19
478.783	6112.19
479.002	6311.19
479.22	6368.19
479.439	6410.19
479.658	6494.19
479.876	6539.19
480.095	6784.19
480.313	7178.19
480.532	7013.19
480.751	6941.19
480.969	6682.19
481.188	6659.19
481.406	6370.19
481.624	6121.19
481.843	5988.19
482.061	5926.19
482.28	5897.19
482.498	5858.19
482.717	5804.19
482.935	5825.19
483.153	5725.19
483.372	5799.19
483.59	5816.19
483.808	5836.19
484.027	5816.19
484.245	5917.19
484.463	5964.19
484.681	6017.19
484.9	6057.19
485.118	6153.19
485.336	6143.19
485.554	6166.19
485.772	6230.19
485.99	6299.19
486.209	6240.19
486.427	6268.19
486.645	6424.19
486.863	6446.19
487.081	6338.19
487.299	6413.19
487.517	6268.19
487.735	6188.19
487.953	6333.19
