Data from Uncirc_2008_H10_HRD10591_00078.txt Node
Date: Wed Jan 03 10:15:46 EST 2024
User: Yrep
Spectrometer: HR+D1059
Trigger mode: 1
Integration Time (sec): 1.000000E-1
Scans to average: 1
Electric dark correction enabled: true
Nonlinearity correction enabled: false
Boxcar width: 0
XAxis mode: Wavelengths
Number of Pixels in Spectrum: 2048
>>>>>Begin Spectral Data<<<<<
223.165	-8.19
223.4	-8.19
223.635	-8.19
223.869	-24.19
224.104	-21.19
224.338	-3.19
224.573	-8.19
224.808	-8.19
225.042	1.81
225.277	-12.19
225.511	-8.19
225.746	-1.19
225.98	0.81
226.215	16.81
226.449	5.81
226.683	13.81
226.918	27.81
227.152	27.81
227.387	41.81
227.621	41.81
227.856	56.81
228.09	37.81
228.324	62.81
228.559	66.81
228.793	64.81
229.027	77.81
229.262	62.81
229.496	75.81
229.73	76.81
229.964	90.81
230.199	84.81
230.433	63.81
230.667	80.81
230.901	84.81
231.136	72.81
231.37	87.81
231.604	72.81
231.838	76.81
232.072	77.81
232.306	81.81
232.541	79.81
232.775	99.81
233.009	91.81
233.243	90.81
233.477	88.81
233.711	67.81
233.945	77.81
234.179	76.81
234.413	92.81
234.647	82.81
234.881	80.81
235.115	74.81
235.349	82.81
235.583	71.81
235.817	69.81
236.051	75.81
236.285	79.81
236.519	80.81
236.753	64.81
236.987	85.81
237.221	95.81
237.455	80.81
237.689	79.81
237.922	83.81
238.156	80.81
238.39	80.81
238.624	80.81
238.858	90.81
239.091	65.81
239.325	76.81
239.559	74.81
239.793	73.81
240.027	77.81
240.26	69.81
240.494	86.81
240.728	71.81
240.961	78.81
241.195	77.81
241.429	79.81
241.662	88.81
241.896	80.81
242.13	83.81
242.363	88.81
242.597	86.81
242.83	94.81
243.064	63.81
243.298	82.81
243.531	80.81
243.765	70.81
243.998	80.81
244.232	87.81
244.465	76.81
244.699	89.81
244.932	84.81
245.166	79.81
245.399	87.81
245.633	72.81
245.866	83.81
246.099	76.81
246.333	72.81
246.566	87.81
246.8	92.81
247.033	88.81
247.266	71.81
247.5	85.81
247.733	76.81
247.966	80.81
248.2	81.81
248.433	90.81
248.666	87.81
248.899	80.81
249.133	100.81
249.366	84.81
249.599	89.81
249.832	73.81
250.066	77.81
250.299	88.81
250.532	85.81
250.765	85.81
250.998	72.81
251.231	79.81
251.465	86.81
251.698	89.81
251.931	64.81
252.164	71.81
252.397	91.81
252.63	89.81
252.863	78.81
253.096	73.81
253.329	76.81
253.562	76.81
253.795	80.81
254.028	79.81
254.261	86.81
254.494	84.81
254.727	83.81
254.96	91.81
255.193	86.81
255.426	82.81
255.659	76.81
255.892	77.81
256.124	83.81
256.357	79.81
256.59	77.81
256.823	80.81
257.056	88.81
257.289	89.81
257.521	73.81
257.754	93.81
257.987	93.81
258.22	99.81
258.452	91.81
258.685	80.81
258.918	84.81
259.151	89.81
259.383	85.81
259.616	81.81
259.849	78.81
260.081	77.81
260.314	85.81
260.547	97.81
260.779	89.81
261.012	83.81
261.244	84.81
261.477	75.81
261.71	87.81
261.942	101.81
262.175	95.81
262.407	84.81
262.64	85.81
262.872	85.81
263.105	86.81
263.337	85.81
263.57	80.81
263.802	81.81
264.035	79.81
264.267	79.81
264.499	88.81
264.732	93.81
264.964	85.81
265.197	80.81
265.429	79.81
265.661	82.81
265.894	80.81
266.126	85.81
266.358	75.81
266.591	81.81
266.823	72.81
267.055	83.81
267.287	92.81
267.52	81.81
267.752	75.81
267.984	80.81
268.216	80.81
268.448	60.81
268.681	91.81
268.913	96.81
269.145	99.81
269.377	83.81
269.609	84.81
269.841	89.81
270.073	89.81
270.306	74.81
270.538	97.81
270.77	93.81
271.002	83.81
271.234	76.81
271.466	77.81
271.698	90.81
271.93	83.81
272.162	75.81
272.394	92.81
272.626	82.81
272.858	82.81
273.09	96.81
273.322	81.81
273.553	79.81
273.785	85.81
274.017	94.81
274.249	63.81
274.481	83.81
274.713	83.81
274.945	93.81
275.176	91.81
275.408	78.81
275.64	81.81
275.872	79.81
276.104	95.81
276.335	91.81
276.567	89.81
276.799	104.81
277.031	108.81
277.262	95.81
277.494	93.81
277.726	94.81
277.957	75.81
278.189	92.81
278.421	88.81
278.652	89.81
278.884	88.81
279.115	82.81
279.347	79.81
279.579	92.81
279.81	74.81
280.042	80.81
280.273	66.81
280.505	80.81
280.736	83.81
280.968	91.81
281.199	93.81
281.431	94.81
281.662	94.81
281.894	89.81
282.125	98.81
282.356	107.81
282.588	126.81
282.819	94.81
283.051	89.81
283.282	94.81
283.513	91.81
283.745	76.81
283.976	84.81
284.207	84.81
284.439	79.81
284.67	105.81
284.901	104.81
285.132	85.81
285.364	79.81
285.595	97.81
285.826	86.81
286.057	95.81
286.288	95.81
286.52	83.81
286.751	85.81
286.982	89.81
287.213	73.81
287.444	74.81
287.675	84.81
287.906	81.81
288.138	99.81
288.369	95.81
288.6	80.81
288.831	81.81
289.062	82.81
289.293	75.81
289.524	87.81
289.755	86.81
289.986	88.81
290.217	83.81
290.448	96.81
290.679	83.81
290.91	80.81
291.141	81.81
291.371	95.81
291.602	76.81
291.833	89.81
292.064	88.81
292.295	77.81
292.526	91.81
292.757	86.81
292.987	92.81
293.218	98.81
293.449	108.81
293.68	79.81
293.91	93.81
294.141	101.81
294.372	79.81
294.603	85.81
294.833	96.81
295.064	79.81
295.295	86.81
295.525	98.81
295.756	109.81
295.987	107.81
296.217	136.81
296.448	112.81
296.679	96.81
296.909	89.81
297.14	82.81
297.37	92.81
297.601	85.81
297.831	83.81
298.062	96.81
298.292	84.81
298.523	86.81
298.753	84.81
298.984	89.81
299.214	95.81
299.445	91.81
299.675	91.81
299.905	106.81
300.136	85.81
300.366	99.81
300.597	86.81
300.827	110.81
301.057	96.81
301.288	83.81
301.518	91.81
301.748	84.81
301.979	98.81
302.209	92.81
302.439	103.81
302.669	83.81
302.9	89.81
303.13	84.81
303.36	92.81
303.59	106.81
303.82	96.81
304.051	98.81
304.281	82.81
304.511	100.81
304.741	98.81
304.971	84.81
305.201	86.81
305.431	84.81
305.661	78.81
305.891	103.81
306.121	104.81
306.352	98.81
306.582	97.81
306.812	98.81
307.042	92.81
307.272	96.81
307.502	90.81
307.731	92.81
307.961	92.81
308.191	84.81
308.421	93.81
308.651	81.81
308.881	97.81
309.111	77.81
309.341	80.81
309.571	82.81
309.8	91.81
310.03	88.81
310.26	108.81
310.49	106.81
310.72	99.81
310.949	103.81
311.179	108.81
311.409	85.81
311.639	97.81
311.868	106.81
312.098	93.81
312.328	100.81
312.557	112.81
312.787	102.81
313.017	91.81
313.246	91.81
313.476	65.81
313.706	95.81
313.935	87.81
314.165	96.81
314.394	111.81
314.624	91.81
314.853	86.81
315.083	97.81
315.312	87.81
315.542	94.81
315.771	86.81
316.001	95.81
316.23	92.81
316.46	76.81
316.689	97.81
316.919	100.81
317.148	97.81
317.377	98.81
317.607	94.81
317.836	89.81
318.065	79.81
318.295	94.81
318.524	85.81
318.753	92.81
318.983	86.81
319.212	105.81
319.441	98.81
319.67	105.81
319.9	97.81
320.129	100.81
320.358	100.81
320.587	91.81
320.816	98.81
321.046	97.81
321.275	100.81
321.504	102.81
321.733	98.81
321.962	95.81
322.191	95.81
322.42	112.81
322.649	101.81
322.878	105.81
323.108	123.81
323.337	114.81
323.566	131.81
323.795	148.81
324.024	199.81
324.253	379.81
324.482	766.81
324.71	1543.81
324.939	2037.81
325.168	745.81
325.397	223.81
325.626	143.81
325.855	137.81
326.084	119.81
326.313	111.81
326.542	157.81
326.77	214.81
326.999	432.81
327.228	859.81
327.457	1532.81
327.686	1231.81
327.914	355.81
328.143	169.81
328.372	144.81
328.6	124.81
328.829	124.81
329.058	112.81
329.287	107.81
329.515	108.81
329.744	92.81
329.972	96.81
330.201	103.81
330.43	101.81
330.658	105.81
330.887	130.81
331.115	115.81
331.344	93.81
331.572	96.81
331.801	90.81
332.03	89.81
332.258	94.81
332.486	89.81
332.715	95.81
332.943	93.81
333.172	79.81
333.4	87.81
333.629	101.81
333.857	106.81
334.085	105.81
334.314	103.81
334.542	91.81
334.771	88.81
334.999	87.81
335.227	107.81
335.455	85.81
335.684	99.81
335.912	96.81
336.14	98.81
336.369	95.81
336.597	96.81
336.825	100.81
337.053	91.81
337.281	91.81
337.51	80.81
337.738	108.81
337.966	89.81
338.194	96.81
338.422	106.81
338.65	85.81
338.878	66.81
339.106	91.81
339.334	89.81
339.562	101.81
339.79	89.81
340.018	94.81
340.246	95.81
340.474	89.81
340.702	88.81
340.93	90.81
341.158	100.81
341.386	95.81
341.614	82.81
341.842	97.81
342.07	83.81
342.298	101.81
342.526	101.81
342.754	79.81
342.981	84.81
343.209	89.81
343.437	94.81
343.665	91.81
343.893	86.81
344.12	94.81
344.348	77.81
344.576	87.81
344.804	75.81
345.031	105.81
345.259	105.81
345.487	101.81
345.714	89.81
345.942	83.81
346.17	98.81
346.397	96.81
346.625	81.81
346.853	101.81
347.08	87.81
347.308	92.81
347.535	106.81
347.763	103.81
347.99	97.81
348.218	90.81
348.445	99.81
348.673	98.81
348.9	106.81
349.128	93.81
349.355	92.81
349.583	79.81
349.81	96.81
350.037	104.81
350.265	101.81
350.492	94.81
350.72	88.81
350.947	113.81
351.174	121.81
351.402	105.81
351.629	96.81
351.856	99.81
352.083	93.81
352.311	105.81
352.538	112.81
352.765	115.81
352.992	133.81
353.22	112.81
353.447	105.81
353.674	106.81
353.901	100.81
354.128	92.81
354.355	95.81
354.583	105.81
354.81	101.81
355.037	101.81
355.264	99.81
355.491	103.81
355.718	107.81
355.945	90.81
356.172	90.81
356.399	84.81
356.626	100.81
356.853	86.81
357.08	85.81
357.307	98.81
357.534	83.81
357.761	99.81
357.988	82.81
358.215	86.81
358.441	86.81
358.668	91.81
358.895	80.81
359.122	99.81
359.349	101.81
359.576	96.81
359.802	96.81
360.029	113.81
360.256	112.81
360.483	87.81
360.709	93.81
360.936	105.81
361.163	97.81
361.39	96.81
361.616	96.81
361.843	107.81
362.07	88.81
362.296	86.81
362.523	87.81
362.749	88.81
362.976	90.81
363.203	102.81
363.429	82.81
363.656	99.81
363.882	97.81
364.109	85.81
364.335	102.81
364.562	96.81
364.788	87.81
365.015	91.81
365.241	96.81
365.468	100.81
365.694	110.81
365.92	101.81
366.147	108.81
366.373	95.81
366.599	87.81
366.826	90.81
367.052	85.81
367.278	89.81
367.505	95.81
367.731	104.81
367.957	88.81
368.184	88.81
368.41	117.81
368.636	109.81
368.862	124.81
369.089	108.81
369.315	107.81
369.541	89.81
369.767	104.81
369.993	84.81
370.219	95.81
370.445	101.81
370.672	81.81
370.898	99.81
371.124	86.81
371.35	84.81
371.576	91.81
371.802	102.81
372.028	96.81
372.254	88.81
372.48	97.81
372.706	86.81
372.932	91.81
373.158	107.81
373.384	106.81
373.61	95.81
373.835	104.81
374.061	71.81
374.287	88.81
374.513	99.81
374.739	91.81
374.965	91.81
375.191	85.81
375.416	90.81
375.642	96.81
375.868	90.81
376.094	100.81
376.319	74.81
376.545	74.81
376.771	102.81
376.997	94.81
377.222	92.81
377.448	98.81
377.674	86.81
377.899	94.81
378.125	85.81
378.35	95.81
378.576	86.81
378.802	95.81
379.027	78.81
379.253	98.81
379.478	93.81
379.704	98.81
379.929	91.81
380.155	106.81
380.38	106.81
380.606	93.81
380.831	92.81
381.057	92.81
381.282	95.81
381.507	88.81
381.733	110.81
381.958	101.81
382.184	106.81
382.409	97.81
382.634	84.81
382.86	102.81
383.085	100.81
383.31	102.81
383.535	112.81
383.761	102.81
383.986	92.81
384.211	96.81
384.436	94.81
384.662	107.81
384.887	94.81
385.112	101.81
385.337	95.81
385.562	107.81
385.787	103.81
386.013	103.81
386.238	110.81
386.463	104.81
386.688	94.81
386.913	100.81
387.138	98.81
387.363	98.81
387.588	109.81
387.813	97.81
388.038	83.81
388.263	124.81
388.488	112.81
388.713	97.81
388.938	98.81
389.163	97.81
389.387	91.81
389.612	102.81
389.837	91.81
390.062	87.81
390.287	88.81
390.512	96.81
390.736	84.81
390.961	89.81
391.186	96.81
391.411	101.81
391.636	96.81
391.86	74.81
392.085	84.81
392.31	86.81
392.534	102.81
392.759	98.81
392.984	79.81
393.208	89.81
393.433	85.81
393.658	69.81
393.882	90.81
394.107	82.81
394.331	103.81
394.556	87.81
394.78	97.81
395.005	94.81
395.229	77.81
395.454	83.81
395.678	86.81
395.903	77.81
396.127	95.81
396.352	82.81
396.576	89.81
396.801	80.81
397.025	78.81
397.249	92.81
397.474	109.81
397.698	92.81
397.922	89.81
398.147	92.81
398.371	83.81
398.595	99.81
398.82	95.81
399.044	92.81
399.268	99.81
399.492	93.81
399.717	87.81
399.941	83.81
400.165	89.81
400.389	100.81
400.613	89.81
400.837	91.81
401.062	88.81
401.286	85.81
401.51	91.81
401.734	73.81
401.958	84.81
402.182	119.81
402.406	159.81
402.63	120.81
402.854	93.81
403.078	98.81
403.302	98.81
403.526	78.81
403.75	74.81
403.974	82.81
404.198	105.81
404.422	95.81
404.645	77.81
404.869	89.81
405.093	75.81
405.317	103.81
405.541	97.81
405.765	92.81
405.988	112.81
406.212	163.81
406.436	210.81
406.66	143.81
406.883	109.81
407.107	92.81
407.331	91.81
407.555	107.81
407.778	99.81
408.002	87.81
408.226	85.81
408.449	100.81
408.673	103.81
408.896	100.81
409.12	97.81
409.344	90.81
409.567	86.81
409.791	95.81
410.014	110.81
410.238	89.81
410.461	91.81
410.685	109.81
410.908	109.81
411.132	96.81
411.355	91.81
411.578	92.81
411.802	89.81
412.025	83.81
412.249	78.81
412.472	90.81
412.695	92.81
412.919	98.81
413.142	79.81
413.365	77.81
413.589	91.81
413.812	79.81
414.035	91.81
414.258	108.81
414.482	99.81
414.705	91.81
414.928	80.81
415.151	81.81
415.374	94.81
415.597	98.81
415.821	99.81
416.044	88.81
416.267	85.81
416.49	80.81
416.713	77.81
416.936	85.81
417.159	88.81
417.382	96.81
417.605	83.81
417.828	103.81
418.051	87.81
418.274	71.81
418.497	84.81
418.72	90.81
418.943	86.81
419.166	92.81
419.389	89.81
419.611	95.81
419.834	95.81
420.057	97.81
420.28	100.81
420.503	88.81
420.726	87.81
420.948	97.81
421.171	95.81
421.394	103.81
421.617	100.81
421.839	81.81
422.062	92.81
422.285	99.81
422.507	83.81
422.73	90.81
422.953	105.81
423.175	96.81
423.398	97.81
423.621	85.81
423.843	79.81
424.066	106.81
424.288	98.81
424.511	91.81
424.733	108.81
424.956	103.81
425.178	97.81
425.401	100.81
425.623	82.81
425.846	87.81
426.068	97.81
426.291	81.81
426.513	98.81
426.735	95.81
426.958	96.81
427.18	92.81
427.402	138.81
427.625	155.81
427.847	108.81
428.069	89.81
428.292	84.81
428.514	81.81
428.736	82.81
428.958	77.81
429.181	88.81
429.403	90.81
429.625	84.81
429.847	91.81
430.069	104.81
430.292	77.81
430.514	85.81
430.736	95.81
430.958	83.81
431.18	82.81
431.402	100.81
431.624	89.81
431.846	97.81
432.068	90.81
432.29	88.81
432.512	90.81
432.734	88.81
432.956	100.81
433.178	99.81
433.4	106.81
433.622	93.81
433.844	84.81
434.066	93.81
434.287	91.81
434.509	93.81
434.731	79.81
434.953	87.81
435.175	89.81
435.397	99.81
435.618	107.81
435.84	108.81
436.062	113.81
436.284	107.81
436.505	106.81
436.727	83.81
436.949	79.81
437.17	98.81
437.392	85.81
437.614	94.81
437.835	110.81
438.057	111.81
438.278	100.81
438.5	100.81
438.721	95.81
438.943	96.81
439.165	84.81
439.386	81.81
439.608	89.81
439.829	91.81
440.05	112.81
440.272	144.81
440.493	106.81
440.715	87.81
440.936	85.81
441.158	89.81
441.379	90.81
441.6	93.81
441.822	93.81
442.043	89.81
442.264	98.81
442.486	101.81
442.707	93.81
442.928	112.81
443.149	131.81
443.371	134.81
443.592	93.81
443.813	112.81
444.034	101.81
444.255	99.81
444.476	84.81
444.698	96.81
444.919	96.81
445.14	125.81
445.361	126.81
445.582	97.81
445.803	128.81
446.024	139.81
446.245	141.81
446.466	113.81
446.687	97.81
446.908	83.81
447.129	92.81
447.35	103.81
447.571	97.81
447.792	89.81
448.013	85.81
448.234	107.81
448.455	106.81
448.675	116.81
448.896	120.81
449.117	103.81
449.338	107.81
449.559	127.81
449.779	127.81
450	103.81
450.221	104.81
450.442	94.81
450.662	87.81
450.883	117.81
451.104	111.81
451.324	105.81
451.545	85.81
451.766	102.81
451.986	83.81
452.207	88.81
452.428	93.81
452.648	98.81
452.869	100.81
453.089	103.81
453.31	104.81
453.53	84.81
453.751	87.81
453.971	91.81
454.192	101.81
454.412	92.81
454.633	96.81
454.853	100.81
455.073	92.81
455.294	96.81
455.514	104.81
455.734	89.81
455.955	80.81
456.175	81.81
456.395	90.81
456.616	80.81
456.836	89.81
457.056	87.81
457.276	79.81
457.497	81.81
457.717	87.81
457.937	87.81
458.157	97.81
458.377	91.81
458.598	101.81
458.818	151.81
459.038	151.81
459.258	95.81
459.478	93.81
459.698	87.81
459.918	99.81
460.138	86.81
460.358	95.81
460.578	79.81
460.798	99.81
461.018	92.81
461.238	76.81
461.458	89.81
461.678	93.81
461.898	96.81
462.118	87.81
462.338	104.81
462.558	90.81
462.777	73.81
462.997	74.81
463.217	91.81
463.437	85.81
463.657	92.81
463.876	101.81
464.096	94.81
464.316	96.81
464.536	114.81
464.755	93.81
464.975	108.81
465.195	153.81
465.414	147.81
465.634	87.81
465.854	85.81
466.073	91.81
466.293	87.81
466.512	84.81
466.732	83.81
466.951	95.81
467.171	98.81
467.391	103.81
467.61	104.81
467.829	85.81
468.049	92.81
468.268	101.81
468.488	83.81
468.707	79.81
468.927	97.81
469.146	89.81
469.365	85.81
469.585	94.81
469.804	96.81
470.023	96.81
470.243	94.81
470.462	110.81
470.681	103.81
470.901	89.81
471.12	82.81
471.339	99.81
471.558	97.81
471.777	87.81
471.997	80.81
472.216	101.81
472.435	80.81
472.654	81.81
472.873	101.81
473.092	105.81
473.311	85.81
473.53	86.81
473.749	91.81
473.968	92.81
474.187	105.81
474.406	97.81
474.625	75.81
474.844	83.81
475.063	91.81
475.282	85.81
475.501	85.81
475.72	84.81
475.939	75.81
476.158	90.81
476.377	90.81
476.596	79.81
476.814	106.81
477.033	81.81
477.252	81.81
477.471	87.81
477.69	88.81
477.908	89.81
478.127	81.81
478.346	84.81
478.564	90.81
478.783	93.81
479.002	82.81
479.22	89.81
479.439	104.81
479.658	97.81
479.876	78.81
480.095	95.81
480.313	92.81
480.532	93.81
480.751	91.81
480.969	90.81
481.188	94.81
481.406	101.81
481.624	94.81
481.843	81.81
482.061	81.81
482.28	85.81
482.498	86.81
482.717	96.81
482.935	95.81
483.153	73.81
483.372	82.81
483.59	91.81
483.808	87.81
484.027	86.81
484.245	95.81
484.463	98.81
484.681	105.81
484.9	85.81
485.118	98.81
485.336	88.81
485.554	102.81
485.772	98.81
485.99	103.81
486.209	112.81
486.427	87.81
486.645	100.81
486.863	113.81
487.081	94.81
487.299	96.81
487.517	88.81
487.735	88.81
487.953	77.81
488.171	92.81
488.389	107.81
488.607	96.81
488.825	81.81
489.043	92.81
489.261	91.81
489.479	97.81
489.696	87.81
489.914	92.81
490.132	90.81
490.35	91.81
490.568	74.81
490.786	81.81
491.003	88.81
491.221	82.81
491.439	84.81
491.657	79.81
491.874	95.81
492.092	92.81
492.31	95.81
492.527	99.81
492.745	101.81
492.963	99.81
493.18	98.81
493.398	85.81
493.615	101.81
493.833	96.81
494.05	82.81
494.268	95.81
494.485	91.81
494.703	75.81
494.92	91.81
495.138	79.81
495.355	90.81
495.573	95.81
495.79	92.81
496.008	88.81
496.225	76.81
496.442	87.81
496.66	79.81
496.877	91.81
497.094	94.81
497.312	98.81
497.529	88.81
497.746	92.81
497.963	88.81
498.181	91.81
498.398	87.81
498.615	91.81
498.832	104.81
499.049	105.81
499.267	89.81
499.484	80.81
499.701	98.81
499.918	95.81
500.135	79.81
500.352	92.81
500.569	103.81
500.786	101.81
501.003	95.81
501.22	93.81
501.437	85.81
501.654	85.81
501.871	112.81
502.088	93.81
502.305	93.81
502.522	108.81
502.739	104.81
502.956	98.81
503.172	98.81
503.389	90.81
503.606	116.81
503.823	101.81
504.04	88.81
504.256	92.81
504.473	88.81
504.69	80.81
504.907	83.81
505.123	88.81
505.34	106.81
505.557	90.81
505.773	102.81
505.99	104.81
506.207	80.81
506.423	94.81
506.64	103.81
506.856	98.81
507.073	93.81
507.289	92.81
507.506	106.81
507.722	106.81
507.939	109.81
508.155	92.81
508.372	86.81
508.588	92.81
508.805	101.81
509.021	109.81
509.238	96.81
509.454	111.81
509.67	101.81
509.887	119.81
510.103	133.81
510.319	207.81
510.536	715.81
510.752	2264.81
510.968	659.81
511.184	151.81
511.401	114.81
511.617	104.81
511.833	100.81
512.049	94.81
512.265	84.81
512.481	100.81
512.698	104.81
512.914	85.81
513.13	93.81
513.346	103.81
513.562	98.81
513.778	102.81
513.994	107.81
514.21	104.81
514.426	112.81
514.642	123.81
514.858	119.81
515.074	153.81
515.29	427.81
515.506	1335.81
515.721	519.81
