Data from Uncirc_2008_H10_HRD10591_00071.txt Node
Date: Wed Jan 03 10:15:45 EST 2024
User: Yrep
Spectrometer: HR+D1059
Trigger mode: 1
Integration Time (sec): 1.000000E-1
Scans to average: 1
Electric dark correction enabled: true
Nonlinearity correction enabled: false
Boxcar width: 0
XAxis mode: Wavelengths
Number of Pixels in Spectrum: 2048
>>>>>Begin Spectral Data<<<<<
223.165	-17
223.4	-17
223.635	-17
223.869	-4
224.104	-15
224.338	-15
224.573	-11
224.808	-29
225.042	-8
225.277	-10
225.511	8
225.746	8
225.98	2
226.215	-12
226.449	9
226.683	18
226.918	38
227.152	38
227.387	40
227.621	39
227.856	50
228.09	50
228.324	50
228.559	49
228.793	57
229.027	69
229.262	69
229.496	67
229.73	72
229.964	83
230.199	83
230.433	74
230.667	91
230.901	90
231.136	88
231.37	94
231.604	78
231.838	88
232.072	69
232.306	72
232.541	80
232.775	82
233.009	81
233.243	83
233.477	80
233.711	85
233.945	81
234.179	87
234.413	85
234.647	90
234.881	90
235.115	80
235.349	82
235.583	83
235.817	93
236.051	75
236.285	75
236.519	78
236.753	76
236.987	78
237.221	64
237.455	81
237.689	82
237.922	65
238.156	77
238.39	91
238.624	79
238.858	77
239.091	68
239.325	78
239.559	95
239.793	85
240.027	79
240.26	73
240.494	76
240.728	83
240.961	95
241.195	81
241.429	80
241.662	77
241.896	74
242.13	75
242.363	77
242.597	68
242.83	73
243.064	81
243.298	80
243.531	69
243.765	75
243.998	85
244.232	93
244.465	92
244.699	93
244.932	74
245.166	92
245.399	95
245.633	93
245.866	79
246.099	78
246.333	90
246.566	84
246.8	92
247.033	67
247.266	76
247.5	87
247.733	78
247.966	76
248.2	75
248.433	72
248.666	85
248.899	88
249.133	79
249.366	88
249.599	87
249.832	81
250.066	84
250.299	58
250.532	82
250.765	76
250.998	65
251.231	81
251.465	78
251.698	80
251.931	81
252.164	92
252.397	82
252.63	96
252.863	80
253.096	88
253.329	89
253.562	77
253.795	70
254.028	77
254.261	90
254.494	97
254.727	101
254.96	84
255.193	91
255.426	86
255.659	96
255.892	76
256.124	88
256.357	103
256.59	83
256.823	75
257.056	94
257.289	100
257.521	83
257.754	86
257.987	80
258.22	80
258.452	91
258.685	70
258.918	87
259.151	87
259.383	73
259.616	87
259.849	94
260.081	92
260.314	82
260.547	72
260.779	85
261.012	86
261.244	84
261.477	92
261.71	99
261.942	108
262.175	114
262.407	96
262.64	88
262.872	86
263.105	76
263.337	83
263.57	102
263.802	77
264.035	90
264.267	82
264.499	88
264.732	88
264.964	76
265.197	90
265.429	84
265.661	80
265.894	97
266.126	94
266.358	76
266.591	86
266.823	93
267.055	89
267.287	85
267.52	93
267.752	91
267.984	103
268.216	77
268.448	87
268.681	84
268.913	77
269.145	79
269.377	75
269.609	80
269.841	88
270.073	84
270.306	83
270.538	91
270.77	90
271.002	91
271.234	85
271.466	99
271.698	89
271.93	91
272.162	90
272.394	86
272.626	82
272.858	91
273.09	76
273.322	88
273.553	99
273.785	81
274.017	87
274.249	82
274.481	100
274.713	89
274.945	89
275.176	93
275.408	89
275.64	80
275.872	88
276.104	84
276.335	101
276.567	90
276.799	102
277.031	97
277.262	100
277.494	86
277.726	101
277.957	78
278.189	80
278.421	79
278.652	92
278.884	76
279.115	82
279.347	87
279.579	100
279.81	91
280.042	84
280.273	100
280.505	95
280.736	95
280.968	102
281.199	89
281.431	86
281.662	92
281.894	95
282.125	109
282.356	101
282.588	128
282.819	124
283.051	89
283.282	93
283.513	80
283.745	94
283.976	93
284.207	74
284.439	96
284.67	86
284.901	90
285.132	105
285.364	92
285.595	96
285.826	101
286.057	90
286.288	77
286.52	93
286.751	90
286.982	90
287.213	92
287.444	94
287.675	89
287.906	101
288.138	99
288.369	96
288.6	91
288.831	104
289.062	86
289.293	85
289.524	94
289.755	99
289.986	72
290.217	110
290.448	87
290.679	99
290.91	98
291.141	93
291.371	93
291.602	90
291.833	98
292.064	93
292.295	90
292.526	87
292.757	89
292.987	84
293.218	76
293.449	97
293.68	76
293.91	92
294.141	96
294.372	100
294.603	82
294.833	95
295.064	107
295.295	98
295.525	89
295.756	105
295.987	124
296.217	130
296.448	117
296.679	88
296.909	100
297.14	97
297.37	90
297.601	79
297.831	101
298.062	94
298.292	89
298.523	90
298.753	94
298.984	98
299.214	98
299.445	91
299.675	107
299.905	96
300.136	100
300.366	112
300.597	98
300.827	81
301.057	99
301.288	107
301.518	92
301.748	81
301.979	98
302.209	89
302.439	104
302.669	96
302.9	92
303.13	92
303.36	96
303.59	106
303.82	100
304.051	100
304.281	89
304.511	73
304.741	99
304.971	86
305.201	98
305.431	99
305.661	95
305.891	85
306.121	94
306.352	104
306.582	97
306.812	86
307.042	106
307.272	80
307.502	94
307.731	89
307.961	84
308.191	91
308.421	93
308.651	103
308.881	100
309.111	89
309.341	82
309.571	107
309.8	107
310.03	103
310.26	87
310.49	102
310.72	94
310.949	105
311.179	94
311.409	92
311.639	103
311.868	96
312.098	104
312.328	110
312.557	96
312.787	107
313.017	106
313.246	86
313.476	93
313.706	93
313.935	92
314.165	100
314.394	94
314.624	92
314.853	99
315.083	89
315.312	86
315.542	90
315.771	94
316.001	97
316.23	76
316.46	99
316.689	99
316.919	110
317.148	101
317.377	95
317.607	92
317.836	89
318.065	85
318.295	111
318.524	91
318.753	77
318.983	99
319.212	111
319.441	97
319.67	99
319.9	87
320.129	85
320.358	103
320.587	90
320.816	101
321.046	105
321.275	113
321.504	93
321.733	93
321.962	111
322.191	105
322.42	100
322.649	97
322.878	104
323.108	101
323.337	127
323.566	136
323.795	147
324.024	194
324.253	398
324.482	784
324.71	1605
324.939	2080
325.168	760
325.397	218
325.626	148
325.855	125
326.084	131
326.313	127
326.542	150
326.77	233
326.999	461
327.228	903
327.457	1618
327.686	1279
327.914	356
328.143	201
328.372	132
328.6	128
328.829	115
329.058	144
329.287	128
329.515	113
329.744	118
329.972	91
330.201	97
330.43	93
330.658	101
330.887	135
331.115	113
331.344	91
331.572	89
331.801	104
332.03	92
332.258	94
332.486	102
332.715	99
332.943	92
333.172	90
333.4	100
333.629	104
333.857	106
334.085	110
334.314	106
334.542	96
334.771	110
334.999	94
335.227	87
335.455	90
335.684	88
335.912	95
336.14	92
336.369	100
336.597	95
336.825	103
337.053	101
337.281	104
337.51	101
337.738	96
337.966	103
338.194	104
338.422	96
338.65	94
338.878	103
339.106	92
339.334	92
339.562	105
339.79	85
340.018	89
340.246	80
340.474	92
340.702	99
340.93	107
341.158	104
341.386	84
341.614	80
341.842	98
342.07	92
342.298	102
342.526	84
342.754	100
342.981	92
343.209	77
343.437	91
343.665	82
343.893	97
344.12	92
344.348	87
344.576	100
344.804	99
345.031	122
345.259	114
345.487	95
345.714	89
345.942	83
346.17	96
346.397	89
346.625	97
346.853	90
347.08	99
347.308	90
347.535	91
347.763	100
347.99	100
348.218	92
348.445	108
348.673	107
348.9	105
349.128	90
349.355	94
349.583	101
349.81	88
350.037	98
350.265	118
350.492	101
350.72	108
350.947	95
351.174	104
351.402	116
351.629	112
351.856	100
352.083	99
352.311	103
352.538	84
352.765	103
352.992	109
353.22	114
353.447	109
353.674	114
353.901	97
354.128	85
354.355	104
354.583	97
354.81	102
355.037	97
355.264	90
355.491	87
355.718	88
355.945	100
356.172	109
356.399	88
356.626	97
356.853	98
357.08	99
357.307	108
357.534	97
357.761	94
357.988	94
358.215	91
358.441	90
358.668	77
358.895	80
359.122	83
359.349	76
359.576	87
359.802	92
360.029	116
360.256	92
360.483	100
360.709	83
360.936	90
361.163	98
361.39	99
361.616	95
361.843	84
362.07	92
362.296	94
362.523	108
362.749	98
362.976	92
363.203	97
363.429	91
363.656	100
363.882	90
364.109	98
364.335	86
364.562	94
364.788	93
365.015	88
365.241	100
365.468	107
365.694	103
365.92	105
366.147	94
366.373	94
366.599	93
366.826	81
367.052	98
367.278	95
367.505	92
367.731	84
367.957	101
368.184	83
368.41	93
368.636	118
368.862	119
369.089	98
369.315	91
369.541	94
369.767	95
369.993	99
370.219	97
370.445	83
370.672	77
370.898	96
371.124	86
371.35	80
371.576	93
371.802	86
372.028	81
372.254	91
372.48	101
372.706	98
372.932	79
373.158	70
373.384	104
373.61	88
373.835	91
374.061	86
374.287	106
374.513	95
374.739	97
374.965	86
375.191	91
375.416	93
375.642	86
375.868	91
376.094	101
376.319	85
376.545	97
376.771	98
376.997	80
377.222	83
377.448	91
377.674	97
377.899	96
378.125	91
378.35	100
378.576	91
378.802	84
379.027	91
379.253	96
379.478	92
379.704	92
379.929	93
380.155	94
380.38	98
380.606	92
380.831	85
381.057	106
381.282	94
381.507	86
381.733	83
381.958	98
382.184	105
382.409	96
382.634	109
382.86	109
383.085	91
383.31	104
383.535	104
383.761	107
383.986	106
384.211	85
384.436	89
384.662	99
384.887	95
385.112	100
385.337	104
385.562	100
385.787	93
386.013	114
386.238	109
386.463	105
386.688	92
386.913	114
387.138	95
387.363	100
387.588	94
387.813	113
388.038	93
388.263	107
388.488	123
388.713	100
388.938	100
389.163	97
389.387	89
389.612	95
389.837	84
390.062	105
390.287	89
390.512	82
390.736	101
390.961	93
391.186	83
391.411	90
391.636	103
391.86	84
392.085	77
392.31	82
392.534	90
392.759	84
392.984	93
393.208	92
393.433	96
393.658	84
393.882	92
394.107	83
394.331	95
394.556	101
394.78	89
395.005	95
395.229	82
395.454	80
395.678	91
395.903	92
396.127	85
396.352	91
396.576	101
396.801	81
397.025	109
397.249	93
397.474	90
397.698	97
397.922	89
398.147	98
398.371	96
398.595	94
398.82	92
399.044	93
399.268	86
399.492	96
399.717	88
399.941	93
400.165	76
400.389	94
400.613	98
400.837	79
401.062	86
401.286	72
401.51	82
401.734	84
401.958	92
402.182	127
402.406	140
402.63	130
402.854	84
403.078	90
403.302	81
403.526	96
403.75	101
403.974	102
404.198	89
404.422	92
404.645	92
404.869	83
405.093	89
405.317	92
405.541	91
405.765	98
405.988	108
406.212	160
406.436	210
406.66	154
406.883	97
407.107	93
407.331	99
407.555	93
407.778	93
408.002	94
408.226	97
408.449	89
408.673	97
408.896	91
409.12	91
409.344	83
409.567	88
409.791	102
410.014	89
410.238	93
410.461	109
410.685	91
410.908	102
411.132	91
411.355	94
411.578	99
411.802	95
412.025	86
412.249	86
412.472	92
412.695	96
412.919	102
413.142	107
413.365	100
413.589	73
413.812	99
414.035	91
414.258	100
414.482	100
414.705	93
414.928	78
415.151	98
415.374	89
415.597	95
415.821	78
416.044	92
416.267	90
416.49	98
416.713	96
416.936	98
417.159	85
417.382	102
417.605	85
417.828	89
418.051	96
418.274	93
418.497	79
418.72	90
418.943	97
419.166	80
419.389	82
419.611	85
419.834	90
420.057	89
420.28	82
420.503	93
420.726	100
420.948	90
421.171	99
421.394	102
421.617	104
421.839	99
422.062	86
422.285	91
422.507	103
422.73	95
422.953	84
423.175	99
423.398	85
423.621	75
423.843	83
424.066	77
424.288	94
424.511	96
424.733	91
424.956	116
425.178	109
425.401	93
425.623	105
425.846	89
426.068	84
426.291	95
426.513	79
426.735	86
426.958	99
427.18	90
427.402	120
427.625	151
427.847	115
428.069	96
428.292	85
428.514	85
428.736	82
428.958	83
429.181	90
429.403	91
429.625	94
429.847	84
430.069	105
430.292	84
430.514	91
430.736	89
430.958	65
431.18	83
431.402	78
431.624	88
431.846	81
432.068	89
432.29	82
432.512	85
432.734	81
432.956	91
433.178	86
433.4	93
433.622	85
433.844	86
434.066	93
434.287	101
434.509	89
434.731	91
434.953	99
435.175	83
435.397	95
435.618	79
435.84	95
436.062	124
436.284	113
436.505	90
436.727	87
436.949	102
437.17	89
437.392	78
437.614	100
437.835	102
438.057	120
438.278	93
438.5	97
438.721	105
438.943	100
439.165	92
439.386	86
439.608	88
439.829	97
440.05	125
440.272	137
440.493	85
440.715	100
440.936	88
441.158	85
441.379	92
441.6	109
441.822	105
442.043	99
442.264	95
442.486	94
442.707	89
442.928	101
443.149	128
443.371	114
443.592	111
443.813	103
444.034	120
444.255	106
444.476	88
444.698	93
444.919	90
445.14	125
445.361	121
445.582	124
445.803	133
446.024	114
446.245	126
446.466	105
446.687	104
446.908	91
447.129	105
447.35	94
447.571	97
447.792	93
448.013	110
448.234	112
448.455	99
448.675	122
448.896	112
449.117	105
449.338	101
449.559	123
449.779	128
450	112
450.221	93
450.442	99
450.662	106
450.883	95
451.104	100
451.324	100
451.545	79
451.766	97
451.986	80
452.207	99
452.428	92
452.648	94
452.869	100
453.089	112
453.31	109
453.53	97
453.751	63
453.971	92
454.192	102
454.412	93
454.633	82
454.853	101
455.073	91
455.294	90
455.514	93
455.734	98
455.955	91
456.175	100
456.395	83
456.616	98
456.836	85
457.056	85
457.276	86
457.497	81
457.717	77
457.937	91
458.157	80
458.377	97
458.598	102
458.818	144
459.038	165
459.258	112
459.478	97
459.698	92
459.918	73
460.138	97
460.358	90
460.578	87
460.798	83
461.018	91
461.238	72
461.458	87
461.678	92
461.898	98
462.118	86
462.338	84
462.558	99
462.777	91
462.997	86
463.217	94
463.437	85
463.657	77
463.876	85
464.096	100
464.316	85
464.536	81
464.755	89
464.975	86
465.195	143
465.414	150
465.634	110
465.854	90
466.073	88
466.293	86
466.512	97
466.732	88
466.951	75
467.171	96
467.391	97
467.61	90
467.829	99
468.049	108
468.268	95
468.488	90
468.707	100
468.927	83
469.146	79
469.365	87
469.585	88
469.804	93
470.023	103
470.243	101
470.462	96
470.681	96
470.901	87
471.12	85
471.339	91
471.558	80
471.777	83
471.997	97
472.216	89
472.435	82
472.654	90
472.873	86
473.092	101
473.311	99
473.53	83
473.749	81
473.968	100
474.187	93
474.406	97
474.625	89
474.844	90
475.063	85
475.282	83
475.501	79
475.72	80
475.939	84
476.158	88
476.377	96
476.596	90
476.814	95
477.033	100
477.252	96
477.471	101
477.69	88
477.908	92
478.127	93
478.346	85
478.564	97
478.783	107
479.002	93
479.22	94
479.439	110
479.658	100
479.876	93
480.095	93
480.313	83
480.532	82
480.751	92
480.969	99
481.188	86
481.406	93
481.624	98
481.843	79
482.061	93
482.28	86
482.498	89
482.717	90
482.935	81
483.153	92
483.372	101
483.59	97
483.808	92
484.027	83
484.245	86
484.463	91
484.681	78
484.9	93
485.118	101
485.336	92
485.554	96
485.772	104
485.99	89
486.209	88
486.427	120
486.645	106
486.863	105
487.081	106
487.299	90
487.517	91
487.735	94
487.953	104
488.171	93
488.389	110
488.607	107
488.825	89
489.043	92
489.261	89
489.479	87
489.696	99
489.914	89
490.132	94
490.35	96
490.568	83
490.786	87
491.003	99
491.221	81
491.439	99
491.657	85
491.874	85
492.092	84
492.31	87
492.527	100
492.745	102
492.963	97
493.18	83
493.398	100
493.615	87
493.833	97
494.05	86
494.268	104
494.485	94
494.703	94
494.92	89
495.138	86
495.355	86
495.573	91
495.79	104
496.008	93
496.225	92
496.442	97
496.66	107
496.877	90
497.094	105
497.312	89
497.529	80
497.746	97
497.963	89
498.181	99
498.398	97
498.615	108
498.832	103
499.049	102
499.267	90
499.484	86
499.701	78
499.918	95
500.135	95
500.352	102
500.569	95
500.786	91
501.003	90
501.22	103
501.437	98
501.654	86
501.871	106
502.088	78
502.305	86
502.522	96
502.739	107
502.956	98
503.172	93
503.389	113
503.606	114
503.823	107
504.04	81
504.256	114
504.473	84
504.69	100
504.907	85
505.123	96
505.34	94
505.557	88
505.773	97
505.99	95
506.207	85
506.423	83
506.64	91
506.856	93
507.073	92
507.289	107
507.506	103
507.722	101
507.939	108
508.155	97
508.372	96
508.588	101
508.805	108
509.021	73
509.238	84
509.454	116
509.67	98
509.887	113
510.103	125
510.319	212
510.536	770
510.752	2420
510.968	677
511.184	163
511.401	117
511.617	104
511.833	86
512.049	93
512.265	90
512.481	90
512.698	93
512.914	92
513.13	96
513.346	76
513.562	102
513.778	93
513.994	93
514.21	104
514.426	107
514.642	148
514.858	125
515.074	165
515.29	448
515.506	1462
515.721	529
515.937	156
516.153	112
516.369	96
516.585	91
516.801	86
517.016	84
517.232	100
517.448	90
517.664	86
517.879	93
518.095	86
518.311	97
518.527	99
518.742	93
518.958	90
519.173	100
519.389	102
519.605	83
519.82	97
520.036	112
520.251	113
520.467	114
520.682	103
520.898	100
521.113	113
521.329	136
521.544	208
521.76	534
521.975	2372
522.19	1439
522.406	322
522.621	140
522.836	106
523.052	101
523.267	97
523.482	91
523.698	108
523.913	124
524.128	107
524.343	98
524.559	95
524.774	85
524.989	94
525.204	92
525.419	98
525.634	90
525.849	94
526.064	91
526.28	93
526.495	101
526.71	85
526.925	84
527.14	92
527.355	91
527.57	84
527.785	102
527.999	91
528.214	105
528.429	92
528.644	104
528.859	84
529.074	95
529.289	110
529.503	173
529.718	100
529.933	93
530.148	79
530.363	91
530.577	99
530.792	83
531.007	90
531.221	89
531.436	88
531.651	97
531.865	103
532.08	89
532.295	94
532.509	102
532.724	87
532.938	97
533.153	97
533.367	88
533.582	80
533.796	90
534.011	85
534.225	85
534.44	97
534.654	85
534.868	80
535.083	84
535.297	106
535.511	102
535.726	113
535.94	115
536.154	96
536.369	95
536.583	94
536.797	94
537.011	106
537.225	78
537.44	88
537.654	93
537.868	94
538.082	89
538.296	78
538.51	88
538.724	93
538.938	108
539.153	90
539.367	106
539.581	96
539.795	98
540.009	76
540.222	91
540.436	106
540.65	85
540.864	91
541.078	90
541.292	94
541.506	99
541.72	96
541.934	89
542.147	85
542.361	84
542.575	99
542.789	93
543.002	81
543.216	99
543.43	96
543.644	74
543.857	95
544.071	97
544.285	97
544.498	86
544.712	67
544.925	101
545.139	96
545.352	86
545.566	81
545.779	94
545.993	88
546.206	107
546.42	87
546.633	85
546.847	92
547.06	101
547.274	84
547.487	89
547.7	94
547.914	94
548.127	95
548.34	86
548.554	100
548.767	85
548.98	96
549.193	83
549.407	101
549.62	92
549.833	88
550.046	98
550.259	103
550.473	90
550.686	96
550.899	101
551.112	82
551.325	87
551.538	97
551.751	88
551.964	93
552.177	97
552.39	89
552.603	87
552.816	93
553.029	87
553.242	101
553.455	111
553.667	97
553.88	98
554.093	97
554.306	83
554.519	82
554.732	97
554.944	116
555.157	99
555.37	103
555.583	94
555.795	97
556.008	108
556.221	94
556.433	90
556.646	80
556.859	86
557.071	92
557.284	96
557.496	109
557.709	93
557.921	91
558.134	83
558.346	91
558.559	84
558.771	96
558.984	85
559.196	93
559.409	96
559.621	92
559.833	81
560.046	95
560.258	93
560.47	95
560.683	87
560.895	92
561.107	97
561.32	82
561.532	88
561.744	83
561.956	86
562.168	97
562.381	88
562.593	100
562.805	96
563.017	93
563.229	109
563.441	93
563.653	96
563.865	100
564.077	94
564.289	86
564.501	93
564.713	77
564.925	90
565.137	96
565.349	91
565.561	87
565.773	88
565.985	80
566.197	85
566.408	82
566.62	88
566.832	86
567.044	93
567.255	70
567.467	88
567.679	97
567.891	85
568.102	94
568.314	87
568.526	104
568.737	89
568.949	89
569.161	88
569.372	93
569.584	95
569.795	84
570.007	122
570.218	251
570.43	150
570.641	96
570.853	72
571.064	83
571.276	96
571.487	82
571.698	101
571.91	87
572.121	88
572.333	75
572.544	96
572.755	86
572.966	92
573.178	90
573.389	98
573.6	90
573.811	79
574.023	85
574.234	98
574.445	86
574.656	85
574.867	87
575.078	90
575.289	107
575.501	102
575.712	91
575.923	82
576.134	84
576.345	87
576.556	88
576.767	84
576.978	98
577.188	93
577.399	94
577.61	90
577.821	86
578.032	118
578.243	285
578.454	798
578.665	227
578.875	112
579.086	90
579.297	102
579.508	96
579.718	86
579.929	85
580.14	86
580.35	92
580.561	92
580.772	93
580.982	90
581.193	95
581.403	106
581.614	99
581.825	84
582.035	90
582.246	101
582.456	90
582.667	94
582.877	99
583.087	92
583.298	90
583.508	83
