Data from Uncirc_2008_H10_HRD10591_00009.txt Node
Date: Wed Jan 03 10:15:32 EST 2024
User: Yrep
Spectrometer: HR+D1059
Trigger mode: 1
Integration Time (sec): 1.000000E-1
Scans to average: 1
Electric dark correction enabled: true
Nonlinearity correction enabled: false
Boxcar width: 0
XAxis mode: Wavelengths
Number of Pixels in Spectrum: 2048
>>>>>Begin Spectral Data<<<<<
223.165	-19.75
223.4	-19.75
223.635	-19.75
223.869	-31.75
224.104	-23.75
224.338	2.25
224.573	-4.75
224.808	-1.75
225.042	-9.75
225.277	8.25
225.511	-12.75
225.746	-10.75
225.98	15.25
226.215	10.25
226.449	13.25
226.683	13.25
226.918	24.25
227.152	28.25
227.387	27.25
227.621	33.25
227.856	43.25
228.09	47.25
228.324	28.25
228.559	47.25
228.793	53.25
229.027	61.25
229.262	69.25
229.496	61.25
229.73	65.25
229.964	76.25
230.199	68.25
230.433	68.25
230.667	60.25
230.901	67.25
231.136	71.25
231.37	83.25
231.604	92.25
231.838	72.25
232.072	68.25
232.306	84.25
232.541	81.25
232.775	74.25
233.009	81.25
233.243	79.25
233.477	79.25
233.711	84.25
233.945	79.25
234.179	73.25
234.413	76.25
234.647	86.25
234.881	73.25
235.115	81.25
235.349	66.25
235.583	82.25
235.817	69.25
236.051	72.25
236.285	73.25
236.519	79.25
236.753	68.25
236.987	79.25
237.221	73.25
237.455	79.25
237.689	82.25
237.922	67.25
238.156	79.25
238.39	81.25
238.624	80.25
238.858	75.25
239.091	76.25
239.325	66.25
239.559	73.25
239.793	72.25
240.027	82.25
240.26	62.25
240.494	71.25
240.728	62.25
240.961	80.25
241.195	79.25
241.429	75.25
241.662	73.25
241.896	60.25
242.13	63.25
242.363	63.25
242.597	73.25
242.83	73.25
243.064	93.25
243.298	75.25
243.531	74.25
243.765	71.25
243.998	71.25
244.232	69.25
244.465	71.25
244.699	83.25
244.932	90.25
245.166	75.25
245.399	73.25
245.633	74.25
245.866	79.25
246.099	61.25
246.333	67.25
246.566	58.25
246.8	71.25
247.033	80.25
247.266	75.25
247.5	80.25
247.733	78.25
247.966	85.25
248.2	74.25
248.433	75.25
248.666	81.25
248.899	69.25
249.133	87.25
249.366	92.25
249.599	91.25
249.832	83.25
250.066	79.25
250.299	76.25
250.532	75.25
250.765	86.25
250.998	79.25
251.231	70.25
251.465	66.25
251.698	66.25
251.931	76.25
252.164	67.25
252.397	76.25
252.63	80.25
252.863	79.25
253.096	69.25
253.329	65.25
253.562	75.25
253.795	80.25
254.028	91.25
254.261	86.25
254.494	87.25
254.727	71.25
254.96	73.25
255.193	80.25
255.426	83.25
255.659	79.25
255.892	80.25
256.124	73.25
256.357	73.25
256.59	80.25
256.823	93.25
257.056	79.25
257.289	67.25
257.521	76.25
257.754	73.25
257.987	76.25
258.22	68.25
258.452	73.25
258.685	81.25
258.918	73.25
259.151	77.25
259.383	76.25
259.616	70.25
259.849	72.25
260.081	65.25
260.314	76.25
260.547	75.25
260.779	71.25
261.012	70.25
261.244	84.25
261.477	81.25
261.71	76.25
261.942	106.25
262.175	105.25
262.407	76.25
262.64	76.25
262.872	56.25
263.105	70.25
263.337	85.25
263.57	76.25
263.802	75.25
264.035	65.25
264.267	85.25
264.499	74.25
264.732	71.25
264.964	83.25
265.197	70.25
265.429	72.25
265.661	76.25
265.894	82.25
266.126	76.25
266.358	86.25
266.591	85.25
266.823	79.25
267.055	71.25
267.287	95.25
267.52	83.25
267.752	78.25
267.984	85.25
268.216	84.25
268.448	81.25
268.681	69.25
268.913	65.25
269.145	76.25
269.377	68.25
269.609	71.25
269.841	89.25
270.073	78.25
270.306	75.25
270.538	80.25
270.77	92.25
271.002	87.25
271.234	76.25
271.466	81.25
271.698	84.25
271.93	74.25
272.162	69.25
272.394	67.25
272.626	82.25
272.858	77.25
273.09	79.25
273.322	69.25
273.553	91.25
273.785	84.25
274.017	76.25
274.249	77.25
274.481	63.25
274.713	89.25
274.945	90.25
275.176	88.25
275.408	86.25
275.64	73.25
275.872	62.25
276.104	82.25
276.335	90.25
276.567	93.25
276.799	90.25
277.031	93.25
277.262	89.25
277.494	93.25
277.726	85.25
277.957	82.25
278.189	73.25
278.421	80.25
278.652	77.25
278.884	88.25
279.115	90.25
279.347	78.25
279.579	70.25
279.81	80.25
280.042	75.25
280.273	73.25
280.505	88.25
280.736	79.25
280.968	83.25
281.199	77.25
281.431	87.25
281.662	85.25
281.894	88.25
282.125	83.25
282.356	97.25
282.588	108.25
282.819	92.25
283.051	86.25
283.282	86.25
283.513	90.25
283.745	63.25
283.976	72.25
284.207	85.25
284.439	70.25
284.67	77.25
284.901	83.25
285.132	84.25
285.364	86.25
285.595	87.25
285.826	80.25
286.057	81.25
286.288	75.25
286.52	81.25
286.751	84.25
286.982	77.25
287.213	101.25
287.444	90.25
287.675	86.25
287.906	75.25
288.138	87.25
288.369	89.25
288.6	100.25
288.831	76.25
289.062	78.25
289.293	82.25
289.524	94.25
289.755	79.25
289.986	64.25
290.217	68.25
290.448	75.25
290.679	76.25
290.91	79.25
291.141	70.25
291.371	84.25
291.602	84.25
291.833	82.25
292.064	76.25
292.295	85.25
292.526	77.25
292.757	74.25
292.987	80.25
293.218	71.25
293.449	85.25
293.68	78.25
293.91	91.25
294.141	87.25
294.372	77.25
294.603	77.25
294.833	88.25
295.064	84.25
295.295	85.25
295.525	77.25
295.756	72.25
295.987	95.25
296.217	119.25
296.448	101.25
296.679	92.25
296.909	81.25
297.14	76.25
297.37	87.25
297.601	67.25
297.831	78.25
298.062	90.25
298.292	88.25
298.523	90.25
298.753	79.25
298.984	84.25
299.214	92.25
299.445	79.25
299.675	87.25
299.905	83.25
300.136	98.25
300.366	82.25
300.597	94.25
300.827	85.25
301.057	97.25
301.288	88.25
301.518	84.25
301.748	91.25
301.979	90.25
302.209	83.25
302.439	86.25
302.669	84.25
302.9	77.25
303.13	87.25
303.36	72.25
303.59	102.25
303.82	99.25
304.051	89.25
304.281	85.25
304.511	87.25
304.741	87.25
304.971	80.25
305.201	92.25
305.431	87.25
305.661	76.25
305.891	86.25
306.121	85.25
306.352	86.25
306.582	99.25
306.812	74.25
307.042	73.25
307.272	86.25
307.502	80.25
307.731	80.25
307.961	90.25
308.191	94.25
308.421	87.25
308.651	75.25
308.881	84.25
309.111	87.25
309.341	86.25
309.571	107.25
309.8	85.25
310.03	102.25
310.26	85.25
310.49	78.25
310.72	99.25
310.949	93.25
311.179	84.25
311.409	94.25
311.639	83.25
311.868	87.25
312.098	90.25
312.328	106.25
312.557	96.25
312.787	91.25
313.017	86.25
313.246	77.25
313.476	77.25
313.706	99.25
313.935	89.25
314.165	93.25
314.394	93.25
314.624	92.25
314.853	87.25
315.083	88.25
315.312	77.25
315.542	77.25
315.771	89.25
316.001	74.25
316.23	89.25
316.46	91.25
316.689	83.25
316.919	80.25
317.148	83.25
317.377	79.25
317.607	84.25
317.836	89.25
318.065	77.25
318.295	78.25
318.524	97.25
318.753	99.25
318.983	87.25
319.212	106.25
319.441	95.25
319.67	76.25
319.9	82.25
320.129	80.25
320.358	87.25
320.587	95.25
320.816	103.25
321.046	80.25
321.275	84.25
321.504	94.25
321.733	87.25
321.962	88.25
322.191	88.25
322.42	92.25
322.649	110.25
322.878	104.25
323.108	100.25
323.337	107.25
323.566	125.25
323.795	135.25
324.024	168.25
324.253	339.25
324.482	693.25
324.71	1383.25
324.939	1813.25
325.168	679.25
325.397	202.25
325.626	123.25
325.855	117.25
326.084	124.25
326.313	113.25
326.542	141.25
326.77	202.25
326.999	398.25
327.228	803.25
327.457	1413.25
327.686	1123.25
327.914	302.25
328.143	166.25
328.372	127.25
328.6	100.25
328.829	102.25
329.058	100.25
329.287	129.25
329.515	81.25
329.744	99.25
329.972	91.25
330.201	75.25
330.43	96.25
330.658	103.25
330.887	119.25
331.115	108.25
331.344	89.25
331.572	94.25
331.801	85.25
332.03	106.25
332.258	86.25
332.486	90.25
332.715	101.25
332.943	87.25
333.172	87.25
333.4	101.25
333.629	102.25
333.857	110.25
334.085	106.25
334.314	86.25
334.542	96.25
334.771	106.25
334.999	100.25
335.227	83.25
335.455	91.25
335.684	82.25
335.912	110.25
336.14	89.25
336.369	96.25
336.597	90.25
336.825	88.25
337.053	90.25
337.281	89.25
337.51	77.25
337.738	90.25
337.966	83.25
338.194	84.25
338.422	87.25
338.65	83.25
338.878	88.25
339.106	85.25
339.334	77.25
339.562	90.25
339.79	85.25
340.018	88.25
340.246	99.25
340.474	109.25
340.702	72.25
340.93	87.25
341.158	98.25
341.386	73.25
341.614	89.25
341.842	101.25
342.07	85.25
342.298	84.25
342.526	88.25
342.754	70.25
342.981	87.25
343.209	83.25
343.437	98.25
343.665	74.25
343.893	82.25
344.12	93.25
344.348	89.25
344.576	97.25
344.804	88.25
345.031	97.25
345.259	107.25
345.487	85.25
345.714	87.25
345.942	95.25
346.17	92.25
346.397	81.25
346.625	87.25
346.853	97.25
347.08	82.25
347.308	88.25
347.535	93.25
347.763	84.25
347.99	89.25
348.218	91.25
348.445	97.25
348.673	90.25
348.9	78.25
349.128	69.25
349.355	78.25
349.583	90.25
349.81	93.25
350.037	90.25
350.265	91.25
350.492	74.25
350.72	91.25
350.947	92.25
351.174	99.25
351.402	95.25
351.629	106.25
351.856	91.25
352.083	101.25
352.311	105.25
352.538	105.25
352.765	116.25
352.992	103.25
353.22	109.25
353.447	99.25
353.674	95.25
353.901	99.25
354.128	82.25
354.355	85.25
354.583	95.25
354.81	96.25
355.037	83.25
355.264	89.25
355.491	87.25
355.718	90.25
355.945	99.25
356.172	85.25
356.399	82.25
356.626	78.25
356.853	88.25
357.08	86.25
357.307	98.25
357.534	89.25
357.761	82.25
357.988	100.25
358.215	91.25
358.441	93.25
358.668	75.25
358.895	90.25
359.122	76.25
359.349	93.25
359.576	94.25
359.802	93.25
360.029	87.25
360.256	85.25
360.483	96.25
360.709	82.25
360.936	83.25
361.163	79.25
361.39	85.25
361.616	75.25
361.843	86.25
362.07	83.25
362.296	85.25
362.523	78.25
362.749	94.25
362.976	78.25
363.203	103.25
363.429	87.25
363.656	74.25
363.882	94.25
364.109	107.25
364.335	78.25
364.562	78.25
364.788	74.25
365.015	74.25
365.241	85.25
365.468	110.25
365.694	99.25
365.92	84.25
366.147	82.25
366.373	78.25
366.599	82.25
366.826	71.25
367.052	93.25
367.278	88.25
367.505	88.25
367.731	92.25
367.957	94.25
368.184	89.25
368.41	77.25
368.636	95.25
368.862	101.25
369.089	95.25
369.315	103.25
369.541	85.25
369.767	90.25
369.993	73.25
370.219	84.25
370.445	75.25
370.672	81.25
370.898	88.25
371.124	79.25
371.35	86.25
371.576	71.25
371.802	75.25
372.028	93.25
372.254	87.25
372.48	86.25
372.706	73.25
372.932	74.25
373.158	96.25
373.384	72.25
373.61	94.25
373.835	109.25
374.061	94.25
374.287	92.25
374.513	99.25
374.739	85.25
374.965	91.25
375.191	88.25
375.416	76.25
375.642	79.25
375.868	98.25
376.094	99.25
376.319	81.25
376.545	77.25
376.771	80.25
376.997	72.25
377.222	97.25
377.448	79.25
377.674	82.25
377.899	96.25
378.125	84.25
378.35	81.25
378.576	90.25
378.802	77.25
379.027	80.25
379.253	88.25
379.478	75.25
379.704	80.25
379.929	88.25
380.155	94.25
380.38	90.25
380.606	90.25
380.831	98.25
381.057	91.25
381.282	102.25
381.507	117.25
381.733	79.25
381.958	113.25
382.184	102.25
382.409	90.25
382.634	104.25
382.86	98.25
383.085	90.25
383.31	97.25
383.535	115.25
383.761	92.25
383.986	91.25
384.211	107.25
384.436	88.25
384.662	98.25
384.887	110.25
385.112	118.25
385.337	103.25
385.562	102.25
385.787	109.25
386.013	113.25
386.238	114.25
386.463	99.25
386.688	130.25
386.913	109.25
387.138	118.25
387.363	105.25
387.588	104.25
387.813	99.25
388.038	101.25
388.263	116.25
388.488	110.25
388.713	84.25
388.938	98.25
389.163	84.25
389.387	77.25
389.612	98.25
389.837	90.25
390.062	91.25
390.287	104.25
390.512	93.25
390.736	87.25
390.961	70.25
391.186	106.25
391.411	83.25
391.636	91.25
391.86	82.25
392.085	95.25
392.31	75.25
392.534	93.25
392.759	88.25
392.984	91.25
393.208	98.25
393.433	102.25
393.658	82.25
393.882	76.25
394.107	94.25
394.331	95.25
394.556	94.25
394.78	78.25
395.005	78.25
395.229	72.25
395.454	75.25
395.678	86.25
395.903	87.25
396.127	75.25
396.352	81.25
396.576	99.25
396.801	90.25
397.025	84.25
397.249	83.25
397.474	93.25
397.698	72.25
397.922	82.25
398.147	70.25
398.371	82.25
398.595	86.25
398.82	90.25
399.044	84.25
399.268	88.25
399.492	78.25
399.717	86.25
399.941	77.25
400.165	98.25
400.389	89.25
400.613	84.25
400.837	86.25
401.062	74.25
401.286	84.25
401.51	94.25
401.734	102.25
401.958	98.25
402.182	114.25
402.406	128.25
402.63	108.25
402.854	94.25
403.078	94.25
403.302	70.25
403.526	89.25
403.75	80.25
403.974	91.25
404.198	75.25
404.422	74.25
404.645	87.25
404.869	86.25
405.093	87.25
405.317	86.25
405.541	81.25
405.765	102.25
405.988	109.25
406.212	157.25
406.436	181.25
406.66	129.25
406.883	94.25
407.107	84.25
407.331	86.25
407.555	82.25
407.778	94.25
408.002	78.25
408.226	89.25
408.449	89.25
408.673	98.25
408.896	91.25
409.12	99.25
409.344	89.25
409.567	84.25
409.791	96.25
410.014	85.25
410.238	79.25
410.461	93.25
410.685	93.25
410.908	99.25
411.132	101.25
411.355	86.25
411.578	83.25
411.802	80.25
412.025	91.25
412.249	76.25
412.472	99.25
412.695	81.25
412.919	90.25
413.142	100.25
413.365	67.25
413.589	70.25
413.812	84.25
414.035	82.25
414.258	90.25
414.482	95.25
414.705	89.25
414.928	89.25
415.151	83.25
415.374	90.25
415.597	93.25
415.821	88.25
416.044	94.25
416.267	78.25
416.49	86.25
416.713	91.25
416.936	81.25
417.159	79.25
417.382	79.25
417.605	87.25
417.828	93.25
418.051	92.25
418.274	89.25
418.497	89.25
418.72	84.25
418.943	86.25
419.166	93.25
419.389	78.25
419.611	77.25
419.834	82.25
420.057	86.25
420.28	86.25
420.503	72.25
420.726	82.25
420.948	89.25
421.171	88.25
421.394	77.25
421.617	94.25
421.839	77.25
422.062	84.25
422.285	81.25
422.507	100.25
422.73	95.25
422.953	83.25
423.175	95.25
423.398	71.25
423.621	95.25
423.843	79.25
424.066	81.25
424.288	88.25
424.511	90.25
424.733	76.25
424.956	94.25
425.178	102.25
425.401	88.25
425.623	92.25
425.846	74.25
426.068	91.25
426.291	74.25
426.513	51.25
426.735	78.25
426.958	91.25
427.18	99.25
427.402	105.25
427.625	137.25
427.847	95.25
428.069	88.25
428.292	90.25
428.514	72.25
428.736	77.25
428.958	77.25
429.181	82.25
429.403	93.25
429.625	87.25
429.847	92.25
430.069	91.25
430.292	76.25
430.514	72.25
430.736	81.25
430.958	79.25
431.18	77.25
431.402	73.25
431.624	86.25
431.846	80.25
432.068	79.25
432.29	86.25
432.512	90.25
432.734	73.25
432.956	81.25
433.178	95.25
433.4	88.25
433.622	92.25
433.844	97.25
434.066	80.25
434.287	87.25
434.509	90.25
434.731	86.25
434.953	91.25
435.175	79.25
435.397	97.25
435.618	94.25
435.84	89.25
436.062	91.25
436.284	98.25
436.505	92.25
436.727	93.25
436.949	99.25
437.17	91.25
437.392	78.25
437.614	83.25
437.835	91.25
438.057	98.25
438.278	89.25
438.5	101.25
438.721	88.25
438.943	81.25
439.165	78.25
439.386	73.25
439.608	95.25
439.829	80.25
440.05	105.25
440.272	126.25
440.493	90.25
440.715	79.25
440.936	77.25
441.158	83.25
441.379	78.25
441.6	76.25
441.822	84.25
442.043	86.25
442.264	85.25
442.486	90.25
442.707	97.25
442.928	94.25
443.149	109.25
443.371	109.25
443.592	91.25
443.813	93.25
444.034	104.25
444.255	83.25
444.476	65.25
444.698	84.25
444.919	75.25
445.14	129.25
445.361	117.25
445.582	97.25
445.803	113.25
446.024	124.25
446.245	115.25
446.466	99.25
446.687	82.25
446.908	88.25
447.129	91.25
447.35	83.25
447.571	77.25
447.792	78.25
448.013	93.25
448.234	104.25
448.455	100.25
448.675	100.25
448.896	114.25
449.117	83.25
449.338	101.25
449.559	108.25
449.779	116.25
450	94.25
450.221	70.25
450.442	72.25
450.662	89.25
450.883	89.25
451.104	99.25
451.324	99.25
451.545	94.25
451.766	88.25
451.986	90.25
452.207	84.25
452.428	80.25
452.648	94.25
452.869	113.25
453.089	91.25
453.31	105.25
453.53	73.25
453.751	81.25
453.971	87.25
454.192	95.25
454.412	86.25
454.633	79.25
454.853	82.25
455.073	82.25
455.294	82.25
455.514	88.25
455.734	82.25
455.955	85.25
456.175	83.25
456.395	82.25
456.616	89.25
456.836	78.25
457.056	86.25
457.276	74.25
457.497	69.25
457.717	76.25
457.937	87.25
458.157	83.25
458.377	79.25
458.598	89.25
458.818	117.25
459.038	132.25
459.258	93.25
459.478	83.25
459.698	78.25
459.918	80.25
460.138	96.25
460.358	72.25
460.578	80.25
460.798	85.25
461.018	81.25
461.238	77.25
461.458	78.25
461.678	93.25
461.898	79.25
462.118	87.25
462.338	79.25
462.558	83.25
462.777	79.25
462.997	80.25
463.217	93.25
463.437	69.25
463.657	95.25
463.876	103.25
464.096	83.25
464.316	91.25
464.536	88.25
464.755	92.25
464.975	88.25
465.195	138.25
465.414	122.25
465.634	87.25
465.854	83.25
466.073	73.25
466.293	88.25
466.512	84.25
466.732	82.25
466.951	89.25
467.171	76.25
467.391	74.25
467.61	88.25
467.829	93.25
468.049	101.25
468.268	81.25
468.488	67.25
468.707	88.25
468.927	76.25
469.146	74.25
469.365	73.25
469.585	83.25
469.804	82.25
470.023	84.25
470.243	85.25
470.462	88.25
470.681	91.25
470.901	77.25
471.12	81.25
471.339	75.25
471.558	93.25
471.777	66.25
471.997	78.25
472.216	84.25
472.435	78.25
472.654	86.25
472.873	91.25
473.092	82.25
473.311	95.25
473.53	86.25
473.749	86.25
473.968	84.25
474.187	94.25
474.406	77.25
474.625	82.25
474.844	81.25
475.063	78.25
475.282	84.25
475.501	74.25
475.72	85.25
475.939	85.25
476.158	97.25
476.377	85.25
476.596	90.25
476.814	82.25
477.033	85.25
477.252	75.25
477.471	80.25
477.69	81.25
477.908	71.25
478.127	90.25
478.346	83.25
478.564	77.25
478.783	96.25
479.002	85.25
479.22	87.25
479.439	77.25
479.658	101.25
479.876	99.25
480.095	86.25
480.313	68.25
480.532	68.25
480.751	83.25
480.969	93.25
481.188	96.25
481.406	77.25
481.624	84.25
481.843	100.25
482.061	91.25
482.28	94.25
482.498	86.25
482.717	100.25
482.935	74.25
483.153	83.25
483.372	94.25
483.59	83.25
483.808	76.25
484.027	87.25
484.245	87.25
484.463	74.25
484.681	86.25
484.9	97.25
485.118	91.25
485.336	101.25
485.554	92.25
485.772	101.25
485.99	93.25
486.209	87.25
486.427	94.25
486.645	102.25
486.863	116.25
487.081	105.25
487.299	95.25
487.517	87.25
487.735	75.25
487.953	91.25
488.171	97.25
488.389	98.25
488.607	87.25
488.825	82.25
489.043	81.25
489.261	93.25
489.479	85.25
489.696	90.25
489.914	88.25
490.132	92.25
490.35	84.25
490.568	89.25
490.786	93.25
491.003	93.25
491.221	77.25
491.439	67.25
491.657	81.25
491.874	87.25
492.092	95.25
492.31	102.25
492.527	83.25
492.745	78.25
492.963	73.25
493.18	86.25
493.398	77.25
493.615	102.25
493.833	89.25
494.05	69.25
494.268	92.25
494.485	85.25
494.703	92.25
494.92	87.25
495.138	83.25
495.355	87.25
495.573	106.25
495.79	94.25
496.008	92.25
496.225	85.25
496.442	95.25
496.66	93.25
496.877	81.25
497.094	71.25
497.312	86.25
497.529	81.25
497.746	62.25
497.963	87.25
498.181	76.25
498.398	83.25
498.615	101.25
498.832	104.25
499.049	86.25
499.267	90.25
499.484	78.25
499.701	77.25
499.918	101.25
500.135	71.25
500.352	87.25
500.569	89.25
500.786	73.25
501.003	88.25
501.22	78.25
501.437	73.25
501.654	83.25
501.871	99.25
502.088	93.25
502.305	85.25
502.522	77.25
502.739	87.25
502.956	73.25
503.172	80.25
503.389	82.25
503.606	107.25
503.823	88.25
504.04	79.25
504.256	78.25
504.473	94.25
504.69	91.25
504.907	96.25
505.123	89.25
505.34	89.25
505.557	82.25
505.773	93.25
505.99	77.25
506.207	86.25
506.423	79.25
506.64	88.25
506.856	82.25
507.073	99.25
507.289	91.25
507.506	84.25
507.722	106.25
507.939	95.25
508.155	97.25
508.372	88.25
508.588	83.25
508.805	84.25
509.021	91.25
509.238	85.25
509.454	102.25
509.67	107.25
509.887	91.25
510.103	115.25
510.319	170.25
510.536	667.25
510.752	2073.25
510.968	602.25
511.184	143.25
511.401	101.25
511.617	99.25
511.833	89.25
512.049	89.25
512.265	74.25
512.481	100.25
512.698	96.25
512.914	95.25
513.13	84.25
513.346	86.25
513.562	98.25
513.778	79.25
513.994	107.25
514.21	93.25
514.426	103.25
514.642	115.25
514.858	106.25
515.074	164.25
515.29	383.25
515.506	1203.25
515.721	453.25
515.937	136.25
516.153	83.25
516.369	96.25
516.585	97.25
516.801	89.25
517.016	88.25
517.232	84.25
517.448	90.25
517.664	86.25
