Data from Uncirc_2008_H10_HRD10591_00025.txt Node
Date: Wed Jan 03 10:15:35 EST 2024
User: Yrep
Spectrometer: HR+D1059
Trigger mode: 1
Integration Time (sec): 1.000000E-1
Scans to average: 1
Electric dark correction enabled: true
Nonlinearity correction enabled: false
Boxcar width: 0
XAxis mode: Wavelengths
Number of Pixels in Spectrum: 2048
>>>>>Begin Spectral Data<<<<<
223.165	-21.94
223.4	-21.94
223.635	-21.94
223.869	-1.94
224.104	-9.94
224.338	-14.94
224.573	-24.94
224.808	-16.94
225.042	-10.94
225.277	-7.94
225.511	-4.94
225.746	-5.94
225.98	3.06
226.215	10.06
226.449	13.06
226.683	22.06
226.918	38.06
227.152	34.06
227.387	33.06
227.621	45.06
227.856	41.06
228.09	50.06
228.324	53.06
228.559	53.06
228.793	47.06
229.027	58.06
229.262	65.06
229.496	69.06
229.73	74.06
229.964	82.06
230.199	62.06
230.433	59.06
230.667	65.06
230.901	50.06
231.136	70.06
231.37	85.06
231.604	91.06
231.838	72.06
232.072	82.06
232.306	62.06
232.541	76.06
232.775	81.06
233.009	83.06
233.243	90.06
233.477	76.06
233.711	87.06
233.945	73.06
234.179	78.06
234.413	73.06
234.647	82.06
234.881	82.06
235.115	87.06
235.349	90.06
235.583	70.06
235.817	84.06
236.051	77.06
236.285	83.06
236.519	79.06
236.753	70.06
236.987	87.06
237.221	81.06
237.455	90.06
237.689	86.06
237.922	74.06
238.156	72.06
238.39	69.06
238.624	72.06
238.858	76.06
239.091	80.06
239.325	78.06
239.559	73.06
239.793	76.06
240.027	89.06
240.26	81.06
240.494	84.06
240.728	78.06
240.961	89.06
241.195	81.06
241.429	89.06
241.662	94.06
241.896	70.06
242.13	78.06
242.363	78.06
242.597	81.06
242.83	91.06
243.064	86.06
243.298	85.06
243.531	74.06
243.765	75.06
243.998	86.06
244.232	70.06
244.465	82.06
244.699	76.06
244.932	85.06
245.166	68.06
245.399	89.06
245.633	73.06
245.866	83.06
246.099	79.06
246.333	80.06
246.566	85.06
246.8	79.06
247.033	77.06
247.266	70.06
247.5	83.06
247.733	73.06
247.966	73.06
248.2	87.06
248.433	85.06
248.666	63.06
248.899	74.06
249.133	79.06
249.366	99.06
249.599	87.06
249.832	81.06
250.066	86.06
250.299	80.06
250.532	67.06
250.765	79.06
250.998	69.06
251.231	72.06
251.465	75.06
251.698	73.06
251.931	79.06
252.164	81.06
252.397	70.06
252.63	89.06
252.863	85.06
253.096	73.06
253.329	85.06
253.562	82.06
253.795	87.06
254.028	89.06
254.261	75.06
254.494	77.06
254.727	81.06
254.96	82.06
255.193	75.06
255.426	86.06
255.659	84.06
255.892	64.06
256.124	73.06
256.357	83.06
256.59	96.06
256.823	71.06
257.056	84.06
257.289	73.06
257.521	91.06
257.754	85.06
257.987	89.06
258.22	84.06
258.452	83.06
258.685	78.06
258.918	78.06
259.151	93.06
259.383	96.06
259.616	80.06
259.849	82.06
260.081	87.06
260.314	85.06
260.547	80.06
260.779	78.06
261.012	75.06
261.244	81.06
261.477	86.06
261.71	85.06
261.942	109.06
262.175	105.06
262.407	70.06
262.64	89.06
262.872	94.06
263.105	74.06
263.337	85.06
263.57	84.06
263.802	81.06
264.035	81.06
264.267	88.06
264.499	70.06
264.732	80.06
264.964	81.06
265.197	78.06
265.429	79.06
265.661	94.06
265.894	84.06
266.126	80.06
266.358	77.06
266.591	82.06
266.823	74.06
267.055	85.06
267.287	88.06
267.52	89.06
267.752	80.06
267.984	82.06
268.216	81.06
268.448	90.06
268.681	83.06
268.913	80.06
269.145	76.06
269.377	91.06
269.609	69.06
269.841	76.06
270.073	85.06
270.306	90.06
270.538	85.06
270.77	96.06
271.002	74.06
271.234	78.06
271.466	74.06
271.698	90.06
271.93	69.06
272.162	85.06
272.394	85.06
272.626	92.06
272.858	91.06
273.09	82.06
273.322	86.06
273.553	93.06
273.785	68.06
274.017	96.06
274.249	74.06
274.481	79.06
274.713	86.06
274.945	96.06
275.176	87.06
275.408	86.06
275.64	89.06
275.872	67.06
276.104	95.06
276.335	94.06
276.567	99.06
276.799	105.06
277.031	105.06
277.262	76.06
277.494	88.06
277.726	98.06
277.957	72.06
278.189	86.06
278.421	96.06
278.652	81.06
278.884	89.06
279.115	92.06
279.347	93.06
279.579	83.06
279.81	94.06
280.042	73.06
280.273	98.06
280.505	87.06
280.736	79.06
280.968	71.06
281.199	83.06
281.431	80.06
281.662	84.06
281.894	80.06
282.125	96.06
282.356	104.06
282.588	111.06
282.819	103.06
283.051	84.06
283.282	89.06
283.513	89.06
283.745	82.06
283.976	88.06
284.207	87.06
284.439	72.06
284.67	78.06
284.901	75.06
285.132	94.06
285.364	87.06
285.595	88.06
285.826	82.06
286.057	96.06
286.288	89.06
286.52	80.06
286.751	86.06
286.982	87.06
287.213	87.06
287.444	75.06
287.675	78.06
287.906	88.06
288.138	89.06
288.369	92.06
288.6	93.06
288.831	88.06
289.062	83.06
289.293	91.06
289.524	80.06
289.755	97.06
289.986	80.06
290.217	98.06
290.448	96.06
290.679	85.06
290.91	79.06
291.141	83.06
291.371	99.06
291.602	83.06
291.833	88.06
292.064	94.06
292.295	94.06
292.526	83.06
292.757	82.06
292.987	95.06
293.218	93.06
293.449	82.06
293.68	74.06
293.91	97.06
294.141	97.06
294.372	86.06
294.603	92.06
294.833	93.06
295.064	82.06
295.295	98.06
295.525	94.06
295.756	95.06
295.987	119.06
296.217	130.06
296.448	98.06
296.679	88.06
296.909	97.06
297.14	81.06
297.37	87.06
297.601	84.06
297.831	95.06
298.062	90.06
298.292	94.06
298.523	97.06
298.753	91.06
298.984	90.06
299.214	110.06
299.445	95.06
299.675	80.06
299.905	87.06
300.136	93.06
300.366	90.06
300.597	93.06
300.827	93.06
301.057	102.06
301.288	95.06
301.518	95.06
301.748	74.06
301.979	104.06
302.209	91.06
302.439	83.06
302.669	99.06
302.9	74.06
303.13	86.06
303.36	92.06
303.59	96.06
303.82	94.06
304.051	98.06
304.281	80.06
304.511	104.06
304.741	79.06
304.971	79.06
305.201	96.06
305.431	86.06
305.661	80.06
305.891	78.06
306.121	92.06
306.352	103.06
306.582	102.06
306.812	97.06
307.042	85.06
307.272	87.06
307.502	99.06
307.731	81.06
307.961	86.06
308.191	98.06
308.421	90.06
308.651	88.06
308.881	94.06
309.111	91.06
309.341	83.06
309.571	105.06
309.8	103.06
310.03	95.06
310.26	102.06
310.49	97.06
310.72	98.06
310.949	119.06
311.179	80.06
311.409	88.06
311.639	101.06
311.868	80.06
312.098	90.06
312.328	87.06
312.557	96.06
312.787	102.06
313.017	97.06
313.246	97.06
313.476	90.06
313.706	105.06
313.935	98.06
314.165	98.06
314.394	81.06
314.624	89.06
314.853	111.06
315.083	95.06
315.312	74.06
315.542	88.06
315.771	87.06
316.001	91.06
316.23	82.06
316.46	89.06
316.689	99.06
316.919	75.06
317.148	92.06
317.377	89.06
317.607	93.06
317.836	80.06
318.065	98.06
318.295	85.06
318.524	90.06
318.753	93.06
318.983	89.06
319.212	91.06
319.441	100.06
319.67	99.06
319.9	101.06
320.129	98.06
320.358	99.06
320.587	87.06
320.816	93.06
321.046	103.06
321.275	99.06
321.504	84.06
321.733	102.06
321.962	92.06
322.191	86.06
322.42	103.06
322.649	106.06
322.878	107.06
323.108	112.06
323.337	119.06
323.566	125.06
323.795	130.06
324.024	193.06
324.253	312.06
324.482	654.06
324.71	1334.06
324.939	1736.06
325.168	671.06
325.397	211.06
325.626	133.06
325.855	113.06
326.084	103.06
326.313	128.06
326.542	151.06
326.77	192.06
326.999	399.06
327.228	779.06
327.457	1335.06
327.686	1106.06
327.914	313.06
328.143	150.06
328.372	129.06
328.6	125.06
328.829	110.06
329.058	114.06
329.287	98.06
329.515	95.06
329.744	102.06
329.972	100.06
330.201	106.06
330.43	93.06
330.658	112.06
330.887	119.06
331.115	108.06
331.344	91.06
331.572	104.06
331.801	89.06
332.03	89.06
332.258	97.06
332.486	96.06
332.715	84.06
332.943	78.06
333.172	91.06
333.4	93.06
333.629	92.06
333.857	109.06
334.085	105.06
334.314	93.06
334.542	81.06
334.771	101.06
334.999	90.06
335.227	97.06
335.455	94.06
335.684	88.06
335.912	82.06
336.14	85.06
336.369	81.06
336.597	85.06
336.825	103.06
337.053	75.06
337.281	93.06
337.51	94.06
337.738	102.06
337.966	91.06
338.194	83.06
338.422	83.06
338.65	82.06
338.878	102.06
339.106	102.06
339.334	90.06
339.562	104.06
339.79	90.06
340.018	95.06
340.246	91.06
340.474	91.06
340.702	67.06
340.93	98.06
341.158	90.06
341.386	89.06
341.614	116.06
341.842	101.06
342.07	77.06
342.298	93.06
342.526	87.06
342.754	102.06
342.981	77.06
343.209	87.06
343.437	98.06
343.665	104.06
343.893	97.06
344.12	97.06
344.348	72.06
344.576	87.06
344.804	94.06
345.031	84.06
345.259	90.06
345.487	72.06
345.714	93.06
345.942	89.06
346.17	105.06
346.397	101.06
346.625	104.06
346.853	102.06
347.08	94.06
347.308	70.06
347.535	101.06
347.763	95.06
347.99	105.06
348.218	101.06
348.445	112.06
348.673	91.06
348.9	95.06
349.128	100.06
349.355	94.06
349.583	95.06
349.81	81.06
350.037	93.06
350.265	103.06
350.492	94.06
350.72	93.06
350.947	91.06
351.174	108.06
351.402	92.06
351.629	107.06
351.856	95.06
352.083	101.06
352.311	123.06
352.538	104.06
352.765	103.06
352.992	112.06
353.22	106.06
353.447	85.06
353.674	104.06
353.901	87.06
354.128	89.06
354.355	97.06
354.583	88.06
354.81	106.06
355.037	105.06
355.264	102.06
355.491	91.06
355.718	88.06
355.945	90.06
356.172	100.06
356.399	90.06
356.626	95.06
356.853	99.06
357.08	84.06
357.307	92.06
357.534	87.06
357.761	88.06
357.988	87.06
358.215	90.06
358.441	82.06
358.668	90.06
358.895	81.06
359.122	88.06
359.349	94.06
359.576	97.06
359.802	82.06
360.029	98.06
360.256	98.06
360.483	95.06
360.709	109.06
360.936	95.06
361.163	93.06
361.39	110.06
361.616	89.06
361.843	94.06
362.07	101.06
362.296	92.06
362.523	82.06
362.749	95.06
362.976	94.06
363.203	89.06
363.429	87.06
363.656	86.06
363.882	83.06
364.109	90.06
364.335	94.06
364.562	89.06
364.788	80.06
365.015	98.06
365.241	97.06
365.468	100.06
365.694	98.06
365.92	92.06
366.147	84.06
366.373	83.06
366.599	92.06
366.826	93.06
367.052	98.06
367.278	83.06
367.505	75.06
367.731	95.06
367.957	96.06
368.184	85.06
368.41	98.06
368.636	111.06
368.862	108.06
369.089	109.06
369.315	95.06
369.541	83.06
369.767	86.06
369.993	90.06
370.219	91.06
370.445	86.06
370.672	81.06
370.898	75.06
371.124	79.06
371.35	104.06
371.576	88.06
371.802	86.06
372.028	84.06
372.254	76.06
372.48	82.06
372.706	84.06
372.932	89.06
373.158	82.06
373.384	97.06
373.61	87.06
373.835	90.06
374.061	90.06
374.287	87.06
374.513	103.06
374.739	97.06
374.965	89.06
375.191	90.06
375.416	88.06
375.642	88.06
375.868	81.06
376.094	90.06
376.319	101.06
376.545	88.06
376.771	99.06
376.997	80.06
377.222	98.06
377.448	87.06
377.674	81.06
377.899	85.06
378.125	88.06
378.35	90.06
378.576	83.06
378.802	96.06
379.027	101.06
379.253	90.06
379.478	108.06
379.704	81.06
379.929	110.06
380.155	91.06
380.38	98.06
380.606	91.06
380.831	114.06
381.057	93.06
381.282	91.06
381.507	106.06
381.733	104.06
381.958	90.06
382.184	94.06
382.409	104.06
382.634	89.06
382.86	94.06
383.085	81.06
383.31	82.06
383.535	95.06
383.761	93.06
383.986	97.06
384.211	96.06
384.436	92.06
384.662	93.06
384.887	99.06
385.112	107.06
385.337	108.06
385.562	106.06
385.787	114.06
386.013	121.06
386.238	115.06
386.463	107.06
386.688	130.06
386.913	111.06
387.138	109.06
387.363	101.06
387.588	106.06
387.813	105.06
388.038	123.06
388.263	137.06
388.488	121.06
388.713	94.06
388.938	87.06
389.163	102.06
389.387	93.06
389.612	96.06
389.837	94.06
390.062	97.06
390.287	93.06
390.512	86.06
390.736	87.06
390.961	104.06
391.186	97.06
391.411	110.06
391.636	93.06
391.86	83.06
392.085	86.06
392.31	76.06
392.534	81.06
392.759	66.06
392.984	70.06
393.208	83.06
393.433	85.06
393.658	86.06
393.882	90.06
394.107	79.06
394.331	87.06
394.556	90.06
394.78	80.06
395.005	83.06
395.229	86.06
395.454	75.06
395.678	103.06
395.903	101.06
396.127	76.06
396.352	91.06
396.576	80.06
396.801	96.06
397.025	104.06
397.249	82.06
397.474	85.06
397.698	79.06
397.922	85.06
398.147	90.06
398.371	84.06
398.595	82.06
398.82	84.06
399.044	75.06
399.268	95.06
399.492	78.06
399.717	94.06
399.941	92.06
400.165	95.06
400.389	96.06
400.613	87.06
400.837	89.06
401.062	107.06
401.286	96.06
401.51	100.06
401.734	99.06
401.958	110.06
402.182	103.06
402.406	143.06
402.63	114.06
402.854	83.06
403.078	83.06
403.302	85.06
403.526	74.06
403.75	84.06
403.974	89.06
404.198	95.06
404.422	81.06
404.645	83.06
404.869	82.06
405.093	83.06
405.317	86.06
405.541	83.06
405.765	94.06
405.988	95.06
406.212	147.06
406.436	188.06
406.66	119.06
406.883	98.06
407.107	81.06
407.331	98.06
407.555	96.06
407.778	101.06
408.002	77.06
408.226	77.06
408.449	101.06
408.673	75.06
408.896	90.06
409.12	83.06
409.344	89.06
409.567	87.06
409.791	90.06
410.014	86.06
410.238	108.06
410.461	100.06
410.685	94.06
410.908	99.06
411.132	111.06
411.355	98.06
411.578	90.06
411.802	94.06
412.025	96.06
412.249	82.06
412.472	92.06
412.695	85.06
412.919	94.06
413.142	89.06
413.365	109.06
413.589	89.06
413.812	86.06
414.035	85.06
414.258	81.06
414.482	95.06
414.705	81.06
414.928	89.06
415.151	99.06
415.374	90.06
415.597	91.06
415.821	74.06
416.044	81.06
416.267	86.06
416.49	92.06
416.713	96.06
416.936	91.06
417.159	82.06
417.382	90.06
417.605	89.06
417.828	87.06
418.051	73.06
418.274	93.06
418.497	79.06
418.72	82.06
418.943	93.06
419.166	84.06
419.389	77.06
419.611	90.06
419.834	77.06
420.057	75.06
420.28	90.06
420.503	99.06
420.726	101.06
420.948	100.06
421.171	97.06
421.394	104.06
421.617	96.06
421.839	97.06
422.062	78.06
422.285	85.06
422.507	96.06
422.73	110.06
422.953	102.06
423.175	87.06
423.398	89.06
423.621	96.06
423.843	77.06
424.066	83.06
424.288	95.06
424.511	96.06
424.733	95.06
424.956	97.06
425.178	97.06
425.401	89.06
425.623	87.06
425.846	86.06
426.068	87.06
426.291	89.06
426.513	88.06
426.735	95.06
426.958	93.06
427.18	99.06
427.402	123.06
427.625	150.06
427.847	125.06
428.069	84.06
428.292	90.06
428.514	90.06
428.736	87.06
428.958	75.06
429.181	86.06
429.403	86.06
429.625	99.06
429.847	86.06
430.069	108.06
430.292	91.06
430.514	73.06
430.736	66.06
430.958	87.06
431.18	79.06
431.402	87.06
431.624	82.06
431.846	96.06
432.068	94.06
432.29	95.06
432.512	89.06
432.734	87.06
432.956	95.06
433.178	105.06
433.4	90.06
433.622	90.06
433.844	77.06
434.066	80.06
434.287	95.06
434.509	83.06
434.731	86.06
434.953	89.06
435.175	91.06
435.397	97.06
435.618	94.06
435.84	98.06
436.062	113.06
436.284	98.06
436.505	87.06
436.727	94.06
436.949	79.06
437.17	94.06
437.392	78.06
437.614	88.06
437.835	97.06
438.057	107.06
438.278	105.06
438.5	90.06
438.721	102.06
438.943	95.06
439.165	84.06
439.386	88.06
439.608	96.06
439.829	93.06
440.05	102.06
440.272	123.06
440.493	106.06
440.715	84.06
440.936	80.06
441.158	80.06
441.379	87.06
441.6	106.06
441.822	96.06
442.043	101.06
442.264	90.06
442.486	90.06
442.707	89.06
442.928	110.06
443.149	108.06
443.371	137.06
443.592	111.06
443.813	108.06
444.034	108.06
444.255	96.06
444.476	83.06
444.698	79.06
444.919	81.06
445.14	123.06
445.361	106.06
445.582	106.06
445.803	121.06
446.024	123.06
446.245	123.06
446.466	97.06
446.687	96.06
446.908	90.06
447.129	68.06
447.35	81.06
447.571	91.06
447.792	98.06
448.013	91.06
448.234	92.06
448.455	90.06
448.675	113.06
448.896	112.06
449.117	95.06
449.338	104.06
449.559	129.06
449.779	117.06
450	98.06
450.221	87.06
450.442	107.06
450.662	93.06
450.883	94.06
451.104	109.06
451.324	79.06
451.545	87.06
451.766	82.06
451.986	90.06
452.207	77.06
452.428	87.06
452.648	95.06
452.869	115.06
453.089	111.06
453.31	111.06
453.53	86.06
453.751	92.06
453.971	88.06
454.192	107.06
454.412	90.06
454.633	94.06
454.853	81.06
455.073	71.06
455.294	79.06
455.514	85.06
455.734	91.06
455.955	79.06
456.175	87.06
456.395	82.06
456.616	81.06
456.836	89.06
457.056	83.06
457.276	66.06
457.497	100.06
457.717	83.06
457.937	89.06
458.157	98.06
458.377	81.06
458.598	98.06
458.818	130.06
459.038	140.06
459.258	102.06
459.478	107.06
459.698	68.06
459.918	78.06
460.138	77.06
460.358	82.06
460.578	80.06
460.798	74.06
461.018	90.06
461.238	96.06
461.458	98.06
461.678	78.06
461.898	72.06
462.118	83.06
462.338	95.06
462.558	85.06
462.777	70.06
462.997	81.06
463.217	88.06
463.437	88.06
463.657	90.06
463.876	94.06
464.096	78.06
464.316	86.06
464.536	80.06
464.755	100.06
464.975	83.06
465.195	133.06
465.414	134.06
465.634	92.06
465.854	76.06
466.073	84.06
466.293	94.06
466.512	88.06
466.732	98.06
466.951	89.06
467.171	97.06
467.391	90.06
467.61	95.06
467.829	93.06
468.049	93.06
468.268	89.06
468.488	94.06
468.707	95.06
468.927	90.06
469.146	95.06
469.365	78.06
469.585	84.06
469.804	95.06
470.023	94.06
470.243	86.06
470.462	95.06
470.681	111.06
470.901	97.06
471.12	86.06
471.339	83.06
471.558	70.06
471.777	93.06
471.997	78.06
472.216	86.06
472.435	91.06
472.654	94.06
472.873	83.06
473.092	91.06
473.311	82.06
473.53	78.06
473.749	79.06
473.968	93.06
474.187	100.06
474.406	100.06
474.625	91.06
474.844	90.06
475.063	98.06
475.282	73.06
475.501	91.06
475.72	88.06
475.939	76.06
476.158	77.06
476.377	90.06
476.596	72.06
476.814	85.06
477.033	98.06
477.252	86.06
477.471	98.06
477.69	80.06
477.908	88.06
478.127	86.06
478.346	89.06
478.564	86.06
478.783	95.06
479.002	87.06
479.22	85.06
479.439	91.06
479.658	102.06
479.876	102.06
480.095	86.06
480.313	79.06
480.532	95.06
480.751	78.06
480.969	89.06
481.188	88.06
481.406	92.06
481.624	96.06
481.843	89.06
482.061	93.06
482.28	89.06
482.498	80.06
482.717	74.06
482.935	88.06
483.153	81.06
483.372	89.06
483.59	101.06
483.808	73.06
484.027	88.06
484.245	90.06
484.463	79.06
484.681	96.06
484.9	91.06
485.118	99.06
485.336	79.06
485.554	97.06
485.772	99.06
485.99	93.06
486.209	102.06
486.427	99.06
486.645	95.06
486.863	101.06
487.081	96.06
487.299	102.06
487.517	90.06
487.735	99.06
487.953	93.06
488.171	82.06
488.389	94.06
488.607	97.06
488.825	111.06
489.043	82.06
489.261	85.06
489.479	85.06
489.696	91.06
489.914	97.06
490.132	91.06
490.35	91.06
490.568	98.06
490.786	83.06
491.003	81.06
491.221	89.06
491.439	82.06
491.657	87.06
491.874	102.06
492.092	80.06
492.31	86.06
492.527	87.06
492.745	94.06
492.963	90.06
493.18	96.06
493.398	88.06
493.615	85.06
493.833	90.06
494.05	86.06
494.268	88.06
494.485	96.06
494.703	89.06
494.92	82.06
495.138	98.06
495.355	98.06
495.573	97.06
495.79	81.06
496.008	94.06
496.225	89.06
496.442	99.06
496.66	93.06
496.877	95.06
497.094	89.06
497.312	86.06
497.529	97.06
497.746	91.06
497.963	79.06
498.181	105.06
498.398	102.06
498.615	111.06
498.832	103.06
499.049	94.06
499.267	75.06
499.484	86.06
499.701	103.06
499.918	105.06
500.135	97.06
500.352	102.06
500.569	83.06
500.786	81.06
501.003	85.06
501.22	91.06
501.437	79.06
501.654	93.06
501.871	111.06
502.088	89.06
502.305	92.06
502.522	96.06
502.739	79.06
502.956	69.06
503.172	86.06
503.389	101.06
503.606	96.06
503.823	117.06
504.04	82.06
504.256	94.06
504.473	83.06
504.69	104.06
504.907	93.06
505.123	80.06
505.34	64.06
505.557	91.06
505.773	82.06
505.99	87.06
506.207	89.06
506.423	87.06
506.64	96.06
506.856	96.06
507.073	75.06
507.289	107.06
507.506	97.06
507.722	116.06
507.939	112.06
508.155	97.06
508.372	98.06
508.588	87.06
508.805	95.06
509.021	90.06
509.238	103.06
509.454	99.06
509.67	91.06
509.887	106.06
510.103	141.06
510.319	192.06
510.536	674.06
510.752	2135.06
510.968	616.06
511.184	151.06
511.401	111.06
511.617	94.06
511.833	95.06
512.049	87.06
512.265	90.06
512.481	95.06
512.698	98.06
512.914	93.06
513.13	94.06
513.346	91.06
513.562	88.06
513.778	105.06
513.994	102.06
514.21	100.06
514.426	107.06
514.642	120.06
514.858	117.06
515.074	152.06
515.29	402.06
515.506	1275.06
515.721	507.06
515.937	145.06
516.153	105.06
516.369	79.06
516.585	92.06
