Data from Uncirc_2008_H10_HRD10591_00001.txt Node
Date: Wed Jan 03 10:15:31 EST 2024
User: Yrep
Spectrometer: HR+D1059
Trigger mode: 1
Integration Time (sec): 1.000000E-1
Scans to average: 1
Electric dark correction enabled: true
Nonlinearity correction enabled: false
Boxcar width: 0
XAxis mode: Wavelengths
Number of Pixels in Spectrum: 2048
>>>>>Begin Spectral Data<<<<<
223.165	-22.94
223.4	-22.94
223.635	-22.94
223.869	-20.94
224.104	-15.94
224.338	-7.94
224.573	-8.94
224.808	-18.94
225.042	-12.94
225.277	-1.94
225.511	-1.94
225.746	14.06
225.98	12.06
226.215	2.06
226.449	0.06
226.683	20.06
226.918	32.06
227.152	32.06
227.387	28.06
227.621	42.06
227.856	56.06
228.09	52.06
228.324	60.06
228.559	68.06
228.793	51.06
229.027	72.06
229.262	69.06
229.496	77.06
229.73	79.06
229.964	90.06
230.199	68.06
230.433	77.06
230.667	82.06
230.901	74.06
231.136	79.06
231.37	83.06
231.604	64.06
231.838	72.06
232.072	100.06
232.306	79.06
232.541	82.06
232.775	80.06
233.009	86.06
233.243	76.06
233.477	91.06
233.711	81.06
233.945	83.06
234.179	92.06
234.413	76.06
234.647	75.06
234.881	82.06
235.115	85.06
235.349	88.06
235.583	74.06
235.817	84.06
236.051	89.06
236.285	85.06
236.519	83.06
236.753	69.06
236.987	78.06
237.221	85.06
237.455	90.06
237.689	91.06
237.922	86.06
238.156	75.06
238.39	77.06
238.624	85.06
238.858	74.06
239.091	74.06
239.325	92.06
239.559	88.06
239.793	86.06
240.027	77.06
240.26	80.06
240.494	81.06
240.728	81.06
240.961	74.06
241.195	69.06
241.429	92.06
241.662	68.06
241.896	70.06
242.13	70.06
242.363	95.06
242.597	71.06
242.83	78.06
243.064	74.06
243.298	60.06
243.531	87.06
243.765	77.06
243.998	78.06
244.232	76.06
244.465	85.06
244.699	96.06
244.932	88.06
245.166	95.06
245.399	90.06
245.633	79.06
245.866	80.06
246.099	68.06
246.333	77.06
246.566	86.06
246.8	80.06
247.033	81.06
247.266	80.06
247.5	75.06
247.733	85.06
247.966	86.06
248.2	88.06
248.433	72.06
248.666	96.06
248.899	93.06
249.133	86.06
249.366	88.06
249.599	102.06
249.832	83.06
250.066	84.06
250.299	78.06
250.532	95.06
250.765	96.06
250.998	90.06
251.231	79.06
251.465	81.06
251.698	83.06
251.931	74.06
252.164	82.06
252.397	82.06
252.63	81.06
252.863	80.06
253.096	78.06
253.329	78.06
253.562	78.06
253.795	75.06
254.028	80.06
254.261	80.06
254.494	86.06
254.727	89.06
254.96	83.06
255.193	81.06
255.426	88.06
255.659	74.06
255.892	92.06
256.124	84.06
256.357	93.06
256.59	93.06
256.823	86.06
257.056	91.06
257.289	83.06
257.521	83.06
257.754	86.06
257.987	85.06
258.22	88.06
258.452	76.06
258.685	85.06
258.918	79.06
259.151	76.06
259.383	78.06
259.616	86.06
259.849	90.06
260.081	88.06
260.314	75.06
260.547	82.06
260.779	80.06
261.012	94.06
261.244	85.06
261.477	91.06
261.71	86.06
261.942	108.06
262.175	111.06
262.407	88.06
262.64	85.06
262.872	112.06
263.105	85.06
263.337	83.06
263.57	86.06
263.802	90.06
264.035	84.06
264.267	88.06
264.499	83.06
264.732	78.06
264.964	93.06
265.197	87.06
265.429	91.06
265.661	73.06
265.894	89.06
266.126	83.06
266.358	82.06
266.591	80.06
266.823	82.06
267.055	82.06
267.287	73.06
267.52	86.06
267.752	77.06
267.984	98.06
268.216	89.06
268.448	85.06
268.681	84.06
268.913	92.06
269.145	82.06
269.377	74.06
269.609	92.06
269.841	96.06
270.073	80.06
270.306	81.06
270.538	86.06
270.77	84.06
271.002	97.06
271.234	86.06
271.466	84.06
271.698	87.06
271.93	85.06
272.162	99.06
272.394	104.06
272.626	88.06
272.858	86.06
273.09	83.06
273.322	76.06
273.553	97.06
273.785	90.06
274.017	89.06
274.249	93.06
274.481	86.06
274.713	91.06
274.945	89.06
275.176	97.06
275.408	86.06
275.64	89.06
275.872	88.06
276.104	92.06
276.335	78.06
276.567	93.06
276.799	112.06
277.031	98.06
277.262	91.06
277.494	92.06
277.726	88.06
277.957	77.06
278.189	90.06
278.421	96.06
278.652	73.06
278.884	72.06
279.115	86.06
279.347	89.06
279.579	85.06
279.81	84.06
280.042	100.06
280.273	79.06
280.505	90.06
280.736	91.06
280.968	98.06
281.199	88.06
281.431	98.06
281.662	95.06
281.894	95.06
282.125	114.06
282.356	105.06
282.588	129.06
282.819	122.06
283.051	89.06
283.282	79.06
283.513	89.06
283.745	82.06
283.976	83.06
284.207	78.06
284.439	83.06
284.67	92.06
284.901	80.06
285.132	83.06
285.364	88.06
285.595	84.06
285.826	89.06
286.057	95.06
286.288	84.06
286.52	85.06
286.751	86.06
286.982	94.06
287.213	91.06
287.444	82.06
287.675	90.06
287.906	85.06
288.138	105.06
288.369	90.06
288.6	84.06
288.831	77.06
289.062	88.06
289.293	85.06
289.524	82.06
289.755	87.06
289.986	86.06
290.217	75.06
290.448	86.06
290.679	91.06
290.91	81.06
291.141	87.06
291.371	88.06
291.602	90.06
291.833	84.06
292.064	93.06
292.295	85.06
292.526	95.06
292.757	82.06
292.987	90.06
293.218	82.06
293.449	84.06
293.68	82.06
293.91	105.06
294.141	83.06
294.372	94.06
294.603	90.06
294.833	75.06
295.064	91.06
295.295	107.06
295.525	97.06
295.756	110.06
295.987	117.06
296.217	137.06
296.448	127.06
296.679	91.06
296.909	86.06
297.14	90.06
297.37	98.06
297.601	95.06
297.831	83.06
298.062	91.06
298.292	89.06
298.523	96.06
298.753	71.06
298.984	81.06
299.214	90.06
299.445	90.06
299.675	98.06
299.905	98.06
300.136	99.06
300.366	98.06
300.597	109.06
300.827	98.06
301.057	102.06
301.288	94.06
301.518	97.06
301.748	90.06
301.979	88.06
302.209	92.06
302.439	96.06
302.669	107.06
302.9	97.06
303.13	106.06
303.36	79.06
303.59	94.06
303.82	93.06
304.051	86.06
304.281	85.06
304.511	80.06
304.741	89.06
304.971	92.06
305.201	91.06
305.431	83.06
305.661	98.06
305.891	97.06
306.121	95.06
306.352	107.06
306.582	107.06
306.812	91.06
307.042	91.06
307.272	106.06
307.502	101.06
307.731	101.06
307.961	94.06
308.191	77.06
308.421	88.06
308.651	70.06
308.881	87.06
309.111	95.06
309.341	91.06
309.571	99.06
309.8	97.06
310.03	101.06
310.26	96.06
310.49	101.06
310.72	97.06
310.949	95.06
311.179	98.06
311.409	82.06
311.639	88.06
311.868	104.06
312.098	104.06
312.328	92.06
312.557	109.06
312.787	114.06
313.017	114.06
313.246	80.06
313.476	89.06
313.706	86.06
313.935	102.06
314.165	92.06
314.394	91.06
314.624	93.06
314.853	84.06
315.083	100.06
315.312	84.06
315.542	83.06
315.771	96.06
316.001	97.06
316.23	90.06
316.46	92.06
316.689	89.06
316.919	100.06
317.148	90.06
317.377	98.06
317.607	98.06
317.836	108.06
318.065	94.06
318.295	90.06
318.524	83.06
318.753	83.06
318.983	97.06
319.212	81.06
319.441	103.06
319.67	93.06
319.9	87.06
320.129	95.06
320.358	100.06
320.587	86.06
320.816	106.06
321.046	108.06
321.275	96.06
321.504	86.06
321.733	94.06
321.962	97.06
322.191	105.06
322.42	97.06
322.649	101.06
322.878	114.06
323.108	122.06
323.337	126.06
323.566	118.06
323.795	144.06
324.024	176.06
324.253	339.06
324.482	689.06
324.71	1387.06
324.939	1750.06
325.168	672.06
325.397	209.06
325.626	133.06
325.855	128.06
326.084	137.06
326.313	124.06
326.542	142.06
326.77	211.06
326.999	411.06
327.228	829.06
327.457	1393.06
327.686	1101.06
327.914	314.06
328.143	164.06
328.372	125.06
328.6	110.06
328.829	109.06
329.058	115.06
329.287	113.06
329.515	106.06
329.744	86.06
329.972	100.06
330.201	88.06
330.43	107.06
330.658	109.06
330.887	117.06
331.115	108.06
331.344	94.06
331.572	102.06
331.801	80.06
332.03	103.06
332.258	104.06
332.486	104.06
332.715	91.06
332.943	83.06
333.172	85.06
333.4	111.06
333.629	96.06
333.857	105.06
334.085	111.06
334.314	97.06
334.542	94.06
334.771	86.06
334.999	104.06
335.227	83.06
335.455	91.06
335.684	94.06
335.912	98.06
336.14	98.06
336.369	110.06
336.597	101.06
336.825	91.06
337.053	98.06
337.281	100.06
337.51	93.06
337.738	98.06
337.966	83.06
338.194	103.06
338.422	107.06
338.65	90.06
338.878	112.06
339.106	95.06
339.334	93.06
339.562	91.06
339.79	85.06
340.018	90.06
340.246	100.06
340.474	86.06
340.702	91.06
340.93	89.06
341.158	96.06
341.386	105.06
341.614	91.06
341.842	99.06
342.07	85.06
342.298	96.06
342.526	98.06
342.754	83.06
342.981	79.06
343.209	91.06
343.437	112.06
343.665	95.06
343.893	91.06
344.12	96.06
344.348	99.06
344.576	83.06
344.804	100.06
345.031	99.06
345.259	111.06
345.487	96.06
345.714	91.06
345.942	91.06
346.17	109.06
346.397	99.06
346.625	84.06
346.853	90.06
347.08	85.06
347.308	91.06
347.535	99.06
347.763	102.06
347.99	86.06
348.218	111.06
348.445	93.06
348.673	93.06
348.9	97.06
349.128	106.06
349.355	95.06
349.583	101.06
349.81	91.06
350.037	99.06
350.265	108.06
350.492	91.06
350.72	107.06
350.947	103.06
351.174	111.06
351.402	111.06
351.629	112.06
351.856	104.06
352.083	101.06
352.311	99.06
352.538	114.06
352.765	99.06
352.992	104.06
353.22	117.06
353.447	111.06
353.674	95.06
353.901	94.06
354.128	94.06
354.355	100.06
354.583	88.06
354.81	100.06
355.037	108.06
355.264	88.06
355.491	103.06
355.718	89.06
355.945	101.06
356.172	106.06
356.399	110.06
356.626	120.06
356.853	104.06
357.08	105.06
357.307	98.06
357.534	92.06
357.761	96.06
357.988	99.06
358.215	108.06
358.441	97.06
358.668	96.06
358.895	100.06
359.122	95.06
359.349	85.06
359.576	102.06
359.802	101.06
360.029	104.06
360.256	119.06
360.483	95.06
360.709	100.06
360.936	97.06
361.163	86.06
361.39	98.06
361.616	82.06
361.843	83.06
362.07	96.06
362.296	94.06
362.523	83.06
362.749	97.06
362.976	99.06
363.203	87.06
363.429	93.06
363.656	104.06
363.882	85.06
364.109	103.06
364.335	81.06
364.562	92.06
364.788	90.06
365.015	100.06
365.241	85.06
365.468	109.06
365.694	110.06
365.92	95.06
366.147	87.06
366.373	96.06
366.599	92.06
366.826	100.06
367.052	99.06
367.278	100.06
367.505	86.06
367.731	97.06
367.957	77.06
368.184	82.06
368.41	96.06
368.636	101.06
368.862	90.06
369.089	97.06
369.315	94.06
369.541	97.06
369.767	84.06
369.993	87.06
370.219	104.06
370.445	89.06
370.672	98.06
370.898	95.06
371.124	84.06
371.35	98.06
371.576	82.06
371.802	97.06
372.028	93.06
372.254	91.06
372.48	81.06
372.706	102.06
372.932	85.06
373.158	98.06
373.384	95.06
373.61	92.06
373.835	77.06
374.061	89.06
374.287	100.06
374.513	97.06
374.739	95.06
374.965	90.06
375.191	87.06
375.416	90.06
375.642	94.06
375.868	94.06
376.094	97.06
376.319	89.06
376.545	90.06
376.771	91.06
376.997	97.06
377.222	94.06
377.448	101.06
377.674	84.06
377.899	96.06
378.125	105.06
378.35	102.06
378.576	90.06
378.802	96.06
379.027	98.06
379.253	102.06
379.478	92.06
379.704	98.06
379.929	96.06
380.155	102.06
380.38	97.06
380.606	90.06
380.831	101.06
381.057	108.06
381.282	98.06
381.507	101.06
381.733	97.06
381.958	92.06
382.184	98.06
382.409	108.06
382.634	112.06
382.86	117.06
383.085	116.06
383.31	99.06
383.535	112.06
383.761	106.06
383.986	92.06
384.211	95.06
384.436	102.06
384.662	109.06
384.887	110.06
385.112	129.06
385.337	120.06
385.562	123.06
385.787	124.06
386.013	116.06
386.238	127.06
386.463	129.06
386.688	125.06
386.913	133.06
387.138	129.06
387.363	136.06
387.588	117.06
387.813	108.06
388.038	121.06
388.263	126.06
388.488	132.06
388.713	105.06
388.938	100.06
389.163	83.06
389.387	84.06
389.612	88.06
389.837	105.06
390.062	99.06
390.287	104.06
390.512	98.06
390.736	97.06
390.961	75.06
391.186	91.06
391.411	99.06
391.636	100.06
391.86	82.06
392.085	95.06
392.31	80.06
392.534	84.06
392.759	76.06
392.984	89.06
393.208	104.06
393.433	92.06
393.658	85.06
393.882	88.06
394.107	113.06
394.331	93.06
394.556	92.06
394.78	88.06
395.005	80.06
395.229	92.06
395.454	81.06
395.678	99.06
395.903	75.06
396.127	98.06
396.352	92.06
396.576	90.06
396.801	82.06
397.025	97.06
397.249	111.06
397.474	91.06
397.698	93.06
397.922	82.06
398.147	80.06
398.371	77.06
398.595	106.06
398.82	87.06
399.044	85.06
399.268	88.06
399.492	99.06
399.717	86.06
399.941	86.06
400.165	100.06
400.389	90.06
400.613	76.06
400.837	80.06
401.062	98.06
401.286	89.06
401.51	98.06
401.734	103.06
401.958	93.06
402.182	129.06
402.406	161.06
402.63	106.06
402.854	82.06
403.078	95.06
403.302	89.06
403.526	84.06
403.75	99.06
403.974	88.06
404.198	77.06
404.422	88.06
404.645	94.06
404.869	94.06
405.093	102.06
405.317	86.06
405.541	96.06
405.765	103.06
405.988	106.06
406.212	131.06
406.436	186.06
406.66	131.06
406.883	92.06
407.107	101.06
407.331	99.06
407.555	92.06
407.778	91.06
408.002	93.06
408.226	96.06
408.449	102.06
408.673	92.06
408.896	95.06
409.12	104.06
409.344	104.06
409.567	95.06
409.791	109.06
410.014	110.06
410.238	104.06
410.461	107.06
410.685	92.06
410.908	97.06
411.132	104.06
411.355	92.06
411.578	97.06
411.802	82.06
412.025	86.06
412.249	99.06
412.472	98.06
412.695	84.06
412.919	94.06
413.142	99.06
413.365	92.06
413.589	86.06
413.812	92.06
414.035	79.06
414.258	95.06
414.482	93.06
414.705	106.06
414.928	102.06
415.151	111.06
415.374	99.06
415.597	88.06
415.821	91.06
416.044	104.06
416.267	86.06
416.49	86.06
416.713	97.06
416.936	98.06
417.159	103.06
417.382	83.06
417.605	90.06
417.828	93.06
418.051	104.06
418.274	98.06
418.497	85.06
418.72	91.06
418.943	95.06
419.166	97.06
419.389	100.06
419.611	92.06
419.834	94.06
420.057	98.06
420.28	85.06
420.503	99.06
420.726	98.06
420.948	92.06
421.171	96.06
421.394	94.06
421.617	92.06
421.839	96.06
422.062	101.06
422.285	86.06
422.507	94.06
422.73	98.06
422.953	91.06
423.175	92.06
423.398	93.06
423.621	90.06
423.843	110.06
424.066	111.06
424.288	92.06
424.511	89.06
424.733	103.06
424.956	106.06
425.178	104.06
425.401	97.06
425.623	98.06
425.846	99.06
426.068	101.06
426.291	104.06
426.513	91.06
426.735	99.06
426.958	100.06
427.18	107.06
427.402	128.06
427.625	154.06
427.847	124.06
428.069	110.06
428.292	88.06
428.514	101.06
428.736	93.06
428.958	92.06
429.181	77.06
429.403	105.06
429.625	96.06
429.847	90.06
430.069	91.06
430.292	88.06
430.514	87.06
430.736	75.06
430.958	82.06
431.18	90.06
431.402	88.06
431.624	79.06
431.846	89.06
432.068	88.06
432.29	96.06
432.512	86.06
432.734	81.06
432.956	79.06
433.178	104.06
433.4	79.06
433.622	91.06
433.844	104.06
434.066	92.06
434.287	86.06
434.509	92.06
434.731	99.06
434.953	82.06
435.175	94.06
435.397	87.06
435.618	94.06
435.84	100.06
436.062	124.06
436.284	107.06
436.505	115.06
436.727	105.06
436.949	102.06
437.17	85.06
437.392	90.06
437.614	94.06
437.835	107.06
438.057	105.06
438.278	111.06
438.5	101.06
438.721	107.06
438.943	93.06
439.165	82.06
439.386	80.06
439.608	89.06
439.829	89.06
440.05	114.06
440.272	120.06
440.493	98.06
440.715	84.06
440.936	92.06
441.158	99.06
441.379	78.06
441.6	92.06
441.822	92.06
442.043	79.06
442.264	86.06
442.486	98.06
442.707	93.06
442.928	99.06
443.149	114.06
443.371	113.06
443.592	105.06
443.813	99.06
444.034	98.06
444.255	95.06
444.476	85.06
444.698	94.06
444.919	96.06
445.14	132.06
445.361	113.06
445.582	118.06
445.803	117.06
446.024	111.06
446.245	120.06
446.466	122.06
446.687	83.06
446.908	107.06
447.129	109.06
447.35	91.06
447.571	89.06
447.792	74.06
448.013	104.06
448.234	94.06
448.455	86.06
448.675	83.06
448.896	118.06
449.117	104.06
449.338	99.06
449.559	131.06
449.779	122.06
450	100.06
450.221	82.06
450.442	83.06
450.662	87.06
450.883	103.06
451.104	106.06
451.324	99.06
451.545	91.06
451.766	96.06
451.986	97.06
452.207	97.06
452.428	98.06
452.648	91.06
452.869	111.06
453.089	120.06
453.31	120.06
453.53	90.06
453.751	90.06
453.971	98.06
454.192	108.06
454.412	83.06
454.633	76.06
454.853	86.06
455.073	90.06
455.294	85.06
455.514	112.06
455.734	94.06
455.955	85.06
456.175	85.06
456.395	90.06
456.616	94.06
456.836	96.06
457.056	95.06
457.276	92.06
457.497	90.06
457.717	84.06
457.937	91.06
458.157	88.06
458.377	92.06
458.598	96.06
458.818	143.06
459.038	148.06
459.258	115.06
459.478	106.06
459.698	101.06
459.918	88.06
460.138	107.06
460.358	92.06
460.578	89.06
460.798	96.06
461.018	97.06
461.238	93.06
461.458	86.06
461.678	86.06
461.898	81.06
462.118	88.06
462.338	73.06
462.558	96.06
462.777	102.06
462.997	81.06
463.217	89.06
463.437	94.06
463.657	90.06
463.876	92.06
464.096	97.06
464.316	93.06
464.536	98.06
464.755	97.06
464.975	110.06
465.195	154.06
465.414	126.06
465.634	99.06
465.854	86.06
466.073	87.06
466.293	97.06
466.512	89.06
466.732	84.06
466.951	97.06
467.171	99.06
467.391	104.06
467.61	115.06
467.829	85.06
468.049	98.06
468.268	82.06
468.488	91.06
468.707	92.06
468.927	94.06
469.146	96.06
469.365	79.06
469.585	80.06
469.804	96.06
470.023	100.06
470.243	100.06
470.462	90.06
470.681	101.06
470.901	96.06
471.12	99.06
471.339	80.06
471.558	87.06
471.777	90.06
471.997	87.06
472.216	78.06
472.435	98.06
472.654	93.06
472.873	83.06
473.092	92.06
473.311	74.06
473.53	86.06
473.749	85.06
473.968	92.06
474.187	99.06
474.406	90.06
474.625	96.06
474.844	90.06
475.063	78.06
475.282	88.06
475.501	89.06
475.72	91.06
475.939	93.06
476.158	85.06
476.377	92.06
476.596	96.06
476.814	100.06
477.033	93.06
477.252	90.06
477.471	96.06
477.69	103.06
477.908	101.06
478.127	85.06
478.346	74.06
478.564	86.06
478.783	96.06
479.002	99.06
479.22	95.06
479.439	91.06
479.658	104.06
479.876	101.06
480.095	103.06
480.313	95.06
480.532	95.06
480.751	78.06
480.969	92.06
481.188	103.06
481.406	89.06
481.624	89.06
481.843	93.06
482.061	90.06
482.28	104.06
482.498	104.06
482.717	88.06
482.935	97.06
483.153	94.06
483.372	91.06
483.59	80.06
483.808	90.06
484.027	96.06
484.245	89.06
484.463	89.06
484.681	95.06
484.9	83.06
485.118	93.06
485.336	93.06
485.554	90.06
485.772	104.06
485.99	105.06
486.209	117.06
486.427	104.06
486.645	113.06
486.863	95.06
487.081	115.06
487.299	106.06
487.517	100.06
487.735	97.06
487.953	96.06
488.171	88.06
488.389	97.06
488.607	113.06
488.825	81.06
489.043	99.06
489.261	105.06
489.479	107.06
489.696	87.06
489.914	95.06
490.132	74.06
490.35	92.06
490.568	82.06
490.786	83.06
491.003	81.06
491.221	92.06
491.439	88.06
491.657	86.06
491.874	100.06
492.092	104.06
492.31	94.06
492.527	83.06
492.745	100.06
492.963	100.06
493.18	95.06
493.398	116.06
493.615	85.06
493.833	82.06
494.05	96.06
494.268	91.06
494.485	102.06
494.703	89.06
494.92	80.06
495.138	89.06
495.355	86.06
495.573	89.06
495.79	91.06
496.008	106.06
496.225	99.06
496.442	88.06
496.66	96.06
496.877	78.06
497.094	100.06
497.312	108.06
497.529	92.06
497.746	80.06
497.963	88.06
498.181	105.06
498.398	92.06
498.615	98.06
498.832	109.06
499.049	95.06
499.267	80.06
499.484	85.06
499.701	100.06
499.918	87.06
500.135	97.06
500.352	89.06
500.569	92.06
500.786	94.06
501.003	97.06
501.22	80.06
501.437	96.06
501.654	91.06
501.871	107.06
502.088	98.06
502.305	97.06
502.522	94.06
502.739	77.06
502.956	90.06
503.172	92.06
503.389	94.06
503.606	98.06
503.823	112.06
504.04	84.06
504.256	103.06
504.473	93.06
504.69	87.06
504.907	80.06
505.123	96.06
505.34	84.06
505.557	86.06
505.773	108.06
505.99	101.06
506.207	91.06
506.423	89.06
506.64	95.06
506.856	99.06
507.073	90.06
507.289	83.06
507.506	108.06
507.722	112.06
507.939	104.06
508.155	107.06
508.372	94.06
508.588	107.06
508.805	97.06
509.021	98.06
509.238	107.06
509.454	95.06
509.67	93.06
509.887	99.06
510.103	118.06
510.319	196.06
510.536	650.06
510.752	1946.06
510.968	551.06
511.184	156.06
511.401	115.06
511.617	108.06
511.833	101.06
512.049	101.06
512.265	91.06
512.481	94.06
512.698	94.06
512.914	97.06
513.13	94.06
513.346	106.06
513.562	95.06
513.778	92.06
513.994	105.06
514.21	99.06
514.426	114.06
514.642	127.06
514.858	136.06
515.074	158.06
