Data from Uncirc_2008_H10_HRD10591_00096.txt Node
Date: Wed Jan 03 10:15:50 EST 2024
User: Yrep
Spectrometer: HR+D1059
Trigger mode: 1
Integration Time (sec): 1.000000E-1
Scans to average: 1
Electric dark correction enabled: true
Nonlinearity correction enabled: false
Boxcar width: 0
XAxis mode: Wavelengths
Number of Pixels in Spectrum: 2048
>>>>>Begin Spectral Data<<<<<
223.165	-12.56
223.4	-12.56
223.635	-12.56
223.869	-6.56
224.104	-14.56
224.338	-30.56
224.573	-20.56
224.808	-14.56
225.042	-3.56
225.277	-10.56
225.511	2.44
225.746	-1.56
225.98	10.44
226.215	-1.56
226.449	20.44
226.683	18.44
226.918	26.44
227.152	38.44
227.387	29.44
227.621	43.44
227.856	32.44
228.09	42.44
228.324	53.44
228.559	50.44
228.793	59.44
229.027	66.44
229.262	74.44
229.496	71.44
229.73	73.44
229.964	64.44
230.199	63.44
230.433	79.44
230.667	79.44
230.901	74.44
231.136	75.44
231.37	73.44
231.604	73.44
231.838	86.44
232.072	67.44
232.306	71.44
232.541	68.44
232.775	76.44
233.009	83.44
233.243	91.44
233.477	82.44
233.711	76.44
233.945	90.44
234.179	76.44
234.413	79.44
234.647	75.44
234.881	82.44
235.115	71.44
235.349	68.44
235.583	78.44
235.817	74.44
236.051	72.44
236.285	64.44
236.519	82.44
236.753	83.44
236.987	90.44
237.221	78.44
237.455	87.44
237.689	71.44
237.922	76.44
238.156	63.44
238.39	73.44
238.624	63.44
238.858	84.44
239.091	82.44
239.325	86.44
239.559	89.44
239.793	69.44
240.027	74.44
240.26	64.44
240.494	74.44
240.728	61.44
240.961	72.44
241.195	65.44
241.429	75.44
241.662	73.44
241.896	70.44
242.13	71.44
242.363	75.44
242.597	78.44
242.83	72.44
243.064	73.44
243.298	69.44
243.531	69.44
243.765	83.44
243.998	79.44
244.232	90.44
244.465	93.44
244.699	66.44
244.932	76.44
245.166	78.44
245.399	70.44
245.633	69.44
245.866	73.44
246.099	73.44
246.333	61.44
246.566	79.44
246.8	62.44
247.033	88.44
247.266	91.44
247.5	80.44
247.733	86.44
247.966	92.44
248.2	65.44
248.433	70.44
248.666	62.44
248.899	83.44
249.133	80.44
249.366	91.44
249.599	89.44
249.832	87.44
250.066	86.44
250.299	81.44
250.532	71.44
250.765	81.44
250.998	77.44
251.231	72.44
251.465	74.44
251.698	87.44
251.931	80.44
252.164	75.44
252.397	69.44
252.63	77.44
252.863	73.44
253.096	98.44
253.329	79.44
253.562	77.44
253.795	74.44
254.028	78.44
254.261	87.44
254.494	73.44
254.727	91.44
254.96	77.44
255.193	81.44
255.426	94.44
255.659	86.44
255.892	77.44
256.124	79.44
256.357	82.44
256.59	74.44
256.823	75.44
257.056	92.44
257.289	91.44
257.521	90.44
257.754	89.44
257.987	92.44
258.22	83.44
258.452	79.44
258.685	70.44
258.918	74.44
259.151	98.44
259.383	88.44
259.616	63.44
259.849	79.44
260.081	78.44
260.314	80.44
260.547	82.44
260.779	73.44
261.012	90.44
261.244	62.44
261.477	91.44
261.71	101.44
261.942	110.44
262.175	104.44
262.407	89.44
262.64	88.44
262.872	90.44
263.105	70.44
263.337	85.44
263.57	95.44
263.802	88.44
264.035	78.44
264.267	83.44
264.499	76.44
264.732	83.44
264.964	93.44
265.197	85.44
265.429	76.44
265.661	83.44
265.894	83.44
266.126	74.44
266.358	74.44
266.591	77.44
266.823	74.44
267.055	72.44
267.287	103.44
267.52	91.44
267.752	102.44
267.984	73.44
268.216	77.44
268.448	89.44
268.681	79.44
268.913	82.44
269.145	73.44
269.377	82.44
269.609	77.44
269.841	73.44
270.073	64.44
270.306	94.44
270.538	82.44
270.77	90.44
271.002	83.44
271.234	91.44
271.466	88.44
271.698	87.44
271.93	74.44
272.162	87.44
272.394	79.44
272.626	79.44
272.858	96.44
273.09	90.44
273.322	94.44
273.553	81.44
273.785	82.44
274.017	84.44
274.249	77.44
274.481	72.44
274.713	90.44
274.945	86.44
275.176	66.44
275.408	95.44
275.64	74.44
275.872	93.44
276.104	93.44
276.335	84.44
276.567	93.44
276.799	109.44
277.031	92.44
277.262	89.44
277.494	92.44
277.726	91.44
277.957	87.44
278.189	98.44
278.421	86.44
278.652	80.44
278.884	88.44
279.115	75.44
279.347	88.44
279.579	86.44
279.81	75.44
280.042	90.44
280.273	92.44
280.505	82.44
280.736	87.44
280.968	89.44
281.199	78.44
281.431	87.44
281.662	88.44
281.894	98.44
282.125	83.44
282.356	109.44
282.588	133.44
282.819	111.44
283.051	93.44
283.282	92.44
283.513	90.44
283.745	92.44
283.976	62.44
284.207	76.44
284.439	84.44
284.67	86.44
284.901	93.44
285.132	85.44
285.364	83.44
285.595	84.44
285.826	91.44
286.057	82.44
286.288	92.44
286.52	85.44
286.751	81.44
286.982	81.44
287.213	78.44
287.444	91.44
287.675	83.44
287.906	88.44
288.138	87.44
288.369	101.44
288.6	97.44
288.831	89.44
289.062	81.44
289.293	102.44
289.524	79.44
289.755	82.44
289.986	82.44
290.217	78.44
290.448	75.44
290.679	76.44
290.91	71.44
291.141	79.44
291.371	86.44
291.602	88.44
291.833	73.44
292.064	85.44
292.295	84.44
292.526	88.44
292.757	85.44
292.987	73.44
293.218	92.44
293.449	82.44
293.68	91.44
293.91	78.44
294.141	100.44
294.372	97.44
294.603	84.44
294.833	86.44
295.064	86.44
295.295	96.44
295.525	73.44
295.756	82.44
295.987	119.44
296.217	139.44
296.448	119.44
296.679	86.44
296.909	81.44
297.14	81.44
297.37	105.44
297.601	95.44
297.831	79.44
298.062	87.44
298.292	88.44
298.523	104.44
298.753	95.44
298.984	92.44
299.214	87.44
299.445	84.44
299.675	80.44
299.905	85.44
300.136	101.44
300.366	78.44
300.597	93.44
300.827	91.44
301.057	93.44
301.288	108.44
301.518	91.44
301.748	83.44
301.979	99.44
302.209	84.44
302.439	95.44
302.669	82.44
302.9	88.44
303.13	103.44
303.36	94.44
303.59	98.44
303.82	97.44
304.051	84.44
304.281	88.44
304.511	83.44
304.741	92.44
304.971	85.44
305.201	83.44
305.431	103.44
305.661	97.44
305.891	83.44
306.121	96.44
306.352	94.44
306.582	102.44
306.812	99.44
307.042	95.44
307.272	90.44
307.502	91.44
307.731	90.44
307.961	85.44
308.191	91.44
308.421	103.44
308.651	93.44
308.881	94.44
309.111	87.44
309.341	94.44
309.571	94.44
309.8	102.44
310.03	94.44
310.26	86.44
310.49	94.44
310.72	104.44
310.949	111.44
311.179	82.44
311.409	98.44
311.639	74.44
311.868	83.44
312.098	86.44
312.328	85.44
312.557	97.44
312.787	99.44
313.017	102.44
313.246	82.44
313.476	86.44
313.706	86.44
313.935	82.44
314.165	90.44
314.394	88.44
314.624	88.44
314.853	103.44
315.083	103.44
315.312	104.44
315.542	93.44
315.771	89.44
316.001	88.44
316.23	94.44
316.46	88.44
316.689	75.44
316.919	95.44
317.148	98.44
317.377	95.44
317.607	79.44
317.836	89.44
318.065	90.44
318.295	80.44
318.524	102.44
318.753	92.44
318.983	94.44
319.212	90.44
319.441	98.44
319.67	104.44
319.9	103.44
320.129	94.44
320.358	82.44
320.587	79.44
320.816	89.44
321.046	94.44
321.275	98.44
321.504	83.44
321.733	78.44
321.962	101.44
322.191	91.44
322.42	95.44
322.649	115.44
322.878	99.44
323.108	103.44
323.337	110.44
323.566	113.44
323.795	145.44
324.024	185.44
324.253	376.44
324.482	763.44
324.71	1527.44
324.939	2027.44
325.168	716.44
325.397	225.44
325.626	149.44
325.855	131.44
326.084	113.44
326.313	133.44
326.542	146.44
326.77	230.44
326.999	441.44
327.228	869.44
327.457	1554.44
327.686	1229.44
327.914	346.44
328.143	179.44
328.372	137.44
328.6	122.44
328.829	105.44
329.058	126.44
329.287	130.44
329.515	97.44
329.744	96.44
329.972	98.44
330.201	88.44
330.43	94.44
330.658	113.44
330.887	137.44
331.115	123.44
331.344	105.44
331.572	95.44
331.801	89.44
332.03	103.44
332.258	93.44
332.486	89.44
332.715	96.44
332.943	102.44
333.172	81.44
333.4	98.44
333.629	112.44
333.857	122.44
334.085	99.44
334.314	92.44
334.542	102.44
334.771	93.44
334.999	90.44
335.227	86.44
335.455	86.44
335.684	86.44
335.912	86.44
336.14	90.44
336.369	102.44
336.597	95.44
336.825	87.44
337.053	89.44
337.281	82.44
337.51	83.44
337.738	97.44
337.966	83.44
338.194	100.44
338.422	101.44
338.65	75.44
338.878	101.44
339.106	94.44
339.334	79.44
339.562	83.44
339.79	76.44
340.018	86.44
340.246	90.44
340.474	85.44
340.702	98.44
340.93	80.44
341.158	94.44
341.386	98.44
341.614	91.44
341.842	88.44
342.07	82.44
342.298	79.44
342.526	74.44
342.754	80.44
342.981	88.44
343.209	99.44
343.437	102.44
343.665	88.44
343.893	83.44
344.12	104.44
344.348	93.44
344.576	88.44
344.804	86.44
345.031	95.44
345.259	95.44
345.487	85.44
345.714	94.44
345.942	89.44
346.17	87.44
346.397	83.44
346.625	98.44
346.853	91.44
347.08	82.44
347.308	90.44
347.535	89.44
347.763	90.44
347.99	95.44
348.218	93.44
348.445	109.44
348.673	95.44
348.9	91.44
349.128	81.44
349.355	91.44
349.583	93.44
349.81	95.44
350.037	98.44
350.265	104.44
350.492	91.44
350.72	111.44
350.947	88.44
351.174	104.44
351.402	102.44
351.629	90.44
351.856	92.44
352.083	93.44
352.311	93.44
352.538	98.44
352.765	102.44
352.992	108.44
353.22	101.44
353.447	89.44
353.674	102.44
353.901	98.44
354.128	102.44
354.355	100.44
354.583	87.44
354.81	93.44
355.037	103.44
355.264	87.44
355.491	78.44
355.718	91.44
355.945	85.44
356.172	105.44
356.399	98.44
356.626	82.44
356.853	87.44
357.08	103.44
357.307	89.44
357.534	97.44
357.761	94.44
357.988	101.44
358.215	87.44
358.441	81.44
358.668	88.44
358.895	84.44
359.122	88.44
359.349	77.44
359.576	98.44
359.802	87.44
360.029	112.44
360.256	113.44
360.483	87.44
360.709	87.44
360.936	95.44
361.163	78.44
361.39	81.44
361.616	86.44
361.843	88.44
362.07	87.44
362.296	96.44
362.523	91.44
362.749	79.44
362.976	105.44
363.203	87.44
363.429	91.44
363.656	90.44
363.882	89.44
364.109	81.44
364.335	95.44
364.562	88.44
364.788	81.44
365.015	81.44
365.241	91.44
365.468	93.44
365.694	102.44
365.92	96.44
366.147	87.44
366.373	92.44
366.599	76.44
366.826	84.44
367.052	106.44
367.278	86.44
367.505	80.44
367.731	90.44
367.957	82.44
368.184	76.44
368.41	92.44
368.636	98.44
368.862	118.44
369.089	106.44
369.315	90.44
369.541	87.44
369.767	96.44
369.993	89.44
370.219	86.44
370.445	97.44
370.672	77.44
370.898	71.44
371.124	94.44
371.35	86.44
371.576	72.44
371.802	90.44
372.028	84.44
372.254	87.44
372.48	85.44
372.706	86.44
372.932	90.44
373.158	108.44
373.384	93.44
373.61	86.44
373.835	80.44
374.061	83.44
374.287	85.44
374.513	97.44
374.739	86.44
374.965	89.44
375.191	82.44
375.416	84.44
375.642	97.44
375.868	93.44
376.094	85.44
376.319	78.44
376.545	91.44
376.771	95.44
376.997	91.44
377.222	98.44
377.448	82.44
377.674	84.44
377.899	85.44
378.125	82.44
378.35	92.44
378.576	87.44
378.802	99.44
379.027	80.44
379.253	94.44
379.478	96.44
379.704	91.44
379.929	87.44
380.155	86.44
380.38	94.44
380.606	95.44
380.831	95.44
381.057	98.44
381.282	96.44
381.507	98.44
381.733	92.44
381.958	92.44
382.184	98.44
382.409	91.44
382.634	82.44
382.86	101.44
383.085	106.44
383.31	90.44
383.535	105.44
383.761	86.44
383.986	75.44
384.211	96.44
384.436	90.44
384.662	108.44
384.887	96.44
385.112	97.44
385.337	93.44
385.562	100.44
385.787	104.44
386.013	100.44
386.238	91.44
386.463	104.44
386.688	87.44
386.913	97.44
387.138	96.44
387.363	81.44
387.588	88.44
387.813	90.44
388.038	107.44
388.263	113.44
388.488	108.44
388.713	90.44
388.938	78.44
389.163	94.44
389.387	94.44
389.612	93.44
389.837	85.44
390.062	101.44
390.287	90.44
390.512	93.44
390.736	86.44
390.961	105.44
391.186	90.44
391.411	90.44
391.636	80.44
391.86	77.44
392.085	92.44
392.31	90.44
392.534	83.44
392.759	83.44
392.984	87.44
393.208	83.44
393.433	88.44
393.658	82.44
393.882	84.44
394.107	78.44
394.331	78.44
394.556	76.44
394.78	83.44
395.005	78.44
395.229	86.44
395.454	86.44
395.678	86.44
395.903	78.44
396.127	82.44
396.352	77.44
396.576	83.44
396.801	93.44
397.025	86.44
397.249	86.44
397.474	102.44
397.698	91.44
397.922	96.44
398.147	91.44
398.371	87.44
398.595	76.44
398.82	88.44
399.044	84.44
399.268	100.44
399.492	102.44
399.717	97.44
399.941	80.44
400.165	102.44
400.389	79.44
400.613	93.44
400.837	94.44
401.062	73.44
401.286	83.44
401.51	90.44
401.734	75.44
401.958	81.44
402.182	114.44
402.406	138.44
402.63	111.44
402.854	105.44
403.078	93.44
403.302	74.44
403.526	79.44
403.75	92.44
403.974	85.44
404.198	105.44
404.422	102.44
404.645	89.44
404.869	88.44
405.093	99.44
405.317	69.44
405.541	77.44
405.765	86.44
405.988	97.44
406.212	158.44
406.436	213.44
406.66	112.44
406.883	98.44
407.107	97.44
407.331	92.44
407.555	104.44
407.778	79.44
408.002	104.44
408.226	76.44
408.449	86.44
408.673	74.44
408.896	95.44
409.12	89.44
409.344	93.44
409.567	77.44
409.791	88.44
410.014	94.44
410.238	102.44
410.461	81.44
410.685	103.44
410.908	90.44
411.132	111.44
411.355	89.44
411.578	85.44
411.802	83.44
412.025	89.44
412.249	78.44
412.472	84.44
412.695	76.44
412.919	79.44
413.142	84.44
413.365	91.44
413.589	80.44
413.812	87.44
414.035	75.44
414.258	78.44
414.482	90.44
414.705	93.44
414.928	79.44
415.151	82.44
415.374	91.44
415.597	95.44
415.821	80.44
416.044	89.44
416.267	91.44
416.49	82.44
416.713	97.44
416.936	101.44
417.159	86.44
417.382	90.44
417.605	98.44
417.828	78.44
418.051	98.44
418.274	90.44
418.497	83.44
418.72	75.44
418.943	76.44
419.166	73.44
419.389	106.44
419.611	86.44
419.834	91.44
420.057	77.44
420.28	90.44
420.503	83.44
420.726	95.44
420.948	103.44
421.171	87.44
421.394	84.44
421.617	96.44
421.839	96.44
422.062	90.44
422.285	101.44
422.507	97.44
422.73	88.44
422.953	89.44
423.175	87.44
423.398	80.44
423.621	89.44
423.843	95.44
424.066	86.44
424.288	79.44
424.511	77.44
424.733	106.44
424.956	102.44
425.178	101.44
425.401	110.44
425.623	112.44
425.846	89.44
426.068	89.44
426.291	89.44
426.513	91.44
426.735	102.44
426.958	105.44
427.18	87.44
427.402	124.44
427.625	139.44
427.847	120.44
428.069	100.44
428.292	103.44
428.514	83.44
428.736	90.44
428.958	93.44
429.181	77.44
429.403	76.44
429.625	81.44
429.847	88.44
430.069	112.44
430.292	89.44
430.514	81.44
430.736	80.44
430.958	74.44
431.18	90.44
431.402	89.44
431.624	86.44
431.846	87.44
432.068	82.44
432.29	93.44
432.512	79.44
432.734	82.44
432.956	94.44
433.178	96.44
433.4	94.44
433.622	95.44
433.844	83.44
434.066	85.44
434.287	89.44
434.509	94.44
434.731	90.44
434.953	103.44
435.175	95.44
435.397	88.44
435.618	98.44
435.84	108.44
436.062	136.44
436.284	117.44
436.505	90.44
436.727	91.44
436.949	101.44
437.17	97.44
437.392	96.44
437.614	97.44
437.835	110.44
438.057	103.44
438.278	106.44
438.5	103.44
438.721	118.44
438.943	91.44
439.165	87.44
439.386	95.44
439.608	94.44
439.829	101.44
440.05	121.44
440.272	140.44
440.493	102.44
440.715	96.44
440.936	85.44
441.158	88.44
441.379	96.44
441.6	87.44
441.822	79.44
442.043	89.44
442.264	85.44
442.486	91.44
442.707	94.44
442.928	110.44
443.149	110.44
443.371	133.44
443.592	97.44
443.813	111.44
444.034	99.44
444.255	101.44
444.476	89.44
444.698	95.44
444.919	93.44
445.14	126.44
445.361	107.44
445.582	113.44
445.803	107.44
446.024	143.44
446.245	139.44
446.466	111.44
446.687	93.44
446.908	89.44
447.129	85.44
447.35	94.44
447.571	93.44
447.792	86.44
448.013	84.44
448.234	93.44
448.455	90.44
448.675	100.44
448.896	113.44
449.117	95.44
449.338	100.44
449.559	117.44
449.779	125.44
450	82.44
450.221	82.44
450.442	79.44
450.662	106.44
450.883	111.44
451.104	109.44
451.324	104.44
451.545	84.44
451.766	90.44
451.986	71.44
452.207	89.44
452.428	78.44
452.648	92.44
452.869	92.44
453.089	112.44
453.31	118.44
453.53	80.44
453.751	84.44
453.971	97.44
454.192	90.44
454.412	90.44
454.633	82.44
454.853	78.44
455.073	105.44
455.294	82.44
455.514	97.44
455.734	86.44
455.955	91.44
456.175	79.44
456.395	93.44
456.616	89.44
456.836	99.44
457.056	104.44
457.276	94.44
457.497	86.44
457.717	99.44
457.937	89.44
458.157	93.44
458.377	90.44
458.598	108.44
458.818	128.44
459.038	137.44
459.258	113.44
459.478	93.44
459.698	88.44
459.918	87.44
460.138	91.44
460.358	88.44
460.578	90.44
460.798	94.44
461.018	88.44
461.238	81.44
461.458	94.44
461.678	90.44
461.898	79.44
462.118	76.44
462.338	86.44
462.558	76.44
462.777	75.44
462.997	90.44
463.217	81.44
463.437	78.44
463.657	83.44
463.876	98.44
464.096	81.44
464.316	101.44
464.536	90.44
464.755	86.44
464.975	119.44
465.195	157.44
465.414	153.44
465.634	86.44
465.854	87.44
466.073	86.44
466.293	104.44
466.512	101.44
466.732	86.44
466.951	81.44
467.171	88.44
467.391	104.44
467.61	99.44
467.829	83.44
468.049	81.44
468.268	93.44
468.488	79.44
468.707	77.44
468.927	88.44
469.146	88.44
469.365	89.44
469.585	103.44
469.804	91.44
470.023	91.44
470.243	91.44
470.462	83.44
470.681	96.44
470.901	83.44
471.12	79.44
471.339	102.44
471.558	72.44
471.777	94.44
471.997	71.44
472.216	81.44
472.435	82.44
472.654	85.44
472.873	75.44
473.092	79.44
473.311	84.44
473.53	85.44
473.749	74.44
473.968	90.44
474.187	99.44
474.406	84.44
474.625	89.44
474.844	87.44
475.063	80.44
475.282	89.44
475.501	74.44
475.72	89.44
475.939	80.44
476.158	80.44
476.377	86.44
476.596	84.44
476.814	82.44
477.033	88.44
477.252	83.44
477.471	76.44
477.69	92.44
477.908	99.44
478.127	83.44
478.346	89.44
478.564	75.44
478.783	82.44
479.002	93.44
479.22	81.44
479.439	104.44
479.658	97.44
479.876	83.44
480.095	97.44
480.313	103.44
480.532	89.44
480.751	99.44
480.969	90.44
481.188	92.44
481.406	84.44
481.624	102.44
481.843	102.44
482.061	92.44
482.28	83.44
482.498	95.44
482.717	93.44
482.935	76.44
483.153	83.44
483.372	94.44
483.59	76.44
483.808	86.44
484.027	86.44
484.245	95.44
484.463	99.44
484.681	93.44
484.9	84.44
485.118	98.44
485.336	89.44
485.554	93.44
485.772	95.44
485.99	85.44
486.209	91.44
486.427	102.44
486.645	109.44
486.863	118.44
487.081	114.44
487.299	89.44
487.517	104.44
487.735	82.44
487.953	84.44
488.171	91.44
488.389	98.44
488.607	95.44
488.825	110.44
489.043	94.44
489.261	94.44
489.479	76.44
489.696	91.44
489.914	103.44
490.132	91.44
490.35	102.44
490.568	90.44
490.786	92.44
491.003	92.44
491.221	97.44
491.439	88.44
491.657	101.44
491.874	95.44
492.092	82.44
492.31	112.44
492.527	99.44
492.745	97.44
492.963	99.44
493.18	86.44
493.398	87.44
493.615	94.44
493.833	95.44
494.05	101.44
494.268	87.44
494.485	87.44
494.703	90.44
494.92	87.44
495.138	80.44
495.355	91.44
495.573	94.44
495.79	85.44
496.008	93.44
496.225	89.44
496.442	78.44
496.66	85.44
496.877	81.44
497.094	98.44
497.312	97.44
497.529	90.44
497.746	84.44
497.963	98.44
498.181	79.44
498.398	102.44
498.615	109.44
498.832	80.44
499.049	93.44
499.267	88.44
499.484	93.44
499.701	83.44
499.918	91.44
500.135	89.44
500.352	88.44
500.569	82.44
500.786	99.44
501.003	99.44
501.22	98.44
501.437	76.44
501.654	82.44
501.871	107.44
502.088	81.44
502.305	91.44
502.522	101.44
502.739	81.44
502.956	89.44
503.172	82.44
503.389	95.44
503.606	79.44
503.823	85.44
504.04	91.44
504.256	87.44
504.473	89.44
504.69	78.44
504.907	105.44
505.123	83.44
505.34	97.44
505.557	111.44
505.773	101.44
505.99	102.44
506.207	88.44
506.423	97.44
506.64	89.44
506.856	83.44
507.073	99.44
507.289	81.44
507.506	91.44
507.722	105.44
507.939	103.44
508.155	89.44
508.372	85.44
508.588	93.44
508.805	102.44
509.021	92.44
509.238	103.44
509.454	100.44
509.67	93.44
509.887	110.44
510.103	131.44
510.319	191.44
510.536	725.44
510.752	2247.44
510.968	632.44
511.184	141.44
511.401	102.44
511.617	90.44
511.833	103.44
512.049	95.44
512.265	91.44
512.481	91.44
512.698	93.44
512.914	103.44
513.13	97.44
513.346	93.44
513.562	87.44
513.778	93.44
513.994	75.44
514.21	81.44
514.426	103.44
514.642	130.44
514.858	123.44
515.074	152.44
515.29	419.44
515.506	1286.44
515.721	505.44
515.937	163.44
516.153	104.44
516.369	97.44
516.585	95.44
