Data from Uncirc_2008_H10_HRD10591_00052.txt Node
Date: Wed Jan 03 10:15:41 EST 2024
User: Yrep
Spectrometer: HR+D1059
Trigger mode: 1
Integration Time (sec): 1.000000E-1
Scans to average: 1
Electric dark correction enabled: true
Nonlinearity correction enabled: false
Boxcar width: 0
XAxis mode: Wavelengths
Number of Pixels in Spectrum: 2048
>>>>>Begin Spectral Data<<<<<
223.165	-5.06
223.4	-5.06
223.635	-5.06
223.869	-20.06
224.104	-20.06
224.338	-18.06
224.573	-29.06
224.808	-11.06
225.042	-14.06
225.277	-4.06
225.511	-3.06
225.746	-2.06
225.98	8.94
226.215	15.94
226.449	22.94
226.683	23.94
226.918	30.94
227.152	23.94
227.387	29.94
227.621	34.94
227.856	46.94
228.09	45.94
228.324	35.94
228.559	55.94
228.793	50.94
229.027	63.94
229.262	69.94
229.496	70.94
229.73	70.94
229.964	78.94
230.199	80.94
230.433	72.94
230.667	78.94
230.901	69.94
231.136	71.94
231.37	71.94
231.604	75.94
231.838	79.94
232.072	87.94
232.306	65.94
232.541	83.94
232.775	92.94
233.009	60.94
233.243	81.94
233.477	74.94
233.711	85.94
233.945	73.94
234.179	72.94
234.413	71.94
234.647	83.94
234.881	69.94
235.115	61.94
235.349	68.94
235.583	67.94
235.817	74.94
236.051	75.94
236.285	75.94
236.519	95.94
236.753	87.94
236.987	76.94
237.221	76.94
237.455	79.94
237.689	67.94
237.922	75.94
238.156	73.94
238.39	71.94
238.624	81.94
238.858	75.94
239.091	69.94
239.325	71.94
239.559	87.94
239.793	77.94
240.027	68.94
240.26	69.94
240.494	83.94
240.728	65.94
240.961	64.94
241.195	69.94
241.429	76.94
241.662	70.94
241.896	81.94
242.13	72.94
242.363	78.94
242.597	70.94
242.83	90.94
243.064	80.94
243.298	76.94
243.531	80.94
243.765	80.94
243.998	75.94
244.232	61.94
244.465	69.94
244.699	81.94
244.932	75.94
245.166	85.94
245.399	94.94
245.633	69.94
245.866	74.94
246.099	85.94
246.333	74.94
246.566	77.94
246.8	69.94
247.033	76.94
247.266	60.94
247.5	92.94
247.733	81.94
247.966	94.94
248.2	88.94
248.433	70.94
248.666	78.94
248.899	83.94
249.133	87.94
249.366	84.94
249.599	88.94
249.832	87.94
250.066	84.94
250.299	71.94
250.532	77.94
250.765	78.94
250.998	73.94
251.231	79.94
251.465	86.94
251.698	80.94
251.931	64.94
252.164	58.94
252.397	67.94
252.63	84.94
252.863	72.94
253.096	78.94
253.329	77.94
253.562	86.94
253.795	87.94
254.028	95.94
254.261	86.94
254.494	77.94
254.727	78.94
254.96	82.94
255.193	80.94
255.426	81.94
255.659	90.94
255.892	84.94
256.124	78.94
256.357	88.94
256.59	74.94
256.823	74.94
257.056	71.94
257.289	74.94
257.521	86.94
257.754	73.94
257.987	77.94
258.22	83.94
258.452	77.94
258.685	79.94
258.918	92.94
259.151	79.94
259.383	84.94
259.616	78.94
259.849	85.94
260.081	61.94
260.314	89.94
260.547	83.94
260.779	74.94
261.012	82.94
261.244	76.94
261.477	103.94
261.71	105.94
261.942	101.94
262.175	93.94
262.407	97.94
262.64	79.94
262.872	71.94
263.105	73.94
263.337	90.94
263.57	80.94
263.802	85.94
264.035	80.94
264.267	76.94
264.499	67.94
264.732	80.94
264.964	74.94
265.197	77.94
265.429	81.94
265.661	67.94
265.894	78.94
266.126	87.94
266.358	80.94
266.591	75.94
266.823	87.94
267.055	84.94
267.287	78.94
267.52	81.94
267.752	73.94
267.984	88.94
268.216	80.94
268.448	80.94
268.681	80.94
268.913	88.94
269.145	86.94
269.377	88.94
269.609	86.94
269.841	86.94
270.073	87.94
270.306	77.94
270.538	85.94
270.77	78.94
271.002	86.94
271.234	81.94
271.466	89.94
271.698	92.94
271.93	95.94
272.162	81.94
272.394	70.94
272.626	72.94
272.858	77.94
273.09	86.94
273.322	78.94
273.553	87.94
273.785	79.94
274.017	93.94
274.249	76.94
274.481	75.94
274.713	69.94
274.945	99.94
275.176	81.94
275.408	91.94
275.64	94.94
275.872	82.94
276.104	76.94
276.335	77.94
276.567	87.94
276.799	85.94
277.031	82.94
277.262	86.94
277.494	86.94
277.726	73.94
277.957	79.94
278.189	87.94
278.421	80.94
278.652	80.94
278.884	79.94
279.115	79.94
279.347	81.94
279.579	78.94
279.81	75.94
280.042	76.94
280.273	74.94
280.505	88.94
280.736	71.94
280.968	77.94
281.199	82.94
281.431	94.94
281.662	74.94
281.894	89.94
282.125	90.94
282.356	105.94
282.588	122.94
282.819	108.94
283.051	83.94
283.282	80.94
283.513	87.94
283.745	91.94
283.976	81.94
284.207	76.94
284.439	91.94
284.67	82.94
284.901	95.94
285.132	88.94
285.364	86.94
285.595	75.94
285.826	65.94
286.057	90.94
286.288	84.94
286.52	86.94
286.751	96.94
286.982	75.94
287.213	87.94
287.444	91.94
287.675	94.94
287.906	94.94
288.138	90.94
288.369	72.94
288.6	90.94
288.831	81.94
289.062	78.94
289.293	72.94
289.524	89.94
289.755	79.94
289.986	86.94
290.217	76.94
290.448	77.94
290.679	92.94
290.91	86.94
291.141	73.94
291.371	75.94
291.602	84.94
291.833	87.94
292.064	83.94
292.295	82.94
292.526	78.94
292.757	95.94
292.987	89.94
293.218	68.94
293.449	91.94
293.68	99.94
293.91	96.94
294.141	75.94
294.372	83.94
294.603	95.94
294.833	78.94
295.064	79.94
295.295	92.94
295.525	93.94
295.756	94.94
295.987	109.94
296.217	135.94
296.448	127.94
296.679	98.94
296.909	83.94
297.14	86.94
297.37	87.94
297.601	93.94
297.831	80.94
298.062	77.94
298.292	88.94
298.523	93.94
298.753	98.94
298.984	85.94
299.214	91.94
299.445	85.94
299.675	89.94
299.905	87.94
300.136	90.94
300.366	81.94
300.597	97.94
300.827	96.94
301.057	96.94
301.288	98.94
301.518	83.94
301.748	86.94
301.979	88.94
302.209	82.94
302.439	102.94
302.669	80.94
302.9	89.94
303.13	78.94
303.36	88.94
303.59	94.94
303.82	93.94
304.051	90.94
304.281	96.94
304.511	76.94
304.741	89.94
304.971	78.94
305.201	77.94
305.431	80.94
305.661	99.94
305.891	87.94
306.121	92.94
306.352	85.94
306.582	92.94
306.812	81.94
307.042	81.94
307.272	96.94
307.502	92.94
307.731	97.94
307.961	82.94
308.191	88.94
308.421	83.94
308.651	86.94
308.881	85.94
309.111	95.94
309.341	79.94
309.571	96.94
309.8	82.94
310.03	91.94
310.26	92.94
310.49	86.94
310.72	84.94
310.949	106.94
311.179	97.94
311.409	96.94
311.639	88.94
311.868	84.94
312.098	89.94
312.328	84.94
312.557	104.94
312.787	102.94
313.017	86.94
313.246	85.94
313.476	87.94
313.706	81.94
313.935	95.94
314.165	86.94
314.394	107.94
314.624	83.94
314.853	91.94
315.083	95.94
315.312	88.94
315.542	88.94
315.771	86.94
316.001	95.94
316.23	81.94
316.46	74.94
316.689	87.94
316.919	93.94
317.148	99.94
317.377	99.94
317.607	97.94
317.836	95.94
318.065	84.94
318.295	82.94
318.524	98.94
318.753	92.94
318.983	82.94
319.212	108.94
319.441	91.94
319.67	86.94
319.9	82.94
320.129	92.94
320.358	85.94
320.587	85.94
320.816	94.94
321.046	87.94
321.275	106.94
321.504	79.94
321.733	78.94
321.962	93.94
322.191	96.94
322.42	85.94
322.649	93.94
322.878	95.94
323.108	113.94
323.337	97.94
323.566	111.94
323.795	132.94
324.024	180.94
324.253	340.94
324.482	713.94
324.71	1397.94
324.939	1844.94
325.168	688.94
325.397	196.94
325.626	144.94
325.855	124.94
326.084	115.94
326.313	117.94
326.542	144.94
326.77	198.94
326.999	405.94
327.228	814.94
327.457	1467.94
327.686	1153.94
327.914	326.94
328.143	163.94
328.372	121.94
328.6	106.94
328.829	112.94
329.058	135.94
329.287	103.94
329.515	110.94
329.744	106.94
329.972	86.94
330.201	78.94
330.43	99.94
330.658	99.94
330.887	112.94
331.115	109.94
331.344	95.94
331.572	103.94
331.801	88.94
332.03	79.94
332.258	101.94
332.486	101.94
332.715	83.94
332.943	84.94
333.172	91.94
333.4	78.94
333.629	103.94
333.857	102.94
334.085	99.94
334.314	94.94
334.542	99.94
334.771	96.94
334.999	93.94
335.227	86.94
335.455	79.94
335.684	98.94
335.912	93.94
336.14	93.94
336.369	84.94
336.597	90.94
336.825	99.94
337.053	88.94
337.281	81.94
337.51	99.94
337.738	88.94
337.966	103.94
338.194	84.94
338.422	98.94
338.65	92.94
338.878	93.94
339.106	80.94
339.334	91.94
339.562	97.94
339.79	95.94
340.018	89.94
340.246	78.94
340.474	94.94
340.702	88.94
340.93	86.94
341.158	89.94
341.386	96.94
341.614	80.94
341.842	101.94
342.07	80.94
342.298	87.94
342.526	92.94
342.754	86.94
342.981	87.94
343.209	85.94
343.437	79.94
343.665	79.94
343.893	80.94
344.12	97.94
344.348	83.94
344.576	94.94
344.804	78.94
345.031	83.94
345.259	103.94
345.487	77.94
345.714	91.94
345.942	93.94
346.17	82.94
346.397	79.94
346.625	93.94
346.853	86.94
347.08	72.94
347.308	89.94
347.535	90.94
347.763	103.94
347.99	85.94
348.218	89.94
348.445	99.94
348.673	98.94
348.9	84.94
349.128	92.94
349.355	86.94
349.583	94.94
349.81	88.94
350.037	89.94
350.265	77.94
350.492	80.94
350.72	101.94
350.947	99.94
351.174	92.94
351.402	117.94
351.629	93.94
351.856	89.94
352.083	106.94
352.311	94.94
352.538	100.94
352.765	111.94
352.992	101.94
353.22	90.94
353.447	103.94
353.674	87.94
353.901	96.94
354.128	95.94
354.355	87.94
354.583	91.94
354.81	93.94
355.037	99.94
355.264	89.94
355.491	92.94
355.718	93.94
355.945	100.94
356.172	101.94
356.399	98.94
356.626	118.94
356.853	89.94
357.08	91.94
357.307	89.94
357.534	81.94
357.761	93.94
357.988	84.94
358.215	89.94
358.441	95.94
358.668	95.94
358.895	78.94
359.122	79.94
359.349	97.94
359.576	74.94
359.802	107.94
360.029	115.94
360.256	99.94
360.483	80.94
360.709	73.94
360.936	82.94
361.163	96.94
361.39	81.94
361.616	90.94
361.843	85.94
362.07	75.94
362.296	87.94
362.523	96.94
362.749	85.94
362.976	79.94
363.203	88.94
363.429	92.94
363.656	84.94
363.882	91.94
364.109	79.94
364.335	89.94
364.562	92.94
364.788	94.94
365.015	96.94
365.241	92.94
365.468	109.94
365.694	96.94
365.92	95.94
366.147	82.94
366.373	87.94
366.599	108.94
366.826	99.94
367.052	77.94
367.278	80.94
367.505	104.94
367.731	95.94
367.957	83.94
368.184	86.94
368.41	92.94
368.636	125.94
368.862	110.94
369.089	93.94
369.315	96.94
369.541	87.94
369.767	89.94
369.993	97.94
370.219	98.94
370.445	76.94
370.672	73.94
370.898	84.94
371.124	68.94
371.35	84.94
371.576	85.94
371.802	76.94
372.028	88.94
372.254	84.94
372.48	88.94
372.706	78.94
372.932	86.94
373.158	89.94
373.384	72.94
373.61	88.94
373.835	84.94
374.061	85.94
374.287	87.94
374.513	93.94
374.739	84.94
374.965	77.94
375.191	78.94
375.416	85.94
375.642	89.94
375.868	93.94
376.094	82.94
376.319	102.94
376.545	83.94
376.771	84.94
376.997	93.94
377.222	91.94
377.448	78.94
377.674	84.94
377.899	81.94
378.125	87.94
378.35	95.94
378.576	93.94
378.802	92.94
379.027	92.94
379.253	93.94
379.478	86.94
379.704	78.94
379.929	80.94
380.155	94.94
380.38	84.94
380.606	94.94
380.831	85.94
381.057	97.94
381.282	94.94
381.507	88.94
381.733	95.94
381.958	97.94
382.184	92.94
382.409	88.94
382.634	88.94
382.86	84.94
383.085	88.94
383.31	104.94
383.535	104.94
383.761	103.94
383.986	82.94
384.211	97.94
384.436	102.94
384.662	93.94
384.887	111.94
385.112	93.94
385.337	102.94
385.562	94.94
385.787	78.94
386.013	110.94
386.238	101.94
386.463	96.94
386.688	101.94
386.913	94.94
387.138	92.94
387.363	99.94
387.588	115.94
387.813	90.94
388.038	107.94
388.263	100.94
388.488	114.94
388.713	92.94
388.938	83.94
389.163	90.94
389.387	84.94
389.612	84.94
389.837	99.94
390.062	89.94
390.287	76.94
390.512	79.94
390.736	92.94
390.961	93.94
391.186	88.94
391.411	94.94
391.636	103.94
391.86	88.94
392.085	73.94
392.31	77.94
392.534	80.94
392.759	90.94
392.984	85.94
393.208	84.94
393.433	78.94
393.658	88.94
393.882	87.94
394.107	92.94
394.331	85.94
394.556	84.94
394.78	67.94
395.005	85.94
395.229	79.94
395.454	76.94
395.678	92.94
395.903	80.94
396.127	67.94
396.352	64.94
396.576	87.94
396.801	89.94
397.025	84.94
397.249	81.94
397.474	80.94
397.698	86.94
397.922	88.94
398.147	79.94
398.371	67.94
398.595	80.94
398.82	72.94
399.044	80.94
399.268	81.94
399.492	78.94
399.717	94.94
399.941	70.94
400.165	85.94
400.389	85.94
400.613	94.94
400.837	82.94
401.062	77.94
401.286	80.94
401.51	75.94
401.734	84.94
401.958	99.94
402.182	108.94
402.406	140.94
402.63	100.94
402.854	90.94
403.078	83.94
403.302	87.94
403.526	97.94
403.75	85.94
403.974	96.94
404.198	101.94
404.422	76.94
404.645	78.94
404.869	84.94
405.093	79.94
405.317	81.94
405.541	90.94
405.765	92.94
405.988	112.94
406.212	149.94
406.436	196.94
406.66	144.94
406.883	86.94
407.107	93.94
407.331	101.94
407.555	99.94
407.778	81.94
408.002	81.94
408.226	72.94
408.449	85.94
408.673	90.94
408.896	101.94
409.12	89.94
409.344	95.94
409.567	84.94
409.791	86.94
410.014	81.94
410.238	84.94
410.461	87.94
410.685	96.94
410.908	77.94
411.132	92.94
411.355	87.94
411.578	86.94
411.802	84.94
412.025	81.94
412.249	94.94
412.472	94.94
412.695	85.94
412.919	82.94
413.142	92.94
413.365	86.94
413.589	93.94
413.812	91.94
414.035	79.94
414.258	92.94
414.482	93.94
414.705	95.94
414.928	80.94
415.151	93.94
415.374	65.94
415.597	94.94
415.821	77.94
416.044	90.94
416.267	81.94
416.49	90.94
416.713	85.94
416.936	84.94
417.159	86.94
417.382	91.94
417.605	79.94
417.828	90.94
418.051	81.94
418.274	89.94
418.497	81.94
418.72	84.94
418.943	79.94
419.166	92.94
419.389	76.94
419.611	84.94
419.834	73.94
420.057	92.94
420.28	90.94
420.503	86.94
420.726	79.94
420.948	86.94
421.171	87.94
421.394	103.94
421.617	86.94
421.839	93.94
422.062	91.94
422.285	80.94
422.507	85.94
422.73	99.94
422.953	92.94
423.175	93.94
423.398	97.94
423.621	94.94
423.843	93.94
424.066	82.94
424.288	80.94
424.511	67.94
424.733	100.94
424.956	88.94
425.178	100.94
425.401	109.94
425.623	92.94
425.846	90.94
426.068	101.94
426.291	97.94
426.513	80.94
426.735	83.94
426.958	83.94
427.18	105.94
427.402	119.94
427.625	135.94
427.847	113.94
428.069	88.94
428.292	81.94
428.514	72.94
428.736	99.94
428.958	71.94
429.181	85.94
429.403	75.94
429.625	83.94
429.847	83.94
430.069	88.94
430.292	86.94
430.514	83.94
430.736	88.94
430.958	73.94
431.18	78.94
431.402	82.94
431.624	80.94
431.846	79.94
432.068	93.94
432.29	77.94
432.512	84.94
432.734	91.94
432.956	89.94
433.178	79.94
433.4	104.94
433.622	90.94
433.844	84.94
434.066	89.94
434.287	78.94
434.509	79.94
434.731	79.94
434.953	86.94
435.175	85.94
435.397	86.94
435.618	87.94
435.84	89.94
436.062	92.94
436.284	97.94
436.505	89.94
436.727	93.94
436.949	91.94
437.17	83.94
437.392	80.94
437.614	91.94
437.835	99.94
438.057	109.94
438.278	109.94
438.5	108.94
438.721	110.94
438.943	98.94
439.165	89.94
439.386	94.94
439.608	86.94
439.829	99.94
440.05	113.94
440.272	119.94
440.493	108.94
440.715	80.94
440.936	88.94
441.158	84.94
441.379	98.94
441.6	79.94
441.822	89.94
442.043	93.94
442.264	102.94
442.486	93.94
442.707	93.94
442.928	95.94
443.149	115.94
443.371	101.94
443.592	104.94
443.813	102.94
444.034	85.94
444.255	79.94
444.476	75.94
444.698	82.94
444.919	76.94
445.14	123.94
445.361	104.94
445.582	103.94
445.803	126.94
446.024	119.94
446.245	124.94
446.466	104.94
446.687	83.94
446.908	94.94
447.129	84.94
447.35	109.94
447.571	95.94
447.792	76.94
448.013	100.94
448.234	96.94
448.455	91.94
448.675	114.94
448.896	132.94
449.117	92.94
449.338	97.94
449.559	112.94
449.779	106.94
450	86.94
450.221	92.94
450.442	73.94
450.662	86.94
450.883	112.94
451.104	108.94
451.324	85.94
451.545	80.94
451.766	89.94
451.986	73.94
452.207	87.94
452.428	95.94
452.648	93.94
452.869	111.94
453.089	102.94
453.31	95.94
453.53	102.94
453.751	83.94
453.971	96.94
454.192	103.94
454.412	99.94
454.633	88.94
454.853	88.94
455.073	80.94
455.294	82.94
455.514	85.94
455.734	88.94
455.955	84.94
456.175	85.94
456.395	84.94
456.616	78.94
456.836	83.94
457.056	69.94
457.276	72.94
457.497	86.94
457.717	83.94
457.937	74.94
458.157	90.94
458.377	77.94
458.598	100.94
458.818	133.94
459.038	139.94
459.258	101.94
459.478	88.94
459.698	77.94
459.918	88.94
460.138	90.94
460.358	83.94
460.578	87.94
460.798	90.94
461.018	83.94
461.238	86.94
461.458	90.94
461.678	79.94
461.898	101.94
462.118	83.94
462.338	74.94
462.558	96.94
462.777	91.94
462.997	85.94
463.217	87.94
463.437	92.94
463.657	73.94
463.876	77.94
464.096	89.94
464.316	82.94
464.536	87.94
464.755	91.94
464.975	95.94
465.195	144.94
465.414	138.94
465.634	90.94
465.854	86.94
466.073	88.94
466.293	104.94
466.512	97.94
466.732	85.94
466.951	90.94
467.171	88.94
467.391	100.94
467.61	99.94
467.829	91.94
468.049	93.94
468.268	80.94
468.488	81.94
468.707	94.94
468.927	83.94
469.146	67.94
469.365	90.94
469.585	78.94
469.804	83.94
470.023	91.94
470.243	97.94
470.462	94.94
470.681	110.94
470.901	92.94
471.12	81.94
471.339	82.94
471.558	96.94
471.777	73.94
471.997	85.94
472.216	78.94
472.435	89.94
472.654	87.94
472.873	78.94
473.092	92.94
473.311	85.94
473.53	89.94
473.749	76.94
473.968	96.94
474.187	107.94
474.406	96.94
474.625	91.94
474.844	89.94
475.063	94.94
475.282	93.94
475.501	76.94
475.72	91.94
475.939	75.94
476.158	94.94
476.377	82.94
476.596	93.94
476.814	88.94
477.033	84.94
477.252	81.94
477.471	76.94
477.69	79.94
477.908	77.94
478.127	82.94
478.346	85.94
478.564	90.94
478.783	95.94
479.002	81.94
479.22	79.94
479.439	103.94
479.658	81.94
479.876	74.94
480.095	82.94
480.313	85.94
480.532	96.94
480.751	75.94
480.969	80.94
481.188	97.94
481.406	101.94
481.624	83.94
481.843	76.94
482.061	84.94
482.28	75.94
482.498	80.94
482.717	84.94
482.935	88.94
483.153	87.94
483.372	89.94
483.59	94.94
483.808	93.94
484.027	91.94
484.245	109.94
484.463	95.94
484.681	86.94
484.9	92.94
485.118	78.94
485.336	94.94
485.554	83.94
485.772	82.94
485.99	87.94
486.209	89.94
486.427	102.94
486.645	102.94
486.863	108.94
487.081	88.94
487.299	94.94
487.517	99.94
487.735	104.94
487.953	104.94
488.171	94.94
488.389	99.94
488.607	97.94
488.825	85.94
489.043	94.94
489.261	84.94
489.479	75.94
489.696	81.94
489.914	80.94
490.132	85.94
490.35	87.94
490.568	85.94
490.786	88.94
491.003	81.94
491.221	93.94
491.439	94.94
491.657	97.94
491.874	87.94
492.092	87.94
492.31	72.94
492.527	91.94
492.745	100.94
492.963	79.94
493.18	91.94
493.398	82.94
493.615	100.94
493.833	93.94
494.05	93.94
494.268	93.94
494.485	85.94
494.703	86.94
494.92	89.94
495.138	69.94
495.355	88.94
495.573	88.94
495.79	99.94
496.008	101.94
496.225	89.94
496.442	81.94
496.66	86.94
496.877	84.94
497.094	87.94
497.312	92.94
497.529	77.94
497.746	83.94
497.963	101.94
498.181	95.94
498.398	84.94
498.615	99.94
498.832	98.94
499.049	87.94
499.267	91.94
499.484	89.94
499.701	92.94
499.918	78.94
500.135	84.94
500.352	84.94
500.569	68.94
500.786	92.94
501.003	76.94
501.22	83.94
501.437	89.94
501.654	90.94
501.871	106.94
502.088	92.94
502.305	91.94
502.522	84.94
502.739	76.94
502.956	86.94
503.172	84.94
503.389	78.94
503.606	87.94
503.823	86.94
504.04	93.94
504.256	104.94
504.473	80.94
504.69	85.94
504.907	92.94
505.123	83.94
505.34	80.94
505.557	99.94
505.773	90.94
505.99	80.94
506.207	76.94
506.423	81.94
506.64	89.94
506.856	95.94
507.073	101.94
507.289	89.94
507.506	90.94
507.722	99.94
507.939	97.94
508.155	101.94
508.372	88.94
508.588	92.94
508.805	97.94
509.021	97.94
509.238	91.94
509.454	85.94
509.67	104.94
509.887	91.94
510.103	123.94
510.319	203.94
510.536	645.94
510.752	2135.94
510.968	603.94
511.184	148.94
511.401	107.94
511.617	89.94
511.833	81.94
512.049	95.94
512.265	83.94
512.481	92.94
512.698	85.94
512.914	90.94
513.13	103.94
513.346	93.94
513.562	89.94
513.778	91.94
513.994	91.94
514.21	101.94
514.426	129.94
514.642	115.94
514.858	115.94
515.074	144.94
515.29	373.94
515.506	1239.94
515.721	489.94
515.937	150.94
516.153	110.94
516.369	75.94
516.585	88.94
516.801	87.94
517.016	88.94
517.232	89.94
517.448	75.94
