Data from Uncirc_2008_H10_HRD10591_00028.txt Node
Date: Wed Jan 03 10:15:36 EST 2024
User: Yrep
Spectrometer: HR+D1059
Trigger mode: 1
Integration Time (sec): 1.000000E-1
Scans to average: 1
Electric dark correction enabled: true
Nonlinearity correction enabled: false
Boxcar width: 0
XAxis mode: Wavelengths
Number of Pixels in Spectrum: 2048
>>>>>Begin Spectral Data<<<<<
223.165	-21.44
223.4	-21.44
223.635	-21.44
223.869	-25.44
224.104	-19.44
224.338	-17.44
224.573	-5.44
224.808	-1.44
225.042	-1.44
225.277	-1.44
225.511	-4.44
225.746	4.56
225.98	-0.44
226.215	13.56
226.449	10.56
226.683	13.56
226.918	18.56
227.152	37.56
227.387	39.56
227.621	46.56
227.856	29.56
228.09	34.56
228.324	41.56
228.559	49.56
228.793	59.56
229.027	63.56
229.262	66.56
229.496	70.56
229.73	67.56
229.964	69.56
230.199	75.56
230.433	66.56
230.667	73.56
230.901	76.56
231.136	73.56
231.37	83.56
231.604	85.56
231.838	77.56
232.072	85.56
232.306	88.56
232.541	78.56
232.775	73.56
233.009	82.56
233.243	84.56
233.477	57.56
233.711	89.56
233.945	73.56
234.179	82.56
234.413	91.56
234.647	72.56
234.881	72.56
235.115	69.56
235.349	80.56
235.583	82.56
235.817	71.56
236.051	83.56
236.285	87.56
236.519	79.56
236.753	75.56
236.987	77.56
237.221	83.56
237.455	88.56
237.689	85.56
237.922	63.56
238.156	85.56
238.39	78.56
238.624	64.56
238.858	80.56
239.091	83.56
239.325	107.56
239.559	78.56
239.793	73.56
240.027	86.56
240.26	80.56
240.494	97.56
240.728	62.56
240.961	77.56
241.195	77.56
241.429	78.56
241.662	56.56
241.896	70.56
242.13	65.56
242.363	74.56
242.597	83.56
242.83	72.56
243.064	77.56
243.298	83.56
243.531	74.56
243.765	70.56
243.998	69.56
244.232	85.56
244.465	81.56
244.699	92.56
244.932	86.56
245.166	72.56
245.399	83.56
245.633	72.56
245.866	80.56
246.099	67.56
246.333	91.56
246.566	81.56
246.8	78.56
247.033	94.56
247.266	83.56
247.5	75.56
247.733	75.56
247.966	71.56
248.2	90.56
248.433	66.56
248.666	79.56
248.899	79.56
249.133	78.56
249.366	81.56
249.599	94.56
249.832	79.56
250.066	84.56
250.299	74.56
250.532	81.56
250.765	67.56
250.998	82.56
251.231	81.56
251.465	86.56
251.698	79.56
251.931	78.56
252.164	82.56
252.397	63.56
252.63	64.56
252.863	81.56
253.096	82.56
253.329	75.56
253.562	82.56
253.795	89.56
254.028	90.56
254.261	90.56
254.494	90.56
254.727	73.56
254.96	89.56
255.193	69.56
255.426	83.56
255.659	76.56
255.892	83.56
256.124	89.56
256.357	76.56
256.59	93.56
256.823	83.56
257.056	87.56
257.289	79.56
257.521	79.56
257.754	77.56
257.987	76.56
258.22	65.56
258.452	74.56
258.685	76.56
258.918	78.56
259.151	89.56
259.383	69.56
259.616	78.56
259.849	74.56
260.081	86.56
260.314	80.56
260.547	76.56
260.779	92.56
261.012	64.56
261.244	85.56
261.477	73.56
261.71	88.56
261.942	73.56
262.175	107.56
262.407	71.56
262.64	77.56
262.872	93.56
263.105	71.56
263.337	96.56
263.57	74.56
263.802	79.56
264.035	81.56
264.267	75.56
264.499	76.56
264.732	86.56
264.964	74.56
265.197	94.56
265.429	90.56
265.661	85.56
265.894	84.56
266.126	96.56
266.358	86.56
266.591	88.56
266.823	80.56
267.055	83.56
267.287	92.56
267.52	76.56
267.752	83.56
267.984	68.56
268.216	87.56
268.448	75.56
268.681	79.56
268.913	95.56
269.145	96.56
269.377	64.56
269.609	86.56
269.841	83.56
270.073	73.56
270.306	87.56
270.538	85.56
270.77	77.56
271.002	87.56
271.234	83.56
271.466	81.56
271.698	83.56
271.93	89.56
272.162	80.56
272.394	74.56
272.626	88.56
272.858	83.56
273.09	82.56
273.322	88.56
273.553	99.56
273.785	95.56
274.017	87.56
274.249	89.56
274.481	82.56
274.713	93.56
274.945	82.56
275.176	82.56
275.408	115.56
275.64	85.56
275.872	89.56
276.104	79.56
276.335	74.56
276.567	94.56
276.799	91.56
277.031	94.56
277.262	94.56
277.494	80.56
277.726	86.56
277.957	77.56
278.189	78.56
278.421	90.56
278.652	86.56
278.884	88.56
279.115	81.56
279.347	87.56
279.579	80.56
279.81	77.56
280.042	79.56
280.273	80.56
280.505	91.56
280.736	82.56
280.968	75.56
281.199	87.56
281.431	74.56
281.662	95.56
281.894	84.56
282.125	83.56
282.356	110.56
282.588	125.56
282.819	117.56
283.051	86.56
283.282	87.56
283.513	91.56
283.745	112.56
283.976	82.56
284.207	79.56
284.439	69.56
284.67	100.56
284.901	77.56
285.132	82.56
285.364	93.56
285.595	92.56
285.826	95.56
286.057	92.56
286.288	93.56
286.52	87.56
286.751	83.56
286.982	83.56
287.213	77.56
287.444	74.56
287.675	80.56
287.906	77.56
288.138	79.56
288.369	94.56
288.6	82.56
288.831	90.56
289.062	87.56
289.293	82.56
289.524	82.56
289.755	82.56
289.986	79.56
290.217	96.56
290.448	91.56
290.679	94.56
290.91	81.56
291.141	76.56
291.371	83.56
291.602	97.56
291.833	83.56
292.064	83.56
292.295	76.56
292.526	74.56
292.757	95.56
292.987	96.56
293.218	89.56
293.449	95.56
293.68	88.56
293.91	82.56
294.141	84.56
294.372	94.56
294.603	92.56
294.833	77.56
295.064	87.56
295.295	83.56
295.525	81.56
295.756	93.56
295.987	114.56
296.217	125.56
296.448	104.56
296.679	105.56
296.909	90.56
297.14	97.56
297.37	89.56
297.601	81.56
297.831	86.56
298.062	82.56
298.292	74.56
298.523	70.56
298.753	93.56
298.984	90.56
299.214	84.56
299.445	89.56
299.675	76.56
299.905	86.56
300.136	86.56
300.366	81.56
300.597	91.56
300.827	79.56
301.057	97.56
301.288	105.56
301.518	77.56
301.748	91.56
301.979	88.56
302.209	88.56
302.439	87.56
302.669	78.56
302.9	86.56
303.13	102.56
303.36	89.56
303.59	85.56
303.82	99.56
304.051	103.56
304.281	89.56
304.511	92.56
304.741	97.56
304.971	79.56
305.201	82.56
305.431	79.56
305.661	84.56
305.891	94.56
306.121	81.56
306.352	109.56
306.582	113.56
306.812	97.56
307.042	94.56
307.272	85.56
307.502	94.56
307.731	90.56
307.961	74.56
308.191	80.56
308.421	94.56
308.651	79.56
308.881	87.56
309.111	91.56
309.341	89.56
309.571	83.56
309.8	77.56
310.03	89.56
310.26	86.56
310.49	97.56
310.72	89.56
310.949	100.56
311.179	97.56
311.409	88.56
311.639	106.56
311.868	94.56
312.098	92.56
312.328	84.56
312.557	106.56
312.787	107.56
313.017	104.56
313.246	105.56
313.476	88.56
313.706	71.56
313.935	97.56
314.165	99.56
314.394	106.56
314.624	99.56
314.853	85.56
315.083	86.56
315.312	94.56
315.542	99.56
315.771	87.56
316.001	83.56
316.23	101.56
316.46	85.56
316.689	86.56
316.919	80.56
317.148	97.56
317.377	92.56
317.607	82.56
317.836	81.56
318.065	78.56
318.295	80.56
318.524	98.56
318.753	98.56
318.983	86.56
319.212	110.56
319.441	94.56
319.67	93.56
319.9	89.56
320.129	95.56
320.358	78.56
320.587	105.56
320.816	92.56
321.046	97.56
321.275	98.56
321.504	84.56
321.733	94.56
321.962	95.56
322.191	107.56
322.42	106.56
322.649	96.56
322.878	106.56
323.108	118.56
323.337	91.56
323.566	123.56
323.795	141.56
324.024	173.56
324.253	321.56
324.482	648.56
324.71	1255.56
324.939	1655.56
325.168	634.56
325.397	206.56
325.626	127.56
325.855	112.56
326.084	119.56
326.313	109.56
326.542	127.56
326.77	201.56
326.999	376.56
327.228	734.56
327.457	1285.56
327.686	1038.56
327.914	301.56
328.143	151.56
328.372	128.56
328.6	116.56
328.829	113.56
329.058	122.56
329.287	112.56
329.515	106.56
329.744	106.56
329.972	97.56
330.201	87.56
330.43	104.56
330.658	103.56
330.887	125.56
331.115	98.56
331.344	97.56
331.572	93.56
331.801	108.56
332.03	83.56
332.258	99.56
332.486	94.56
332.715	104.56
332.943	93.56
333.172	79.56
333.4	97.56
333.629	108.56
333.857	105.56
334.085	94.56
334.314	93.56
334.542	88.56
334.771	104.56
334.999	90.56
335.227	91.56
335.455	91.56
335.684	96.56
335.912	89.56
336.14	105.56
336.369	109.56
336.597	89.56
336.825	104.56
337.053	88.56
337.281	90.56
337.51	85.56
337.738	92.56
337.966	106.56
338.194	89.56
338.422	91.56
338.65	88.56
338.878	101.56
339.106	79.56
339.334	85.56
339.562	84.56
339.79	93.56
340.018	94.56
340.246	96.56
340.474	85.56
340.702	82.56
340.93	105.56
341.158	92.56
341.386	96.56
341.614	96.56
341.842	94.56
342.07	90.56
342.298	83.56
342.526	97.56
342.754	87.56
342.981	86.56
343.209	92.56
343.437	93.56
343.665	99.56
343.893	100.56
344.12	80.56
344.348	84.56
344.576	101.56
344.804	87.56
345.031	96.56
345.259	91.56
345.487	78.56
345.714	81.56
345.942	81.56
346.17	99.56
346.397	98.56
346.625	98.56
346.853	89.56
347.08	84.56
347.308	83.56
347.535	76.56
347.763	101.56
347.99	92.56
348.218	91.56
348.445	101.56
348.673	93.56
348.9	92.56
349.128	80.56
349.355	92.56
349.583	82.56
349.81	95.56
350.037	101.56
350.265	82.56
350.492	91.56
350.72	89.56
350.947	105.56
351.174	104.56
351.402	106.56
351.629	99.56
351.856	103.56
352.083	96.56
352.311	96.56
352.538	104.56
352.765	115.56
352.992	105.56
353.22	107.56
353.447	90.56
353.674	98.56
353.901	98.56
354.128	104.56
354.355	97.56
354.583	100.56
354.81	97.56
355.037	104.56
355.264	87.56
355.491	97.56
355.718	93.56
355.945	94.56
356.172	104.56
356.399	111.56
356.626	103.56
356.853	81.56
357.08	98.56
357.307	93.56
357.534	90.56
357.761	89.56
357.988	100.56
358.215	78.56
358.441	89.56
358.668	95.56
358.895	98.56
359.122	103.56
359.349	76.56
359.576	85.56
359.802	93.56
360.029	109.56
360.256	100.56
360.483	93.56
360.709	95.56
360.936	79.56
361.163	87.56
361.39	91.56
361.616	78.56
361.843	85.56
362.07	105.56
362.296	95.56
362.523	101.56
362.749	102.56
362.976	77.56
363.203	97.56
363.429	99.56
363.656	68.56
363.882	85.56
364.109	85.56
364.335	97.56
364.562	97.56
364.788	91.56
365.015	83.56
365.241	100.56
365.468	87.56
365.694	88.56
365.92	80.56
366.147	94.56
366.373	83.56
366.599	89.56
366.826	96.56
367.052	91.56
367.278	83.56
367.505	81.56
367.731	91.56
367.957	85.56
368.184	92.56
368.41	96.56
368.636	91.56
368.862	98.56
369.089	94.56
369.315	103.56
369.541	93.56
369.767	96.56
369.993	74.56
370.219	94.56
370.445	95.56
370.672	89.56
370.898	96.56
371.124	80.56
371.35	93.56
371.576	93.56
371.802	91.56
372.028	95.56
372.254	90.56
372.48	85.56
372.706	89.56
372.932	87.56
373.158	90.56
373.384	94.56
373.61	75.56
373.835	78.56
374.061	89.56
374.287	91.56
374.513	99.56
374.739	84.56
374.965	83.56
375.191	92.56
375.416	93.56
375.642	87.56
375.868	90.56
376.094	102.56
376.319	81.56
376.545	84.56
376.771	86.56
376.997	91.56
377.222	98.56
377.448	93.56
377.674	104.56
377.899	96.56
378.125	72.56
378.35	84.56
378.576	100.56
378.802	74.56
379.027	99.56
379.253	105.56
379.478	109.56
379.704	96.56
379.929	91.56
380.155	93.56
380.38	94.56
380.606	91.56
380.831	94.56
381.057	89.56
381.282	101.56
381.507	98.56
381.733	87.56
381.958	91.56
382.184	107.56
382.409	106.56
382.634	110.56
382.86	96.56
383.085	106.56
383.31	100.56
383.535	113.56
383.761	112.56
383.986	107.56
384.211	93.56
384.436	99.56
384.662	95.56
384.887	107.56
385.112	103.56
385.337	99.56
385.562	102.56
385.787	113.56
386.013	104.56
386.238	107.56
386.463	111.56
386.688	115.56
386.913	107.56
387.138	102.56
387.363	104.56
387.588	102.56
387.813	100.56
388.038	105.56
388.263	110.56
388.488	107.56
388.713	91.56
388.938	93.56
389.163	101.56
389.387	93.56
389.612	111.56
389.837	101.56
390.062	84.56
390.287	93.56
390.512	82.56
390.736	81.56
390.961	100.56
391.186	99.56
391.411	91.56
391.636	101.56
391.86	92.56
392.085	71.56
392.31	81.56
392.534	82.56
392.759	80.56
392.984	91.56
393.208	79.56
393.433	89.56
393.658	82.56
393.882	82.56
394.107	91.56
394.331	95.56
394.556	96.56
394.78	96.56
395.005	99.56
395.229	105.56
395.454	89.56
395.678	93.56
395.903	86.56
396.127	90.56
396.352	86.56
396.576	93.56
396.801	82.56
397.025	74.56
397.249	86.56
397.474	88.56
397.698	87.56
397.922	71.56
398.147	87.56
398.371	87.56
398.595	82.56
398.82	97.56
399.044	105.56
399.268	96.56
399.492	96.56
399.717	87.56
399.941	99.56
400.165	83.56
400.389	86.56
400.613	82.56
400.837	90.56
401.062	85.56
401.286	95.56
401.51	99.56
401.734	77.56
401.958	91.56
402.182	97.56
402.406	135.56
402.63	107.56
402.854	93.56
403.078	92.56
403.302	91.56
403.526	88.56
403.75	90.56
403.974	74.56
404.198	93.56
404.422	92.56
404.645	98.56
404.869	87.56
405.093	91.56
405.317	96.56
405.541	95.56
405.765	95.56
405.988	114.56
406.212	147.56
406.436	166.56
406.66	126.56
406.883	99.56
407.107	101.56
407.331	96.56
407.555	106.56
407.778	108.56
408.002	78.56
408.226	102.56
408.449	79.56
408.673	92.56
408.896	77.56
409.12	90.56
409.344	101.56
409.567	81.56
409.791	93.56
410.014	89.56
410.238	91.56
410.461	96.56
410.685	82.56
410.908	98.56
411.132	106.56
411.355	111.56
411.578	91.56
411.802	89.56
412.025	95.56
412.249	97.56
412.472	88.56
412.695	105.56
412.919	88.56
413.142	89.56
413.365	80.56
413.589	98.56
413.812	94.56
414.035	95.56
414.258	95.56
414.482	91.56
414.705	91.56
414.928	82.56
415.151	90.56
415.374	91.56
415.597	94.56
415.821	93.56
416.044	87.56
416.267	87.56
416.49	87.56
416.713	83.56
416.936	96.56
417.159	96.56
417.382	77.56
417.605	82.56
417.828	97.56
418.051	89.56
418.274	92.56
418.497	93.56
418.72	86.56
418.943	83.56
419.166	97.56
419.389	103.56
419.611	81.56
419.834	92.56
420.057	82.56
420.28	75.56
420.503	84.56
420.726	99.56
420.948	81.56
421.171	89.56
421.394	86.56
421.617	94.56
421.839	80.56
422.062	82.56
422.285	88.56
422.507	87.56
422.73	76.56
422.953	95.56
423.175	98.56
423.398	92.56
423.621	94.56
423.843	81.56
424.066	85.56
424.288	97.56
424.511	94.56
424.733	86.56
424.956	82.56
425.178	85.56
425.401	95.56
425.623	90.56
425.846	87.56
426.068	100.56
426.291	94.56
426.513	87.56
426.735	80.56
426.958	92.56
427.18	99.56
427.402	103.56
427.625	143.56
427.847	130.56
428.069	96.56
428.292	89.56
428.514	81.56
428.736	83.56
428.958	81.56
429.181	78.56
429.403	77.56
429.625	92.56
429.847	95.56
430.069	86.56
430.292	95.56
430.514	80.56
430.736	81.56
430.958	76.56
431.18	97.56
431.402	78.56
431.624	96.56
431.846	78.56
432.068	87.56
432.29	99.56
432.512	73.56
432.734	87.56
432.956	96.56
433.178	93.56
433.4	105.56
433.622	102.56
433.844	93.56
434.066	76.56
434.287	85.56
434.509	83.56
434.731	91.56
434.953	81.56
435.175	95.56
435.397	81.56
435.618	97.56
435.84	99.56
436.062	102.56
436.284	91.56
436.505	103.56
436.727	96.56
436.949	82.56
437.17	80.56
437.392	87.56
437.614	86.56
437.835	96.56
438.057	105.56
438.278	107.56
438.5	93.56
438.721	114.56
438.943	99.56
439.165	88.56
439.386	97.56
439.608	90.56
439.829	89.56
440.05	90.56
440.272	125.56
440.493	99.56
440.715	82.56
440.936	83.56
441.158	82.56
441.379	93.56
441.6	77.56
441.822	85.56
442.043	91.56
442.264	91.56
442.486	92.56
442.707	97.56
442.928	102.56
443.149	111.56
443.371	111.56
443.592	96.56
443.813	110.56
444.034	108.56
444.255	112.56
444.476	87.56
444.698	90.56
444.919	93.56
445.14	130.56
445.361	117.56
445.582	112.56
445.803	121.56
446.024	110.56
446.245	112.56
446.466	105.56
446.687	75.56
446.908	94.56
447.129	76.56
447.35	89.56
447.571	104.56
447.792	91.56
448.013	87.56
448.234	95.56
448.455	96.56
448.675	111.56
448.896	101.56
449.117	95.56
449.338	105.56
449.559	105.56
449.779	108.56
450	91.56
450.221	93.56
450.442	96.56
450.662	95.56
450.883	99.56
451.104	103.56
451.324	117.56
451.545	96.56
451.766	82.56
451.986	86.56
452.207	78.56
452.428	82.56
452.648	104.56
452.869	106.56
453.089	119.56
453.31	97.56
453.53	90.56
453.751	97.56
453.971	86.56
454.192	91.56
454.412	75.56
454.633	72.56
454.853	84.56
455.073	77.56
455.294	85.56
455.514	88.56
455.734	76.56
455.955	81.56
456.175	82.56
456.395	79.56
456.616	89.56
456.836	83.56
457.056	89.56
457.276	83.56
457.497	85.56
457.717	75.56
457.937	88.56
458.157	85.56
458.377	83.56
458.598	100.56
458.818	149.56
459.038	133.56
459.258	99.56
459.478	87.56
459.698	92.56
459.918	90.56
460.138	88.56
460.358	81.56
460.578	78.56
460.798	78.56
461.018	93.56
461.238	81.56
461.458	78.56
461.678	90.56
461.898	100.56
462.118	87.56
462.338	92.56
462.558	93.56
462.777	78.56
462.997	78.56
463.217	91.56
463.437	94.56
463.657	90.56
463.876	84.56
464.096	96.56
464.316	91.56
464.536	86.56
464.755	102.56
464.975	106.56
465.195	127.56
465.414	117.56
465.634	97.56
465.854	89.56
466.073	89.56
466.293	76.56
466.512	90.56
466.732	89.56
466.951	96.56
467.171	94.56
467.391	98.56
467.61	104.56
467.829	97.56
468.049	85.56
468.268	78.56
468.488	82.56
468.707	91.56
468.927	74.56
469.146	79.56
469.365	90.56
469.585	91.56
469.804	94.56
470.023	92.56
470.243	93.56
470.462	98.56
470.681	102.56
470.901	94.56
471.12	92.56
471.339	87.56
471.558	91.56
471.777	77.56
471.997	71.56
472.216	85.56
472.435	73.56
472.654	86.56
472.873	84.56
473.092	74.56
473.311	87.56
473.53	96.56
473.749	102.56
473.968	107.56
474.187	91.56
474.406	88.56
474.625	95.56
474.844	87.56
475.063	99.56
475.282	99.56
475.501	97.56
475.72	87.56
475.939	93.56
476.158	85.56
476.377	85.56
476.596	77.56
476.814	83.56
477.033	83.56
477.252	81.56
477.471	87.56
477.69	74.56
477.908	81.56
478.127	90.56
478.346	68.56
478.564	85.56
478.783	108.56
479.002	95.56
479.22	91.56
479.439	105.56
479.658	94.56
479.876	101.56
480.095	84.56
480.313	94.56
480.532	96.56
480.751	86.56
480.969	88.56
481.188	94.56
481.406	86.56
481.624	92.56
481.843	76.56
482.061	95.56
482.28	74.56
482.498	87.56
482.717	92.56
482.935	82.56
483.153	79.56
483.372	83.56
483.59	71.56
483.808	84.56
484.027	93.56
484.245	89.56
484.463	88.56
484.681	94.56
484.9	83.56
485.118	96.56
485.336	96.56
485.554	105.56
485.772	98.56
485.99	113.56
486.209	111.56
486.427	102.56
486.645	100.56
486.863	98.56
487.081	92.56
487.299	92.56
487.517	94.56
487.735	84.56
487.953	85.56
488.171	93.56
488.389	98.56
488.607	94.56
488.825	73.56
489.043	90.56
489.261	87.56
489.479	93.56
489.696	85.56
489.914	77.56
490.132	101.56
490.35	84.56
490.568	68.56
490.786	85.56
491.003	102.56
491.221	87.56
491.439	81.56
491.657	98.56
491.874	101.56
492.092	82.56
492.31	90.56
492.527	98.56
492.745	92.56
492.963	81.56
493.18	88.56
493.398	91.56
493.615	91.56
493.833	95.56
494.05	95.56
494.268	94.56
494.485	91.56
494.703	80.56
494.92	89.56
495.138	79.56
495.355	97.56
495.573	97.56
495.79	95.56
496.008	96.56
496.225	94.56
496.442	99.56
496.66	104.56
496.877	96.56
497.094	88.56
497.312	77.56
497.529	96.56
497.746	98.56
497.963	104.56
498.181	76.56
498.398	91.56
498.615	87.56
498.832	97.56
499.049	89.56
499.267	90.56
499.484	103.56
499.701	87.56
499.918	85.56
500.135	85.56
500.352	102.56
500.569	78.56
500.786	97.56
501.003	84.56
501.22	91.56
501.437	88.56
501.654	85.56
501.871	99.56
502.088	79.56
502.305	95.56
502.522	90.56
502.739	83.56
502.956	104.56
503.172	88.56
503.389	105.56
503.606	95.56
503.823	98.56
504.04	98.56
504.256	115.56
504.473	85.56
504.69	89.56
504.907	92.56
505.123	99.56
505.34	79.56
505.557	100.56
505.773	94.56
505.99	82.56
506.207	87.56
506.423	97.56
506.64	96.56
506.856	88.56
507.073	94.56
507.289	82.56
507.506	95.56
507.722	97.56
507.939	101.56
508.155	93.56
508.372	77.56
508.588	101.56
508.805	108.56
509.021	99.56
509.238	94.56
509.454	87.56
509.67	100.56
509.887	104.56
510.103	140.56
510.319	198.56
510.536	622.56
510.752	1887.56
510.968	531.56
511.184	135.56
511.401	110.56
511.617	96.56
511.833	85.56
512.049	93.56
512.265	87.56
512.481	98.56
512.698	87.56
512.914	101.56
513.13	84.56
513.346	83.56
513.562	97.56
513.778	95.56
513.994	102.56
514.21	98.56
514.426	110.56
514.642	110.56
514.858	104.56
515.074	139.56
515.29	335.56
515.506	1079.56
515.721	427.56
515.937	125.56
516.153	98.56
516.369	103.56
516.585	88.56
