Data from Uncirc_2008_H10_HRD10591_00072.txt Node
Date: Wed Jan 03 10:15:45 EST 2024
User: Yrep
Spectrometer: HR+D1059
Trigger mode: 1
Integration Time (sec): 1.000000E-1
Scans to average: 1
Electric dark correction enabled: true
Nonlinearity correction enabled: false
Boxcar width: 0
XAxis mode: Wavelengths
Number of Pixels in Spectrum: 2048
>>>>>Begin Spectral Data<<<<<
223.165	-17.38
223.4	-17.38
223.635	-17.38
223.869	-19.38
224.104	-19.38
224.338	-10.38
224.573	-20.38
224.808	-7.38
225.042	-9.38
225.277	-9.38
225.511	-0.38
225.746	6.62
225.98	-10.38
226.215	2.62
226.449	15.62
226.683	41.62
226.918	22.62
227.152	34.62
227.387	31.62
227.621	37.62
227.856	49.62
228.09	45.62
228.324	54.62
228.559	57.62
228.793	161.62
229.027	434.62
229.262	513.62
229.496	606.62
229.73	801.62
229.964	822.62
230.199	554.62
230.433	476.62
230.667	484.62
230.901	470.62
231.136	429.62
231.37	446.62
231.604	455.62
231.838	442.62
232.072	444.62
232.306	453.62
232.541	461.62
232.775	453.62
233.009	481.62
233.243	489.62
233.477	475.62
233.711	494.62
233.945	514.62
234.179	498.62
234.413	500.62
234.647	457.62
234.881	516.62
235.115	523.62
235.349	547.62
235.583	529.62
235.817	595.62
236.051	630.62
236.285	600.62
236.519	614.62
236.753	720.62
236.987	935.62
237.221	1426.62
237.455	1524.62
237.689	879.62
237.922	727.62
238.156	713.62
238.39	663.62
238.624	650.62
238.858	640.62
239.091	656.62
239.325	648.62
239.559	647.62
239.793	725.62
240.027	749.62
240.26	910.62
240.494	984.62
240.728	958.62
240.961	911.62
241.195	832.62
241.429	766.62
241.662	788.62
241.896	775.62
242.13	756.62
242.363	772.62
242.597	796.62
242.83	813.62
243.064	798.62
243.298	817.62
243.531	827.62
243.765	810.62
243.998	841.62
244.232	844.62
244.465	865.62
244.699	893.62
244.932	883.62
245.166	890.62
245.399	914.62
245.633	902.62
245.866	926.62
246.099	942.62
246.333	930.62
246.566	941.62
246.8	971.62
247.033	995.62
247.266	1040.62
247.5	1117.62
247.733	1172.62
247.966	1156.62
248.2	1134.62
248.433	1171.62
248.666	1227.62
248.899	1360.62
249.133	1455.62
249.366	1449.62
249.599	1305.62
249.832	1182.62
250.066	1196.62
250.299	1226.62
250.532	1328.62
250.765	1480.62
250.998	1720.62
251.231	1665.62
251.465	1478.62
251.698	1420.62
251.931	1397.62
252.164	1354.62
252.397	1398.62
252.63	1452.62
252.863	1572.62
253.096	1728.62
253.329	1756.62
253.562	1619.62
253.795	1548.62
254.028	1543.62
254.261	1613.62
254.494	1832.62
254.727	2163.62
254.96	2297.62
255.193	1950.62
255.426	1746.62
255.659	1615.62
255.892	1515.62
256.124	1507.62
256.357	1483.62
256.59	1490.62
256.823	1498.62
257.056	1455.62
257.289	1513.62
257.521	1553.62
257.754	1510.62
257.987	1536.62
258.22	1503.62
258.452	1560.62
258.685	1563.62
258.918	1563.62
259.151	1620.62
259.383	1683.62
259.616	1718.62
259.849	1747.62
260.081	1921.62
260.314	2110.62
260.547	2046.62
260.779	1874.62
261.012	1791.62
261.244	1689.62
261.477	1667.62
261.71	1657.62
261.942	1738.62
262.175	1744.62
262.407	1704.62
262.64	1664.62
262.872	1611.62
263.105	1614.62
263.337	1627.62
263.57	1674.62
263.802	1673.62
264.035	1644.62
264.267	1666.62
264.499	1660.62
264.732	1673.62
264.964	1678.62
265.197	1691.62
265.429	1682.62
265.661	1683.62
265.894	1723.62
266.126	1752.62
266.358	1725.62
266.591	1759.62
266.823	1830.62
267.055	1841.62
267.287	1862.62
267.52	1819.62
267.752	1841.62
267.984	1857.62
268.216	1869.62
268.448	1904.62
268.681	1984.62
268.913	2189.62
269.145	2350.62
269.377	2395.62
269.609	2281.62
269.841	2276.62
270.073	2440.62
270.306	2672.62
270.538	2860.62
270.77	2714.62
271.002	2520.62
271.234	2464.62
271.466	2637.62
271.698	2786.62
271.93	2762.62
272.162	2797.62
272.394	2696.62
272.626	2523.62
272.858	2405.62
273.09	2320.62
273.322	2264.62
273.553	2227.62
273.785	2199.62
274.017	2209.62
274.249	2263.62
274.481	2262.62
274.713	2292.62
274.945	2276.62
275.176	2262.62
275.408	2256.62
275.64	2260.62
275.872	2234.62
276.104	2266.62
276.335	2319.62
276.567	2402.62
276.799	2581.62
277.031	2787.62
277.262	2931.62
277.494	2771.62
277.726	2595.62
277.957	2524.62
278.189	2448.62
278.421	2360.62
278.652	2386.62
278.884	2363.62
279.115	2358.62
279.347	2394.62
279.579	2354.62
279.81	2373.62
280.042	2342.62
280.273	2439.62
280.505	2425.62
280.736	2375.62
280.968	2439.62
281.199	2399.62
281.431	2471.62
281.662	2438.62
281.894	2455.62
282.125	2526.62
282.356	2683.62
282.588	2817.62
282.819	2647.62
283.051	2557.62
283.282	2520.62
283.513	2594.62
283.745	2598.62
283.976	2667.62
284.207	2682.62
284.439	2676.62
284.67	2665.62
284.901	2637.62
285.132	2636.62
285.364	2607.62
285.595	2605.62
285.826	2610.62
286.057	2668.62
286.288	2697.62
286.52	2677.62
286.751	2663.62
286.982	2709.62
287.213	2724.62
287.444	2779.62
287.675	2813.62
287.906	2906.62
288.138	3025.62
288.369	2904.62
288.6	2960.62
288.831	2909.62
289.062	2864.62
289.293	2816.62
289.524	2815.62
289.755	2822.62
289.986	2821.62
290.217	2810.62
290.448	2815.62
290.679	2811.62
290.91	2839.62
291.141	2777.62
291.371	2809.62
291.602	2822.62
291.833	2851.62
292.064	2819.62
292.295	2847.62
292.526	2825.62
292.757	2888.62
292.987	2823.62
293.218	2821.62
293.449	2903.62
293.68	2858.62
293.91	2860.62
294.141	2846.62
294.372	2820.62
294.603	2879.62
294.833	2892.62
295.064	2911.62
295.295	2943.62
295.525	2924.62
295.756	2994.62
295.987	3025.62
296.217	3173.62
296.448	3102.62
296.679	2942.62
296.909	2944.62
297.14	2995.62
297.37	3050.62
297.601	3086.62
297.831	3072.62
298.062	3035.62
298.292	3054.62
298.523	3141.62
298.753	3135.62
298.984	3089.62
299.214	3150.62
299.445	3098.62
299.675	3121.62
299.905	3140.62
300.136	3115.62
300.366	3121.62
300.597	3161.62
300.827	3247.62
301.057	3370.62
301.288	3430.62
301.518	3369.62
301.748	3355.62
301.979	3488.62
302.209	3397.62
302.439	3439.62
302.669	3335.62
302.9	3311.62
303.13	3320.62
303.36	3347.62
303.59	3394.62
303.82	3412.62
304.051	3422.62
304.281	3330.62
304.511	3293.62
304.741	3302.62
304.971	3274.62
305.201	3283.62
305.431	3294.62
305.661	3274.62
305.891	3280.62
306.121	3297.62
306.352	3334.62
306.582	3379.62
306.812	3264.62
307.042	3327.62
307.272	3349.62
307.502	3251.62
307.731	3323.62
307.961	3286.62
308.191	3308.62
308.421	3266.62
308.651	3324.62
308.881	3343.62
309.111	3331.62
309.341	3374.62
309.571	3492.62
309.8	3547.62
310.03	3624.62
310.26	3618.62
310.49	3643.62
310.72	3746.62
310.949	3878.62
311.179	3774.62
311.409	3705.62
311.639	3707.62
311.868	3700.62
312.098	3739.62
312.328	3842.62
312.557	3973.62
312.787	3985.62
313.017	3943.62
313.246	3867.62
313.476	3716.62
313.706	3777.62
313.935	3906.62
314.165	3952.62
314.394	4002.62
314.624	4008.62
314.853	3931.62
315.083	3802.62
315.312	3817.62
315.542	3772.62
315.771	3692.62
316.001	3716.62
316.23	3668.62
316.46	3707.62
316.689	3706.62
316.919	3795.62
317.148	3840.62
317.377	3810.62
317.607	3765.62
317.836	3762.62
318.065	3722.62
318.295	3663.62
318.524	3742.62
318.753	3690.62
318.983	3729.62
319.212	3695.62
319.441	3766.62
319.67	3780.62
319.9	3759.62
320.129	3759.62
320.358	3719.62
320.587	3826.62
320.816	3814.62
321.046	3882.62
321.275	3830.62
321.504	3904.62
321.733	3880.62
321.962	3959.62
322.191	4078.62
322.42	4203.62
322.649	4290.62
322.878	4410.62
323.108	4414.62
323.337	4645.62
323.566	4674.62
323.795	5095.62
324.024	5615.62
324.253	7482.62
324.482	11122.62
324.71	15372.62
324.939	15604.62
325.168	13230.62
325.397	6686.62
325.626	5353.62
325.855	4965.62
326.084	4754.62
326.313	4844.62
326.542	4973.62
326.77	5633.62
326.999	7186.62
327.228	10450.62
327.457	14496.62
327.686	13674.62
327.914	7431.62
328.143	5869.62
328.372	5491.62
328.6	5321.62
328.829	5331.62
329.058	5456.62
329.287	5323.62
329.515	5094.62
329.744	4814.62
329.972	4800.62
330.201	4928.62
330.43	5140.62
330.658	5427.62
330.887	5829.62
331.115	5448.62
331.344	5064.62
331.572	4969.62
331.801	5079.62
332.03	5024.62
332.258	5009.62
332.486	5009.62
332.715	5036.62
332.943	5263.62
333.172	5442.62
333.4	5455.62
333.629	5606.62
333.857	5657.62
334.085	5558.62
334.314	5417.62
334.542	5434.62
334.771	5388.62
334.999	5330.62
335.227	5290.62
335.455	5162.62
335.684	5109.62
335.912	5035.62
336.14	5004.62
336.369	5041.62
336.597	5041.62
336.825	4996.62
337.053	4960.62
337.281	4859.62
337.51	4856.62
337.738	4736.62
337.966	4776.62
338.194	4733.62
338.422	4742.62
338.65	4614.62
338.878	4614.62
339.106	4592.62
339.334	4600.62
339.562	4507.62
339.79	4471.62
340.018	4498.62
340.246	4512.62
340.474	4544.62
340.702	4519.62
340.93	4439.62
341.158	4454.62
341.386	4440.62
341.614	4448.62
341.842	4416.62
342.07	4383.62
342.298	4391.62
342.526	4375.62
342.754	4306.62
342.981	4377.62
343.209	4534.62
343.437	4689.62
343.665	5033.62
343.893	5201.62
344.12	5228.62
344.348	4987.62
344.576	4843.62
344.804	4802.62
345.031	4699.62
345.259	4620.62
345.487	4504.62
345.714	4492.62
345.942	4273.62
346.17	4315.62
346.397	4265.62
346.625	4279.62
346.853	4345.62
347.08	4274.62
347.308	4329.62
347.535	4378.62
347.763	4426.62
347.99	4311.62
348.218	4430.62
348.445	4478.62
348.673	4285.62
348.9	4276.62
349.128	4223.62
349.355	4081.62
349.583	4112.62
349.81	4143.62
350.037	4155.62
350.265	4142.62
350.492	4125.62
350.72	4112.62
350.947	4146.62
351.174	4223.62
351.402	4276.62
351.629	4207.62
351.856	4222.62
352.083	4316.62
352.311	4347.62
352.538	4344.62
352.765	4300.62
352.992	4232.62
353.22	4180.62
353.447	4182.62
353.674	4042.62
353.901	4067.62
354.128	4092.62
354.355	4017.62
354.583	4028.62
354.81	4046.62
355.037	4078.62
355.264	3988.62
355.491	3952.62
355.718	4034.62
355.945	4039.62
356.172	4014.62
356.399	3975.62
356.626	4031.62
356.853	4045.62
357.08	4048.62
357.307	4010.62
357.534	4028.62
357.761	4028.62
357.988	4072.62
358.215	4007.62
358.441	4057.62
358.668	4096.62
358.895	4131.62
359.122	4063.62
359.349	4186.62
359.576	4366.62
359.802	4510.62
360.029	4698.62
360.256	4685.62
360.483	4505.62
360.709	4273.62
360.936	4259.62
361.163	4294.62
361.39	4286.62
361.616	4279.62
361.843	4244.62
362.07	4270.62
362.296	4325.62
362.523	4236.62
362.749	4238.62
362.976	4158.62
363.203	4069.62
363.429	4105.62
363.656	4154.62
363.882	4101.62
364.109	4137.62
364.335	4057.62
364.562	4166.62
364.788	4122.62
365.015	4088.62
365.241	4114.62
365.468	4173.62
365.694	4148.62
365.92	4134.62
366.147	4040.62
366.373	4168.62
366.599	4038.62
366.826	4057.62
367.052	4018.62
367.278	4049.62
367.505	4111.62
367.731	4167.62
367.957	4112.62
368.184	4177.62
368.41	4273.62
368.636	4348.62
368.862	4337.62
369.089	4227.62
369.315	4118.62
369.541	4212.62
369.767	4209.62
369.993	4219.62
370.219	4281.62
370.445	4249.62
370.672	4302.62
370.898	4288.62
371.124	4383.62
371.35	4376.62
371.576	4370.62
371.802	4306.62
372.028	4299.62
372.254	4362.62
372.48	4422.62
372.706	4507.62
372.932	4556.62
373.158	4424.62
373.384	4412.62
373.61	4391.62
373.835	4425.62
374.061	4406.62
374.287	4508.62
374.513	4524.62
374.739	4791.62
374.965	4831.62
375.191	4766.62
375.416	4761.62
375.642	4585.62
375.868	4591.62
376.094	4499.62
376.319	4443.62
376.545	4430.62
376.771	4428.62
376.997	4402.62
377.222	4358.62
377.448	4351.62
377.674	4368.62
377.899	4349.62
378.125	4289.62
378.35	4311.62
378.576	4314.62
378.802	4283.62
379.027	4332.62
379.253	4358.62
379.478	4314.62
379.704	4362.62
379.929	4403.62
380.155	4394.62
380.38	4333.62
380.606	4483.62
380.831	4346.62
381.057	4437.62
381.282	4382.62
381.507	4423.62
381.733	4428.62
381.958	4496.62
382.184	4531.62
382.409	4545.62
382.634	4620.62
382.86	4648.62
383.085	4707.62
383.31	4771.62
383.535	4798.62
383.761	4873.62
383.986	4911.62
384.211	5022.62
384.436	5094.62
384.662	5157.62
384.887	5329.62
385.112	5233.62
385.337	5271.62
385.562	5273.62
385.787	5346.62
386.013	5359.62
386.238	5422.62
386.463	5404.62
386.688	5346.62
386.913	5171.62
387.138	5222.62
387.363	5237.62
387.588	5112.62
387.813	5250.62
388.038	5264.62
388.263	5259.62
388.488	5230.62
388.713	5274.62
388.938	5230.62
389.163	5263.62
389.387	5217.62
389.612	5159.62
389.837	5123.62
390.062	5117.62
390.287	5150.62
390.512	5175.62
390.736	5244.62
390.961	5347.62
391.186	5347.62
391.411	5608.62
391.636	5721.62
391.86	5858.62
392.085	5923.62
392.31	5790.62
392.534	5675.62
392.759	5602.62
392.984	5549.62
393.208	5464.62
393.433	5385.62
393.658	5438.62
393.882	5457.62
394.107	5534.62
394.331	5567.62
394.556	5525.62
394.78	5619.62
395.005	5595.62
395.229	5666.62
395.454	5842.62
395.678	5892.62
395.903	5966.62
396.127	5953.62
396.352	5697.62
396.576	5628.62
396.801	5506.62
397.025	5630.62
397.249	5804.62
397.474	5935.62
397.698	5888.62
397.922	6065.62
398.147	6225.62
398.371	6302.62
398.595	6387.62
398.82	6673.62
399.044	7273.62
399.268	7988.62
399.492	9188.62
399.717	9824.62
399.941	9446.62
400.165	8930.62
400.389	8202.62
400.613	7389.62
400.837	6849.62
401.062	6864.62
401.286	6688.62
401.51	6588.62
401.734	6651.62
401.958	6810.62
402.182	6861.62
402.406	6956.62
402.63	6996.62
402.854	7077.62
403.078	7206.62
403.302	7323.62
403.526	7476.62
403.75	7499.62
403.974	7548.62
404.198	7436.62
404.422	7556.62
404.645	7459.62
404.869	7404.62
405.093	7564.62
405.317	7623.62
405.541	7551.62
405.765	7271.62
405.988	7250.62
406.212	7588.62
406.436	7666.62
406.66	7780.62
406.883	7851.62
407.107	8454.62
407.331	9144.62
407.555	9529.62
407.778	9210.62
408.002	8459.62
408.226	7993.62
408.449	7805.62
408.673	7792.62
408.896	7995.62
409.12	8106.62
409.344	7608.62
409.567	7253.62
409.791	7232.62
410.014	7053.62
410.238	7100.62
410.461	7029.62
410.685	7152.62
410.908	7241.62
411.132	7567.62
411.355	7554.62
411.578	7048.62
411.802	6866.62
412.025	6843.62
412.249	6897.62
412.472	6788.62
412.695	6736.62
412.919	6562.62
413.142	6570.62
413.365	6485.62
413.589	6533.62
413.812	6450.62
414.035	6369.62
414.258	6435.62
414.482	6449.62
414.705	6544.62
414.928	6437.62
415.151	6402.62
415.374	6459.62
415.597	6377.62
415.821	6325.62
416.044	6350.62
416.267	6387.62
416.49	6330.62
416.713	6294.62
416.936	6410.62
417.159	6377.62
417.382	6420.62
417.605	6478.62
417.828	6614.62
418.051	6736.62
418.274	6612.62
418.497	6485.62
418.72	6628.62
418.943	6626.62
419.166	6928.62
419.389	7294.62
419.611	7219.62
419.834	7039.62
420.057	6890.62
420.28	6659.62
420.503	6482.62
420.726	6561.62
420.948	6737.62
421.171	7132.62
421.394	7183.62
421.617	6710.62
421.839	6578.62
422.062	6721.62
422.285	6938.62
422.507	7640.62
422.73	8186.62
422.953	7498.62
423.175	7147.62
423.398	7138.62
423.621	7183.62
423.843	7432.62
424.066	7349.62
424.288	7240.62
424.511	7529.62
424.733	8002.62
424.956	8433.62
425.178	7900.62
425.401	8082.62
425.623	7954.62
425.846	6963.62
426.068	6789.62
426.291	6703.62
426.513	6683.62
426.735	6704.62
426.958	7322.62
427.18	8073.62
427.402	9186.62
427.625	9286.62
427.847	7732.62
428.069	6938.62
428.292	6438.62
428.514	6151.62
428.736	6126.62
428.958	6100.62
429.181	5923.62
429.403	5950.62
429.625	6154.62
429.847	6431.62
430.069	6995.62
430.292	6546.62
430.514	5960.62
430.736	5949.62
430.958	5835.62
431.18	5746.62
431.402	5747.62
431.624	5753.62
431.846	5839.62
432.068	5866.62
432.29	6013.62
432.512	5893.62
432.734	5974.62
432.956	5895.62
433.178	6018.62
433.4	5890.62
433.622	5757.62
433.844	5866.62
434.066	5856.62
434.287	6029.62
434.509	6198.62
434.731	6401.62
434.953	6596.62
435.175	6738.62
435.397	6879.62
435.618	6789.62
435.84	7188.62
436.062	8023.62
436.284	7886.62
436.505	6744.62
436.727	6381.62
436.949	6035.62
437.17	6010.62
437.392	5950.62
437.614	6026.62
437.835	6510.62
438.057	7448.62
438.278	8272.62
438.5	8186.62
438.721	9014.62
438.943	7768.62
439.165	6613.62
439.386	6445.62
439.608	6479.62
439.829	6561.62
440.05	6830.62
440.272	7222.62
440.493	6577.62
440.715	6253.62
440.936	6235.62
441.158	6190.62
441.379	6351.62
441.6	6735.62
441.822	7027.62
442.043	7474.62
442.264	8280.62
442.486	7944.62
442.707	7144.62
442.928	6907.62
443.149	7168.62
443.371	7472.62
443.592	7930.62
443.813	8912.62
444.034	8896.62
444.255	7715.62
444.476	7595.62
444.698	7704.62
444.919	7785.62
445.14	7579.62
445.361	7393.62
445.582	7488.62
445.803	8286.62
446.024	8995.62
446.245	8574.62
446.466	7640.62
446.687	6636.62
446.908	6336.62
447.129	5920.62
447.35	5879.62
447.571	5816.62
447.792	5643.62
448.013	5756.62
448.234	5977.62
448.455	6617.62
448.675	7981.62
448.896	8419.62
449.117	6970.62
449.338	7232.62
449.559	8486.62
449.779	8798.62
450	6670.62
450.221	5921.62
450.442	5709.62
450.662	5570.62
450.883	5636.62
451.104	5745.62
451.324	5625.62
451.545	5431.62
451.766	5338.62
451.986	5231.62
452.207	5168.62
452.428	5134.62
452.648	5175.62
452.869	5170.62
453.089	5217.62
453.31	5349.62
453.53	5129.62
453.751	5122.62
453.971	5170.62
454.192	5243.62
454.412	5085.62
454.633	5002.62
454.853	4989.62
455.073	5061.62
455.294	5497.62
455.514	6050.62
455.734	5460.62
455.955	4921.62
456.175	4811.62
456.395	4768.62
456.616	4670.62
456.836	4736.62
457.056	4764.62
457.276	4602.62
457.497	4763.62
457.717	4803.62
457.937	4861.62
458.157	5001.62
458.377	5098.62
458.598	5347.62
458.818	6230.62
459.038	6937.62
459.258	6765.62
459.478	6082.62
459.698	5961.62
459.918	5951.62
460.138	6190.62
460.358	6376.62
460.578	6341.62
460.798	6526.62
461.018	6508.62
461.238	6324.62
461.458	6310.62
461.678	6272.62
461.898	6449.62
462.118	6506.62
462.338	6783.62
462.558	6935.62
462.777	7326.62
462.997	7895.62
463.217	8188.62
463.437	8074.62
463.657	7459.62
463.876	7221.62
464.096	7230.62
464.316	7298.62
464.536	7242.62
464.755	7081.62
464.975	6986.62
465.195	7232.62
465.414	7201.62
465.634	6365.62
465.854	6067.62
466.073	5790.62
466.293	5609.62
466.512	5466.62
466.732	5407.62
466.951	5351.62
467.171	5331.62
467.391	5424.62
467.61	5407.62
467.829	5362.62
468.049	5306.62
468.268	5189.62
468.488	5043.62
468.707	5042.62
468.927	5049.62
469.146	5079.62
469.365	5152.62
469.585	5190.62
469.804	5391.62
470.023	5610.62
470.243	5487.62
470.462	5577.62
470.681	5727.62
470.901	5671.62
471.12	5492.62
471.339	5479.62
471.558	5353.62
471.777	5323.62
471.997	5162.62
472.216	5075.62
472.435	5103.62
472.654	4982.62
472.873	4990.62
473.092	5042.62
473.311	5015.62
473.53	5072.62
473.749	5229.62
473.968	5801.62
474.187	6891.62
474.406	6369.62
474.625	5517.62
474.844	5141.62
475.063	5095.62
475.282	5084.62
475.501	5211.62
475.72	5229.62
475.939	5299.62
476.158	5290.62
476.377	5243.62
476.596	5273.62
476.814	5501.62
477.033	5530.62
477.252	5553.62
477.471	5715.62
477.69	5756.62
477.908	5852.62
478.127	6033.62
478.346	6052.62
478.564	6179.62
478.783	6269.62
479.002	6439.62
479.22	6420.62
479.439	6503.62
479.658	6559.62
479.876	6611.62
480.095	6870.62
480.313	7382.62
480.532	7184.62
480.751	7057.62
480.969	6899.62
481.188	6758.62
481.406	6511.62
481.624	6248.62
481.843	6138.62
482.061	6105.62
482.28	6029.62
482.498	5961.62
482.717	5917.62
482.935	5977.62
483.153	5984.62
483.372	5947.62
483.59	5979.62
483.808	5946.62
484.027	5943.62
484.245	6003.62
484.463	6077.62
484.681	6106.62
484.9	6225.62
485.118	6243.62
485.336	6232.62
485.554	6284.62
485.772	6393.62
485.99	6348.62
486.209	6385.62
486.427	6443.62
486.645	6418.62
486.863	6596.62
487.081	6496.62
487.299	6453.62
487.517	6385.62
487.735	6319.62
487.953	6405.62
