Data from Uncirc_2008_H10_HRD10591_00085.txt Node
Date: Wed Jan 03 10:15:47 EST 2024
User: Yrep
Spectrometer: HR+D1059
Trigger mode: 1
Integration Time (sec): 1.000000E-1
Scans to average: 1
Electric dark correction enabled: true
Nonlinearity correction enabled: false
Boxcar width: 0
XAxis mode: Wavelengths
Number of Pixels in Spectrum: 2048
>>>>>Begin Spectral Data<<<<<
223.165	-15.5
223.4	-15.5
223.635	-15.5
223.869	-17.5
224.104	-19.5
224.338	-18.5
224.573	-11.5
224.808	-21.5
225.042	-17.5
225.277	0.5
225.511	-2.5
225.746	10.5
225.98	3.5
226.215	22.5
226.449	12.5
226.683	17.5
226.918	23.5
227.152	33.5
227.387	41.5
227.621	33.5
227.856	34.5
228.09	36.5
228.324	49.5
228.559	72.5
228.793	58.5
229.027	54.5
229.262	63.5
229.496	71.5
229.73	68.5
229.964	69.5
230.199	65.5
230.433	53.5
230.667	75.5
230.901	80.5
231.136	75.5
231.37	81.5
231.604	70.5
231.838	85.5
232.072	79.5
232.306	86.5
232.541	88.5
232.775	75.5
233.009	72.5
233.243	84.5
233.477	78.5
233.711	78.5
233.945	76.5
234.179	87.5
234.413	72.5
234.647	76.5
234.881	76.5
235.115	88.5
235.349	71.5
235.583	71.5
235.817	78.5
236.051	75.5
236.285	64.5
236.519	70.5
236.753	68.5
236.987	76.5
237.221	80.5
237.455	83.5
237.689	71.5
237.922	70.5
238.156	74.5
238.39	92.5
238.624	77.5
238.858	59.5
239.091	77.5
239.325	72.5
239.559	82.5
239.793	73.5
240.027	94.5
240.26	64.5
240.494	84.5
240.728	88.5
240.961	76.5
241.195	62.5
241.429	74.5
241.662	72.5
241.896	61.5
242.13	72.5
242.363	86.5
242.597	67.5
242.83	90.5
243.064	74.5
243.298	81.5
243.531	68.5
243.765	73.5
243.998	82.5
244.232	73.5
244.465	81.5
244.699	75.5
244.932	82.5
245.166	82.5
245.399	89.5
245.633	79.5
245.866	80.5
246.099	94.5
246.333	81.5
246.566	74.5
246.8	77.5
247.033	75.5
247.266	85.5
247.5	68.5
247.733	71.5
247.966	82.5
248.2	67.5
248.433	78.5
248.666	84.5
248.899	70.5
249.133	77.5
249.366	96.5
249.599	92.5
249.832	78.5
250.066	92.5
250.299	79.5
250.532	80.5
250.765	71.5
250.998	86.5
251.231	74.5
251.465	88.5
251.698	83.5
251.931	65.5
252.164	76.5
252.397	68.5
252.63	69.5
252.863	70.5
253.096	77.5
253.329	78.5
253.562	91.5
253.795	89.5
254.028	82.5
254.261	85.5
254.494	81.5
254.727	84.5
254.96	71.5
255.193	91.5
255.426	74.5
255.659	62.5
255.892	87.5
256.124	87.5
256.357	77.5
256.59	79.5
256.823	78.5
257.056	80.5
257.289	78.5
257.521	77.5
257.754	72.5
257.987	79.5
258.22	77.5
258.452	76.5
258.685	90.5
258.918	81.5
259.151	76.5
259.383	86.5
259.616	81.5
259.849	72.5
260.081	95.5
260.314	86.5
260.547	85.5
260.779	92.5
261.012	85.5
261.244	72.5
261.477	91.5
261.71	91.5
261.942	93.5
262.175	98.5
262.407	83.5
262.64	77.5
262.872	70.5
263.105	70.5
263.337	82.5
263.57	66.5
263.802	80.5
264.035	83.5
264.267	89.5
264.499	89.5
264.732	72.5
264.964	82.5
265.197	89.5
265.429	86.5
265.661	82.5
265.894	81.5
266.126	87.5
266.358	93.5
266.591	92.5
266.823	90.5
267.055	81.5
267.287	87.5
267.52	90.5
267.752	94.5
267.984	79.5
268.216	80.5
268.448	73.5
268.681	86.5
268.913	87.5
269.145	80.5
269.377	90.5
269.609	82.5
269.841	83.5
270.073	85.5
270.306	81.5
270.538	71.5
270.77	66.5
271.002	80.5
271.234	85.5
271.466	98.5
271.698	96.5
271.93	98.5
272.162	86.5
272.394	91.5
272.626	78.5
272.858	66.5
273.09	82.5
273.322	89.5
273.553	81.5
273.785	94.5
274.017	82.5
274.249	73.5
274.481	76.5
274.713	80.5
274.945	85.5
275.176	93.5
275.408	88.5
275.64	74.5
275.872	90.5
276.104	79.5
276.335	102.5
276.567	98.5
276.799	96.5
277.031	84.5
277.262	89.5
277.494	82.5
277.726	74.5
277.957	90.5
278.189	85.5
278.421	73.5
278.652	88.5
278.884	90.5
279.115	77.5
279.347	103.5
279.579	87.5
279.81	78.5
280.042	88.5
280.273	80.5
280.505	91.5
280.736	89.5
280.968	100.5
281.199	76.5
281.431	91.5
281.662	87.5
281.894	89.5
282.125	102.5
282.356	102.5
282.588	131.5
282.819	108.5
283.051	86.5
283.282	93.5
283.513	88.5
283.745	69.5
283.976	81.5
284.207	93.5
284.439	85.5
284.67	90.5
284.901	89.5
285.132	92.5
285.364	87.5
285.595	88.5
285.826	93.5
286.057	79.5
286.288	76.5
286.52	88.5
286.751	84.5
286.982	81.5
287.213	84.5
287.444	88.5
287.675	81.5
287.906	79.5
288.138	82.5
288.369	86.5
288.6	102.5
288.831	81.5
289.062	87.5
289.293	87.5
289.524	79.5
289.755	74.5
289.986	80.5
290.217	87.5
290.448	87.5
290.679	80.5
290.91	79.5
291.141	86.5
291.371	91.5
291.602	84.5
291.833	78.5
292.064	78.5
292.295	94.5
292.526	90.5
292.757	98.5
292.987	94.5
293.218	88.5
293.449	73.5
293.68	80.5
293.91	81.5
294.141	85.5
294.372	101.5
294.603	92.5
294.833	96.5
295.064	92.5
295.295	72.5
295.525	91.5
295.756	96.5
295.987	110.5
296.217	125.5
296.448	127.5
296.679	100.5
296.909	92.5
297.14	91.5
297.37	78.5
297.601	81.5
297.831	89.5
298.062	87.5
298.292	91.5
298.523	90.5
298.753	81.5
298.984	97.5
299.214	92.5
299.445	104.5
299.675	92.5
299.905	78.5
300.136	93.5
300.366	87.5
300.597	87.5
300.827	94.5
301.057	87.5
301.288	105.5
301.518	89.5
301.748	85.5
301.979	107.5
302.209	91.5
302.439	91.5
302.669	82.5
302.9	86.5
303.13	95.5
303.36	100.5
303.59	90.5
303.82	94.5
304.051	90.5
304.281	85.5
304.511	108.5
304.741	89.5
304.971	79.5
305.201	100.5
305.431	84.5
305.661	91.5
305.891	83.5
306.121	80.5
306.352	89.5
306.582	105.5
306.812	89.5
307.042	109.5
307.272	102.5
307.502	85.5
307.731	73.5
307.961	99.5
308.191	86.5
308.421	97.5
308.651	98.5
308.881	95.5
309.111	66.5
309.341	74.5
309.571	93.5
309.8	105.5
310.03	106.5
310.26	93.5
310.49	95.5
310.72	88.5
310.949	94.5
311.179	96.5
311.409	93.5
311.639	77.5
311.868	95.5
312.098	82.5
312.328	100.5
312.557	93.5
312.787	102.5
313.017	101.5
313.246	94.5
313.476	93.5
313.706	87.5
313.935	91.5
314.165	107.5
314.394	98.5
314.624	107.5
314.853	97.5
315.083	95.5
315.312	91.5
315.542	76.5
315.771	80.5
316.001	83.5
316.23	93.5
316.46	82.5
316.689	88.5
316.919	96.5
317.148	97.5
317.377	99.5
317.607	102.5
317.836	95.5
318.065	98.5
318.295	92.5
318.524	95.5
318.753	88.5
318.983	102.5
319.212	100.5
319.441	111.5
319.67	97.5
319.9	86.5
320.129	96.5
320.358	82.5
320.587	105.5
320.816	96.5
321.046	99.5
321.275	84.5
321.504	87.5
321.733	85.5
321.962	98.5
322.191	92.5
322.42	115.5
322.649	101.5
322.878	87.5
323.108	106.5
323.337	110.5
323.566	117.5
323.795	127.5
324.024	192.5
324.253	365.5
324.482	779.5
324.71	1591.5
324.939	2038.5
325.168	742.5
325.397	228.5
325.626	140.5
325.855	111.5
326.084	118.5
326.313	146.5
326.542	130.5
326.77	203.5
326.999	426.5
327.228	901.5
327.457	1616.5
327.686	1251.5
327.914	343.5
328.143	186.5
328.372	122.5
328.6	117.5
328.829	109.5
329.058	116.5
329.287	131.5
329.515	103.5
329.744	88.5
329.972	94.5
330.201	100.5
330.43	103.5
330.658	119.5
330.887	139.5
331.115	111.5
331.344	91.5
331.572	95.5
331.801	104.5
332.03	101.5
332.258	94.5
332.486	104.5
332.715	86.5
332.943	78.5
333.172	102.5
333.4	97.5
333.629	97.5
333.857	108.5
334.085	110.5
334.314	88.5
334.542	103.5
334.771	97.5
334.999	94.5
335.227	102.5
335.455	89.5
335.684	89.5
335.912	107.5
336.14	94.5
336.369	87.5
336.597	106.5
336.825	110.5
337.053	90.5
337.281	71.5
337.51	86.5
337.738	97.5
337.966	104.5
338.194	77.5
338.422	98.5
338.65	91.5
338.878	93.5
339.106	80.5
339.334	84.5
339.562	89.5
339.79	85.5
340.018	71.5
340.246	105.5
340.474	76.5
340.702	100.5
340.93	93.5
341.158	90.5
341.386	97.5
341.614	87.5
341.842	83.5
342.07	88.5
342.298	82.5
342.526	78.5
342.754	87.5
342.981	82.5
343.209	75.5
343.437	105.5
343.665	83.5
343.893	79.5
344.12	96.5
344.348	92.5
344.576	75.5
344.804	93.5
345.031	93.5
345.259	105.5
345.487	80.5
345.714	90.5
345.942	94.5
346.17	96.5
346.397	100.5
346.625	87.5
346.853	89.5
347.08	79.5
347.308	85.5
347.535	103.5
347.763	97.5
347.99	112.5
348.218	97.5
348.445	109.5
348.673	109.5
348.9	92.5
349.128	91.5
349.355	91.5
349.583	94.5
349.81	84.5
350.037	93.5
350.265	93.5
350.492	84.5
350.72	109.5
350.947	94.5
351.174	114.5
351.402	116.5
351.629	104.5
351.856	92.5
352.083	105.5
352.311	109.5
352.538	96.5
352.765	105.5
352.992	98.5
353.22	108.5
353.447	98.5
353.674	100.5
353.901	100.5
354.128	76.5
354.355	96.5
354.583	96.5
354.81	99.5
355.037	92.5
355.264	92.5
355.491	77.5
355.718	88.5
355.945	108.5
356.172	94.5
356.399	102.5
356.626	103.5
356.853	88.5
357.08	89.5
357.307	89.5
357.534	103.5
357.761	104.5
357.988	91.5
358.215	103.5
358.441	98.5
358.668	97.5
358.895	105.5
359.122	100.5
359.349	91.5
359.576	78.5
359.802	99.5
360.029	105.5
360.256	93.5
360.483	95.5
360.709	69.5
360.936	82.5
361.163	90.5
361.39	101.5
361.616	92.5
361.843	83.5
362.07	90.5
362.296	89.5
362.523	86.5
362.749	83.5
362.976	81.5
363.203	85.5
363.429	108.5
363.656	83.5
363.882	87.5
364.109	92.5
364.335	92.5
364.562	101.5
364.788	92.5
365.015	92.5
365.241	93.5
365.468	90.5
365.694	107.5
365.92	101.5
366.147	89.5
366.373	95.5
366.599	90.5
366.826	85.5
367.052	90.5
367.278	89.5
367.505	80.5
367.731	88.5
367.957	100.5
368.184	94.5
368.41	87.5
368.636	96.5
368.862	122.5
369.089	96.5
369.315	94.5
369.541	81.5
369.767	86.5
369.993	95.5
370.219	89.5
370.445	86.5
370.672	84.5
370.898	82.5
371.124	84.5
371.35	75.5
371.576	89.5
371.802	90.5
372.028	87.5
372.254	93.5
372.48	66.5
372.706	90.5
372.932	86.5
373.158	95.5
373.384	84.5
373.61	96.5
373.835	89.5
374.061	84.5
374.287	96.5
374.513	77.5
374.739	88.5
374.965	95.5
375.191	82.5
375.416	88.5
375.642	87.5
375.868	84.5
376.094	101.5
376.319	81.5
376.545	90.5
376.771	94.5
376.997	92.5
377.222	78.5
377.448	82.5
377.674	96.5
377.899	89.5
378.125	88.5
378.35	96.5
378.576	86.5
378.802	96.5
379.027	88.5
379.253	98.5
379.478	88.5
379.704	81.5
379.929	80.5
380.155	90.5
380.38	91.5
380.606	96.5
380.831	92.5
381.057	104.5
381.282	85.5
381.507	87.5
381.733	106.5
381.958	102.5
382.184	94.5
382.409	107.5
382.634	107.5
382.86	100.5
383.085	113.5
383.31	108.5
383.535	105.5
383.761	86.5
383.986	101.5
384.211	93.5
384.436	100.5
384.662	100.5
384.887	107.5
385.112	98.5
385.337	101.5
385.562	97.5
385.787	101.5
386.013	107.5
386.238	101.5
386.463	107.5
386.688	97.5
386.913	108.5
387.138	110.5
387.363	105.5
387.588	104.5
387.813	83.5
388.038	90.5
388.263	96.5
388.488	106.5
388.713	100.5
388.938	109.5
389.163	95.5
389.387	92.5
389.612	103.5
389.837	90.5
390.062	93.5
390.287	95.5
390.512	86.5
390.736	84.5
390.961	102.5
391.186	92.5
391.411	93.5
391.636	84.5
391.86	79.5
392.085	76.5
392.31	71.5
392.534	79.5
392.759	88.5
392.984	85.5
393.208	80.5
393.433	88.5
393.658	104.5
393.882	76.5
394.107	90.5
394.331	66.5
394.556	94.5
394.78	86.5
395.005	80.5
395.229	78.5
395.454	69.5
395.678	84.5
395.903	77.5
396.127	97.5
396.352	81.5
396.576	88.5
396.801	81.5
397.025	96.5
397.249	88.5
397.474	82.5
397.698	78.5
397.922	68.5
398.147	75.5
398.371	75.5
398.595	84.5
398.82	85.5
399.044	74.5
399.268	79.5
399.492	88.5
399.717	95.5
399.941	88.5
400.165	84.5
400.389	84.5
400.613	81.5
400.837	95.5
401.062	83.5
401.286	89.5
401.51	85.5
401.734	90.5
401.958	102.5
402.182	113.5
402.406	150.5
402.63	124.5
402.854	81.5
403.078	86.5
403.302	88.5
403.526	86.5
403.75	80.5
403.974	87.5
404.198	87.5
404.422	89.5
404.645	95.5
404.869	78.5
405.093	79.5
405.317	96.5
405.541	96.5
405.765	95.5
405.988	120.5
406.212	157.5
406.436	201.5
406.66	134.5
406.883	109.5
407.107	85.5
407.331	88.5
407.555	96.5
407.778	96.5
408.002	84.5
408.226	72.5
408.449	81.5
408.673	106.5
408.896	85.5
409.12	100.5
409.344	87.5
409.567	85.5
409.791	86.5
410.014	96.5
410.238	81.5
410.461	102.5
410.685	103.5
410.908	94.5
411.132	108.5
411.355	100.5
411.578	81.5
411.802	92.5
412.025	91.5
412.249	95.5
412.472	97.5
412.695	84.5
412.919	82.5
413.142	86.5
413.365	99.5
413.589	91.5
413.812	90.5
414.035	95.5
414.258	103.5
414.482	96.5
414.705	71.5
414.928	98.5
415.151	79.5
415.374	96.5
415.597	88.5
415.821	86.5
416.044	82.5
416.267	101.5
416.49	77.5
416.713	79.5
416.936	96.5
417.159	87.5
417.382	87.5
417.605	85.5
417.828	94.5
418.051	84.5
418.274	98.5
418.497	83.5
418.72	86.5
418.943	82.5
419.166	87.5
419.389	90.5
419.611	76.5
419.834	82.5
420.057	90.5
420.28	86.5
420.503	75.5
420.726	84.5
420.948	81.5
421.171	93.5
421.394	87.5
421.617	100.5
421.839	97.5
422.062	85.5
422.285	81.5
422.507	100.5
422.73	100.5
422.953	86.5
423.175	89.5
423.398	84.5
423.621	87.5
423.843	91.5
424.066	93.5
424.288	91.5
424.511	90.5
424.733	83.5
424.956	97.5
425.178	97.5
425.401	101.5
425.623	117.5
425.846	95.5
426.068	87.5
426.291	84.5
426.513	100.5
426.735	89.5
426.958	88.5
427.18	103.5
427.402	111.5
427.625	158.5
427.847	128.5
428.069	94.5
428.292	87.5
428.514	90.5
428.736	95.5
428.958	76.5
429.181	86.5
429.403	83.5
429.625	74.5
429.847	88.5
430.069	111.5
430.292	84.5
430.514	97.5
430.736	88.5
430.958	87.5
431.18	85.5
431.402	72.5
431.624	81.5
431.846	86.5
432.068	89.5
432.29	74.5
432.512	84.5
432.734	77.5
432.956	90.5
433.178	101.5
433.4	87.5
433.622	79.5
433.844	98.5
434.066	82.5
434.287	75.5
434.509	81.5
434.731	89.5
434.953	85.5
435.175	88.5
435.397	87.5
435.618	92.5
435.84	99.5
436.062	102.5
436.284	82.5
436.505	96.5
436.727	89.5
436.949	91.5
437.17	81.5
437.392	91.5
437.614	85.5
437.835	98.5
438.057	112.5
438.278	108.5
438.5	105.5
438.721	95.5
438.943	93.5
439.165	87.5
439.386	89.5
439.608	95.5
439.829	94.5
440.05	111.5
440.272	134.5
440.493	96.5
440.715	89.5
440.936	86.5
441.158	84.5
441.379	84.5
441.6	100.5
441.822	92.5
442.043	89.5
442.264	102.5
442.486	94.5
442.707	89.5
442.928	109.5
443.149	111.5
443.371	127.5
443.592	103.5
443.813	77.5
444.034	103.5
444.255	94.5
444.476	90.5
444.698	99.5
444.919	79.5
445.14	127.5
445.361	110.5
445.582	102.5
445.803	117.5
446.024	117.5
446.245	138.5
446.466	94.5
446.687	84.5
446.908	82.5
447.129	81.5
447.35	85.5
447.571	83.5
447.792	91.5
448.013	87.5
448.234	105.5
448.455	89.5
448.675	109.5
448.896	122.5
449.117	100.5
449.338	91.5
449.559	110.5
449.779	128.5
450	100.5
450.221	77.5
450.442	100.5
450.662	96.5
450.883	100.5
451.104	92.5
451.324	78.5
451.545	95.5
451.766	97.5
451.986	82.5
452.207	90.5
452.428	84.5
452.648	101.5
452.869	104.5
453.089	100.5
453.31	120.5
453.53	86.5
453.751	80.5
453.971	101.5
454.192	100.5
454.412	100.5
454.633	88.5
454.853	82.5
455.073	78.5
455.294	93.5
455.514	79.5
455.734	86.5
455.955	88.5
456.175	81.5
456.395	94.5
456.616	80.5
456.836	82.5
457.056	81.5
457.276	82.5
457.497	73.5
457.717	89.5
457.937	95.5
458.157	72.5
458.377	85.5
458.598	90.5
458.818	142.5
459.038	152.5
459.258	99.5
459.478	87.5
459.698	94.5
459.918	90.5
460.138	81.5
460.358	82.5
460.578	78.5
460.798	81.5
461.018	91.5
461.238	81.5
461.458	89.5
461.678	92.5
461.898	77.5
462.118	80.5
462.338	89.5
462.558	80.5
462.777	95.5
462.997	83.5
463.217	81.5
463.437	89.5
463.657	89.5
463.876	84.5
464.096	84.5
464.316	91.5
464.536	89.5
464.755	90.5
464.975	104.5
465.195	165.5
465.414	131.5
465.634	86.5
465.854	90.5
466.073	89.5
466.293	79.5
466.512	88.5
466.732	73.5
466.951	92.5
467.171	95.5
467.391	100.5
467.61	93.5
467.829	84.5
468.049	75.5
468.268	80.5
468.488	79.5
468.707	85.5
468.927	93.5
469.146	93.5
469.365	80.5
469.585	85.5
469.804	102.5
470.023	102.5
470.243	88.5
470.462	102.5
470.681	92.5
470.901	82.5
471.12	71.5
471.339	91.5
471.558	84.5
471.777	94.5
471.997	94.5
472.216	71.5
472.435	93.5
472.654	87.5
472.873	91.5
473.092	102.5
473.311	86.5
473.53	83.5
473.749	88.5
473.968	111.5
474.187	97.5
474.406	75.5
474.625	88.5
474.844	95.5
475.063	77.5
475.282	77.5
475.501	80.5
475.72	93.5
475.939	87.5
476.158	90.5
476.377	85.5
476.596	78.5
476.814	93.5
477.033	91.5
477.252	87.5
477.471	74.5
477.69	84.5
477.908	95.5
478.127	82.5
478.346	86.5
478.564	86.5
478.783	100.5
479.002	90.5
479.22	89.5
479.439	94.5
479.658	104.5
479.876	96.5
480.095	89.5
480.313	89.5
480.532	89.5
480.751	73.5
480.969	86.5
481.188	90.5
481.406	88.5
481.624	86.5
481.843	96.5
482.061	77.5
482.28	87.5
482.498	80.5
482.717	102.5
482.935	86.5
483.153	85.5
483.372	74.5
483.59	88.5
483.808	87.5
484.027	81.5
484.245	86.5
484.463	72.5
484.681	88.5
484.9	89.5
485.118	93.5
485.336	86.5
485.554	89.5
485.772	103.5
485.99	106.5
486.209	95.5
486.427	89.5
486.645	106.5
486.863	115.5
487.081	84.5
487.299	87.5
487.517	92.5
487.735	82.5
487.953	88.5
488.171	93.5
488.389	91.5
488.607	79.5
488.825	68.5
489.043	87.5
489.261	101.5
489.479	85.5
489.696	92.5
489.914	90.5
490.132	92.5
490.35	84.5
490.568	96.5
490.786	82.5
491.003	86.5
491.221	91.5
491.439	74.5
491.657	93.5
491.874	87.5
492.092	108.5
492.31	84.5
492.527	91.5
492.745	73.5
492.963	76.5
493.18	92.5
493.398	102.5
493.615	98.5
493.833	89.5
494.05	94.5
494.268	99.5
494.485	92.5
494.703	88.5
494.92	82.5
495.138	93.5
495.355	93.5
495.573	101.5
495.79	92.5
496.008	91.5
496.225	82.5
496.442	74.5
496.66	99.5
496.877	93.5
497.094	93.5
497.312	87.5
497.529	84.5
497.746	86.5
497.963	91.5
498.181	76.5
498.398	89.5
498.615	103.5
498.832	94.5
499.049	90.5
499.267	102.5
499.484	94.5
499.701	89.5
499.918	97.5
500.135	89.5
500.352	90.5
500.569	92.5
500.786	88.5
501.003	88.5
501.22	87.5
501.437	85.5
501.654	93.5
501.871	106.5
502.088	94.5
502.305	88.5
502.522	82.5
502.739	85.5
502.956	92.5
503.172	86.5
503.389	82.5
503.606	97.5
503.823	86.5
504.04	88.5
504.256	91.5
504.473	80.5
504.69	95.5
504.907	101.5
505.123	89.5
505.34	87.5
505.557	84.5
505.773	81.5
505.99	87.5
506.207	97.5
506.423	87.5
506.64	99.5
506.856	94.5
507.073	87.5
507.289	88.5
507.506	97.5
507.722	105.5
507.939	106.5
508.155	89.5
508.372	88.5
508.588	90.5
508.805	101.5
509.021	92.5
509.238	105.5
509.454	103.5
509.67	97.5
509.887	101.5
510.103	116.5
510.319	200.5
510.536	750.5
510.752	2329.5
510.968	641.5
511.184	168.5
511.401	112.5
511.617	108.5
511.833	91.5
512.049	89.5
512.265	86.5
512.481	106.5
512.698	92.5
512.914	92.5
513.13	86.5
513.346	96.5
513.562	89.5
513.778	94.5
513.994	87.5
514.21	84.5
514.426	109.5
514.642	129.5
514.858	116.5
515.074	153.5
515.29	414.5
515.506	1360.5
515.721	518.5
515.937	148.5
516.153	120.5
516.369	93.5
516.585	81.5
516.801	94.5
517.016	83.5
517.232	104.5
517.448	82.5
517.664	82.5
517.879	96.5
518.095	96.5
518.311	100.5
518.527	88.5
518.742	83.5
518.958	85.5
519.173	106.5
519.389	110.5
519.605	96.5
519.82	82.5
520.036	113.5
520.251	117.5
520.467	111.5
520.682	97.5
520.898	105.5
521.113	122.5
521.329	140.5
521.544	190.5
521.76	542.5
521.975	2293.5
522.19	1419.5
522.406	292.5
522.621	108.5
522.836	86.5
523.052	102.5
523.267	79.5
523.482	96.5
523.698	96.5
523.913	108.5
524.128	94.5
524.343	89.5
524.559	101.5
524.774	81.5
524.989	100.5
525.204	93.5
525.419	104.5
525.634	87.5
525.849	95.5
526.064	84.5
526.28	92.5
526.495	81.5
526.71	82.5
526.925	93.5
527.14	85.5
527.355	92.5
527.57	88.5
527.785	88.5
527.999	93.5
528.214	89.5
528.429	96.5
528.644	93.5
528.859	81.5
529.074	92.5
529.289	129.5
529.503	165.5
529.718	104.5
529.933	105.5
530.148	98.5
530.363	80.5
530.577	80.5
530.792	74.5
531.007	94.5
531.221	90.5
531.436	96.5
531.651	86.5
531.865	81.5
532.08	73.5
532.295	91.5
532.509	85.5
532.724	91.5
532.938	101.5
533.153	87.5
533.367	96.5
533.582	86.5
533.796	100.5
534.011	87.5
534.225	95.5
534.44	82.5
534.654	90.5
534.868	94.5
535.083	84.5
535.297	96.5
535.511	94.5
535.726	109.5
535.94	107.5
