Data from Uncirc_2008_H10_HRD10591_00046.txt Node
Date: Wed Jan 03 10:15:40 EST 2024
User: Yrep
Spectrometer: HR+D1059
Trigger mode: 1
Integration Time (sec): 1.000000E-1
Scans to average: 1
Electric dark correction enabled: true
Nonlinearity correction enabled: false
Boxcar width: 0
XAxis mode: Wavelengths
Number of Pixels in Spectrum: 2048
>>>>>Begin Spectral Data<<<<<
223.165	-21.88
223.4	-21.88
223.635	-21.88
223.869	-25.88
224.104	-23.88
224.338	-18.88
224.573	-16.88
224.808	-14.88
225.042	-15.88
225.277	-2.88
225.511	6.12
225.746	12.12
225.98	17.12
226.215	8.12
226.449	25.12
226.683	21.12
226.918	26.12
227.152	25.12
227.387	37.12
227.621	30.12
227.856	48.12
228.09	56.12
228.324	30.12
228.559	60.12
228.793	50.12
229.027	62.12
229.262	61.12
229.496	71.12
229.73	82.12
229.964	81.12
230.199	69.12
230.433	69.12
230.667	76.12
230.901	75.12
231.136	82.12
231.37	86.12
231.604	69.12
231.838	77.12
232.072	70.12
232.306	85.12
232.541	76.12
232.775	78.12
233.009	86.12
233.243	74.12
233.477	89.12
233.711	75.12
233.945	73.12
234.179	74.12
234.413	80.12
234.647	74.12
234.881	74.12
235.115	94.12
235.349	86.12
235.583	87.12
235.817	71.12
236.051	82.12
236.285	73.12
236.519	78.12
236.753	85.12
236.987	78.12
237.221	85.12
237.455	72.12
237.689	72.12
237.922	69.12
238.156	64.12
238.39	68.12
238.624	79.12
238.858	80.12
239.091	68.12
239.325	74.12
239.559	70.12
239.793	61.12
240.027	100.12
240.26	59.12
240.494	69.12
240.728	75.12
240.961	85.12
241.195	78.12
241.429	68.12
241.662	73.12
241.896	82.12
242.13	67.12
242.363	67.12
242.597	93.12
242.83	68.12
243.064	90.12
243.298	80.12
243.531	78.12
243.765	88.12
243.998	64.12
244.232	85.12
244.465	88.12
244.699	68.12
244.932	65.12
245.166	90.12
245.399	86.12
245.633	62.12
245.866	68.12
246.099	80.12
246.333	80.12
246.566	66.12
246.8	79.12
247.033	74.12
247.266	73.12
247.5	80.12
247.733	87.12
247.966	82.12
248.2	61.12
248.433	68.12
248.666	60.12
248.899	72.12
249.133	86.12
249.366	72.12
249.599	112.12
249.832	74.12
250.066	77.12
250.299	78.12
250.532	75.12
250.765	76.12
250.998	76.12
251.231	76.12
251.465	74.12
251.698	82.12
251.931	80.12
252.164	68.12
252.397	72.12
252.63	75.12
252.863	66.12
253.096	77.12
253.329	84.12
253.562	71.12
253.795	80.12
254.028	67.12
254.261	72.12
254.494	75.12
254.727	67.12
254.96	71.12
255.193	79.12
255.426	81.12
255.659	87.12
255.892	94.12
256.124	76.12
256.357	77.12
256.59	76.12
256.823	90.12
257.056	66.12
257.289	73.12
257.521	99.12
257.754	76.12
257.987	84.12
258.22	97.12
258.452	77.12
258.685	76.12
258.918	72.12
259.151	77.12
259.383	102.12
259.616	94.12
259.849	81.12
260.081	79.12
260.314	65.12
260.547	100.12
260.779	83.12
261.012	80.12
261.244	66.12
261.477	80.12
261.71	88.12
261.942	92.12
262.175	118.12
262.407	98.12
262.64	81.12
262.872	87.12
263.105	89.12
263.337	91.12
263.57	69.12
263.802	81.12
264.035	77.12
264.267	86.12
264.499	82.12
264.732	69.12
264.964	76.12
265.197	82.12
265.429	79.12
265.661	82.12
265.894	92.12
266.126	96.12
266.358	88.12
266.591	73.12
266.823	86.12
267.055	71.12
267.287	69.12
267.52	71.12
267.752	88.12
267.984	85.12
268.216	78.12
268.448	70.12
268.681	88.12
268.913	74.12
269.145	85.12
269.377	82.12
269.609	75.12
269.841	89.12
270.073	86.12
270.306	89.12
270.538	74.12
270.77	83.12
271.002	99.12
271.234	84.12
271.466	92.12
271.698	91.12
271.93	66.12
272.162	78.12
272.394	75.12
272.626	74.12
272.858	76.12
273.09	82.12
273.322	89.12
273.553	85.12
273.785	85.12
274.017	79.12
274.249	85.12
274.481	88.12
274.713	93.12
274.945	85.12
275.176	79.12
275.408	78.12
275.64	81.12
275.872	90.12
276.104	84.12
276.335	90.12
276.567	92.12
276.799	96.12
277.031	98.12
277.262	91.12
277.494	93.12
277.726	101.12
277.957	96.12
278.189	75.12
278.421	70.12
278.652	97.12
278.884	91.12
279.115	87.12
279.347	78.12
279.579	68.12
279.81	82.12
280.042	95.12
280.273	77.12
280.505	87.12
280.736	88.12
280.968	82.12
281.199	74.12
281.431	78.12
281.662	85.12
281.894	85.12
282.125	91.12
282.356	109.12
282.588	118.12
282.819	107.12
283.051	86.12
283.282	85.12
283.513	90.12
283.745	92.12
283.976	90.12
284.207	88.12
284.439	81.12
284.67	76.12
284.901	86.12
285.132	87.12
285.364	87.12
285.595	90.12
285.826	93.12
286.057	89.12
286.288	79.12
286.52	83.12
286.751	84.12
286.982	85.12
287.213	85.12
287.444	91.12
287.675	85.12
287.906	92.12
288.138	72.12
288.369	89.12
288.6	94.12
288.831	78.12
289.062	86.12
289.293	90.12
289.524	79.12
289.755	68.12
289.986	80.12
290.217	80.12
290.448	93.12
290.679	91.12
290.91	80.12
291.141	70.12
291.371	97.12
291.602	83.12
291.833	81.12
292.064	84.12
292.295	88.12
292.526	89.12
292.757	93.12
292.987	74.12
293.218	80.12
293.449	79.12
293.68	89.12
293.91	80.12
294.141	92.12
294.372	82.12
294.603	81.12
294.833	89.12
295.064	87.12
295.295	92.12
295.525	80.12
295.756	90.12
295.987	109.12
296.217	138.12
296.448	104.12
296.679	97.12
296.909	98.12
297.14	95.12
297.37	83.12
297.601	79.12
297.831	70.12
298.062	95.12
298.292	82.12
298.523	82.12
298.753	80.12
298.984	82.12
299.214	85.12
299.445	95.12
299.675	74.12
299.905	94.12
300.136	79.12
300.366	83.12
300.597	95.12
300.827	109.12
301.057	88.12
301.288	93.12
301.518	93.12
301.748	93.12
301.979	95.12
302.209	73.12
302.439	80.12
302.669	91.12
302.9	82.12
303.13	91.12
303.36	93.12
303.59	98.12
303.82	112.12
304.051	84.12
304.281	93.12
304.511	93.12
304.741	92.12
304.971	90.12
305.201	79.12
305.431	101.12
305.661	92.12
305.891	82.12
306.121	82.12
306.352	99.12
306.582	91.12
306.812	78.12
307.042	87.12
307.272	91.12
307.502	104.12
307.731	94.12
307.961	80.12
308.191	85.12
308.421	84.12
308.651	87.12
308.881	99.12
309.111	100.12
309.341	95.12
309.571	99.12
309.8	98.12
310.03	93.12
310.26	76.12
310.49	84.12
310.72	85.12
310.949	93.12
311.179	91.12
311.409	79.12
311.639	95.12
311.868	90.12
312.098	87.12
312.328	94.12
312.557	83.12
312.787	100.12
313.017	107.12
313.246	98.12
313.476	98.12
313.706	81.12
313.935	99.12
314.165	95.12
314.394	101.12
314.624	77.12
314.853	91.12
315.083	95.12
315.312	94.12
315.542	99.12
315.771	95.12
316.001	83.12
316.23	92.12
316.46	90.12
316.689	100.12
316.919	96.12
317.148	105.12
317.377	87.12
317.607	108.12
317.836	92.12
318.065	99.12
318.295	82.12
318.524	95.12
318.753	91.12
318.983	103.12
319.212	96.12
319.441	98.12
319.67	102.12
319.9	79.12
320.129	84.12
320.358	99.12
320.587	104.12
320.816	94.12
321.046	106.12
321.275	92.12
321.504	96.12
321.733	96.12
321.962	94.12
322.191	95.12
322.42	98.12
322.649	87.12
322.878	112.12
323.108	103.12
323.337	117.12
323.566	124.12
323.795	163.12
324.024	205.12
324.253	362.12
324.482	749.12
324.71	1618.12
324.939	2135.12
325.168	785.12
325.397	233.12
325.626	152.12
325.855	122.12
326.084	120.12
326.313	126.12
326.542	161.12
326.77	209.12
326.999	446.12
327.228	919.12
327.457	1631.12
327.686	1273.12
327.914	352.12
328.143	195.12
328.372	137.12
328.6	135.12
328.829	111.12
329.058	113.12
329.287	126.12
329.515	96.12
329.744	90.12
329.972	84.12
330.201	82.12
330.43	109.12
330.658	104.12
330.887	141.12
331.115	127.12
331.344	95.12
331.572	101.12
331.801	108.12
332.03	100.12
332.258	94.12
332.486	95.12
332.715	104.12
332.943	104.12
333.172	91.12
333.4	111.12
333.629	89.12
333.857	90.12
334.085	94.12
334.314	94.12
334.542	102.12
334.771	106.12
334.999	90.12
335.227	100.12
335.455	105.12
335.684	92.12
335.912	81.12
336.14	78.12
336.369	97.12
336.597	95.12
336.825	97.12
337.053	105.12
337.281	89.12
337.51	82.12
337.738	71.12
337.966	93.12
338.194	89.12
338.422	108.12
338.65	91.12
338.878	92.12
339.106	80.12
339.334	79.12
339.562	77.12
339.79	92.12
340.018	88.12
340.246	93.12
340.474	94.12
340.702	94.12
340.93	81.12
341.158	89.12
341.386	90.12
341.614	86.12
341.842	104.12
342.07	84.12
342.298	98.12
342.526	89.12
342.754	91.12
342.981	92.12
343.209	84.12
343.437	112.12
343.665	84.12
343.893	93.12
344.12	94.12
344.348	81.12
344.576	87.12
344.804	92.12
345.031	97.12
345.259	94.12
345.487	95.12
345.714	87.12
345.942	98.12
346.17	99.12
346.397	92.12
346.625	78.12
346.853	96.12
347.08	95.12
347.308	88.12
347.535	100.12
347.763	99.12
347.99	105.12
348.218	101.12
348.445	94.12
348.673	92.12
348.9	97.12
349.128	89.12
349.355	82.12
349.583	91.12
349.81	97.12
350.037	95.12
350.265	105.12
350.492	87.12
350.72	91.12
350.947	107.12
351.174	109.12
351.402	122.12
351.629	93.12
351.856	111.12
352.083	102.12
352.311	104.12
352.538	93.12
352.765	104.12
352.992	98.12
353.22	112.12
353.447	99.12
353.674	97.12
353.901	98.12
354.128	93.12
354.355	101.12
354.583	107.12
354.81	90.12
355.037	81.12
355.264	77.12
355.491	105.12
355.718	85.12
355.945	87.12
356.172	88.12
356.399	91.12
356.626	93.12
356.853	97.12
357.08	88.12
357.307	86.12
357.534	106.12
357.761	86.12
357.988	93.12
358.215	107.12
358.441	84.12
358.668	87.12
358.895	88.12
359.122	110.12
359.349	86.12
359.576	84.12
359.802	99.12
360.029	101.12
360.256	110.12
360.483	98.12
360.709	93.12
360.936	83.12
361.163	90.12
361.39	98.12
361.616	94.12
361.843	70.12
362.07	89.12
362.296	94.12
362.523	91.12
362.749	79.12
362.976	98.12
363.203	88.12
363.429	84.12
363.656	87.12
363.882	83.12
364.109	90.12
364.335	101.12
364.562	84.12
364.788	79.12
365.015	86.12
365.241	95.12
365.468	89.12
365.694	91.12
365.92	89.12
366.147	87.12
366.373	95.12
366.599	93.12
366.826	79.12
367.052	100.12
367.278	90.12
367.505	94.12
367.731	95.12
367.957	105.12
368.184	92.12
368.41	97.12
368.636	111.12
368.862	116.12
369.089	95.12
369.315	92.12
369.541	91.12
369.767	89.12
369.993	93.12
370.219	96.12
370.445	93.12
370.672	90.12
370.898	82.12
371.124	69.12
371.35	79.12
371.576	81.12
371.802	87.12
372.028	95.12
372.254	80.12
372.48	76.12
372.706	84.12
372.932	77.12
373.158	103.12
373.384	102.12
373.61	100.12
373.835	89.12
374.061	78.12
374.287	84.12
374.513	81.12
374.739	88.12
374.965	78.12
375.191	81.12
375.416	81.12
375.642	101.12
375.868	95.12
376.094	85.12
376.319	81.12
376.545	75.12
376.771	97.12
376.997	92.12
377.222	75.12
377.448	82.12
377.674	74.12
377.899	90.12
378.125	80.12
378.35	87.12
378.576	76.12
378.802	78.12
379.027	76.12
379.253	81.12
379.478	96.12
379.704	96.12
379.929	89.12
380.155	93.12
380.38	77.12
380.606	89.12
380.831	96.12
381.057	89.12
381.282	88.12
381.507	105.12
381.733	98.12
381.958	92.12
382.184	80.12
382.409	104.12
382.634	105.12
382.86	90.12
383.085	94.12
383.31	107.12
383.535	97.12
383.761	101.12
383.986	106.12
384.211	110.12
384.436	95.12
384.662	101.12
384.887	81.12
385.112	83.12
385.337	111.12
385.562	91.12
385.787	89.12
386.013	108.12
386.238	95.12
386.463	100.12
386.688	96.12
386.913	101.12
387.138	105.12
387.363	117.12
387.588	99.12
387.813	98.12
388.038	100.12
388.263	94.12
388.488	103.12
388.713	92.12
388.938	98.12
389.163	102.12
389.387	98.12
389.612	92.12
389.837	89.12
390.062	90.12
390.287	82.12
390.512	96.12
390.736	100.12
390.961	100.12
391.186	88.12
391.411	74.12
391.636	88.12
391.86	86.12
392.085	89.12
392.31	90.12
392.534	82.12
392.759	87.12
392.984	96.12
393.208	89.12
393.433	80.12
393.658	97.12
393.882	94.12
394.107	95.12
394.331	91.12
394.556	80.12
394.78	88.12
395.005	85.12
395.229	76.12
395.454	94.12
395.678	82.12
395.903	90.12
396.127	81.12
396.352	79.12
396.576	75.12
396.801	78.12
397.025	93.12
397.249	77.12
397.474	86.12
397.698	85.12
397.922	92.12
398.147	87.12
398.371	73.12
398.595	84.12
398.82	81.12
399.044	83.12
399.268	74.12
399.492	88.12
399.717	91.12
399.941	75.12
400.165	99.12
400.389	89.12
400.613	97.12
400.837	84.12
401.062	90.12
401.286	86.12
401.51	89.12
401.734	81.12
401.958	103.12
402.182	97.12
402.406	154.12
402.63	118.12
402.854	96.12
403.078	94.12
403.302	93.12
403.526	86.12
403.75	101.12
403.974	87.12
404.198	90.12
404.422	98.12
404.645	106.12
404.869	93.12
405.093	85.12
405.317	95.12
405.541	91.12
405.765	86.12
405.988	102.12
406.212	138.12
406.436	194.12
406.66	138.12
406.883	90.12
407.107	94.12
407.331	91.12
407.555	106.12
407.778	101.12
408.002	93.12
408.226	84.12
408.449	88.12
408.673	94.12
408.896	90.12
409.12	102.12
409.344	99.12
409.567	86.12
409.791	106.12
410.014	88.12
410.238	83.12
410.461	101.12
410.685	91.12
410.908	110.12
411.132	112.12
411.355	86.12
411.578	95.12
411.802	88.12
412.025	82.12
412.249	83.12
412.472	87.12
412.695	87.12
412.919	75.12
413.142	103.12
413.365	84.12
413.589	68.12
413.812	90.12
414.035	96.12
414.258	78.12
414.482	92.12
414.705	80.12
414.928	82.12
415.151	87.12
415.374	102.12
415.597	90.12
415.821	90.12
416.044	90.12
416.267	100.12
416.49	92.12
416.713	97.12
416.936	88.12
417.159	85.12
417.382	92.12
417.605	89.12
417.828	94.12
418.051	101.12
418.274	98.12
418.497	83.12
418.72	80.12
418.943	95.12
419.166	83.12
419.389	89.12
419.611	80.12
419.834	98.12
420.057	102.12
420.28	77.12
420.503	89.12
420.726	90.12
420.948	87.12
421.171	90.12
421.394	97.12
421.617	80.12
421.839	85.12
422.062	91.12
422.285	111.12
422.507	106.12
422.73	108.12
422.953	80.12
423.175	93.12
423.398	85.12
423.621	81.12
423.843	84.12
424.066	77.12
424.288	81.12
424.511	95.12
424.733	77.12
424.956	105.12
425.178	87.12
425.401	86.12
425.623	82.12
425.846	95.12
426.068	100.12
426.291	88.12
426.513	99.12
426.735	85.12
426.958	90.12
427.18	98.12
427.402	125.12
427.625	145.12
427.847	103.12
428.069	103.12
428.292	89.12
428.514	84.12
428.736	91.12
428.958	85.12
429.181	77.12
429.403	71.12
429.625	88.12
429.847	95.12
430.069	90.12
430.292	88.12
430.514	79.12
430.736	88.12
430.958	92.12
431.18	79.12
431.402	89.12
431.624	80.12
431.846	93.12
432.068	79.12
432.29	86.12
432.512	98.12
432.734	96.12
432.956	85.12
433.178	92.12
433.4	93.12
433.622	93.12
433.844	86.12
434.066	91.12
434.287	81.12
434.509	86.12
434.731	76.12
434.953	91.12
435.175	76.12
435.397	82.12
435.618	97.12
435.84	87.12
436.062	116.12
436.284	121.12
436.505	96.12
436.727	97.12
436.949	91.12
437.17	80.12
437.392	67.12
437.614	91.12
437.835	108.12
438.057	118.12
438.278	103.12
438.5	99.12
438.721	125.12
438.943	100.12
439.165	94.12
439.386	89.12
439.608	76.12
439.829	95.12
440.05	116.12
440.272	143.12
440.493	101.12
440.715	95.12
440.936	83.12
441.158	97.12
441.379	93.12
441.6	80.12
441.822	91.12
442.043	79.12
442.264	105.12
442.486	102.12
442.707	90.12
442.928	92.12
443.149	119.12
443.371	129.12
443.592	110.12
443.813	112.12
444.034	105.12
444.255	87.12
444.476	76.12
444.698	88.12
444.919	92.12
445.14	119.12
445.361	112.12
445.582	118.12
445.803	126.12
446.024	133.12
446.245	126.12
446.466	119.12
446.687	93.12
446.908	89.12
447.129	73.12
447.35	91.12
447.571	94.12
447.792	86.12
448.013	96.12
448.234	96.12
448.455	103.12
448.675	106.12
448.896	119.12
449.117	91.12
449.338	90.12
449.559	140.12
449.779	134.12
450	102.12
450.221	92.12
450.442	83.12
450.662	95.12
450.883	105.12
451.104	112.12
451.324	95.12
451.545	91.12
451.766	89.12
451.986	76.12
452.207	96.12
452.428	93.12
452.648	103.12
452.869	117.12
453.089	100.12
453.31	106.12
453.53	79.12
453.751	82.12
453.971	106.12
454.192	104.12
454.412	85.12
454.633	102.12
454.853	83.12
455.073	86.12
455.294	80.12
455.514	92.12
455.734	85.12
455.955	68.12
456.175	72.12
456.395	62.12
456.616	86.12
456.836	89.12
457.056	93.12
457.276	93.12
457.497	83.12
457.717	75.12
457.937	68.12
458.157	89.12
458.377	95.12
458.598	109.12
458.818	142.12
459.038	135.12
459.258	122.12
459.478	101.12
459.698	70.12
459.918	92.12
460.138	70.12
460.358	88.12
460.578	99.12
460.798	92.12
461.018	104.12
461.238	83.12
461.458	73.12
461.678	86.12
461.898	80.12
462.118	73.12
462.338	94.12
462.558	79.12
462.777	80.12
462.997	88.12
463.217	96.12
463.437	89.12
463.657	88.12
463.876	79.12
464.096	88.12
464.316	111.12
464.536	96.12
464.755	82.12
464.975	116.12
465.195	152.12
465.414	124.12
465.634	93.12
465.854	89.12
466.073	89.12
466.293	90.12
466.512	96.12
466.732	84.12
466.951	87.12
467.171	89.12
467.391	103.12
467.61	97.12
467.829	109.12
468.049	89.12
468.268	91.12
468.488	82.12
468.707	100.12
468.927	84.12
469.146	74.12
469.365	86.12
469.585	95.12
469.804	116.12
470.023	99.12
470.243	108.12
470.462	95.12
470.681	98.12
470.901	81.12
471.12	80.12
471.339	77.12
471.558	97.12
471.777	84.12
471.997	90.12
472.216	69.12
472.435	81.12
472.654	77.12
472.873	78.12
473.092	82.12
473.311	81.12
473.53	70.12
473.749	82.12
473.968	106.12
474.187	92.12
474.406	92.12
474.625	84.12
474.844	87.12
475.063	76.12
475.282	95.12
475.501	89.12
475.72	105.12
475.939	94.12
476.158	84.12
476.377	81.12
476.596	89.12
476.814	105.12
477.033	93.12
477.252	86.12
477.471	90.12
477.69	89.12
477.908	80.12
478.127	100.12
478.346	79.12
478.564	78.12
478.783	90.12
479.002	93.12
479.22	100.12
479.439	84.12
479.658	110.12
479.876	106.12
480.095	81.12
480.313	93.12
480.532	85.12
480.751	88.12
480.969	90.12
481.188	92.12
481.406	102.12
481.624	92.12
481.843	90.12
482.061	84.12
482.28	84.12
482.498	76.12
482.717	78.12
482.935	81.12
483.153	100.12
483.372	87.12
483.59	86.12
483.808	80.12
484.027	75.12
484.245	88.12
484.463	88.12
484.681	107.12
484.9	86.12
485.118	103.12
485.336	99.12
485.554	98.12
485.772	104.12
485.99	94.12
486.209	100.12
486.427	89.12
486.645	105.12
486.863	119.12
487.081	100.12
487.299	98.12
487.517	86.12
487.735	94.12
487.953	90.12
488.171	98.12
488.389	93.12
488.607	94.12
488.825	94.12
489.043	101.12
489.261	69.12
489.479	85.12
489.696	89.12
489.914	90.12
490.132	81.12
490.35	75.12
490.568	84.12
490.786	74.12
491.003	81.12
491.221	98.12
491.439	95.12
491.657	90.12
491.874	87.12
492.092	95.12
492.31	84.12
492.527	95.12
492.745	88.12
492.963	82.12
493.18	93.12
493.398	85.12
493.615	88.12
493.833	82.12
494.05	78.12
494.268	101.12
494.485	92.12
494.703	95.12
494.92	97.12
495.138	97.12
495.355	103.12
495.573	97.12
495.79	86.12
496.008	97.12
496.225	86.12
496.442	93.12
496.66	90.12
496.877	84.12
497.094	97.12
497.312	80.12
497.529	82.12
497.746	94.12
497.963	83.12
498.181	87.12
498.398	102.12
498.615	93.12
498.832	96.12
499.049	91.12
499.267	78.12
499.484	96.12
499.701	97.12
499.918	97.12
500.135	85.12
500.352	94.12
500.569	92.12
500.786	81.12
501.003	77.12
501.22	91.12
501.437	95.12
501.654	92.12
501.871	92.12
502.088	89.12
502.305	92.12
502.522	98.12
502.739	82.12
502.956	80.12
503.172	94.12
503.389	86.12
503.606	94.12
503.823	99.12
504.04	95.12
504.256	88.12
504.473	85.12
504.69	91.12
504.907	87.12
505.123	81.12
505.34	85.12
505.557	85.12
505.773	97.12
505.99	80.12
506.207	94.12
506.423	90.12
506.64	90.12
506.856	95.12
507.073	87.12
507.289	77.12
507.506	98.12
507.722	105.12
507.939	110.12
508.155	100.12
508.372	80.12
508.588	94.12
508.805	93.12
509.021	96.12
509.238	103.12
509.454	100.12
509.67	103.12
509.887	113.12
510.103	141.12
510.319	202.12
510.536	726.12
510.752	2276.12
510.968	633.12
511.184	160.12
511.401	113.12
511.617	104.12
511.833	93.12
512.049	83.12
512.265	90.12
512.481	82.12
512.698	90.12
512.914	96.12
513.13	96.12
513.346	94.12
513.562	89.12
513.778	97.12
513.994	86.12
514.21	93.12
514.426	109.12
514.642	124.12
514.858	134.12
515.074	154.12
515.29	430.12
515.506	1394.12
515.721	531.12
515.937	142.12
516.153	102.12
516.369	93.12
