Data from Uncirc_2008_H10_HRD10591_00029.txt Node
Date: Wed Jan 03 10:15:36 EST 2024
User: Yrep
Spectrometer: HR+D1059
Trigger mode: 1
Integration Time (sec): 1.000000E-1
Scans to average: 1
Electric dark correction enabled: true
Nonlinearity correction enabled: false
Boxcar width: 0
XAxis mode: Wavelengths
Number of Pixels in Spectrum: 2048
>>>>>Begin Spectral Data<<<<<
223.165	-24.31
223.4	-24.31
223.635	-24.31
223.869	-18.31
224.104	-39.31
224.338	-19.31
224.573	-20.31
224.808	-3.31
225.042	-7.31
225.277	-3.31
225.511	5.69
225.746	2.69
225.98	4.69
226.215	13.69
226.449	20.69
226.683	18.69
226.918	29.69
227.152	39.69
227.387	35.69
227.621	31.69
227.856	47.69
228.09	39.69
228.324	44.69
228.559	57.69
228.793	149.69
229.027	441.69
229.262	489.69
229.496	585.69
229.73	753.69
229.964	776.69
230.199	510.69
230.433	463.69
230.667	454.69
230.901	425.69
231.136	423.69
231.37	433.69
231.604	447.69
231.838	421.69
232.072	439.69
232.306	453.69
232.541	430.69
232.775	446.69
233.009	448.69
233.243	459.69
233.477	471.69
233.711	450.69
233.945	503.69
234.179	491.69
234.413	503.69
234.647	484.69
234.881	490.69
235.115	516.69
235.349	530.69
235.583	543.69
235.817	595.69
236.051	627.69
236.285	579.69
236.519	597.69
236.753	674.69
236.987	854.69
237.221	1322.69
237.455	1450.69
237.689	848.69
237.922	703.69
238.156	679.69
238.39	639.69
238.624	605.69
238.858	610.69
239.091	616.69
239.325	624.69
239.559	655.69
239.793	667.69
240.027	733.69
240.26	869.69
240.494	931.69
240.728	910.69
240.961	874.69
241.195	814.69
241.429	759.69
241.662	733.69
241.896	741.69
242.13	728.69
242.363	754.69
242.597	735.69
242.83	816.69
243.064	761.69
243.298	757.69
243.531	786.69
243.765	776.69
243.998	815.69
244.232	791.69
244.465	826.69
244.699	844.69
244.932	887.69
245.166	870.69
245.399	870.69
245.633	849.69
245.866	891.69
246.099	863.69
246.333	911.69
246.566	916.69
246.8	906.69
247.033	972.69
247.266	1006.69
247.5	1059.69
247.733	1102.69
247.966	1115.69
248.2	1090.69
248.433	1087.69
248.666	1137.69
248.899	1261.69
249.133	1381.69
249.366	1334.69
249.599	1228.69
249.832	1132.69
250.066	1163.69
250.299	1198.69
250.532	1235.69
250.765	1411.69
250.998	1599.69
251.231	1546.69
251.465	1405.69
251.698	1363.69
251.931	1339.69
252.164	1334.69
252.397	1338.69
252.63	1368.69
252.863	1456.69
253.096	1600.69
253.329	1641.69
253.562	1558.69
253.795	1474.69
254.028	1515.69
254.261	1569.69
254.494	1774.69
254.727	2024.69
254.96	2085.69
255.193	1831.69
255.426	1638.69
255.659	1534.69
255.892	1469.69
256.124	1481.69
256.357	1487.69
256.59	1417.69
256.823	1422.69
257.056	1396.69
257.289	1468.69
257.521	1518.69
257.754	1453.69
257.987	1469.69
258.22	1473.69
258.452	1458.69
258.685	1490.69
258.918	1535.69
259.151	1521.69
259.383	1632.69
259.616	1605.69
259.849	1701.69
260.081	1824.69
260.314	2009.69
260.547	1914.69
260.779	1753.69
261.012	1676.69
261.244	1657.69
261.477	1611.69
261.71	1626.69
261.942	1684.69
262.175	1707.69
262.407	1637.69
262.64	1593.69
262.872	1621.69
263.105	1581.69
263.337	1566.69
263.57	1592.69
263.802	1607.69
264.035	1622.69
264.267	1602.69
264.499	1585.69
264.732	1601.69
264.964	1642.69
265.197	1695.69
265.429	1634.69
265.661	1658.69
265.894	1675.69
266.126	1660.69
266.358	1679.69
266.591	1728.69
266.823	1777.69
267.055	1790.69
267.287	1821.69
267.52	1765.69
267.752	1796.69
267.984	1825.69
268.216	1835.69
268.448	1899.69
268.681	1921.69
268.913	2064.69
269.145	2198.69
269.377	2313.69
269.609	2231.69
269.841	2200.69
270.073	2290.69
270.306	2558.69
270.538	2711.69
270.77	2534.69
271.002	2390.69
271.234	2370.69
271.466	2517.69
271.698	2652.69
271.93	2597.69
272.162	2621.69
272.394	2588.69
272.626	2385.69
272.858	2282.69
273.09	2179.69
273.322	2207.69
273.553	2170.69
273.785	2197.69
274.017	2165.69
274.249	2186.69
274.481	2178.69
274.713	2178.69
274.945	2217.69
275.176	2206.69
275.408	2187.69
275.64	2212.69
275.872	2153.69
276.104	2242.69
276.335	2217.69
276.567	2313.69
276.799	2463.69
277.031	2686.69
277.262	2749.69
277.494	2727.69
277.726	2513.69
277.957	2415.69
278.189	2341.69
278.421	2280.69
278.652	2300.69
278.884	2333.69
279.115	2341.69
279.347	2325.69
279.579	2319.69
279.81	2272.69
280.042	2259.69
280.273	2296.69
280.505	2285.69
280.736	2311.69
280.968	2349.69
281.199	2319.69
281.431	2375.69
281.662	2356.69
281.894	2425.69
282.125	2450.69
282.356	2570.69
282.588	2678.69
282.819	2605.69
283.051	2526.69
283.282	2408.69
283.513	2546.69
283.745	2558.69
283.976	2519.69
284.207	2575.69
284.439	2565.69
284.67	2555.69
284.901	2571.69
285.132	2576.69
285.364	2539.69
285.595	2538.69
285.826	2573.69
286.057	2573.69
286.288	2573.69
286.52	2629.69
286.751	2626.69
286.982	2632.69
287.213	2599.69
287.444	2664.69
287.675	2768.69
287.906	2858.69
288.138	2845.69
288.369	2831.69
288.6	2822.69
288.831	2779.69
289.062	2722.69
289.293	2701.69
289.524	2749.69
289.755	2718.69
289.986	2751.69
290.217	2744.69
290.448	2719.69
290.679	2672.69
290.91	2738.69
291.141	2752.69
291.371	2731.69
291.602	2746.69
291.833	2730.69
292.064	2775.69
292.295	2732.69
292.526	2753.69
292.757	2769.69
292.987	2748.69
293.218	2731.69
293.449	2773.69
293.68	2776.69
293.91	2760.69
294.141	2771.69
294.372	2792.69
294.603	2780.69
294.833	2805.69
295.064	2821.69
295.295	2799.69
295.525	2785.69
295.756	2826.69
295.987	2920.69
296.217	3070.69
296.448	3025.69
296.679	2910.69
296.909	2880.69
297.14	2869.69
297.37	2923.69
297.601	2986.69
297.831	3016.69
298.062	2989.69
298.292	3014.69
298.523	3055.69
298.753	3072.69
298.984	2986.69
299.214	3048.69
299.445	2992.69
299.675	3016.69
299.905	3116.69
300.136	3041.69
300.366	3112.69
300.597	3132.69
300.827	3198.69
301.057	3232.69
301.288	3279.69
301.518	3249.69
301.748	3284.69
301.979	3351.69
302.209	3301.69
302.439	3268.69
302.669	3256.69
302.9	3246.69
303.13	3219.69
303.36	3286.69
303.59	3289.69
303.82	3304.69
304.051	3240.69
304.281	3280.69
304.511	3212.69
304.741	3216.69
304.971	3209.69
305.201	3246.69
305.431	3227.69
305.661	3239.69
305.891	3216.69
306.121	3209.69
306.352	3283.69
306.582	3213.69
306.812	3194.69
307.042	3208.69
307.272	3232.69
307.502	3201.69
307.731	3241.69
307.961	3215.69
308.191	3247.69
308.421	3219.69
308.651	3243.69
308.881	3230.69
309.111	3269.69
309.341	3319.69
309.571	3337.69
309.8	3461.69
310.03	3468.69
310.26	3574.69
310.49	3491.69
310.72	3672.69
310.949	3688.69
311.179	3692.69
311.409	3557.69
311.639	3541.69
311.868	3634.69
312.098	3568.69
312.328	3728.69
312.557	3815.69
312.787	3853.69
313.017	3778.69
313.246	3698.69
313.476	3635.69
313.706	3760.69
313.935	3783.69
314.165	3833.69
314.394	3890.69
314.624	3827.69
314.853	3711.69
315.083	3702.69
315.312	3632.69
315.542	3637.69
315.771	3629.69
316.001	3564.69
316.23	3568.69
316.46	3584.69
316.689	3673.69
316.919	3634.69
317.148	3725.69
317.377	3641.69
317.607	3641.69
317.836	3641.69
318.065	3611.69
318.295	3634.69
318.524	3612.69
318.753	3532.69
318.983	3574.69
319.212	3587.69
319.441	3728.69
319.67	3623.69
319.9	3613.69
320.129	3653.69
320.358	3661.69
320.587	3644.69
320.816	3752.69
321.046	3769.69
321.275	3729.69
321.504	3753.69
321.733	3778.69
321.962	3902.69
322.191	3910.69
322.42	4061.69
322.649	4084.69
322.878	4107.69
323.108	4242.69
323.337	4454.69
323.566	4633.69
323.795	4859.69
324.024	5495.69
324.253	7175.69
324.482	10668.69
324.71	15074.69
324.939	15603.69
325.168	12557.69
325.397	6382.69
325.626	5136.69
325.855	4752.69
326.084	4644.69
326.313	4646.69
326.542	4791.69
326.77	5409.69
326.999	6799.69
327.228	10018.69
327.457	14119.69
327.686	13256.69
327.914	7073.69
328.143	5614.69
328.372	5219.69
328.6	5124.69
328.829	4994.69
329.058	5226.69
329.287	5152.69
329.515	4790.69
329.744	4585.69
329.972	4616.69
330.201	4730.69
330.43	4977.69
330.658	5253.69
330.887	5551.69
331.115	5214.69
331.344	4816.69
331.572	4824.69
331.801	4875.69
332.03	4866.69
332.258	4856.69
332.486	4881.69
332.715	4923.69
332.943	5060.69
333.172	5173.69
333.4	5311.69
333.629	5477.69
333.857	5520.69
334.085	5339.69
334.314	5290.69
334.542	5192.69
334.771	5238.69
334.999	5185.69
335.227	5090.69
335.455	4941.69
335.684	4938.69
335.912	4929.69
336.14	4893.69
336.369	4900.69
336.597	4955.69
336.825	4816.69
337.053	4736.69
337.281	4646.69
337.51	4598.69
337.738	4651.69
337.966	4630.69
338.194	4576.69
338.422	4525.69
338.65	4463.69
338.878	4501.69
339.106	4426.69
339.334	4421.69
339.562	4345.69
339.79	4366.69
340.018	4298.69
340.246	4323.69
340.474	4361.69
340.702	4280.69
340.93	4266.69
341.158	4402.69
341.386	4318.69
341.614	4357.69
341.842	4261.69
342.07	4230.69
342.298	4229.69
342.526	4192.69
342.754	4241.69
342.981	4287.69
343.209	4353.69
343.437	4647.69
343.665	4869.69
343.893	5093.69
344.12	5116.69
344.348	4886.69
344.576	4708.69
344.804	4615.69
345.031	4536.69
345.259	4552.69
345.487	4388.69
345.714	4312.69
345.942	4233.69
346.17	4153.69
346.397	4142.69
346.625	4154.69
346.853	4090.69
347.08	4097.69
347.308	4149.69
347.535	4254.69
347.763	4306.69
347.99	4177.69
348.218	4204.69
348.445	4272.69
348.673	4191.69
348.9	4121.69
349.128	4028.69
349.355	3999.69
349.583	3984.69
349.81	3962.69
350.037	4009.69
350.265	3980.69
350.492	3993.69
350.72	4001.69
350.947	4068.69
351.174	4155.69
351.402	4155.69
351.629	4116.69
351.856	4085.69
352.083	4212.69
352.311	4199.69
352.538	4126.69
352.765	4145.69
352.992	4091.69
353.22	4028.69
353.447	4050.69
353.674	3987.69
353.901	3963.69
354.128	3986.69
354.355	3862.69
354.583	3888.69
354.81	3925.69
355.037	3899.69
355.264	3875.69
355.491	3893.69
355.718	3902.69
355.945	3901.69
356.172	3903.69
356.399	3889.69
356.626	3912.69
356.853	3932.69
357.08	3902.69
357.307	3907.69
357.534	3907.69
357.761	3945.69
357.988	3918.69
358.215	3977.69
358.441	3944.69
358.668	3898.69
358.895	3947.69
359.122	3997.69
359.349	4097.69
359.576	4194.69
359.802	4342.69
360.029	4500.69
360.256	4527.69
360.483	4331.69
360.709	4162.69
360.936	4111.69
361.163	4119.69
361.39	4165.69
361.616	4158.69
361.843	4178.69
362.07	4091.69
362.296	4105.69
362.523	4105.69
362.749	4139.69
362.976	4010.69
363.203	4013.69
363.429	4011.69
363.656	3986.69
363.882	4005.69
364.109	4015.69
364.335	3941.69
364.562	3984.69
364.788	3954.69
365.015	4003.69
365.241	3911.69
365.468	3989.69
365.694	4049.69
365.92	4040.69
366.147	3920.69
366.373	4008.69
366.599	3953.69
366.826	3955.69
367.052	3944.69
367.278	3971.69
367.505	3993.69
367.731	4004.69
367.957	3984.69
368.184	4024.69
368.41	4076.69
368.636	4185.69
368.862	4175.69
369.089	4144.69
369.315	4094.69
369.541	4078.69
369.767	4149.69
369.993	4114.69
370.219	4096.69
370.445	4124.69
370.672	4185.69
370.898	4125.69
371.124	4219.69
371.35	4278.69
371.576	4215.69
371.802	4218.69
372.028	4246.69
372.254	4293.69
372.48	4303.69
372.706	4351.69
372.932	4445.69
373.158	4364.69
373.384	4298.69
373.61	4248.69
373.835	4251.69
374.061	4314.69
374.287	4365.69
374.513	4455.69
374.739	4610.69
374.965	4658.69
375.191	4706.69
375.416	4677.69
375.642	4407.69
375.868	4430.69
376.094	4346.69
376.319	4332.69
376.545	4321.69
376.771	4263.69
376.997	4265.69
377.222	4304.69
377.448	4254.69
377.674	4265.69
377.899	4161.69
378.125	4208.69
378.35	4218.69
378.576	4144.69
378.802	4179.69
379.027	4260.69
379.253	4267.69
379.478	4208.69
379.704	4231.69
379.929	4217.69
380.155	4188.69
380.38	4213.69
380.606	4280.69
380.831	4293.69
381.057	4255.69
381.282	4323.69
381.507	4299.69
381.733	4351.69
381.958	4335.69
382.184	4464.69
382.409	4466.69
382.634	4469.69
382.86	4505.69
383.085	4496.69
383.31	4634.69
383.535	4698.69
383.761	4778.69
383.986	4826.69
384.211	4924.69
384.436	4946.69
384.662	5062.69
384.887	5125.69
385.112	5114.69
385.337	5183.69
385.562	5152.69
385.787	5172.69
386.013	5157.69
386.238	5282.69
386.463	5247.69
386.688	5195.69
386.913	5092.69
387.138	5131.69
387.363	5098.69
387.588	5015.69
387.813	5070.69
388.038	5072.69
388.263	5097.69
388.488	5162.69
388.713	5053.69
388.938	5090.69
389.163	5057.69
389.387	5094.69
389.612	5003.69
389.837	5074.69
390.062	5017.69
390.287	5012.69
390.512	5029.69
390.736	5072.69
390.961	5218.69
391.186	5261.69
391.411	5394.69
391.636	5586.69
391.86	5622.69
392.085	5723.69
392.31	5623.69
392.534	5531.69
392.759	5396.69
392.984	5352.69
393.208	5344.69
393.433	5340.69
393.658	5286.69
393.882	5249.69
394.107	5338.69
394.331	5342.69
394.556	5362.69
394.78	5371.69
395.005	5477.69
395.229	5492.69
395.454	5668.69
395.678	5780.69
395.903	5809.69
396.127	5825.69
396.352	5581.69
396.576	5431.69
396.801	5379.69
397.025	5536.69
397.249	5634.69
397.474	5720.69
397.698	5744.69
397.922	5852.69
398.147	6027.69
398.371	6084.69
398.595	6241.69
398.82	6491.69
399.044	7029.69
399.268	7867.69
399.492	8759.69
399.717	9512.69
399.941	9289.69
400.165	8557.69
400.389	8014.69
400.613	7205.69
400.837	6801.69
401.062	6678.69
401.286	6488.69
401.51	6513.69
401.734	6299.69
401.958	6596.69
402.182	6704.69
402.406	6704.69
402.63	6941.69
402.854	6961.69
403.078	6970.69
403.302	7120.69
403.526	7234.69
403.75	7421.69
403.974	7392.69
404.198	7221.69
404.422	7356.69
404.645	7292.69
404.869	7213.69
405.093	7300.69
405.317	7358.69
405.541	7394.69
405.765	7174.69
405.988	7139.69
406.212	7273.69
406.436	7505.69
406.66	7632.69
406.883	7604.69
407.107	8150.69
407.331	8740.69
407.555	9188.69
407.778	8938.69
408.002	8130.69
408.226	7687.69
408.449	7698.69
408.673	7491.69
408.896	7757.69
409.12	7845.69
409.344	7421.69
409.567	7032.69
409.791	7040.69
410.014	6941.69
410.238	6847.69
410.461	6923.69
410.685	6943.69
410.908	7047.69
411.132	7223.69
411.355	7188.69
411.578	6823.69
411.802	6682.69
412.025	6675.69
412.249	6739.69
412.472	6664.69
412.695	6598.69
412.919	6297.69
413.142	6400.69
413.365	6317.69
413.589	6313.69
413.812	6227.69
414.035	6297.69
414.258	6222.69
414.482	6321.69
414.705	6455.69
414.928	6327.69
415.151	6310.69
415.374	6406.69
415.597	6230.69
415.821	6114.69
416.044	6206.69
416.267	6183.69
416.49	6182.69
416.713	6091.69
416.936	6257.69
417.159	6209.69
417.382	6374.69
417.605	6221.69
417.828	6408.69
418.051	6533.69
418.274	6497.69
418.497	6337.69
418.72	6393.69
418.943	6378.69
419.166	6793.69
419.389	7172.69
419.611	7000.69
419.834	6797.69
420.057	6679.69
420.28	6479.69
420.503	6288.69
420.726	6337.69
420.948	6481.69
421.171	6917.69
421.394	6930.69
421.617	6554.69
421.839	6508.69
422.062	6482.69
422.285	6673.69
422.507	7377.69
422.73	7866.69
422.953	7310.69
423.175	6999.69
423.398	6878.69
423.621	6919.69
423.843	7181.69
424.066	7162.69
424.288	7020.69
424.511	7256.69
424.733	7683.69
424.956	8102.69
425.178	7706.69
425.401	7690.69
425.623	7703.69
425.846	6724.69
426.068	6583.69
426.291	6425.69
426.513	6484.69
426.735	6598.69
426.958	7033.69
427.18	7797.69
427.402	8847.69
427.625	8859.69
427.847	7458.69
428.069	6601.69
428.292	6345.69
428.514	5981.69
428.736	5826.69
428.958	5967.69
429.181	5711.69
429.403	5759.69
429.625	5958.69
429.847	6224.69
430.069	6758.69
430.292	6335.69
430.514	5730.69
430.736	5724.69
430.958	5633.69
431.18	5506.69
431.402	5538.69
431.624	5592.69
431.846	5674.69
432.068	5696.69
432.29	5810.69
432.512	5676.69
432.734	5805.69
432.956	5662.69
433.178	5758.69
433.4	5753.69
433.622	5712.69
433.844	5793.69
434.066	5710.69
434.287	5828.69
434.509	6008.69
434.731	6282.69
434.953	6455.69
435.175	6519.69
435.397	6733.69
435.618	6530.69
435.84	6913.69
436.062	7732.69
436.284	7747.69
436.505	6477.69
436.727	6170.69
436.949	5903.69
437.17	5821.69
437.392	5693.69
437.614	5958.69
437.835	6300.69
438.057	7228.69
438.278	7885.69
438.5	7800.69
438.721	8613.69
438.943	7587.69
439.165	6304.69
439.386	6213.69
439.608	6208.69
439.829	6317.69
440.05	6611.69
440.272	6992.69
440.493	6375.69
440.715	6114.69
440.936	6022.69
441.158	6078.69
441.379	6230.69
441.6	6512.69
441.822	6750.69
442.043	7270.69
442.264	7948.69
442.486	7754.69
442.707	6818.69
442.928	6697.69
443.149	6912.69
443.371	7067.69
443.592	7553.69
443.813	8480.69
444.034	8576.69
444.255	7456.69
444.476	7331.69
444.698	7445.69
444.919	7578.69
445.14	7313.69
445.361	7178.69
445.582	7363.69
445.803	7918.69
446.024	8543.69
446.245	8153.69
446.466	7319.69
446.687	6434.69
446.908	6045.69
447.129	5781.69
447.35	5633.69
447.571	5636.69
447.792	5410.69
448.013	5605.69
448.234	5771.69
448.455	6457.69
448.675	7621.69
448.896	8044.69
449.117	6631.69
449.338	6876.69
449.559	8166.69
449.779	8373.69
450	6363.69
450.221	5724.69
450.442	5457.69
450.662	5426.69
450.883	5436.69
451.104	5577.69
451.324	5509.69
451.545	5220.69
451.766	5157.69
451.986	5010.69
452.207	4969.69
452.428	4936.69
452.648	5037.69
452.869	5012.69
453.089	5148.69
453.31	5232.69
453.53	5064.69
453.751	4925.69
453.971	5025.69
454.192	5056.69
454.412	4873.69
454.633	4858.69
454.853	4864.69
455.073	4918.69
455.294	5183.69
455.514	5728.69
455.734	5275.69
455.955	4733.69
456.175	4619.69
456.395	4623.69
456.616	4632.69
456.836	4592.69
457.056	4572.69
457.276	4560.69
457.497	4729.69
457.717	4611.69
457.937	4721.69
458.157	4788.69
458.377	4905.69
458.598	5220.69
458.818	5897.69
459.038	6601.69
459.258	6608.69
459.478	5975.69
459.698	5829.69
459.918	5821.69
460.138	6006.69
460.358	6252.69
460.578	6226.69
460.798	6302.69
461.018	6313.69
461.238	6233.69
461.458	6145.69
461.678	6081.69
461.898	6281.69
462.118	6326.69
462.338	6719.69
462.558	6773.69
462.777	7025.69
462.997	7683.69
463.217	8058.69
463.437	7868.69
463.657	7200.69
463.876	6971.69
464.096	7079.69
464.316	7145.69
464.536	7177.69
464.755	6995.69
464.975	6842.69
465.195	6867.69
465.414	6951.69
465.634	6215.69
465.854	5742.69
466.073	5632.69
466.293	5468.69
466.512	5295.69
466.732	5145.69
466.951	5231.69
467.171	5124.69
467.391	5278.69
467.61	5298.69
467.829	5222.69
468.049	5162.69
468.268	5009.69
468.488	4910.69
468.707	4911.69
468.927	4955.69
469.146	4982.69
469.365	5034.69
469.585	5095.69
469.804	5232.69
470.023	5364.69
470.243	5328.69
470.462	5495.69
470.681	5557.69
470.901	5468.69
471.12	5292.69
471.339	5214.69
471.558	5245.69
471.777	5134.69
471.997	5023.69
472.216	4916.69
472.435	4925.69
472.654	4884.69
472.873	4863.69
473.092	4912.69
473.311	4809.69
473.53	4883.69
473.749	5067.69
473.968	5600.69
474.187	6534.69
474.406	6185.69
474.625	5251.69
474.844	4953.69
475.063	4941.69
475.282	4993.69
475.501	5081.69
475.72	5029.69
475.939	5114.69
476.158	5101.69
476.377	5160.69
476.596	5140.69
476.814	5344.69
477.033	5328.69
477.252	5369.69
477.471	5471.69
477.69	5635.69
477.908	5681.69
478.127	5873.69
478.346	5897.69
478.564	6050.69
478.783	6123.69
479.002	6238.69
479.22	6226.69
479.439	6346.69
479.658	6404.69
479.876	6497.69
480.095	6767.69
480.313	7079.69
480.532	7030.69
480.751	6839.69
480.969	6679.69
481.188	6491.69
481.406	6333.69
481.624	6149.69
481.843	5940.69
482.061	5918.69
482.28	5819.69
482.498	5778.69
482.717	5849.69
482.935	5756.69
483.153	5735.69
483.372	5843.69
483.59	5774.69
483.808	5844.69
484.027	5827.69
484.245	5904.69
484.463	5917.69
484.681	5933.69
484.9	5956.69
485.118	6076.69
485.336	6048.69
485.554	6124.69
485.772	6174.69
485.99	6157.69
486.209	6250.69
486.427	6270.69
486.645	6322.69
486.863	6388.69
487.081	6299.69
487.299	6246.69
487.517	6234.69
487.735	6141.69
487.953	6178.69
