Data from Uncirc_2008_H10_HRD10591_00091.txt Node
Date: Wed Jan 03 10:15:49 EST 2024
User: Yrep
Spectrometer: HR+D1059
Trigger mode: 1
Integration Time (sec): 1.000000E-1
Scans to average: 1
Electric dark correction enabled: true
Nonlinearity correction enabled: false
Boxcar width: 0
XAxis mode: Wavelengths
Number of Pixels in Spectrum: 2048
>>>>>Begin Spectral Data<<<<<
223.165	-21.75
223.4	-21.75
223.635	-21.75
223.869	-22.75
224.104	-19.75
224.338	-13.75
224.573	-3.75
224.808	-5.75
225.042	-5.75
225.277	-7.75
225.511	4.25
225.746	-1.75
225.98	13.25
226.215	10.25
226.449	10.25
226.683	3.25
226.918	34.25
227.152	27.25
227.387	30.25
227.621	43.25
227.856	37.25
228.09	46.25
228.324	41.25
228.559	62.25
228.793	63.25
229.027	66.25
229.262	71.25
229.496	56.25
229.73	77.25
229.964	79.25
230.199	71.25
230.433	68.25
230.667	79.25
230.901	68.25
231.136	71.25
231.37	67.25
231.604	69.25
231.838	78.25
232.072	72.25
232.306	76.25
232.541	77.25
232.775	77.25
233.009	78.25
233.243	75.25
233.477	83.25
233.711	71.25
233.945	79.25
234.179	85.25
234.413	91.25
234.647	80.25
234.881	71.25
235.115	75.25
235.349	69.25
235.583	74.25
235.817	81.25
236.051	71.25
236.285	74.25
236.519	71.25
236.753	60.25
236.987	79.25
237.221	84.25
237.455	85.25
237.689	76.25
237.922	70.25
238.156	73.25
238.39	65.25
238.624	71.25
238.858	74.25
239.091	76.25
239.325	82.25
239.559	59.25
239.793	92.25
240.027	78.25
240.26	80.25
240.494	89.25
240.728	65.25
240.961	67.25
241.195	82.25
241.429	70.25
241.662	76.25
241.896	73.25
242.13	71.25
242.363	71.25
242.597	69.25
242.83	72.25
243.064	75.25
243.298	87.25
243.531	90.25
243.765	83.25
243.998	64.25
244.232	70.25
244.465	81.25
244.699	71.25
244.932	77.25
245.166	71.25
245.399	82.25
245.633	71.25
245.866	72.25
246.099	86.25
246.333	67.25
246.566	72.25
246.8	91.25
247.033	80.25
247.266	82.25
247.5	76.25
247.733	92.25
247.966	77.25
248.2	74.25
248.433	76.25
248.666	73.25
248.899	85.25
249.133	82.25
249.366	92.25
249.599	91.25
249.832	72.25
250.066	71.25
250.299	67.25
250.532	85.25
250.765	88.25
250.998	84.25
251.231	83.25
251.465	75.25
251.698	60.25
251.931	78.25
252.164	68.25
252.397	71.25
252.63	79.25
252.863	67.25
253.096	71.25
253.329	84.25
253.562	91.25
253.795	94.25
254.028	89.25
254.261	87.25
254.494	79.25
254.727	86.25
254.96	76.25
255.193	84.25
255.426	71.25
255.659	68.25
255.892	70.25
256.124	75.25
256.357	80.25
256.59	89.25
256.823	80.25
257.056	87.25
257.289	79.25
257.521	64.25
257.754	79.25
257.987	73.25
258.22	79.25
258.452	89.25
258.685	95.25
258.918	78.25
259.151	79.25
259.383	74.25
259.616	71.25
259.849	80.25
260.081	78.25
260.314	73.25
260.547	75.25
260.779	73.25
261.012	66.25
261.244	70.25
261.477	72.25
261.71	75.25
261.942	105.25
262.175	109.25
262.407	82.25
262.64	75.25
262.872	82.25
263.105	81.25
263.337	76.25
263.57	85.25
263.802	87.25
264.035	84.25
264.267	86.25
264.499	79.25
264.732	68.25
264.964	84.25
265.197	78.25
265.429	89.25
265.661	73.25
265.894	80.25
266.126	81.25
266.358	75.25
266.591	70.25
266.823	87.25
267.055	78.25
267.287	82.25
267.52	78.25
267.752	74.25
267.984	78.25
268.216	80.25
268.448	79.25
268.681	82.25
268.913	79.25
269.145	73.25
269.377	72.25
269.609	87.25
269.841	93.25
270.073	88.25
270.306	92.25
270.538	88.25
270.77	75.25
271.002	77.25
271.234	77.25
271.466	73.25
271.698	76.25
271.93	78.25
272.162	73.25
272.394	82.25
272.626	70.25
272.858	69.25
273.09	87.25
273.322	85.25
273.553	67.25
273.785	87.25
274.017	84.25
274.249	94.25
274.481	74.25
274.713	73.25
274.945	71.25
275.176	64.25
275.408	88.25
275.64	73.25
275.872	82.25
276.104	72.25
276.335	114.25
276.567	98.25
276.799	98.25
277.031	79.25
277.262	94.25
277.494	81.25
277.726	82.25
277.957	76.25
278.189	82.25
278.421	84.25
278.652	84.25
278.884	64.25
279.115	81.25
279.347	70.25
279.579	79.25
279.81	80.25
280.042	74.25
280.273	78.25
280.505	81.25
280.736	79.25
280.968	79.25
281.199	75.25
281.431	83.25
281.662	89.25
281.894	88.25
282.125	92.25
282.356	103.25
282.588	129.25
282.819	109.25
283.051	84.25
283.282	90.25
283.513	79.25
283.745	81.25
283.976	80.25
284.207	87.25
284.439	80.25
284.67	83.25
284.901	85.25
285.132	72.25
285.364	83.25
285.595	79.25
285.826	78.25
286.057	92.25
286.288	79.25
286.52	78.25
286.751	78.25
286.982	88.25
287.213	80.25
287.444	84.25
287.675	84.25
287.906	88.25
288.138	86.25
288.369	91.25
288.6	96.25
288.831	83.25
289.062	83.25
289.293	73.25
289.524	72.25
289.755	88.25
289.986	83.25
290.217	86.25
290.448	89.25
290.679	84.25
290.91	82.25
291.141	95.25
291.371	86.25
291.602	101.25
291.833	88.25
292.064	87.25
292.295	80.25
292.526	78.25
292.757	96.25
292.987	83.25
293.218	77.25
293.449	88.25
293.68	73.25
293.91	83.25
294.141	104.25
294.372	86.25
294.603	90.25
294.833	91.25
295.064	65.25
295.295	83.25
295.525	83.25
295.756	84.25
295.987	108.25
296.217	130.25
296.448	118.25
296.679	84.25
296.909	90.25
297.14	96.25
297.37	80.25
297.601	71.25
297.831	84.25
298.062	85.25
298.292	99.25
298.523	90.25
298.753	83.25
298.984	80.25
299.214	75.25
299.445	102.25
299.675	88.25
299.905	95.25
300.136	91.25
300.366	83.25
300.597	77.25
300.827	78.25
301.057	87.25
301.288	88.25
301.518	102.25
301.748	79.25
301.979	84.25
302.209	94.25
302.439	88.25
302.669	94.25
302.9	84.25
303.13	92.25
303.36	88.25
303.59	90.25
303.82	94.25
304.051	106.25
304.281	100.25
304.511	85.25
304.741	87.25
304.971	96.25
305.201	92.25
305.431	90.25
305.661	75.25
305.891	92.25
306.121	97.25
306.352	95.25
306.582	95.25
306.812	78.25
307.042	67.25
307.272	94.25
307.502	86.25
307.731	89.25
307.961	90.25
308.191	87.25
308.421	77.25
308.651	91.25
308.881	93.25
309.111	93.25
309.341	93.25
309.571	90.25
309.8	98.25
310.03	92.25
310.26	115.25
310.49	101.25
310.72	95.25
310.949	117.25
311.179	72.25
311.409	76.25
311.639	75.25
311.868	94.25
312.098	89.25
312.328	101.25
312.557	92.25
312.787	83.25
313.017	93.25
313.246	77.25
313.476	95.25
313.706	90.25
313.935	98.25
314.165	85.25
314.394	109.25
314.624	96.25
314.853	82.25
315.083	92.25
315.312	98.25
315.542	98.25
315.771	90.25
316.001	93.25
316.23	91.25
316.46	84.25
316.689	94.25
316.919	80.25
317.148	78.25
317.377	86.25
317.607	79.25
317.836	98.25
318.065	95.25
318.295	101.25
318.524	83.25
318.753	84.25
318.983	91.25
319.212	90.25
319.441	104.25
319.67	109.25
319.9	79.25
320.129	95.25
320.358	98.25
320.587	90.25
320.816	101.25
321.046	91.25
321.275	93.25
321.504	96.25
321.733	83.25
321.962	91.25
322.191	98.25
322.42	80.25
322.649	104.25
322.878	112.25
323.108	111.25
323.337	111.25
323.566	110.25
323.795	138.25
324.024	185.25
324.253	347.25
324.482	724.25
324.71	1475.25
324.939	1935.25
325.168	728.25
325.397	239.25
325.626	137.25
325.855	126.25
326.084	110.25
326.313	140.25
326.542	148.25
326.77	224.25
326.999	418.25
327.228	844.25
327.457	1534.25
327.686	1194.25
327.914	331.25
328.143	172.25
328.372	150.25
328.6	128.25
328.829	97.25
329.058	105.25
329.287	104.25
329.515	90.25
329.744	90.25
329.972	107.25
330.201	86.25
330.43	107.25
330.658	93.25
330.887	141.25
331.115	115.25
331.344	84.25
331.572	96.25
331.801	102.25
332.03	99.25
332.258	80.25
332.486	99.25
332.715	77.25
332.943	79.25
333.172	86.25
333.4	89.25
333.629	97.25
333.857	91.25
334.085	112.25
334.314	91.25
334.542	83.25
334.771	96.25
334.999	87.25
335.227	87.25
335.455	85.25
335.684	104.25
335.912	95.25
336.14	110.25
336.369	98.25
336.597	95.25
336.825	95.25
337.053	90.25
337.281	94.25
337.51	78.25
337.738	90.25
337.966	105.25
338.194	104.25
338.422	94.25
338.65	67.25
338.878	95.25
339.106	79.25
339.334	79.25
339.562	76.25
339.79	94.25
340.018	83.25
340.246	86.25
340.474	85.25
340.702	88.25
340.93	96.25
341.158	85.25
341.386	81.25
341.614	70.25
341.842	83.25
342.07	86.25
342.298	89.25
342.526	85.25
342.754	76.25
342.981	77.25
343.209	82.25
343.437	86.25
343.665	103.25
343.893	69.25
344.12	87.25
344.348	80.25
344.576	67.25
344.804	92.25
345.031	86.25
345.259	101.25
345.487	91.25
345.714	74.25
345.942	86.25
346.17	81.25
346.397	84.25
346.625	86.25
346.853	85.25
347.08	75.25
347.308	91.25
347.535	106.25
347.763	92.25
347.99	88.25
348.218	91.25
348.445	82.25
348.673	95.25
348.9	100.25
349.128	90.25
349.355	90.25
349.583	87.25
349.81	81.25
350.037	84.25
350.265	102.25
350.492	94.25
350.72	95.25
350.947	111.25
351.174	105.25
351.402	100.25
351.629	89.25
351.856	90.25
352.083	112.25
352.311	115.25
352.538	98.25
352.765	104.25
352.992	108.25
353.22	101.25
353.447	110.25
353.674	96.25
353.901	103.25
354.128	103.25
354.355	87.25
354.583	90.25
354.81	110.25
355.037	96.25
355.264	96.25
355.491	78.25
355.718	91.25
355.945	82.25
356.172	80.25
356.399	86.25
356.626	86.25
356.853	93.25
357.08	94.25
357.307	97.25
357.534	95.25
357.761	99.25
357.988	95.25
358.215	72.25
358.441	87.25
358.668	87.25
358.895	86.25
359.122	99.25
359.349	78.25
359.576	70.25
359.802	95.25
360.029	106.25
360.256	91.25
360.483	90.25
360.709	86.25
360.936	84.25
361.163	77.25
361.39	88.25
361.616	108.25
361.843	85.25
362.07	85.25
362.296	72.25
362.523	99.25
362.749	95.25
362.976	91.25
363.203	85.25
363.429	74.25
363.656	93.25
363.882	78.25
364.109	84.25
364.335	78.25
364.562	94.25
364.788	88.25
365.015	83.25
365.241	93.25
365.468	98.25
365.694	91.25
365.92	89.25
366.147	84.25
366.373	91.25
366.599	90.25
366.826	94.25
367.052	76.25
367.278	83.25
367.505	91.25
367.731	87.25
367.957	66.25
368.184	88.25
368.41	101.25
368.636	109.25
368.862	118.25
369.089	102.25
369.315	90.25
369.541	95.25
369.767	81.25
369.993	71.25
370.219	82.25
370.445	88.25
370.672	82.25
370.898	59.25
371.124	79.25
371.35	88.25
371.576	66.25
371.802	93.25
372.028	92.25
372.254	69.25
372.48	76.25
372.706	79.25
372.932	94.25
373.158	80.25
373.384	91.25
373.61	86.25
373.835	88.25
374.061	81.25
374.287	96.25
374.513	80.25
374.739	77.25
374.965	83.25
375.191	84.25
375.416	84.25
375.642	82.25
375.868	83.25
376.094	93.25
376.319	77.25
376.545	84.25
376.771	79.25
376.997	82.25
377.222	77.25
377.448	82.25
377.674	77.25
377.899	88.25
378.125	91.25
378.35	74.25
378.576	79.25
378.802	95.25
379.027	90.25
379.253	77.25
379.478	77.25
379.704	85.25
379.929	86.25
380.155	97.25
380.38	99.25
380.606	80.25
380.831	90.25
381.057	90.25
381.282	86.25
381.507	92.25
381.733	96.25
381.958	98.25
382.184	83.25
382.409	88.25
382.634	106.25
382.86	91.25
383.085	87.25
383.31	76.25
383.535	99.25
383.761	82.25
383.986	82.25
384.211	90.25
384.436	86.25
384.662	84.25
384.887	80.25
385.112	85.25
385.337	101.25
385.562	112.25
385.787	106.25
386.013	101.25
386.238	117.25
386.463	90.25
386.688	90.25
386.913	103.25
387.138	106.25
387.363	100.25
387.588	93.25
387.813	103.25
388.038	98.25
388.263	95.25
388.488	96.25
388.713	87.25
388.938	86.25
389.163	87.25
389.387	98.25
389.612	81.25
389.837	95.25
390.062	92.25
390.287	97.25
390.512	101.25
390.736	86.25
390.961	80.25
391.186	83.25
391.411	97.25
391.636	89.25
391.86	85.25
392.085	86.25
392.31	80.25
392.534	69.25
392.759	73.25
392.984	77.25
393.208	92.25
393.433	83.25
393.658	79.25
393.882	94.25
394.107	77.25
394.331	84.25
394.556	92.25
394.78	75.25
395.005	83.25
395.229	84.25
395.454	85.25
395.678	80.25
395.903	95.25
396.127	76.25
396.352	91.25
396.576	78.25
396.801	76.25
397.025	75.25
397.249	87.25
397.474	80.25
397.698	84.25
397.922	93.25
398.147	84.25
398.371	85.25
398.595	84.25
398.82	79.25
399.044	94.25
399.268	83.25
399.492	85.25
399.717	92.25
399.941	76.25
400.165	78.25
400.389	81.25
400.613	88.25
400.837	79.25
401.062	80.25
401.286	83.25
401.51	98.25
401.734	78.25
401.958	102.25
402.182	113.25
402.406	142.25
402.63	102.25
402.854	102.25
403.078	76.25
403.302	85.25
403.526	75.25
403.75	77.25
403.974	76.25
404.198	82.25
404.422	79.25
404.645	82.25
404.869	92.25
405.093	88.25
405.317	89.25
405.541	82.25
405.765	105.25
405.988	106.25
406.212	146.25
406.436	203.25
406.66	142.25
406.883	110.25
407.107	85.25
407.331	101.25
407.555	105.25
407.778	86.25
408.002	81.25
408.226	94.25
408.449	93.25
408.673	85.25
408.896	82.25
409.12	87.25
409.344	96.25
409.567	86.25
409.791	88.25
410.014	92.25
410.238	79.25
410.461	75.25
410.685	91.25
410.908	82.25
411.132	98.25
411.355	90.25
411.578	79.25
411.802	90.25
412.025	93.25
412.249	85.25
412.472	91.25
412.695	86.25
412.919	70.25
413.142	95.25
413.365	76.25
413.589	85.25
413.812	87.25
414.035	95.25
414.258	97.25
414.482	80.25
414.705	81.25
414.928	85.25
415.151	91.25
415.374	98.25
415.597	83.25
415.821	82.25
416.044	82.25
416.267	81.25
416.49	86.25
416.713	90.25
416.936	94.25
417.159	86.25
417.382	82.25
417.605	90.25
417.828	81.25
418.051	88.25
418.274	77.25
418.497	76.25
418.72	86.25
418.943	78.25
419.166	77.25
419.389	84.25
419.611	94.25
419.834	88.25
420.057	80.25
420.28	79.25
420.503	80.25
420.726	85.25
420.948	84.25
421.171	93.25
421.394	81.25
421.617	83.25
421.839	78.25
422.062	91.25
422.285	89.25
422.507	96.25
422.73	99.25
422.953	92.25
423.175	79.25
423.398	79.25
423.621	94.25
423.843	79.25
424.066	89.25
424.288	78.25
424.511	74.25
424.733	79.25
424.956	88.25
425.178	106.25
425.401	99.25
425.623	92.25
425.846	95.25
426.068	72.25
426.291	87.25
426.513	97.25
426.735	93.25
426.958	103.25
427.18	95.25
427.402	127.25
427.625	144.25
427.847	127.25
428.069	88.25
428.292	87.25
428.514	84.25
428.736	87.25
428.958	72.25
429.181	80.25
429.403	90.25
429.625	92.25
429.847	79.25
430.069	89.25
430.292	89.25
430.514	88.25
430.736	79.25
430.958	72.25
431.18	87.25
431.402	93.25
431.624	82.25
431.846	87.25
432.068	91.25
432.29	85.25
432.512	77.25
432.734	79.25
432.956	91.25
433.178	79.25
433.4	89.25
433.622	90.25
433.844	85.25
434.066	88.25
434.287	92.25
434.509	87.25
434.731	77.25
434.953	86.25
435.175	85.25
435.397	68.25
435.618	69.25
435.84	99.25
436.062	114.25
436.284	107.25
436.505	92.25
436.727	96.25
436.949	83.25
437.17	84.25
437.392	90.25
437.614	89.25
437.835	85.25
438.057	107.25
438.278	110.25
438.5	106.25
438.721	117.25
438.943	86.25
439.165	85.25
439.386	62.25
439.608	83.25
439.829	92.25
440.05	107.25
440.272	121.25
440.493	87.25
440.715	72.25
440.936	72.25
441.158	89.25
441.379	87.25
441.6	89.25
441.822	88.25
442.043	100.25
442.264	90.25
442.486	77.25
442.707	102.25
442.928	108.25
443.149	110.25
443.371	114.25
443.592	114.25
443.813	101.25
444.034	97.25
444.255	86.25
444.476	89.25
444.698	91.25
444.919	82.25
445.14	112.25
445.361	106.25
445.582	107.25
445.803	131.25
446.024	127.25
446.245	115.25
446.466	94.25
446.687	85.25
446.908	78.25
447.129	101.25
447.35	79.25
447.571	80.25
447.792	83.25
448.013	98.25
448.234	94.25
448.455	101.25
448.675	109.25
448.896	100.25
449.117	91.25
449.338	84.25
449.559	125.25
449.779	122.25
450	101.25
450.221	86.25
450.442	78.25
450.662	84.25
450.883	99.25
451.104	110.25
451.324	87.25
451.545	85.25
451.766	73.25
451.986	103.25
452.207	84.25
452.428	79.25
452.648	85.25
452.869	102.25
453.089	99.25
453.31	118.25
453.53	92.25
453.751	99.25
453.971	102.25
454.192	103.25
454.412	96.25
454.633	96.25
454.853	85.25
455.073	83.25
455.294	84.25
455.514	98.25
455.734	89.25
455.955	73.25
456.175	78.25
456.395	69.25
456.616	77.25
456.836	91.25
457.056	84.25
457.276	70.25
457.497	77.25
457.717	82.25
457.937	78.25
458.157	88.25
458.377	70.25
458.598	92.25
458.818	135.25
459.038	154.25
459.258	113.25
459.478	93.25
459.698	79.25
459.918	72.25
460.138	83.25
460.358	79.25
460.578	64.25
460.798	84.25
461.018	79.25
461.238	73.25
461.458	73.25
461.678	69.25
461.898	62.25
462.118	79.25
462.338	89.25
462.558	81.25
462.777	84.25
462.997	90.25
463.217	79.25
463.437	79.25
463.657	84.25
463.876	76.25
464.096	62.25
464.316	76.25
464.536	79.25
464.755	96.25
464.975	105.25
465.195	138.25
465.414	148.25
465.634	92.25
465.854	93.25
466.073	90.25
466.293	75.25
466.512	88.25
466.732	100.25
466.951	91.25
467.171	92.25
467.391	83.25
467.61	89.25
467.829	90.25
468.049	85.25
468.268	83.25
468.488	84.25
468.707	84.25
468.927	90.25
469.146	79.25
469.365	85.25
469.585	66.25
469.804	86.25
470.023	93.25
470.243	95.25
470.462	96.25
470.681	92.25
470.901	84.25
471.12	85.25
471.339	75.25
471.558	74.25
471.777	90.25
471.997	84.25
472.216	86.25
472.435	76.25
472.654	80.25
472.873	90.25
473.092	85.25
473.311	88.25
473.53	89.25
473.749	86.25
473.968	98.25
474.187	93.25
474.406	81.25
474.625	79.25
474.844	82.25
475.063	98.25
475.282	84.25
475.501	88.25
475.72	72.25
475.939	90.25
476.158	90.25
476.377	92.25
476.596	85.25
476.814	89.25
477.033	83.25
477.252	95.25
477.471	82.25
477.69	85.25
477.908	97.25
478.127	87.25
478.346	85.25
478.564	92.25
478.783	100.25
479.002	84.25
479.22	75.25
479.439	89.25
479.658	95.25
479.876	92.25
480.095	80.25
480.313	80.25
480.532	84.25
480.751	92.25
480.969	78.25
481.188	82.25
481.406	97.25
481.624	88.25
481.843	88.25
482.061	99.25
482.28	75.25
482.498	78.25
482.717	70.25
482.935	85.25
483.153	92.25
483.372	87.25
483.59	86.25
483.808	97.25
484.027	90.25
484.245	90.25
484.463	98.25
484.681	94.25
484.9	90.25
485.118	99.25
485.336	86.25
485.554	91.25
485.772	89.25
485.99	88.25
486.209	97.25
486.427	95.25
486.645	98.25
486.863	115.25
487.081	98.25
487.299	89.25
487.517	91.25
487.735	81.25
487.953	79.25
488.171	83.25
488.389	86.25
488.607	95.25
488.825	83.25
489.043	92.25
489.261	84.25
489.479	80.25
489.696	83.25
489.914	81.25
490.132	78.25
490.35	93.25
490.568	95.25
490.786	66.25
491.003	83.25
491.221	95.25
491.439	83.25
491.657	85.25
491.874	87.25
492.092	86.25
492.31	87.25
492.527	95.25
492.745	82.25
492.963	96.25
493.18	60.25
493.398	85.25
493.615	77.25
493.833	89.25
494.05	88.25
494.268	92.25
494.485	86.25
494.703	85.25
494.92	81.25
495.138	74.25
495.355	95.25
495.573	90.25
495.79	91.25
496.008	100.25
496.225	87.25
496.442	75.25
496.66	100.25
496.877	94.25
497.094	87.25
497.312	82.25
497.529	98.25
497.746	95.25
497.963	72.25
498.181	98.25
498.398	95.25
498.615	97.25
498.832	97.25
499.049	82.25
499.267	80.25
499.484	83.25
499.701	101.25
499.918	75.25
500.135	96.25
500.352	84.25
500.569	89.25
500.786	92.25
501.003	78.25
501.22	89.25
501.437	85.25
501.654	93.25
501.871	100.25
502.088	78.25
502.305	76.25
502.522	83.25
502.739	74.25
502.956	90.25
503.172	99.25
503.389	80.25
503.606	96.25
503.823	95.25
504.04	91.25
504.256	89.25
504.473	91.25
504.69	89.25
504.907	80.25
505.123	92.25
505.34	94.25
505.557	91.25
505.773	77.25
505.99	86.25
506.207	80.25
506.423	86.25
506.64	77.25
506.856	83.25
507.073	93.25
507.289	89.25
507.506	93.25
507.722	96.25
507.939	105.25
508.155	99.25
508.372	79.25
508.588	97.25
508.805	80.25
509.021	100.25
509.238	102.25
509.454	106.25
509.67	104.25
509.887	115.25
510.103	134.25
510.319	212.25
510.536	729.25
510.752	2314.25
510.968	665.25
511.184	148.25
511.401	90.25
511.617	89.25
511.833	82.25
512.049	80.25
512.265	83.25
512.481	82.25
512.698	92.25
512.914	84.25
513.13	97.25
513.346	88.25
513.562	85.25
513.778	102.25
513.994	114.25
514.21	87.25
514.426	105.25
514.642	130.25
514.858	118.25
515.074	152.25
515.29	424.25
515.506	1391.25
515.721	508.25
515.937	148.25
516.153	107.25
516.369	114.25
516.585	90.25
516.801	91.25
517.016	107.25
517.232	92.25
517.448	83.25
