Data from Uncirc_2008_H10_HRD10591_00063.txt Node
Date: Wed Jan 03 10:15:43 EST 2024
User: Yrep
Spectrometer: HR+D1059
Trigger mode: 1
Integration Time (sec): 1.000000E-1
Scans to average: 1
Electric dark correction enabled: true
Nonlinearity correction enabled: false
Boxcar width: 0
XAxis mode: Wavelengths
Number of Pixels in Spectrum: 2048
>>>>>Begin Spectral Data<<<<<
223.165	-12.75
223.4	-12.75
223.635	-12.75
223.869	-24.75
224.104	-14.75
224.338	-3.75
224.573	-6.75
224.808	-8.75
225.042	-6.75
225.277	-12.75
225.511	-11.75
225.746	-5.75
225.98	6.25
226.215	13.25
226.449	16.25
226.683	22.25
226.918	25.25
227.152	25.25
227.387	37.25
227.621	32.25
227.856	47.25
228.09	46.25
228.324	51.25
228.559	53.25
228.793	173.25
229.027	444.25
229.262	527.25
229.496	611.25
229.73	807.25
229.964	788.25
230.199	522.25
230.433	473.25
230.667	473.25
230.901	451.25
231.136	444.25
231.37	430.25
231.604	439.25
231.838	430.25
232.072	430.25
232.306	437.25
232.541	448.25
232.775	446.25
233.009	467.25
233.243	477.25
233.477	460.25
233.711	483.25
233.945	480.25
234.179	488.25
234.413	480.25
234.647	510.25
234.881	515.25
235.115	527.25
235.349	501.25
235.583	529.25
235.817	574.25
236.051	623.25
236.285	580.25
236.519	599.25
236.753	703.25
236.987	888.25
237.221	1345.25
237.455	1517.25
237.689	896.25
237.922	728.25
238.156	709.25
238.39	668.25
238.624	618.25
238.858	649.25
239.091	633.25
239.325	644.25
239.559	678.25
239.793	695.25
240.027	732.25
240.26	895.25
240.494	955.25
240.728	940.25
240.961	899.25
241.195	796.25
241.429	741.25
241.662	762.25
241.896	750.25
242.13	735.25
242.363	752.25
242.597	770.25
242.83	769.25
243.064	775.25
243.298	806.25
243.531	785.25
243.765	805.25
243.998	809.25
244.232	836.25
244.465	853.25
244.699	887.25
244.932	887.25
245.166	880.25
245.399	876.25
245.633	872.25
245.866	885.25
246.099	889.25
246.333	922.25
246.566	938.25
246.8	941.25
247.033	1007.25
247.266	996.25
247.5	1102.25
247.733	1119.25
247.966	1122.25
248.2	1102.25
248.433	1124.25
248.666	1195.25
248.899	1325.25
249.133	1419.25
249.366	1351.25
249.599	1272.25
249.832	1183.25
250.066	1166.25
250.299	1182.25
250.532	1289.25
250.765	1499.25
250.998	1661.25
251.231	1613.25
251.465	1417.25
251.698	1409.25
251.931	1351.25
252.164	1355.25
252.397	1390.25
252.63	1392.25
252.863	1505.25
253.096	1652.25
253.329	1705.25
253.562	1624.25
253.795	1540.25
254.028	1520.25
254.261	1556.25
254.494	1770.25
254.727	2126.25
254.96	2198.25
255.193	1924.25
255.426	1747.25
255.659	1563.25
255.892	1555.25
256.124	1469.25
256.357	1486.25
256.59	1446.25
256.823	1465.25
257.056	1457.25
257.289	1456.25
257.521	1514.25
257.754	1501.25
257.987	1485.25
258.22	1433.25
258.452	1507.25
258.685	1504.25
258.918	1557.25
259.151	1572.25
259.383	1656.25
259.616	1656.25
259.849	1688.25
260.081	1921.25
260.314	2093.25
260.547	1965.25
260.779	1808.25
261.012	1713.25
261.244	1708.25
261.477	1601.25
261.71	1663.25
261.942	1748.25
262.175	1753.25
262.407	1670.25
262.64	1606.25
262.872	1618.25
263.105	1640.25
263.337	1599.25
263.57	1639.25
263.802	1617.25
264.035	1662.25
264.267	1658.25
264.499	1639.25
264.732	1642.25
264.964	1647.25
265.197	1667.25
265.429	1703.25
265.661	1697.25
265.894	1706.25
266.126	1686.25
266.358	1731.25
266.591	1765.25
266.823	1825.25
267.055	1821.25
267.287	1839.25
267.52	1803.25
267.752	1845.25
267.984	1815.25
268.216	1869.25
268.448	1899.25
268.681	1959.25
268.913	2115.25
269.145	2282.25
269.377	2373.25
269.609	2311.25
269.841	2247.25
270.073	2336.25
270.306	2625.25
270.538	2814.25
270.77	2680.25
271.002	2523.25
271.234	2447.25
271.466	2581.25
271.698	2736.25
271.93	2784.25
272.162	2711.25
272.394	2607.25
272.626	2484.25
272.858	2294.25
273.09	2243.25
273.322	2230.25
273.553	2212.25
273.785	2173.25
274.017	2175.25
274.249	2227.25
274.481	2245.25
274.713	2231.25
274.945	2275.25
275.176	2288.25
275.408	2226.25
275.64	2238.25
275.872	2185.25
276.104	2259.25
276.335	2221.25
276.567	2360.25
276.799	2535.25
277.031	2763.25
277.262	2842.25
277.494	2751.25
277.726	2539.25
277.957	2441.25
278.189	2405.25
278.421	2383.25
278.652	2345.25
278.884	2335.25
279.115	2277.25
279.347	2373.25
279.579	2332.25
279.81	2305.25
280.042	2321.25
280.273	2376.25
280.505	2347.25
280.736	2366.25
280.968	2404.25
281.199	2393.25
281.431	2406.25
281.662	2399.25
281.894	2421.25
282.125	2474.25
282.356	2656.25
282.588	2811.25
282.819	2607.25
283.051	2508.25
283.282	2469.25
283.513	2542.25
283.745	2556.25
283.976	2638.25
284.207	2666.25
284.439	2613.25
284.67	2527.25
284.901	2623.25
285.132	2596.25
285.364	2571.25
285.595	2558.25
285.826	2616.25
286.057	2683.25
286.288	2601.25
286.52	2722.25
286.751	2670.25
286.982	2746.25
287.213	2704.25
287.444	2716.25
287.675	2755.25
287.906	2844.25
288.138	2920.25
288.369	2889.25
288.6	2832.25
288.831	2832.25
289.062	2790.25
289.293	2811.25
289.524	2768.25
289.755	2787.25
289.986	2732.25
290.217	2774.25
290.448	2769.25
290.679	2808.25
290.91	2804.25
291.141	2778.25
291.371	2786.25
291.602	2764.25
291.833	2784.25
292.064	2768.25
292.295	2779.25
292.526	2789.25
292.757	2774.25
292.987	2747.25
293.218	2764.25
293.449	2856.25
293.68	2845.25
293.91	2840.25
294.141	2855.25
294.372	2808.25
294.603	2884.25
294.833	2798.25
295.064	2873.25
295.295	2847.25
295.525	2843.25
295.756	2894.25
295.987	2976.25
296.217	3171.25
296.448	3065.25
296.679	2890.25
296.909	2919.25
297.14	2943.25
297.37	3022.25
297.601	3039.25
297.831	3032.25
298.062	3016.25
298.292	3055.25
298.523	3064.25
298.753	3068.25
298.984	3089.25
299.214	3052.25
299.445	3083.25
299.675	3083.25
299.905	3152.25
300.136	3092.25
300.366	3129.25
300.597	3126.25
300.827	3258.25
301.057	3342.25
301.288	3369.25
301.518	3328.25
301.748	3347.25
301.979	3384.25
302.209	3400.25
302.439	3357.25
302.669	3341.25
302.9	3277.25
303.13	3251.25
303.36	3328.25
303.59	3366.25
303.82	3403.25
304.051	3324.25
304.281	3281.25
304.511	3255.25
304.741	3262.25
304.971	3278.25
305.201	3239.25
305.431	3259.25
305.661	3273.25
305.891	3246.25
306.121	3221.25
306.352	3315.25
306.582	3300.25
306.812	3242.25
307.042	3278.25
307.272	3256.25
307.502	3219.25
307.731	3276.25
307.961	3263.25
308.191	3220.25
308.421	3216.25
308.651	3264.25
308.881	3278.25
309.111	3355.25
309.341	3365.25
309.571	3477.25
309.8	3510.25
310.03	3610.25
310.26	3602.25
310.49	3550.25
310.72	3771.25
310.949	3779.25
311.179	3754.25
311.409	3643.25
311.639	3579.25
311.868	3638.25
312.098	3670.25
312.328	3781.25
312.557	3839.25
312.787	3965.25
313.017	3812.25
313.246	3736.25
313.476	3688.25
313.706	3743.25
313.935	3891.25
314.165	3932.25
314.394	3912.25
314.624	3816.25
314.853	3797.25
315.083	3782.25
315.312	3742.25
315.542	3690.25
315.771	3661.25
316.001	3681.25
316.23	3612.25
316.46	3639.25
316.689	3721.25
316.919	3676.25
317.148	3759.25
317.377	3755.25
317.607	3685.25
317.836	3661.25
318.065	3621.25
318.295	3697.25
318.524	3672.25
318.753	3600.25
318.983	3639.25
319.212	3645.25
319.441	3774.25
319.67	3788.25
319.9	3663.25
320.129	3639.25
320.358	3675.25
320.587	3705.25
320.816	3811.25
321.046	3806.25
321.275	3797.25
321.504	3840.25
321.733	3857.25
321.962	3944.25
322.191	3987.25
322.42	4107.25
322.649	4212.25
322.878	4261.25
323.108	4311.25
323.337	4564.25
323.566	4751.25
323.795	5087.25
324.024	5609.25
324.253	7313.25
324.482	10981.25
324.71	15231.25
324.939	15601.25
325.168	12891.25
325.397	6533.25
325.626	5274.25
325.855	4835.25
326.084	4685.25
326.313	4778.25
326.542	4917.25
326.77	5521.25
326.999	7038.25
327.228	10270.25
327.457	14223.25
327.686	13475.25
327.914	7247.25
328.143	5735.25
328.372	5445.25
328.6	5265.25
328.829	5199.25
329.058	5316.25
329.287	5263.25
329.515	4928.25
329.744	4774.25
329.972	4721.25
330.201	4793.25
330.43	5016.25
330.658	5319.25
330.887	5628.25
331.115	5358.25
331.344	4965.25
331.572	4901.25
331.801	5032.25
332.03	5020.25
332.258	4896.25
332.486	4880.25
332.715	5034.25
332.943	5175.25
333.172	5287.25
333.4	5443.25
333.629	5474.25
333.857	5600.25
334.085	5454.25
334.314	5385.25
334.542	5276.25
334.771	5311.25
334.999	5207.25
335.227	5140.25
335.455	5109.25
335.684	5051.25
335.912	4993.25
336.14	4911.25
336.369	4925.25
336.597	4977.25
336.825	4857.25
337.053	4822.25
337.281	4726.25
337.51	4676.25
337.738	4711.25
337.966	4692.25
338.194	4708.25
338.422	4580.25
338.65	4568.25
338.878	4531.25
339.106	4521.25
339.334	4526.25
339.562	4453.25
339.79	4401.25
340.018	4516.25
340.246	4369.25
340.474	4431.25
340.702	4428.25
340.93	4363.25
341.158	4441.25
341.386	4367.25
341.614	4391.25
341.842	4334.25
342.07	4317.25
342.298	4329.25
342.526	4284.25
342.754	4313.25
342.981	4343.25
343.209	4453.25
343.437	4684.25
343.665	4969.25
343.893	5125.25
344.12	5098.25
344.348	4966.25
344.576	4805.25
344.804	4770.25
345.031	4636.25
345.259	4616.25
345.487	4455.25
345.714	4391.25
345.942	4293.25
346.17	4250.25
346.397	4228.25
346.625	4229.25
346.853	4126.25
347.08	4171.25
347.308	4227.25
347.535	4304.25
347.763	4328.25
347.99	4333.25
348.218	4296.25
348.445	4345.25
348.673	4220.25
348.9	4183.25
349.128	4151.25
349.355	4126.25
349.583	4107.25
349.81	4077.25
350.037	4059.25
350.265	4086.25
350.492	4078.25
350.72	4068.25
350.947	4156.25
351.174	4178.25
351.402	4208.25
351.629	4201.25
351.856	4163.25
352.083	4211.25
352.311	4232.25
352.538	4316.25
352.765	4171.25
352.992	4172.25
353.22	4129.25
353.447	4136.25
353.674	4001.25
353.901	3928.25
354.128	3927.25
354.355	3967.25
354.583	3986.25
354.81	3951.25
355.037	4012.25
355.264	3942.25
355.491	3908.25
355.718	3924.25
355.945	3948.25
356.172	3953.25
356.399	4010.25
356.626	3928.25
356.853	3967.25
357.08	3963.25
357.307	3898.25
357.534	3967.25
357.761	3960.25
357.988	4003.25
358.215	3971.25
358.441	3980.25
358.668	3979.25
358.895	4041.25
359.122	4095.25
359.349	4162.25
359.576	4199.25
359.802	4492.25
360.029	4619.25
360.256	4597.25
360.483	4480.25
360.709	4217.25
360.936	4216.25
361.163	4202.25
361.39	4230.25
361.616	4164.25
361.843	4164.25
362.07	4270.25
362.296	4245.25
362.523	4196.25
362.749	4191.25
362.976	4109.25
363.203	4090.25
363.429	3996.25
363.656	4128.25
363.882	4050.25
364.109	3976.25
364.335	3992.25
364.562	4048.25
364.788	4042.25
365.015	4060.25
365.241	4049.25
365.468	4085.25
365.694	4101.25
365.92	4103.25
366.147	4055.25
366.373	4060.25
366.599	4049.25
366.826	3962.25
367.052	4023.25
367.278	4055.25
367.505	4040.25
367.731	4106.25
367.957	4024.25
368.184	4105.25
368.41	4220.25
368.636	4279.25
368.862	4250.25
369.089	4214.25
369.315	4116.25
369.541	4183.25
369.767	4152.25
369.993	4215.25
370.219	4182.25
370.445	4194.25
370.672	4243.25
370.898	4225.25
371.124	4259.25
371.35	4338.25
371.576	4319.25
371.802	4272.25
372.028	4297.25
372.254	4304.25
372.48	4400.25
372.706	4469.25
372.932	4464.25
373.158	4377.25
373.384	4363.25
373.61	4373.25
373.835	4356.25
374.061	4398.25
374.287	4462.25
374.513	4557.25
374.739	4670.25
374.965	4771.25
375.191	4761.25
375.416	4635.25
375.642	4479.25
375.868	4505.25
376.094	4403.25
376.319	4387.25
376.545	4344.25
376.771	4392.25
376.997	4361.25
377.222	4368.25
377.448	4335.25
377.674	4354.25
377.899	4253.25
378.125	4313.25
378.35	4312.25
378.576	4243.25
378.802	4238.25
379.027	4335.25
379.253	4276.25
379.478	4261.25
379.704	4276.25
379.929	4334.25
380.155	4320.25
380.38	4259.25
380.606	4357.25
380.831	4318.25
381.057	4376.25
381.282	4379.25
381.507	4381.25
381.733	4435.25
381.958	4470.25
382.184	4499.25
382.409	4508.25
382.634	4557.25
382.86	4568.25
383.085	4665.25
383.31	4697.25
383.535	4752.25
383.761	4853.25
383.986	4825.25
384.211	4952.25
384.436	5052.25
384.662	5136.25
384.887	5239.25
385.112	5129.25
385.337	5190.25
385.562	5241.25
385.787	5271.25
386.013	5291.25
386.238	5339.25
386.463	5283.25
386.688	5277.25
386.913	5218.25
387.138	5221.25
387.363	5108.25
387.588	5035.25
387.813	5143.25
388.038	5115.25
388.263	5193.25
388.488	5228.25
388.713	5162.25
388.938	5195.25
389.163	5143.25
389.387	5191.25
389.612	5092.25
389.837	5105.25
390.062	5047.25
390.287	5123.25
390.512	5118.25
390.736	5161.25
390.961	5255.25
391.186	5360.25
391.411	5495.25
391.636	5635.25
391.86	5811.25
392.085	5794.25
392.31	5807.25
392.534	5605.25
392.759	5518.25
392.984	5375.25
393.208	5338.25
393.433	5324.25
393.658	5374.25
393.882	5325.25
394.107	5401.25
394.331	5397.25
394.556	5482.25
394.78	5523.25
395.005	5525.25
395.229	5570.25
395.454	5750.25
395.678	5822.25
395.903	5885.25
396.127	5927.25
396.352	5661.25
396.576	5503.25
396.801	5499.25
397.025	5591.25
397.249	5667.25
397.474	5793.25
397.698	5800.25
397.922	5983.25
398.147	6106.25
398.371	6217.25
398.595	6272.25
398.82	6611.25
399.044	7119.25
399.268	7937.25
399.492	8952.25
399.717	9655.25
399.941	9389.25
400.165	8795.25
400.389	8138.25
400.613	7344.25
400.837	6846.25
401.062	6749.25
401.286	6599.25
401.51	6469.25
401.734	6530.25
401.958	6699.25
402.182	6791.25
402.406	6855.25
402.63	6992.25
402.854	7010.25
403.078	7076.25
403.302	7237.25
403.526	7323.25
403.75	7427.25
403.974	7499.25
404.198	7366.25
404.422	7527.25
404.645	7437.25
404.869	7350.25
405.093	7493.25
405.317	7547.25
405.541	7560.25
405.765	7248.25
405.988	7205.25
406.212	7428.25
406.436	7629.25
406.66	7752.25
406.883	7671.25
407.107	8312.25
407.331	8869.25
407.555	9451.25
407.778	9073.25
408.002	8328.25
408.226	7975.25
408.449	7733.25
408.673	7628.25
408.896	7816.25
409.12	7995.25
409.344	7609.25
409.567	7159.25
409.791	7165.25
410.014	7108.25
410.238	6929.25
410.461	6977.25
410.685	7097.25
410.908	7176.25
411.132	7376.25
411.355	7374.25
411.578	6990.25
411.802	6830.25
412.025	6741.25
412.249	6732.25
412.472	6787.25
412.695	6609.25
412.919	6485.25
413.142	6399.25
413.365	6448.25
413.589	6423.25
413.812	6301.25
414.035	6279.25
414.258	6301.25
414.482	6408.25
414.705	6547.25
414.928	6321.25
415.151	6446.25
415.374	6417.25
415.597	6415.25
415.821	6228.25
416.044	6256.25
416.267	6188.25
416.49	6243.25
416.713	6160.25
416.936	6321.25
417.159	6345.25
417.382	6327.25
417.605	6333.25
417.828	6523.25
418.051	6607.25
418.274	6524.25
418.497	6469.25
418.72	6568.25
418.943	6503.25
419.166	6907.25
419.389	7261.25
419.611	7220.25
419.834	6852.25
420.057	6807.25
420.28	6588.25
420.503	6397.25
420.726	6509.25
420.948	6636.25
421.171	7089.25
421.394	7064.25
421.617	6658.25
421.839	6497.25
422.062	6656.25
422.285	6829.25
422.507	7424.25
422.73	8070.25
422.953	7413.25
423.175	7005.25
423.398	7074.25
423.621	7071.25
423.843	7292.25
424.066	7231.25
424.288	7167.25
424.511	7343.25
424.733	7817.25
424.956	8355.25
425.178	7859.25
425.401	7960.25
425.623	7817.25
425.846	6894.25
426.068	6628.25
426.291	6591.25
426.513	6664.25
426.735	6690.25
426.958	7219.25
427.18	7943.25
427.402	9006.25
427.625	9039.25
427.847	7708.25
428.069	6819.25
428.292	6456.25
428.514	6089.25
428.736	6028.25
428.958	5969.25
429.181	5832.25
429.403	5857.25
429.625	5999.25
429.847	6371.25
430.069	6915.25
430.292	6455.25
430.514	5854.25
430.736	5860.25
430.958	5734.25
431.18	5671.25
431.402	5717.25
431.624	5681.25
431.846	5731.25
432.068	5792.25
432.29	5815.25
432.512	5736.25
432.734	5896.25
432.956	5712.25
433.178	5850.25
433.4	5860.25
433.622	5782.25
433.844	5812.25
434.066	5765.25
434.287	5902.25
434.509	6120.25
434.731	6344.25
434.953	6504.25
435.175	6642.25
435.397	6745.25
435.618	6621.25
435.84	6980.25
436.062	7903.25
436.284	7819.25
436.505	6595.25
436.727	6306.25
436.949	5985.25
437.17	5889.25
437.392	5807.25
437.614	6037.25
437.835	6423.25
438.057	7438.25
438.278	8117.25
438.5	8034.25
438.721	8805.25
438.943	7777.25
439.165	6440.25
439.386	6248.25
439.608	6301.25
439.829	6401.25
440.05	6728.25
440.272	7067.25
440.493	6493.25
440.715	6220.25
440.936	6142.25
441.158	6113.25
441.379	6338.25
441.6	6727.25
441.822	6915.25
442.043	7339.25
442.264	8110.25
442.486	7804.25
442.707	7025.25
442.928	6795.25
443.149	6921.25
443.371	7237.25
443.592	7797.25
443.813	8761.25
444.034	8684.25
444.255	7595.25
444.476	7435.25
444.698	7604.25
444.919	7641.25
445.14	7423.25
445.361	7246.25
445.582	7443.25
445.803	8069.25
446.024	8735.25
446.245	8293.25
446.466	7416.25
446.687	6529.25
446.908	6179.25
447.129	5837.25
447.35	5722.25
447.571	5615.25
447.792	5577.25
448.013	5726.25
448.234	5883.25
448.455	6561.25
448.675	7882.25
448.896	8221.25
449.117	6924.25
449.338	7023.25
449.559	8363.25
449.779	8509.25
450	6469.25
450.221	5812.25
450.442	5660.25
450.662	5539.25
450.883	5589.25
451.104	5684.25
451.324	5530.25
451.545	5308.25
451.766	5215.25
451.986	5080.25
452.207	5091.25
452.428	5045.25
452.648	5118.25
452.869	5107.25
453.089	5229.25
453.31	5295.25
453.53	5088.25
453.751	5009.25
453.971	5004.25
454.192	5192.25
454.412	5021.25
454.633	4866.25
454.853	4945.25
455.073	4951.25
455.294	5329.25
455.514	5925.25
455.734	5391.25
455.955	4921.25
456.175	4726.25
456.395	4689.25
456.616	4606.25
456.836	4646.25
457.056	4622.25
457.276	4619.25
457.497	4683.25
457.717	4771.25
457.937	4865.25
458.157	4913.25
458.377	5000.25
458.598	5317.25
458.818	6070.25
459.038	6871.25
459.258	6677.25
459.478	5988.25
459.698	5865.25
459.918	5918.25
460.138	6066.25
460.358	6327.25
460.578	6310.25
460.798	6395.25
461.018	6378.25
461.238	6311.25
461.458	6250.25
461.678	6139.25
461.898	6325.25
462.118	6415.25
462.338	6721.25
462.558	6996.25
462.777	7165.25
462.997	7697.25
463.217	8235.25
463.437	7865.25
463.657	7367.25
463.876	7190.25
464.096	7244.25
464.316	7214.25
464.536	7328.25
464.755	6997.25
464.975	6958.25
465.195	7078.25
465.414	7050.25
465.634	6285.25
465.854	5954.25
466.073	5662.25
466.293	5449.25
466.512	5307.25
466.732	5204.25
466.951	5266.25
467.171	5206.25
467.391	5371.25
467.61	5421.25
467.829	5342.25
468.049	5175.25
468.268	5037.25
468.488	5051.25
468.707	4979.25
468.927	5076.25
469.146	4970.25
469.365	5108.25
469.585	5119.25
469.804	5256.25
470.023	5415.25
470.243	5427.25
470.462	5551.25
470.681	5670.25
470.901	5574.25
471.12	5363.25
471.339	5323.25
471.558	5358.25
471.777	5228.25
471.997	5032.25
472.216	5015.25
472.435	5043.25
472.654	4963.25
472.873	4938.25
473.092	4973.25
473.311	4968.25
473.53	5025.25
473.749	5127.25
473.968	5719.25
474.187	6751.25
474.406	6273.25
474.625	5374.25
474.844	5080.25
475.063	5040.25
475.282	5041.25
475.501	5065.25
475.72	5195.25
475.939	5141.25
476.158	5206.25
476.377	5238.25
476.596	5220.25
476.814	5297.25
477.033	5373.25
477.252	5483.25
477.471	5521.25
477.69	5739.25
477.908	5830.25
478.127	5948.25
478.346	5996.25
478.564	6110.25
478.783	6262.25
479.002	6294.25
479.22	6282.25
479.439	6467.25
479.658	6572.25
479.876	6589.25
480.095	6823.25
480.313	7152.25
480.532	7068.25
480.751	6917.25
480.969	6825.25
481.188	6697.25
481.406	6405.25
481.624	6280.25
481.843	6143.25
482.061	6059.25
482.28	5979.25
482.498	5913.25
482.717	5903.25
482.935	5917.25
483.153	5844.25
483.372	5940.25
483.59	5831.25
483.808	5874.25
484.027	5951.25
484.245	5995.25
484.463	5910.25
484.681	5993.25
484.9	6004.25
485.118	6155.25
485.336	6176.25
485.554	6239.25
485.772	6340.25
485.99	6300.25
486.209	6330.25
486.427	6392.25
486.645	6394.25
486.863	6552.25
487.081	6435.25
487.299	6357.25
487.517	6309.25
487.735	6311.25
487.953	6284.25
