Data from Uncirc_2008_H10_HRD10591_00017.txt Node
Date: Wed Jan 03 10:15:34 EST 2024
User: Yrep
Spectrometer: HR+D1059
Trigger mode: 1
Integration Time (sec): 1.000000E-1
Scans to average: 1
Electric dark correction enabled: true
Nonlinearity correction enabled: false
Boxcar width: 0
XAxis mode: Wavelengths
Number of Pixels in Spectrum: 2048
>>>>>Begin Spectral Data<<<<<
223.165	-7
223.4	-7
223.635	-7
223.869	-22
224.104	-8
224.338	-8
224.573	-18
224.808	-21
225.042	-2
225.277	-6
225.511	-11
225.746	0
225.98	2
226.215	11
226.449	17
226.683	17
226.918	16
227.152	40
227.387	42
227.621	46
227.856	39
228.09	62
228.324	58
228.559	54
228.793	54
229.027	62
229.262	68
229.496	72
229.73	85
229.964	79
230.199	68
230.433	74
230.667	65
230.901	81
231.136	75
231.37	89
231.604	77
231.838	76
232.072	72
232.306	88
232.541	65
232.775	72
233.009	87
233.243	80
233.477	76
233.711	81
233.945	77
234.179	78
234.413	78
234.647	86
234.881	66
235.115	66
235.349	69
235.583	78
235.817	78
236.051	83
236.285	62
236.519	71
236.753	62
236.987	71
237.221	86
237.455	88
237.689	83
237.922	75
238.156	64
238.39	69
238.624	83
238.858	84
239.091	68
239.325	77
239.559	78
239.793	77
240.027	66
240.26	74
240.494	80
240.728	91
240.961	84
241.195	79
241.429	73
241.662	62
241.896	70
242.13	78
242.363	80
242.597	77
242.83	72
243.064	87
243.298	67
243.531	68
243.765	79
243.998	83
244.232	73
244.465	82
244.699	82
244.932	62
245.166	88
245.399	75
245.633	64
245.866	67
246.099	78
246.333	71
246.566	80
246.8	70
247.033	84
247.266	61
247.5	71
247.733	78
247.966	68
248.2	74
248.433	67
248.666	69
248.899	73
249.133	66
249.366	74
249.599	94
249.832	75
250.066	86
250.299	70
250.532	64
250.765	70
250.998	72
251.231	78
251.465	72
251.698	86
251.931	79
252.164	82
252.397	87
252.63	72
252.863	81
253.096	77
253.329	80
253.562	76
253.795	80
254.028	82
254.261	74
254.494	84
254.727	96
254.96	81
255.193	80
255.426	75
255.659	74
255.892	76
256.124	83
256.357	74
256.59	80
256.823	88
257.056	85
257.289	85
257.521	76
257.754	80
257.987	82
258.22	84
258.452	80
258.685	94
258.918	73
259.151	85
259.383	76
259.616	95
259.849	78
260.081	80
260.314	98
260.547	75
260.779	77
261.012	88
261.244	81
261.477	85
261.71	96
261.942	92
262.175	103
262.407	89
262.64	85
262.872	86
263.105	80
263.337	72
263.57	70
263.802	86
264.035	83
264.267	85
264.499	76
264.732	72
264.964	90
265.197	75
265.429	77
265.661	69
265.894	85
266.126	71
266.358	89
266.591	88
266.823	89
267.055	81
267.287	71
267.52	65
267.752	83
267.984	85
268.216	80
268.448	92
268.681	89
268.913	77
269.145	76
269.377	73
269.609	81
269.841	69
270.073	87
270.306	75
270.538	76
270.77	71
271.002	74
271.234	85
271.466	81
271.698	82
271.93	75
272.162	77
272.394	90
272.626	73
272.858	96
273.09	87
273.322	90
273.553	77
273.785	91
274.017	90
274.249	78
274.481	89
274.713	85
274.945	78
275.176	83
275.408	89
275.64	85
275.872	86
276.104	98
276.335	85
276.567	89
276.799	97
277.031	92
277.262	92
277.494	82
277.726	88
277.957	87
278.189	83
278.421	75
278.652	82
278.884	68
279.115	90
279.347	91
279.579	89
279.81	91
280.042	76
280.273	72
280.505	75
280.736	74
280.968	80
281.199	88
281.431	87
281.662	79
281.894	89
282.125	96
282.356	121
282.588	121
282.819	103
283.051	78
283.282	100
283.513	80
283.745	80
283.976	88
284.207	94
284.439	84
284.67	71
284.901	87
285.132	79
285.364	90
285.595	96
285.826	100
286.057	96
286.288	86
286.52	95
286.751	93
286.982	90
287.213	81
287.444	100
287.675	83
287.906	92
288.138	80
288.369	100
288.6	89
288.831	75
289.062	78
289.293	76
289.524	82
289.755	77
289.986	83
290.217	81
290.448	85
290.679	85
290.91	114
291.141	75
291.371	94
291.602	88
291.833	81
292.064	79
292.295	88
292.526	85
292.757	99
292.987	97
293.218	90
293.449	99
293.68	81
293.91	72
294.141	89
294.372	84
294.603	103
294.833	77
295.064	66
295.295	105
295.525	80
295.756	81
295.987	120
296.217	109
296.448	108
296.679	96
296.909	84
297.14	101
297.37	95
297.601	72
297.831	74
298.062	91
298.292	108
298.523	78
298.753	86
298.984	87
299.214	75
299.445	84
299.675	85
299.905	89
300.136	90
300.366	77
300.597	91
300.827	90
301.057	104
301.288	97
301.518	98
301.748	101
301.979	104
302.209	93
302.439	83
302.669	82
302.9	92
303.13	88
303.36	72
303.59	89
303.82	102
304.051	77
304.281	88
304.511	88
304.741	81
304.971	88
305.201	88
305.431	84
305.661	98
305.891	93
306.121	100
306.352	100
306.582	99
306.812	92
307.042	90
307.272	90
307.502	86
307.731	92
307.961	84
308.191	92
308.421	77
308.651	96
308.881	82
309.111	99
309.341	91
309.571	104
309.8	88
310.03	95
310.26	79
310.49	75
310.72	101
310.949	92
311.179	94
311.409	87
311.639	97
311.868	107
312.098	102
312.328	92
312.557	100
312.787	99
313.017	92
313.246	82
313.476	102
313.706	90
313.935	100
314.165	92
314.394	93
314.624	82
314.853	95
315.083	93
315.312	92
315.542	91
315.771	82
316.001	105
316.23	78
316.46	89
316.689	83
316.919	89
317.148	94
317.377	86
317.607	90
317.836	98
318.065	92
318.295	94
318.524	92
318.753	96
318.983	107
319.212	94
319.441	94
319.67	88
319.9	91
320.129	88
320.358	90
320.587	95
320.816	99
321.046	97
321.275	96
321.504	83
321.733	99
321.962	80
322.191	101
322.42	97
322.649	101
322.878	108
323.108	112
323.337	118
323.566	123
323.795	132
324.024	174
324.253	347
324.482	682
324.71	1389
324.939	1810
325.168	673
325.397	212
325.626	128
325.855	109
326.084	125
326.313	135
326.542	152
326.77	197
326.999	400
327.228	809
327.457	1434
327.686	1147
327.914	307
328.143	142
328.372	128
328.6	112
328.829	99
329.058	107
329.287	103
329.515	108
329.744	98
329.972	90
330.201	89
330.43	107
330.658	106
330.887	110
331.115	119
331.344	104
331.572	88
331.801	95
332.03	97
332.258	89
332.486	90
332.715	94
332.943	93
333.172	96
333.4	97
333.629	92
333.857	102
334.085	88
334.314	82
334.542	98
334.771	91
334.999	94
335.227	92
335.455	93
335.684	82
335.912	97
336.14	103
336.369	94
336.597	107
336.825	83
337.053	92
337.281	73
337.51	80
337.738	96
337.966	87
338.194	93
338.422	87
338.65	97
338.878	88
339.106	79
339.334	89
339.562	83
339.79	100
340.018	85
340.246	94
340.474	99
340.702	98
340.93	82
341.158	92
341.386	100
341.614	91
341.842	91
342.07	98
342.298	90
342.526	88
342.754	86
342.981	79
343.209	89
343.437	110
343.665	95
343.893	85
344.12	91
344.348	82
344.576	76
344.804	90
345.031	92
345.259	102
345.487	98
345.714	76
345.942	98
346.17	87
346.397	78
346.625	84
346.853	82
347.08	85
347.308	85
347.535	95
347.763	93
347.99	108
348.218	103
348.445	89
348.673	81
348.9	91
349.128	102
349.355	87
349.583	91
349.81	96
350.037	100
350.265	99
350.492	100
350.72	96
350.947	85
351.174	92
351.402	92
351.629	100
351.856	85
352.083	111
352.311	112
352.538	107
352.765	100
352.992	114
353.22	106
353.447	104
353.674	116
353.901	85
354.128	113
354.355	91
354.583	91
354.81	102
355.037	95
355.264	85
355.491	88
355.718	82
355.945	95
356.172	95
356.399	92
356.626	81
356.853	86
357.08	79
357.307	88
357.534	97
357.761	98
357.988	87
358.215	97
358.441	91
358.668	98
358.895	100
359.122	91
359.349	79
359.576	101
359.802	98
360.029	97
360.256	96
360.483	94
360.709	79
360.936	81
361.163	92
361.39	81
361.616	86
361.843	89
362.07	77
362.296	81
362.523	85
362.749	90
362.976	95
363.203	94
363.429	85
363.656	95
363.882	88
364.109	85
364.335	89
364.562	85
364.788	81
365.015	90
365.241	100
365.468	102
365.694	109
365.92	91
366.147	81
366.373	79
366.599	79
366.826	84
367.052	98
367.278	86
367.505	106
367.731	75
367.957	77
368.184	85
368.41	82
368.636	97
368.862	118
369.089	95
369.315	91
369.541	80
369.767	90
369.993	81
370.219	93
370.445	74
370.672	89
370.898	103
371.124	87
371.35	90
371.576	92
371.802	95
372.028	92
372.254	89
372.48	96
372.706	92
372.932	81
373.158	91
373.384	94
373.61	99
373.835	84
374.061	83
374.287	100
374.513	78
374.739	89
374.965	71
375.191	84
375.416	87
375.642	90
375.868	77
376.094	75
376.319	80
376.545	89
376.771	94
376.997	86
377.222	105
377.448	97
377.674	77
377.899	74
378.125	87
378.35	83
378.576	87
378.802	94
379.027	86
379.253	95
379.478	95
379.704	83
379.929	92
380.155	94
380.38	84
380.606	93
380.831	87
381.057	91
381.282	102
381.507	90
381.733	90
381.958	82
382.184	91
382.409	92
382.634	116
382.86	105
383.085	97
383.31	107
383.535	102
383.761	97
383.986	96
384.211	101
384.436	107
384.662	96
384.887	93
385.112	99
385.337	112
385.562	100
385.787	93
386.013	96
386.238	101
386.463	99
386.688	109
386.913	103
387.138	111
387.363	110
387.588	94
387.813	103
388.038	104
388.263	127
388.488	109
388.713	102
388.938	100
389.163	96
389.387	103
389.612	92
389.837	101
390.062	90
390.287	84
390.512	85
390.736	92
390.961	96
391.186	102
391.411	87
391.636	95
391.86	92
392.085	85
392.31	73
392.534	93
392.759	82
392.984	95
393.208	83
393.433	95
393.658	73
393.882	79
394.107	86
394.331	100
394.556	94
394.78	90
395.005	92
395.229	83
395.454	83
395.678	91
395.903	91
396.127	90
396.352	98
396.576	90
396.801	79
397.025	77
397.249	89
397.474	96
397.698	93
397.922	87
398.147	81
398.371	102
398.595	81
398.82	82
399.044	73
399.268	96
399.492	80
399.717	74
399.941	79
400.165	94
400.389	104
400.613	89
400.837	92
401.062	89
401.286	87
401.51	68
401.734	103
401.958	92
402.182	113
402.406	127
402.63	93
402.854	82
403.078	85
403.302	98
403.526	99
403.75	83
403.974	89
404.198	78
404.422	93
404.645	76
404.869	80
405.093	91
405.317	82
405.541	101
405.765	103
405.988	118
406.212	144
406.436	177
406.66	132
406.883	105
407.107	84
407.331	90
407.555	80
407.778	95
408.002	90
408.226	88
408.449	89
408.673	93
408.896	90
409.12	87
409.344	85
409.567	93
409.791	90
410.014	79
410.238	94
410.461	97
410.685	89
410.908	92
411.132	100
411.355	80
411.578	89
411.802	81
412.025	80
412.249	109
412.472	92
412.695	93
412.919	81
413.142	91
413.365	81
413.589	85
413.812	92
414.035	99
414.258	101
414.482	93
414.705	90
414.928	88
415.151	74
415.374	81
415.597	93
415.821	88
416.044	84
416.267	81
416.49	80
416.713	95
416.936	100
417.159	97
417.382	94
417.605	86
417.828	75
418.051	87
418.274	96
418.497	83
418.72	82
418.943	94
419.166	81
419.389	88
419.611	87
419.834	82
420.057	74
420.28	95
420.503	101
420.726	69
420.948	87
421.171	91
421.394	89
421.617	86
421.839	91
422.062	88
422.285	88
422.507	101
422.73	87
422.953	78
423.175	90
423.398	70
423.621	81
423.843	84
424.066	86
424.288	82
424.511	87
424.733	88
424.956	98
425.178	85
425.401	101
425.623	80
425.846	99
426.068	77
426.291	81
426.513	86
426.735	79
426.958	89
427.18	92
427.402	131
427.625	138
427.847	129
428.069	93
428.292	83
428.514	92
428.736	84
428.958	81
429.181	95
429.403	86
429.625	87
429.847	80
430.069	87
430.292	92
430.514	95
430.736	80
430.958	83
431.18	83
431.402	81
431.624	76
431.846	76
432.068	66
432.29	93
432.512	96
432.734	86
432.956	88
433.178	85
433.4	93
433.622	84
433.844	90
434.066	94
434.287	93
434.509	76
434.731	87
434.953	86
435.175	88
435.397	81
435.618	101
435.84	92
436.062	119
436.284	101
436.505	93
436.727	93
436.949	101
437.17	99
437.392	79
437.614	105
437.835	89
438.057	113
438.278	102
438.5	117
438.721	133
438.943	105
439.165	83
439.386	82
439.608	97
439.829	85
440.05	111
440.272	134
440.493	91
440.715	96
440.936	82
441.158	90
441.379	94
441.6	96
441.822	86
442.043	74
442.264	85
442.486	89
442.707	85
442.928	102
443.149	109
443.371	103
443.592	109
443.813	94
444.034	91
444.255	94
444.476	90
444.698	94
444.919	80
445.14	114
445.361	104
445.582	109
445.803	122
446.024	118
446.245	118
446.466	94
446.687	99
446.908	88
447.129	81
447.35	73
447.571	84
447.792	87
448.013	90
448.234	92
448.455	85
448.675	112
448.896	91
449.117	84
449.338	92
449.559	132
449.779	136
450	94
450.221	83
450.442	86
450.662	97
450.883	97
451.104	101
451.324	85
451.545	91
451.766	82
451.986	75
452.207	88
452.428	88
452.648	79
452.869	88
453.089	94
453.31	116
453.53	90
453.751	102
453.971	87
454.192	115
454.412	86
454.633	83
454.853	87
455.073	96
455.294	95
455.514	90
455.734	82
455.955	90
456.175	77
456.395	84
456.616	73
456.836	60
457.056	88
457.276	94
457.497	85
457.717	77
457.937	87
458.157	82
458.377	93
458.598	94
458.818	110
459.038	134
459.258	95
459.478	82
459.698	83
459.918	87
460.138	82
460.358	78
460.578	93
460.798	78
461.018	89
461.238	84
461.458	89
461.678	77
461.898	88
462.118	84
462.338	80
462.558	86
462.777	87
462.997	77
463.217	62
463.437	82
463.657	81
463.876	81
464.096	85
464.316	80
464.536	102
464.755	89
464.975	93
465.195	148
465.414	130
465.634	87
465.854	84
466.073	75
466.293	79
466.512	82
466.732	97
466.951	95
467.171	86
467.391	91
467.61	92
467.829	100
468.049	78
468.268	77
468.488	93
468.707	79
468.927	74
469.146	85
469.365	88
469.585	90
469.804	79
470.023	75
470.243	100
470.462	85
470.681	98
470.901	91
471.12	82
471.339	65
471.558	77
471.777	72
471.997	78
472.216	85
472.435	96
472.654	90
472.873	93
473.092	73
473.311	98
473.53	93
473.749	82
473.968	79
474.187	93
474.406	92
474.625	82
474.844	77
475.063	80
475.282	70
475.501	92
475.72	84
475.939	93
476.158	85
476.377	88
476.596	83
476.814	85
477.033	97
477.252	79
477.471	86
477.69	88
477.908	69
478.127	72
478.346	87
478.564	89
478.783	92
479.002	96
479.22	85
479.439	97
479.658	101
479.876	80
480.095	75
480.313	87
480.532	96
480.751	79
480.969	88
481.188	83
481.406	77
481.624	76
481.843	75
482.061	93
482.28	89
482.498	85
482.717	88
482.935	89
483.153	69
483.372	74
483.59	76
483.808	77
484.027	76
484.245	98
484.463	83
484.681	90
484.9	87
485.118	100
485.336	107
485.554	102
485.772	82
485.99	90
486.209	95
486.427	106
486.645	93
486.863	111
487.081	105
487.299	104
487.517	104
487.735	91
487.953	87
488.171	104
488.389	87
488.607	85
488.825	82
489.043	76
489.261	90
489.479	82
489.696	80
489.914	87
490.132	86
490.35	89
490.568	84
490.786	89
491.003	79
491.221	91
491.439	87
491.657	86
491.874	64
492.092	86
492.31	96
492.527	87
492.745	78
492.963	81
493.18	85
493.398	90
493.615	106
493.833	101
494.05	85
494.268	96
494.485	86
494.703	77
494.92	84
495.138	99
495.355	91
495.573	73
495.79	94
496.008	96
496.225	98
496.442	73
496.66	79
496.877	89
497.094	84
497.312	83
497.529	94
497.746	88
497.963	98
498.181	88
498.398	70
498.615	106
498.832	96
499.049	82
499.267	79
499.484	93
499.701	92
499.918	96
500.135	83
500.352	91
500.569	88
500.786	82
501.003	80
501.22	78
501.437	84
501.654	78
501.871	94
502.088	84
502.305	94
502.522	91
502.739	77
502.956	75
503.172	84
503.389	90
503.606	94
503.823	86
504.04	99
504.256	82
504.473	84
504.69	100
504.907	95
505.123	96
505.34	88
505.557	86
505.773	77
505.99	84
506.207	91
506.423	84
506.64	88
506.856	81
507.073	86
507.289	87
507.506	90
507.722	89
507.939	103
508.155	97
508.372	78
508.588	93
508.805	90
509.021	86
509.238	77
509.454	84
509.67	106
509.887	98
510.103	132
510.319	180
510.536	661
510.752	1988
510.968	564
511.184	138
511.401	102
511.617	89
511.833	79
512.049	87
512.265	79
512.481	85
512.698	85
512.914	77
513.13	115
513.346	92
513.562	95
513.778	90
513.994	95
514.21	95
514.426	113
514.642	110
514.858	126
515.074	145
515.29	380
515.506	1135
515.721	453
515.937	140
516.153	96
516.369	100
516.585	80
516.801	88
517.016	79
517.232	100
517.448	86
517.664	90
517.879	93
518.095	80
518.311	96
518.527	93
518.742	101
518.958	93
519.173	88
519.389	79
519.605	88
519.82	95
520.036	96
520.251	109
520.467	104
520.682	98
520.898	85
521.113	102
521.329	125
521.544	170
521.76	450
521.975	1954
522.19	1171
522.406	270
522.621	117
522.836	89
523.052	100
523.267	89
523.482	89
523.698	95
523.913	121
524.128	106
524.343	80
524.559	87
524.774	84
524.989	91
525.204	94
525.419	103
525.634	92
525.849	95
526.064	101
526.28	72
526.495	90
526.71	79
526.925	70
527.14	88
527.355	76
527.57	82
527.785	104
527.999	88
528.214	95
528.429	94
528.644	104
528.859	83
529.074	85
529.289	109
529.503	130
529.718	90
529.933	80
530.148	91
530.363	88
530.577	77
530.792	93
531.007	87
531.221	92
531.436	100
531.651	92
531.865	82
532.08	90
532.295	81
532.509	100
532.724	93
532.938	81
533.153	92
533.367	96
533.582	100
533.796	97
534.011	91
534.225	100
534.44	79
534.654	97
534.868	94
535.083	77
535.297	83
535.511	83
535.726	94
535.94	97
536.154	93
536.369	94
536.583	90
536.797	92
537.011	83
537.225	84
537.44	77
537.654	87
537.868	86
538.082	91
538.296	79
538.51	82
538.724	84
538.938	81
539.153	87
539.367	101
539.581	95
539.795	88
540.009	72
540.222	83
540.436	98
540.65	82
540.864	81
541.078	106
541.292	82
541.506	82
541.72	96
541.934	87
542.147	94
542.361	92
542.575	95
542.789	85
543.002	93
543.216	86
543.43	93
543.644	91
543.857	98
544.071	93
544.285	87
544.498	88
544.712	80
544.925	78
545.139	91
545.352	85
545.566	93
545.779	86
545.993	85
546.206	81
546.42	79
546.633	75
546.847	77
547.06	75
547.274	93
547.487	66
547.7	81
547.914	77
548.127	87
548.34	82
548.554	91
548.767	85
548.98	90
549.193	86
549.407	89
549.62	78
549.833	89
550.046	84
550.259	98
550.473	87
550.686	91
550.899	90
551.112	97
551.325	88
551.538	87
551.751	88
551.964	90
552.177	87
552.39	81
552.603	89
552.816	93
553.029	74
553.242	93
553.455	101
553.667	107
553.88	86
554.093	91
554.306	85
554.519	93
554.732	92
554.944	85
555.157	82
555.37	85
555.583	83
555.795	95
556.008	81
556.221	104
556.433	86
556.646	98
556.859	86
557.071	85
557.284	78
557.496	77
557.709	89
557.921	78
558.134	85
558.346	86
558.559	90
558.771	94
558.984	88
559.196	76
559.409	97
559.621	85
559.833	90
560.046	89
560.258	96
560.47	81
560.683	98
560.895	92
561.107	86
561.32	83
561.532	88
561.744	86
561.956	87
562.168	76
562.381	83
562.593	88
562.805	95
563.017	82
563.229	92
563.441	90
563.653	91
563.865	95
564.077	69
564.289	92
564.501	85
564.713	82
564.925	94
565.137	83
565.349	84
565.561	72
565.773	91
565.985	86
566.197	83
566.408	86
566.62	85
566.832	86
567.044	79
567.255	94
567.467	88
567.679	79
567.891	85
568.102	72
568.314	75
568.526	85
568.737	85
568.949	73
569.161	85
569.372	95
569.584	88
569.795	84
570.007	98
570.218	197
570.43	118
570.641	91
570.853	84
571.064	81
571.276	91
571.487	78
571.698	94
571.91	96
572.121	90
572.333	81
572.544	89
572.755	89
572.966	90
573.178	88
573.389	74
573.6	86
573.811	81
574.023	79
574.234	85
574.445	92
574.656	75
574.867	89
575.078	104
575.289	86
575.501	85
575.712	92
575.923	85
576.134	88
576.345	87
576.556	80
576.767	93
576.978	94
577.188	91
577.399	81
577.61	103
577.821	88
578.032	97
578.243	228
578.454	664
578.665	197
578.875	103
579.086	96
579.297	87
579.508	81
579.718	90
579.929	80
580.14	83
580.35	84
580.561	84
580.772	78
580.982	90
581.193	78
581.403	86
581.614	86
581.825	84
582.035	78
582.246	83
582.456	88
582.667	89
582.877	87
583.087	86
583.298	93
583.508	90
583.719	83
583.929	90
584.139	85
584.35	107
584.56	88
584.77	95
584.981	92
585.191	85
585.401	85
585.611	99
585.821	85
586.032	93
586.242	78
586.452	75
