Data from Uncirc_2008_H10_HRD10591_00034.txt Node
Date: Wed Jan 03 10:15:37 EST 2024
User: Yrep
Spectrometer: HR+D1059
Trigger mode: 1
Integration Time (sec): 1.000000E-1
Scans to average: 1
Electric dark correction enabled: true
Nonlinearity correction enabled: false
Boxcar width: 0
XAxis mode: Wavelengths
Number of Pixels in Spectrum: 2048
>>>>>Begin Spectral Data<<<<<
223.165	-15.75
223.4	-15.75
223.635	-15.75
223.869	-27.75
224.104	-23.75
224.338	-18.75
224.573	-7.75
224.808	-13.75
225.042	6.25
225.277	-21.75
225.511	-1.75
225.746	7.25
225.98	10.25
226.215	11.25
226.449	11.25
226.683	20.25
226.918	34.25
227.152	30.25
227.387	40.25
227.621	59.25
227.856	56.25
228.09	51.25
228.324	62.25
228.559	51.25
228.793	62.25
229.027	70.25
229.262	57.25
229.496	88.25
229.73	76.25
229.964	88.25
230.199	66.25
230.433	81.25
230.667	75.25
230.901	74.25
231.136	70.25
231.37	74.25
231.604	80.25
231.838	75.25
232.072	90.25
232.306	71.25
232.541	76.25
232.775	84.25
233.009	82.25
233.243	75.25
233.477	82.25
233.711	78.25
233.945	76.25
234.179	75.25
234.413	74.25
234.647	66.25
234.881	73.25
235.115	88.25
235.349	75.25
235.583	74.25
235.817	71.25
236.051	67.25
236.285	86.25
236.519	83.25
236.753	88.25
236.987	86.25
237.221	81.25
237.455	84.25
237.689	73.25
237.922	81.25
238.156	84.25
238.39	78.25
238.624	74.25
238.858	76.25
239.091	71.25
239.325	66.25
239.559	75.25
239.793	79.25
240.027	76.25
240.26	83.25
240.494	74.25
240.728	83.25
240.961	73.25
241.195	70.25
241.429	93.25
241.662	71.25
241.896	74.25
242.13	90.25
242.363	88.25
242.597	68.25
242.83	73.25
243.064	84.25
243.298	83.25
243.531	80.25
243.765	69.25
243.998	79.25
244.232	88.25
244.465	86.25
244.699	77.25
244.932	84.25
245.166	80.25
245.399	76.25
245.633	86.25
245.866	56.25
246.099	79.25
246.333	86.25
246.566	76.25
246.8	70.25
247.033	82.25
247.266	74.25
247.5	81.25
247.733	84.25
247.966	83.25
248.2	86.25
248.433	87.25
248.666	67.25
248.899	82.25
249.133	84.25
249.366	92.25
249.599	92.25
249.832	88.25
250.066	72.25
250.299	78.25
250.532	90.25
250.765	96.25
250.998	75.25
251.231	94.25
251.465	75.25
251.698	75.25
251.931	72.25
252.164	90.25
252.397	86.25
252.63	83.25
252.863	67.25
253.096	82.25
253.329	65.25
253.562	85.25
253.795	87.25
254.028	81.25
254.261	71.25
254.494	66.25
254.727	86.25
254.96	81.25
255.193	82.25
255.426	63.25
255.659	63.25
255.892	86.25
256.124	77.25
256.357	80.25
256.59	76.25
256.823	84.25
257.056	75.25
257.289	82.25
257.521	80.25
257.754	79.25
257.987	90.25
258.22	86.25
258.452	76.25
258.685	74.25
258.918	82.25
259.151	77.25
259.383	73.25
259.616	99.25
259.849	80.25
260.081	82.25
260.314	88.25
260.547	88.25
260.779	80.25
261.012	78.25
261.244	97.25
261.477	93.25
261.71	99.25
261.942	105.25
262.175	106.25
262.407	84.25
262.64	73.25
262.872	91.25
263.105	77.25
263.337	98.25
263.57	79.25
263.802	82.25
264.035	82.25
264.267	81.25
264.499	80.25
264.732	81.25
264.964	96.25
265.197	109.25
265.429	93.25
265.661	80.25
265.894	86.25
266.126	74.25
266.358	90.25
266.591	79.25
266.823	88.25
267.055	76.25
267.287	97.25
267.52	86.25
267.752	87.25
267.984	93.25
268.216	76.25
268.448	82.25
268.681	96.25
268.913	103.25
269.145	84.25
269.377	86.25
269.609	80.25
269.841	76.25
270.073	74.25
270.306	102.25
270.538	84.25
270.77	86.25
271.002	87.25
271.234	91.25
271.466	76.25
271.698	83.25
271.93	82.25
272.162	96.25
272.394	82.25
272.626	66.25
272.858	71.25
273.09	88.25
273.322	94.25
273.553	95.25
273.785	90.25
274.017	87.25
274.249	68.25
274.481	80.25
274.713	98.25
274.945	91.25
275.176	79.25
275.408	81.25
275.64	94.25
275.872	85.25
276.104	88.25
276.335	101.25
276.567	101.25
276.799	99.25
277.031	88.25
277.262	92.25
277.494	95.25
277.726	86.25
277.957	100.25
278.189	97.25
278.421	72.25
278.652	84.25
278.884	91.25
279.115	84.25
279.347	73.25
279.579	90.25
279.81	83.25
280.042	72.25
280.273	95.25
280.505	86.25
280.736	79.25
280.968	73.25
281.199	93.25
281.431	103.25
281.662	78.25
281.894	90.25
282.125	91.25
282.356	121.25
282.588	141.25
282.819	115.25
283.051	99.25
283.282	97.25
283.513	88.25
283.745	93.25
283.976	80.25
284.207	88.25
284.439	89.25
284.67	83.25
284.901	89.25
285.132	97.25
285.364	87.25
285.595	96.25
285.826	88.25
286.057	83.25
286.288	89.25
286.52	89.25
286.751	112.25
286.982	75.25
287.213	94.25
287.444	74.25
287.675	79.25
287.906	85.25
288.138	91.25
288.369	88.25
288.6	88.25
288.831	84.25
289.062	84.25
289.293	82.25
289.524	95.25
289.755	81.25
289.986	83.25
290.217	89.25
290.448	81.25
290.679	95.25
290.91	91.25
291.141	86.25
291.371	103.25
291.602	86.25
291.833	80.25
292.064	90.25
292.295	74.25
292.526	68.25
292.757	98.25
292.987	93.25
293.218	88.25
293.449	94.25
293.68	91.25
293.91	84.25
294.141	93.25
294.372	93.25
294.603	89.25
294.833	88.25
295.064	91.25
295.295	83.25
295.525	99.25
295.756	101.25
295.987	123.25
296.217	142.25
296.448	116.25
296.679	92.25
296.909	104.25
297.14	93.25
297.37	82.25
297.601	97.25
297.831	76.25
298.062	85.25
298.292	83.25
298.523	82.25
298.753	80.25
298.984	81.25
299.214	90.25
299.445	84.25
299.675	79.25
299.905	99.25
300.136	97.25
300.366	81.25
300.597	90.25
300.827	89.25
301.057	91.25
301.288	100.25
301.518	86.25
301.748	82.25
301.979	101.25
302.209	99.25
302.439	89.25
302.669	92.25
302.9	99.25
303.13	90.25
303.36	82.25
303.59	88.25
303.82	96.25
304.051	94.25
304.281	98.25
304.511	96.25
304.741	77.25
304.971	85.25
305.201	82.25
305.431	82.25
305.661	87.25
305.891	87.25
306.121	83.25
306.352	93.25
306.582	100.25
306.812	99.25
307.042	110.25
307.272	93.25
307.502	95.25
307.731	93.25
307.961	91.25
308.191	92.25
308.421	95.25
308.651	91.25
308.881	90.25
309.111	81.25
309.341	96.25
309.571	91.25
309.8	98.25
310.03	90.25
310.26	88.25
310.49	90.25
310.72	99.25
310.949	85.25
311.179	106.25
311.409	99.25
311.639	94.25
311.868	97.25
312.098	87.25
312.328	89.25
312.557	94.25
312.787	96.25
313.017	100.25
313.246	107.25
313.476	94.25
313.706	83.25
313.935	98.25
314.165	88.25
314.394	100.25
314.624	101.25
314.853	94.25
315.083	85.25
315.312	94.25
315.542	87.25
315.771	90.25
316.001	94.25
316.23	99.25
316.46	93.25
316.689	91.25
316.919	101.25
317.148	90.25
317.377	94.25
317.607	91.25
317.836	80.25
318.065	80.25
318.295	83.25
318.524	102.25
318.753	76.25
318.983	96.25
319.212	94.25
319.441	103.25
319.67	90.25
319.9	87.25
320.129	98.25
320.358	106.25
320.587	94.25
320.816	91.25
321.046	91.25
321.275	104.25
321.504	83.25
321.733	81.25
321.962	104.25
322.191	95.25
322.42	105.25
322.649	96.25
322.878	104.25
323.108	103.25
323.337	114.25
323.566	132.25
323.795	143.25
324.024	194.25
324.253	340.25
324.482	703.25
324.71	1450.25
324.939	1915.25
325.168	737.25
325.397	233.25
325.626	145.25
325.855	120.25
326.084	119.25
326.313	139.25
326.542	150.25
326.77	219.25
326.999	430.25
327.228	847.25
327.457	1482.25
327.686	1202.25
327.914	335.25
328.143	187.25
328.372	132.25
328.6	118.25
328.829	112.25
329.058	118.25
329.287	109.25
329.515	114.25
329.744	100.25
329.972	99.25
330.201	112.25
330.43	93.25
330.658	110.25
330.887	118.25
331.115	106.25
331.344	100.25
331.572	106.25
331.801	99.25
332.03	109.25
332.258	109.25
332.486	80.25
332.715	77.25
332.943	94.25
333.172	106.25
333.4	86.25
333.629	99.25
333.857	88.25
334.085	100.25
334.314	84.25
334.542	88.25
334.771	91.25
334.999	85.25
335.227	90.25
335.455	97.25
335.684	97.25
335.912	97.25
336.14	82.25
336.369	103.25
336.597	100.25
336.825	104.25
337.053	94.25
337.281	87.25
337.51	84.25
337.738	87.25
337.966	88.25
338.194	90.25
338.422	92.25
338.65	79.25
338.878	111.25
339.106	84.25
339.334	91.25
339.562	94.25
339.79	94.25
340.018	98.25
340.246	88.25
340.474	90.25
340.702	88.25
340.93	88.25
341.158	74.25
341.386	83.25
341.614	86.25
341.842	100.25
342.07	74.25
342.298	97.25
342.526	82.25
342.754	79.25
342.981	94.25
343.209	67.25
343.437	94.25
343.665	80.25
343.893	88.25
344.12	83.25
344.348	97.25
344.576	92.25
344.804	94.25
345.031	93.25
345.259	91.25
345.487	87.25
345.714	95.25
345.942	97.25
346.17	99.25
346.397	103.25
346.625	115.25
346.853	100.25
347.08	81.25
347.308	90.25
347.535	89.25
347.763	93.25
347.99	95.25
348.218	109.25
348.445	106.25
348.673	109.25
348.9	87.25
349.128	90.25
349.355	94.25
349.583	84.25
349.81	92.25
350.037	93.25
350.265	95.25
350.492	95.25
350.72	98.25
350.947	96.25
351.174	116.25
351.402	118.25
351.629	99.25
351.856	107.25
352.083	96.25
352.311	111.25
352.538	105.25
352.765	104.25
352.992	98.25
353.22	105.25
353.447	90.25
353.674	87.25
353.901	90.25
354.128	91.25
354.355	91.25
354.583	94.25
354.81	103.25
355.037	93.25
355.264	98.25
355.491	95.25
355.718	94.25
355.945	87.25
356.172	95.25
356.399	89.25
356.626	92.25
356.853	93.25
357.08	84.25
357.307	89.25
357.534	91.25
357.761	97.25
357.988	87.25
358.215	87.25
358.441	83.25
358.668	86.25
358.895	96.25
359.122	78.25
359.349	81.25
359.576	89.25
359.802	92.25
360.029	107.25
360.256	115.25
360.483	105.25
360.709	86.25
360.936	93.25
361.163	94.25
361.39	85.25
361.616	115.25
361.843	95.25
362.07	90.25
362.296	88.25
362.523	84.25
362.749	82.25
362.976	79.25
363.203	90.25
363.429	96.25
363.656	88.25
363.882	91.25
364.109	83.25
364.335	69.25
364.562	90.25
364.788	76.25
365.015	92.25
365.241	94.25
365.468	106.25
365.694	115.25
365.92	110.25
366.147	89.25
366.373	82.25
366.599	88.25
366.826	92.25
367.052	96.25
367.278	91.25
367.505	91.25
367.731	92.25
367.957	96.25
368.184	102.25
368.41	96.25
368.636	104.25
368.862	119.25
369.089	101.25
369.315	94.25
369.541	89.25
369.767	87.25
369.993	85.25
370.219	89.25
370.445	88.25
370.672	83.25
370.898	88.25
371.124	72.25
371.35	79.25
371.576	90.25
371.802	88.25
372.028	88.25
372.254	79.25
372.48	94.25
372.706	88.25
372.932	90.25
373.158	102.25
373.384	86.25
373.61	96.25
373.835	95.25
374.061	92.25
374.287	83.25
374.513	92.25
374.739	78.25
374.965	104.25
375.191	81.25
375.416	85.25
375.642	84.25
375.868	98.25
376.094	99.25
376.319	89.25
376.545	81.25
376.771	79.25
376.997	102.25
377.222	102.25
377.448	91.25
377.674	85.25
377.899	88.25
378.125	88.25
378.35	87.25
378.576	86.25
378.802	93.25
379.027	93.25
379.253	90.25
379.478	78.25
379.704	94.25
379.929	90.25
380.155	100.25
380.38	86.25
380.606	93.25
380.831	93.25
381.057	102.25
381.282	98.25
381.507	87.25
381.733	99.25
381.958	102.25
382.184	84.25
382.409	107.25
382.634	78.25
382.86	90.25
383.085	108.25
383.31	112.25
383.535	112.25
383.761	96.25
383.986	91.25
384.211	90.25
384.436	90.25
384.662	91.25
384.887	95.25
385.112	103.25
385.337	100.25
385.562	113.25
385.787	105.25
386.013	111.25
386.238	108.25
386.463	99.25
386.688	118.25
386.913	106.25
387.138	109.25
387.363	103.25
387.588	106.25
387.813	96.25
388.038	113.25
388.263	115.25
388.488	122.25
388.713	95.25
388.938	106.25
389.163	92.25
389.387	91.25
389.612	98.25
389.837	85.25
390.062	91.25
390.287	99.25
390.512	94.25
390.736	101.25
390.961	90.25
391.186	91.25
391.411	96.25
391.636	104.25
391.86	72.25
392.085	87.25
392.31	90.25
392.534	85.25
392.759	84.25
392.984	100.25
393.208	70.25
393.433	100.25
393.658	81.25
393.882	81.25
394.107	74.25
394.331	78.25
394.556	80.25
394.78	97.25
395.005	83.25
395.229	87.25
395.454	100.25
395.678	89.25
395.903	86.25
396.127	91.25
396.352	81.25
396.576	98.25
396.801	85.25
397.025	84.25
397.249	89.25
397.474	91.25
397.698	80.25
397.922	92.25
398.147	71.25
398.371	88.25
398.595	80.25
398.82	82.25
399.044	88.25
399.268	100.25
399.492	94.25
399.717	89.25
399.941	86.25
400.165	97.25
400.389	86.25
400.613	90.25
400.837	97.25
401.062	87.25
401.286	91.25
401.51	86.25
401.734	99.25
401.958	95.25
402.182	137.25
402.406	150.25
402.63	92.25
402.854	81.25
403.078	100.25
403.302	80.25
403.526	85.25
403.75	100.25
403.974	91.25
404.198	89.25
404.422	98.25
404.645	98.25
404.869	93.25
405.093	95.25
405.317	108.25
405.541	98.25
405.765	107.25
405.988	120.25
406.212	177.25
406.436	196.25
406.66	146.25
406.883	104.25
407.107	95.25
407.331	96.25
407.555	89.25
407.778	94.25
408.002	110.25
408.226	86.25
408.449	92.25
408.673	84.25
408.896	100.25
409.12	87.25
409.344	97.25
409.567	91.25
409.791	92.25
410.014	98.25
410.238	94.25
410.461	89.25
410.685	99.25
410.908	107.25
411.132	91.25
411.355	93.25
411.578	87.25
411.802	97.25
412.025	84.25
412.249	72.25
412.472	88.25
412.695	98.25
412.919	99.25
413.142	93.25
413.365	88.25
413.589	75.25
413.812	95.25
414.035	101.25
414.258	91.25
414.482	95.25
414.705	83.25
414.928	89.25
415.151	65.25
415.374	94.25
415.597	83.25
415.821	95.25
416.044	90.25
416.267	87.25
416.49	88.25
416.713	94.25
416.936	103.25
417.159	83.25
417.382	97.25
417.605	88.25
417.828	96.25
418.051	86.25
418.274	88.25
418.497	86.25
418.72	86.25
418.943	100.25
419.166	84.25
419.389	84.25
419.611	77.25
419.834	92.25
420.057	75.25
420.28	92.25
420.503	73.25
420.726	77.25
420.948	79.25
421.171	87.25
421.394	82.25
421.617	89.25
421.839	101.25
422.062	92.25
422.285	82.25
422.507	95.25
422.73	94.25
422.953	98.25
423.175	98.25
423.398	99.25
423.621	104.25
423.843	81.25
424.066	84.25
424.288	86.25
424.511	84.25
424.733	79.25
424.956	105.25
425.178	104.25
425.401	101.25
425.623	89.25
425.846	99.25
426.068	86.25
426.291	95.25
426.513	90.25
426.735	98.25
426.958	93.25
427.18	99.25
427.402	111.25
427.625	162.25
427.847	106.25
428.069	98.25
428.292	97.25
428.514	96.25
428.736	76.25
428.958	74.25
429.181	82.25
429.403	84.25
429.625	79.25
429.847	98.25
430.069	90.25
430.292	90.25
430.514	97.25
430.736	75.25
430.958	111.25
431.18	84.25
431.402	98.25
431.624	88.25
431.846	103.25
432.068	91.25
432.29	87.25
432.512	95.25
432.734	83.25
432.956	78.25
433.178	102.25
433.4	90.25
433.622	90.25
433.844	99.25
434.066	81.25
434.287	83.25
434.509	82.25
434.731	93.25
434.953	93.25
435.175	74.25
435.397	87.25
435.618	97.25
435.84	103.25
436.062	114.25
436.284	126.25
436.505	81.25
436.727	103.25
436.949	75.25
437.17	107.25
437.392	92.25
437.614	93.25
437.835	98.25
438.057	116.25
438.278	89.25
438.5	116.25
438.721	106.25
438.943	96.25
439.165	83.25
439.386	88.25
439.608	86.25
439.829	89.25
440.05	122.25
440.272	135.25
440.493	98.25
440.715	81.25
440.936	88.25
441.158	86.25
441.379	88.25
441.6	90.25
441.822	74.25
442.043	98.25
442.264	83.25
442.486	93.25
442.707	95.25
442.928	100.25
443.149	112.25
443.371	124.25
443.592	111.25
443.813	92.25
444.034	98.25
444.255	84.25
444.476	93.25
444.698	104.25
444.919	84.25
445.14	116.25
445.361	121.25
445.582	100.25
445.803	122.25
446.024	124.25
446.245	135.25
446.466	115.25
446.687	103.25
446.908	88.25
447.129	80.25
447.35	76.25
447.571	87.25
447.792	83.25
448.013	91.25
448.234	113.25
448.455	86.25
448.675	109.25
448.896	124.25
449.117	94.25
449.338	108.25
449.559	116.25
449.779	117.25
450	88.25
450.221	99.25
450.442	89.25
450.662	94.25
450.883	106.25
451.104	117.25
451.324	90.25
451.545	84.25
451.766	96.25
451.986	84.25
452.207	98.25
452.428	89.25
452.648	97.25
452.869	116.25
453.089	109.25
453.31	115.25
453.53	91.25
453.751	83.25
453.971	108.25
454.192	122.25
454.412	102.25
454.633	91.25
454.853	87.25
455.073	90.25
455.294	85.25
455.514	84.25
455.734	85.25
455.955	90.25
456.175	83.25
456.395	102.25
456.616	93.25
456.836	83.25
457.056	91.25
457.276	79.25
457.497	87.25
457.717	88.25
457.937	80.25
458.157	76.25
458.377	103.25
458.598	105.25
458.818	147.25
459.038	132.25
459.258	114.25
459.478	87.25
459.698	83.25
459.918	76.25
460.138	67.25
460.358	103.25
460.578	87.25
460.798	79.25
461.018	83.25
461.238	89.25
461.458	82.25
461.678	82.25
461.898	92.25
462.118	94.25
462.338	87.25
462.558	95.25
462.777	81.25
462.997	88.25
463.217	100.25
463.437	101.25
463.657	99.25
463.876	92.25
464.096	87.25
464.316	94.25
464.536	88.25
464.755	99.25
464.975	111.25
465.195	163.25
465.414	150.25
465.634	92.25
465.854	92.25
466.073	97.25
466.293	83.25
466.512	82.25
466.732	79.25
466.951	71.25
467.171	83.25
467.391	91.25
467.61	101.25
467.829	90.25
468.049	98.25
468.268	88.25
468.488	80.25
468.707	92.25
468.927	96.25
469.146	96.25
469.365	98.25
469.585	89.25
469.804	92.25
470.023	96.25
470.243	89.25
470.462	89.25
470.681	102.25
470.901	99.25
471.12	83.25
471.339	110.25
471.558	82.25
471.777	99.25
471.997	87.25
472.216	87.25
472.435	102.25
472.654	86.25
472.873	83.25
473.092	93.25
473.311	71.25
473.53	74.25
473.749	85.25
473.968	102.25
474.187	101.25
474.406	90.25
474.625	76.25
474.844	87.25
475.063	88.25
475.282	97.25
475.501	96.25
475.72	83.25
475.939	92.25
476.158	66.25
476.377	82.25
476.596	94.25
476.814	101.25
477.033	88.25
477.252	95.25
477.471	77.25
477.69	96.25
477.908	91.25
478.127	90.25
478.346	95.25
478.564	97.25
478.783	83.25
479.002	100.25
479.22	100.25
479.439	96.25
479.658	100.25
479.876	92.25
480.095	94.25
480.313	88.25
480.532	93.25
480.751	91.25
480.969	93.25
481.188	96.25
481.406	96.25
481.624	81.25
481.843	86.25
482.061	95.25
482.28	102.25
482.498	77.25
482.717	83.25
482.935	72.25
483.153	81.25
483.372	96.25
483.59	83.25
483.808	79.25
484.027	88.25
484.245	82.25
484.463	87.25
484.681	88.25
484.9	102.25
485.118	94.25
485.336	92.25
485.554	102.25
485.772	102.25
485.99	103.25
486.209	103.25
486.427	98.25
486.645	111.25
486.863	108.25
487.081	97.25
487.299	90.25
487.517	84.25
487.735	94.25
487.953	81.25
488.171	90.25
488.389	94.25
488.607	100.25
488.825	99.25
489.043	91.25
489.261	92.25
489.479	84.25
489.696	80.25
489.914	98.25
490.132	91.25
490.35	88.25
490.568	88.25
490.786	90.25
491.003	89.25
491.221	83.25
491.439	93.25
491.657	96.25
491.874	82.25
492.092	95.25
492.31	97.25
492.527	90.25
492.745	79.25
492.963	94.25
493.18	96.25
493.398	105.25
493.615	83.25
493.833	98.25
494.05	77.25
494.268	84.25
494.485	107.25
494.703	87.25
494.92	101.25
495.138	98.25
495.355	102.25
495.573	100.25
495.79	100.25
496.008	90.25
496.225	92.25
496.442	91.25
496.66	84.25
496.877	89.25
497.094	83.25
497.312	79.25
497.529	94.25
497.746	85.25
497.963	88.25
498.181	89.25
498.398	101.25
498.615	99.25
498.832	103.25
499.049	96.25
499.267	94.25
499.484	95.25
499.701	87.25
499.918	79.25
500.135	89.25
500.352	92.25
500.569	93.25
500.786	95.25
501.003	83.25
501.22	74.25
501.437	92.25
501.654	91.25
501.871	109.25
502.088	103.25
502.305	99.25
502.522	88.25
502.739	93.25
502.956	83.25
503.172	95.25
503.389	102.25
503.606	102.25
503.823	107.25
504.04	93.25
504.256	88.25
504.473	92.25
504.69	76.25
504.907	101.25
505.123	88.25
505.34	88.25
505.557	104.25
505.773	89.25
505.99	72.25
506.207	95.25
506.423	91.25
506.64	96.25
506.856	98.25
507.073	97.25
507.289	93.25
507.506	96.25
507.722	106.25
507.939	92.25
508.155	90.25
508.372	95.25
508.588	94.25
508.805	88.25
509.021	92.25
509.238	107.25
509.454	97.25
509.67	105.25
509.887	109.25
510.103	131.25
510.319	194.25
510.536	736.25
510.752	2323.25
510.968	678.25
511.184	147.25
511.401	103.25
511.617	93.25
511.833	101.25
512.049	86.25
512.265	91.25
512.481	99.25
512.698	97.25
512.914	93.25
513.13	107.25
513.346	83.25
513.562	86.25
513.778	106.25
513.994	95.25
514.21	108.25
514.426	131.25
514.642	124.25
514.858	110.25
515.074	140.25
515.29	438.25
515.506	1447.25
515.721	558.25
515.937	141.25
516.153	114.25
