Data from Uncirc_2008_H10_HRD10591_00098.txt Node
Date: Wed Jan 03 10:15:50 EST 2024
User: Yrep
Spectrometer: HR+D1059
Trigger mode: 1
Integration Time (sec): 1.000000E-1
Scans to average: 1
Electric dark correction enabled: true
Nonlinearity correction enabled: false
Boxcar width: 0
XAxis mode: Wavelengths
Number of Pixels in Spectrum: 2048
>>>>>Begin Spectral Data<<<<<
223.165	-18.69
223.4	-18.69
223.635	-18.69
223.869	-13.69
224.104	-17.69
224.338	-7.69
224.573	-16.69
224.808	-17.69
225.042	-15.69
225.277	-4.69
225.511	-12.69
225.746	0.31
225.98	11.31
226.215	23.31
226.449	17.31
226.683	18.31
226.918	20.31
227.152	34.31
227.387	37.31
227.621	35.31
227.856	40.31
228.09	47.31
228.324	53.31
228.559	59.31
228.793	54.31
229.027	76.31
229.262	56.31
229.496	83.31
229.73	82.31
229.964	77.31
230.199	87.31
230.433	61.31
230.667	86.31
230.901	67.31
231.136	93.31
231.37	73.31
231.604	83.31
231.838	66.31
232.072	86.31
232.306	76.31
232.541	74.31
232.775	73.31
233.009	76.31
233.243	75.31
233.477	76.31
233.711	77.31
233.945	78.31
234.179	72.31
234.413	87.31
234.647	85.31
234.881	80.31
235.115	81.31
235.349	73.31
235.583	71.31
235.817	65.31
236.051	73.31
236.285	85.31
236.519	84.31
236.753	69.31
236.987	69.31
237.221	78.31
237.455	80.31
237.689	77.31
237.922	82.31
238.156	87.31
238.39	68.31
238.624	73.31
238.858	77.31
239.091	78.31
239.325	74.31
239.559	68.31
239.793	79.31
240.027	73.31
240.26	92.31
240.494	74.31
240.728	82.31
240.961	71.31
241.195	81.31
241.429	75.31
241.662	83.31
241.896	92.31
242.13	83.31
242.363	75.31
242.597	75.31
242.83	63.31
243.064	93.31
243.298	93.31
243.531	91.31
243.765	70.31
243.998	79.31
244.232	77.31
244.465	86.31
244.699	70.31
244.932	73.31
245.166	80.31
245.399	66.31
245.633	76.31
245.866	74.31
246.099	79.31
246.333	79.31
246.566	79.31
246.8	95.31
247.033	90.31
247.266	72.31
247.5	72.31
247.733	91.31
247.966	80.31
248.2	74.31
248.433	81.31
248.666	90.31
248.899	71.31
249.133	87.31
249.366	90.31
249.599	88.31
249.832	65.31
250.066	77.31
250.299	80.31
250.532	79.31
250.765	77.31
250.998	73.31
251.231	82.31
251.465	77.31
251.698	76.31
251.931	83.31
252.164	87.31
252.397	88.31
252.63	70.31
252.863	88.31
253.096	73.31
253.329	76.31
253.562	86.31
253.795	85.31
254.028	81.31
254.261	87.31
254.494	92.31
254.727	80.31
254.96	84.31
255.193	83.31
255.426	90.31
255.659	94.31
255.892	83.31
256.124	82.31
256.357	92.31
256.59	85.31
256.823	89.31
257.056	69.31
257.289	86.31
257.521	89.31
257.754	75.31
257.987	78.31
258.22	91.31
258.452	82.31
258.685	79.31
258.918	74.31
259.151	82.31
259.383	87.31
259.616	90.31
259.849	95.31
260.081	72.31
260.314	83.31
260.547	83.31
260.779	73.31
261.012	83.31
261.244	82.31
261.477	90.31
261.71	73.31
261.942	101.31
262.175	115.31
262.407	102.31
262.64	85.31
262.872	83.31
263.105	88.31
263.337	76.31
263.57	93.31
263.802	78.31
264.035	83.31
264.267	85.31
264.499	77.31
264.732	93.31
264.964	75.31
265.197	77.31
265.429	79.31
265.661	106.31
265.894	89.31
266.126	90.31
266.358	99.31
266.591	89.31
266.823	81.31
267.055	80.31
267.287	78.31
267.52	80.31
267.752	87.31
267.984	78.31
268.216	80.31
268.448	91.31
268.681	83.31
268.913	84.31
269.145	77.31
269.377	79.31
269.609	77.31
269.841	86.31
270.073	76.31
270.306	74.31
270.538	79.31
270.77	93.31
271.002	85.31
271.234	90.31
271.466	67.31
271.698	88.31
271.93	93.31
272.162	95.31
272.394	83.31
272.626	80.31
272.858	77.31
273.09	71.31
273.322	99.31
273.553	82.31
273.785	68.31
274.017	90.31
274.249	64.31
274.481	95.31
274.713	87.31
274.945	95.31
275.176	98.31
275.408	94.31
275.64	90.31
275.872	93.31
276.104	89.31
276.335	86.31
276.567	86.31
276.799	101.31
277.031	79.31
277.262	94.31
277.494	82.31
277.726	81.31
277.957	83.31
278.189	77.31
278.421	88.31
278.652	87.31
278.884	77.31
279.115	91.31
279.347	81.31
279.579	89.31
279.81	87.31
280.042	75.31
280.273	89.31
280.505	85.31
280.736	83.31
280.968	90.31
281.199	81.31
281.431	69.31
281.662	92.31
281.894	94.31
282.125	84.31
282.356	109.31
282.588	141.31
282.819	104.31
283.051	83.31
283.282	81.31
283.513	96.31
283.745	88.31
283.976	85.31
284.207	86.31
284.439	96.31
284.67	99.31
284.901	79.31
285.132	82.31
285.364	90.31
285.595	91.31
285.826	106.31
286.057	91.31
286.288	86.31
286.52	92.31
286.751	81.31
286.982	80.31
287.213	79.31
287.444	78.31
287.675	77.31
287.906	88.31
288.138	87.31
288.369	82.31
288.6	86.31
288.831	82.31
289.062	92.31
289.293	93.31
289.524	82.31
289.755	79.31
289.986	82.31
290.217	82.31
290.448	98.31
290.679	92.31
290.91	81.31
291.141	74.31
291.371	96.31
291.602	91.31
291.833	88.31
292.064	74.31
292.295	81.31
292.526	83.31
292.757	88.31
292.987	88.31
293.218	98.31
293.449	90.31
293.68	91.31
293.91	92.31
294.141	96.31
294.372	91.31
294.603	86.31
294.833	93.31
295.064	81.31
295.295	98.31
295.525	88.31
295.756	94.31
295.987	115.31
296.217	117.31
296.448	119.31
296.679	97.31
296.909	79.31
297.14	97.31
297.37	98.31
297.601	83.31
297.831	84.31
298.062	102.31
298.292	108.31
298.523	83.31
298.753	88.31
298.984	83.31
299.214	81.31
299.445	99.31
299.675	86.31
299.905	83.31
300.136	77.31
300.366	99.31
300.597	96.31
300.827	106.31
301.057	102.31
301.288	95.31
301.518	83.31
301.748	104.31
301.979	105.31
302.209	97.31
302.439	86.31
302.669	75.31
302.9	87.31
303.13	77.31
303.36	95.31
303.59	100.31
303.82	97.31
304.051	88.31
304.281	90.31
304.511	82.31
304.741	101.31
304.971	92.31
305.201	95.31
305.431	77.31
305.661	97.31
305.891	93.31
306.121	85.31
306.352	99.31
306.582	97.31
306.812	94.31
307.042	96.31
307.272	84.31
307.502	95.31
307.731	86.31
307.961	96.31
308.191	101.31
308.421	78.31
308.651	89.31
308.881	95.31
309.111	93.31
309.341	81.31
309.571	103.31
309.8	89.31
310.03	94.31
310.26	102.31
310.49	99.31
310.72	95.31
310.949	89.31
311.179	100.31
311.409	84.31
311.639	83.31
311.868	93.31
312.098	101.31
312.328	95.31
312.557	93.31
312.787	86.31
313.017	106.31
313.246	97.31
313.476	100.31
313.706	73.31
313.935	81.31
314.165	102.31
314.394	93.31
314.624	79.31
314.853	96.31
315.083	92.31
315.312	92.31
315.542	102.31
315.771	94.31
316.001	87.31
316.23	94.31
316.46	96.31
316.689	86.31
316.919	103.31
317.148	104.31
317.377	89.31
317.607	95.31
317.836	80.31
318.065	82.31
318.295	88.31
318.524	77.31
318.753	94.31
318.983	94.31
319.212	100.31
319.441	104.31
319.67	91.31
319.9	95.31
320.129	83.31
320.358	87.31
320.587	89.31
320.816	86.31
321.046	96.31
321.275	99.31
321.504	89.31
321.733	95.31
321.962	110.31
322.191	93.31
322.42	92.31
322.649	111.31
322.878	113.31
323.108	109.31
323.337	116.31
323.566	141.31
323.795	159.31
324.024	206.31
324.253	367.31
324.482	779.31
324.71	1580.31
324.939	2055.31
325.168	761.31
325.397	237.31
325.626	145.31
325.855	122.31
326.084	117.31
326.313	127.31
326.542	145.31
326.77	219.31
326.999	439.31
327.228	902.31
327.457	1552.31
327.686	1252.31
327.914	339.31
328.143	177.31
328.372	141.31
328.6	122.31
328.829	113.31
329.058	130.31
329.287	117.31
329.515	108.31
329.744	103.31
329.972	103.31
330.201	89.31
330.43	101.31
330.658	116.31
330.887	123.31
331.115	115.31
331.344	99.31
331.572	96.31
331.801	90.31
332.03	109.31
332.258	90.31
332.486	82.31
332.715	90.31
332.943	89.31
333.172	85.31
333.4	98.31
333.629	105.31
333.857	114.31
334.085	100.31
334.314	99.31
334.542	83.31
334.771	96.31
334.999	90.31
335.227	88.31
335.455	93.31
335.684	95.31
335.912	92.31
336.14	97.31
336.369	78.31
336.597	97.31
336.825	102.31
337.053	89.31
337.281	107.31
337.51	102.31
337.738	94.31
337.966	89.31
338.194	93.31
338.422	99.31
338.65	96.31
338.878	88.31
339.106	88.31
339.334	93.31
339.562	74.31
339.79	91.31
340.018	93.31
340.246	107.31
340.474	86.31
340.702	87.31
340.93	79.31
341.158	88.31
341.386	87.31
341.614	108.31
341.842	98.31
342.07	81.31
342.298	80.31
342.526	95.31
342.754	93.31
342.981	93.31
343.209	88.31
343.437	96.31
343.665	96.31
343.893	87.31
344.12	82.31
344.348	88.31
344.576	95.31
344.804	82.31
345.031	100.31
345.259	110.31
345.487	89.31
345.714	93.31
345.942	89.31
346.17	87.31
346.397	102.31
346.625	98.31
346.853	88.31
347.08	102.31
347.308	102.31
347.535	94.31
347.763	89.31
347.99	90.31
348.218	118.31
348.445	95.31
348.673	102.31
348.9	100.31
349.128	99.31
349.355	98.31
349.583	105.31
349.81	95.31
350.037	98.31
350.265	66.31
350.492	91.31
350.72	95.31
350.947	93.31
351.174	112.31
351.402	108.31
351.629	109.31
351.856	100.31
352.083	103.31
352.311	106.31
352.538	107.31
352.765	104.31
352.992	111.31
353.22	106.31
353.447	106.31
353.674	90.31
353.901	84.31
354.128	91.31
354.355	98.31
354.583	92.31
354.81	88.31
355.037	94.31
355.264	102.31
355.491	92.31
355.718	98.31
355.945	97.31
356.172	103.31
356.399	96.31
356.626	83.31
356.853	79.31
357.08	82.31
357.307	87.31
357.534	85.31
357.761	93.31
357.988	95.31
358.215	93.31
358.441	93.31
358.668	87.31
358.895	92.31
359.122	81.31
359.349	99.31
359.576	111.31
359.802	89.31
360.029	101.31
360.256	90.31
360.483	83.31
360.709	78.31
360.936	83.31
361.163	101.31
361.39	94.31
361.616	88.31
361.843	94.31
362.07	93.31
362.296	98.31
362.523	105.31
362.749	93.31
362.976	84.31
363.203	102.31
363.429	78.31
363.656	86.31
363.882	107.31
364.109	98.31
364.335	81.31
364.562	75.31
364.788	101.31
365.015	104.31
365.241	92.31
365.468	106.31
365.694	108.31
365.92	107.31
366.147	91.31
366.373	84.31
366.599	94.31
366.826	94.31
367.052	78.31
367.278	85.31
367.505	82.31
367.731	87.31
367.957	83.31
368.184	90.31
368.41	89.31
368.636	93.31
368.862	129.31
369.089	99.31
369.315	88.31
369.541	83.31
369.767	91.31
369.993	86.31
370.219	85.31
370.445	74.31
370.672	88.31
370.898	79.31
371.124	75.31
371.35	86.31
371.576	82.31
371.802	80.31
372.028	79.31
372.254	105.31
372.48	87.31
372.706	81.31
372.932	88.31
373.158	88.31
373.384	96.31
373.61	88.31
373.835	77.31
374.061	89.31
374.287	82.31
374.513	98.31
374.739	97.31
374.965	80.31
375.191	95.31
375.416	83.31
375.642	85.31
375.868	88.31
376.094	92.31
376.319	96.31
376.545	91.31
376.771	66.31
376.997	78.31
377.222	86.31
377.448	68.31
377.674	96.31
377.899	75.31
378.125	101.31
378.35	94.31
378.576	79.31
378.802	81.31
379.027	76.31
379.253	97.31
379.478	75.31
379.704	101.31
379.929	96.31
380.155	96.31
380.38	84.31
380.606	74.31
380.831	104.31
381.057	104.31
381.282	96.31
381.507	93.31
381.733	112.31
381.958	119.31
382.184	86.31
382.409	95.31
382.634	104.31
382.86	95.31
383.085	89.31
383.31	89.31
383.535	93.31
383.761	91.31
383.986	97.31
384.211	91.31
384.436	96.31
384.662	98.31
384.887	102.31
385.112	106.31
385.337	105.31
385.562	94.31
385.787	92.31
386.013	102.31
386.238	115.31
386.463	88.31
386.688	101.31
386.913	106.31
387.138	98.31
387.363	112.31
387.588	105.31
387.813	97.31
388.038	103.31
388.263	112.31
388.488	107.31
388.713	114.31
388.938	95.31
389.163	95.31
389.387	102.31
389.612	85.31
389.837	99.31
390.062	98.31
390.287	93.31
390.512	90.31
390.736	95.31
390.961	85.31
391.186	96.31
391.411	88.31
391.636	103.31
391.86	94.31
392.085	83.31
392.31	95.31
392.534	91.31
392.759	100.31
392.984	77.31
393.208	84.31
393.433	85.31
393.658	91.31
393.882	88.31
394.107	86.31
394.331	104.31
394.556	82.31
394.78	87.31
395.005	81.31
395.229	85.31
395.454	91.31
395.678	81.31
395.903	86.31
396.127	69.31
396.352	92.31
396.576	86.31
396.801	78.31
397.025	89.31
397.249	98.31
397.474	88.31
397.698	95.31
397.922	89.31
398.147	94.31
398.371	75.31
398.595	90.31
398.82	89.31
399.044	78.31
399.268	79.31
399.492	84.31
399.717	92.31
399.941	98.31
400.165	86.31
400.389	82.31
400.613	85.31
400.837	78.31
401.062	82.31
401.286	88.31
401.51	90.31
401.734	78.31
401.958	112.31
402.182	119.31
402.406	146.31
402.63	116.31
402.854	101.31
403.078	99.31
403.302	94.31
403.526	97.31
403.75	78.31
403.974	103.31
404.198	88.31
404.422	89.31
404.645	91.31
404.869	81.31
405.093	75.31
405.317	87.31
405.541	96.31
405.765	73.31
405.988	111.31
406.212	154.31
406.436	212.31
406.66	143.31
406.883	86.31
407.107	107.31
407.331	96.31
407.555	96.31
407.778	93.31
408.002	91.31
408.226	86.31
408.449	69.31
408.673	81.31
408.896	92.31
409.12	91.31
409.344	93.31
409.567	88.31
409.791	106.31
410.014	88.31
410.238	98.31
410.461	81.31
410.685	88.31
410.908	113.31
411.132	104.31
411.355	94.31
411.578	99.31
411.802	79.31
412.025	99.31
412.249	85.31
412.472	85.31
412.695	85.31
412.919	85.31
413.142	80.31
413.365	94.31
413.589	102.31
413.812	75.31
414.035	95.31
414.258	96.31
414.482	94.31
414.705	90.31
414.928	66.31
415.151	101.31
415.374	73.31
415.597	90.31
415.821	94.31
416.044	76.31
416.267	87.31
416.49	91.31
416.713	83.31
416.936	97.31
417.159	76.31
417.382	78.31
417.605	83.31
417.828	78.31
418.051	87.31
418.274	94.31
418.497	79.31
418.72	92.31
418.943	99.31
419.166	94.31
419.389	90.31
419.611	83.31
419.834	82.31
420.057	96.31
420.28	84.31
420.503	80.31
420.726	105.31
420.948	91.31
421.171	92.31
421.394	84.31
421.617	95.31
421.839	94.31
422.062	90.31
422.285	85.31
422.507	97.31
422.73	108.31
422.953	95.31
423.175	91.31
423.398	87.31
423.621	85.31
423.843	91.31
424.066	92.31
424.288	96.31
424.511	104.31
424.733	83.31
424.956	114.31
425.178	104.31
425.401	100.31
425.623	94.31
425.846	83.31
426.068	88.31
426.291	104.31
426.513	97.31
426.735	114.31
426.958	86.31
427.18	106.31
427.402	117.31
427.625	149.31
427.847	111.31
428.069	108.31
428.292	81.31
428.514	87.31
428.736	96.31
428.958	83.31
429.181	82.31
429.403	81.31
429.625	90.31
429.847	95.31
430.069	94.31
430.292	87.31
430.514	92.31
430.736	82.31
430.958	82.31
431.18	85.31
431.402	90.31
431.624	93.31
431.846	79.31
432.068	89.31
432.29	78.31
432.512	93.31
432.734	81.31
432.956	86.31
433.178	98.31
433.4	89.31
433.622	77.31
433.844	76.31
434.066	87.31
434.287	76.31
434.509	83.31
434.731	95.31
434.953	98.31
435.175	81.31
435.397	91.31
435.618	92.31
435.84	93.31
436.062	116.31
436.284	134.31
436.505	92.31
436.727	91.31
436.949	81.31
437.17	83.31
437.392	96.31
437.614	86.31
437.835	111.31
438.057	117.31
438.278	100.31
438.5	119.31
438.721	111.31
438.943	98.31
439.165	88.31
439.386	91.31
439.608	93.31
439.829	91.31
440.05	114.31
440.272	121.31
440.493	101.31
440.715	94.31
440.936	87.31
441.158	62.31
441.379	86.31
441.6	100.31
441.822	97.31
442.043	98.31
442.264	105.31
442.486	104.31
442.707	85.31
442.928	95.31
443.149	105.31
443.371	127.31
443.592	90.31
443.813	100.31
444.034	99.31
444.255	94.31
444.476	82.31
444.698	85.31
444.919	97.31
445.14	137.31
445.361	127.31
445.582	93.31
445.803	130.31
446.024	122.31
446.245	139.31
446.466	111.31
446.687	81.31
446.908	95.31
447.129	79.31
447.35	83.31
447.571	77.31
447.792	73.31
448.013	110.31
448.234	108.31
448.455	91.31
448.675	118.31
448.896	126.31
449.117	97.31
449.338	99.31
449.559	107.31
449.779	133.31
450	103.31
450.221	105.31
450.442	77.31
450.662	72.31
450.883	103.31
451.104	99.31
451.324	99.31
451.545	90.31
451.766	77.31
451.986	101.31
452.207	82.31
452.428	91.31
452.648	86.31
452.869	92.31
453.089	103.31
453.31	91.31
453.53	95.31
453.751	90.31
453.971	81.31
454.192	89.31
454.412	89.31
454.633	95.31
454.853	93.31
455.073	84.31
455.294	87.31
455.514	94.31
455.734	106.31
455.955	76.31
456.175	93.31
456.395	93.31
456.616	79.31
456.836	90.31
457.056	97.31
457.276	83.31
457.497	92.31
457.717	91.31
457.937	97.31
458.157	76.31
458.377	80.31
458.598	114.31
458.818	139.31
459.038	161.31
459.258	119.31
459.478	88.31
459.698	86.31
459.918	78.31
460.138	75.31
460.358	87.31
460.578	81.31
460.798	107.31
461.018	97.31
461.238	87.31
461.458	72.31
461.678	95.31
461.898	89.31
462.118	87.31
462.338	91.31
462.558	90.31
462.777	87.31
462.997	87.31
463.217	83.31
463.437	90.31
463.657	99.31
463.876	94.31
464.096	91.31
464.316	97.31
464.536	93.31
464.755	89.31
464.975	102.31
465.195	158.31
465.414	143.31
465.634	97.31
465.854	81.31
466.073	81.31
466.293	83.31
466.512	77.31
466.732	105.31
466.951	87.31
467.171	107.31
467.391	92.31
467.61	80.31
467.829	95.31
468.049	82.31
468.268	90.31
468.488	92.31
468.707	83.31
468.927	83.31
469.146	82.31
469.365	86.31
469.585	89.31
469.804	90.31
470.023	92.31
470.243	91.31
470.462	88.31
470.681	107.31
470.901	79.31
471.12	67.31
471.339	88.31
471.558	80.31
471.777	81.31
471.997	84.31
472.216	94.31
472.435	79.31
472.654	94.31
472.873	92.31
473.092	82.31
473.311	90.31
473.53	81.31
473.749	78.31
473.968	82.31
474.187	97.31
474.406	89.31
474.625	92.31
474.844	92.31
475.063	103.31
475.282	83.31
475.501	74.31
475.72	83.31
475.939	84.31
476.158	89.31
476.377	84.31
476.596	95.31
476.814	93.31
477.033	86.31
477.252	94.31
477.471	88.31
477.69	105.31
477.908	85.31
478.127	78.31
478.346	87.31
478.564	84.31
478.783	109.31
479.002	80.31
479.22	63.31
479.439	88.31
479.658	92.31
479.876	91.31
480.095	90.31
480.313	79.31
480.532	82.31
480.751	102.31
480.969	88.31
481.188	87.31
481.406	98.31
481.624	73.31
481.843	77.31
482.061	97.31
482.28	81.31
482.498	84.31
482.717	80.31
482.935	87.31
483.153	81.31
483.372	91.31
483.59	95.31
483.808	98.31
484.027	85.31
484.245	87.31
484.463	102.31
484.681	88.31
484.9	105.31
485.118	106.31
485.336	107.31
485.554	100.31
485.772	104.31
485.99	99.31
486.209	99.31
486.427	103.31
486.645	106.31
486.863	97.31
487.081	88.31
487.299	86.31
487.517	91.31
487.735	99.31
487.953	85.31
488.171	91.31
488.389	89.31
488.607	98.31
488.825	93.31
489.043	87.31
489.261	82.31
489.479	89.31
489.696	85.31
489.914	93.31
490.132	93.31
490.35	95.31
490.568	88.31
490.786	101.31
491.003	93.31
491.221	83.31
491.439	90.31
491.657	87.31
491.874	80.31
492.092	93.31
492.31	89.31
492.527	92.31
492.745	83.31
492.963	87.31
493.18	80.31
493.398	91.31
493.615	87.31
493.833	84.31
494.05	102.31
494.268	88.31
494.485	96.31
494.703	89.31
494.92	97.31
495.138	94.31
495.355	94.31
495.573	87.31
495.79	86.31
496.008	90.31
496.225	98.31
496.442	93.31
496.66	96.31
496.877	83.31
497.094	98.31
497.312	87.31
497.529	89.31
497.746	82.31
497.963	91.31
498.181	82.31
498.398	80.31
498.615	106.31
498.832	103.31
499.049	92.31
499.267	79.31
499.484	88.31
499.701	89.31
499.918	92.31
500.135	93.31
500.352	79.31
500.569	78.31
500.786	81.31
501.003	90.31
501.22	85.31
501.437	90.31
501.654	103.31
501.871	106.31
502.088	81.31
502.305	106.31
502.522	83.31
502.739	78.31
502.956	73.31
503.172	77.31
503.389	91.31
503.606	104.31
503.823	104.31
504.04	99.31
504.256	90.31
504.473	86.31
504.69	95.31
504.907	96.31
505.123	81.31
505.34	94.31
505.557	105.31
505.773	93.31
505.99	98.31
506.207	94.31
506.423	90.31
506.64	94.31
506.856	86.31
507.073	90.31
507.289	69.31
507.506	91.31
507.722	101.31
507.939	102.31
508.155	86.31
508.372	89.31
508.588	94.31
508.805	100.31
509.021	96.31
509.238	93.31
509.454	89.31
509.67	102.31
509.887	92.31
510.103	133.31
510.319	203.31
510.536	745.31
510.752	2335.31
510.968	674.31
511.184	155.31
511.401	114.31
511.617	89.31
511.833	102.31
512.049	101.31
512.265	87.31
512.481	91.31
512.698	88.31
512.914	84.31
513.13	92.31
513.346	103.31
513.562	89.31
513.778	79.31
513.994	90.31
514.21	95.31
514.426	118.31
514.642	139.31
514.858	118.31
515.074	152.31
515.29	418.31
515.506	1393.31
515.721	510.31
515.937	145.31
516.153	104.31
516.369	88.31
