Data from Uncirc_2008_H10_HRD10591_00092.txt Node
Date: Wed Jan 03 10:15:49 EST 2024
User: Yrep
Spectrometer: HR+D1059
Trigger mode: 1
Integration Time (sec): 1.000000E-1
Scans to average: 1
Electric dark correction enabled: true
Nonlinearity correction enabled: false
Boxcar width: 0
XAxis mode: Wavelengths
Number of Pixels in Spectrum: 2048
>>>>>Begin Spectral Data<<<<<
223.165	-0.5
223.4	-0.5
223.635	-0.5
223.869	-23.5
224.104	-28.5
224.338	1.5
224.573	-25.5
224.808	-20.5
225.042	-20.5
225.277	-7.5
225.511	0.5
225.746	11.5
225.98	13.5
226.215	4.5
226.449	14.5
226.683	12.5
226.918	32.5
227.152	35.5
227.387	33.5
227.621	41.5
227.856	47.5
228.09	50.5
228.324	47.5
228.559	65.5
228.793	60.5
229.027	68.5
229.262	71.5
229.496	73.5
229.73	84.5
229.964	79.5
230.199	76.5
230.433	79.5
230.667	72.5
230.901	87.5
231.136	65.5
231.37	80.5
231.604	79.5
231.838	98.5
232.072	69.5
232.306	74.5
232.541	70.5
232.775	81.5
233.009	82.5
233.243	68.5
233.477	69.5
233.711	83.5
233.945	83.5
234.179	83.5
234.413	73.5
234.647	65.5
234.881	89.5
235.115	79.5
235.349	80.5
235.583	75.5
235.817	70.5
236.051	80.5
236.285	78.5
236.519	66.5
236.753	86.5
236.987	75.5
237.221	80.5
237.455	87.5
237.689	72.5
237.922	58.5
238.156	67.5
238.39	68.5
238.624	67.5
238.858	86.5
239.091	83.5
239.325	76.5
239.559	89.5
239.793	80.5
240.027	72.5
240.26	92.5
240.494	75.5
240.728	79.5
240.961	71.5
241.195	83.5
241.429	89.5
241.662	85.5
241.896	88.5
242.13	63.5
242.363	70.5
242.597	75.5
242.83	82.5
243.064	70.5
243.298	89.5
243.531	73.5
243.765	74.5
243.998	72.5
244.232	81.5
244.465	79.5
244.699	85.5
244.932	82.5
245.166	80.5
245.399	81.5
245.633	78.5
245.866	90.5
246.099	83.5
246.333	74.5
246.566	77.5
246.8	88.5
247.033	87.5
247.266	75.5
247.5	87.5
247.733	84.5
247.966	82.5
248.2	79.5
248.433	83.5
248.666	80.5
248.899	77.5
249.133	80.5
249.366	90.5
249.599	77.5
249.832	80.5
250.066	81.5
250.299	73.5
250.532	72.5
250.765	97.5
250.998	82.5
251.231	72.5
251.465	84.5
251.698	84.5
251.931	56.5
252.164	87.5
252.397	84.5
252.63	70.5
252.863	82.5
253.096	72.5
253.329	87.5
253.562	90.5
253.795	83.5
254.028	88.5
254.261	87.5
254.494	76.5
254.727	72.5
254.96	78.5
255.193	74.5
255.426	72.5
255.659	75.5
255.892	81.5
256.124	59.5
256.357	68.5
256.59	82.5
256.823	75.5
257.056	80.5
257.289	81.5
257.521	83.5
257.754	79.5
257.987	79.5
258.22	86.5
258.452	91.5
258.685	77.5
258.918	76.5
259.151	78.5
259.383	82.5
259.616	80.5
259.849	76.5
260.081	67.5
260.314	73.5
260.547	78.5
260.779	75.5
261.012	84.5
261.244	70.5
261.477	96.5
261.71	96.5
261.942	100.5
262.175	112.5
262.407	89.5
262.64	74.5
262.872	101.5
263.105	77.5
263.337	89.5
263.57	70.5
263.802	91.5
264.035	77.5
264.267	86.5
264.499	66.5
264.732	82.5
264.964	92.5
265.197	73.5
265.429	74.5
265.661	81.5
265.894	80.5
266.126	93.5
266.358	85.5
266.591	78.5
266.823	80.5
267.055	69.5
267.287	77.5
267.52	68.5
267.752	76.5
267.984	85.5
268.216	76.5
268.448	74.5
268.681	80.5
268.913	81.5
269.145	84.5
269.377	78.5
269.609	74.5
269.841	89.5
270.073	76.5
270.306	76.5
270.538	89.5
270.77	83.5
271.002	76.5
271.234	91.5
271.466	79.5
271.698	78.5
271.93	91.5
272.162	78.5
272.394	92.5
272.626	75.5
272.858	97.5
273.09	83.5
273.322	72.5
273.553	83.5
273.785	83.5
274.017	84.5
274.249	87.5
274.481	76.5
274.713	88.5
274.945	79.5
275.176	81.5
275.408	94.5
275.64	102.5
275.872	87.5
276.104	96.5
276.335	84.5
276.567	83.5
276.799	113.5
277.031	91.5
277.262	97.5
277.494	90.5
277.726	84.5
277.957	85.5
278.189	97.5
278.421	93.5
278.652	79.5
278.884	90.5
279.115	72.5
279.347	84.5
279.579	82.5
279.81	95.5
280.042	88.5
280.273	93.5
280.505	89.5
280.736	97.5
280.968	89.5
281.199	85.5
281.431	79.5
281.662	94.5
281.894	75.5
282.125	84.5
282.356	100.5
282.588	130.5
282.819	105.5
283.051	83.5
283.282	77.5
283.513	106.5
283.745	86.5
283.976	81.5
284.207	79.5
284.439	86.5
284.67	101.5
284.901	90.5
285.132	77.5
285.364	90.5
285.595	92.5
285.826	89.5
286.057	92.5
286.288	84.5
286.52	87.5
286.751	70.5
286.982	89.5
287.213	81.5
287.444	77.5
287.675	87.5
287.906	78.5
288.138	90.5
288.369	86.5
288.6	101.5
288.831	87.5
289.062	91.5
289.293	88.5
289.524	86.5
289.755	92.5
289.986	85.5
290.217	77.5
290.448	65.5
290.679	79.5
290.91	82.5
291.141	72.5
291.371	92.5
291.602	89.5
291.833	82.5
292.064	91.5
292.295	83.5
292.526	88.5
292.757	88.5
292.987	80.5
293.218	87.5
293.449	88.5
293.68	83.5
293.91	87.5
294.141	81.5
294.372	97.5
294.603	90.5
294.833	102.5
295.064	77.5
295.295	82.5
295.525	82.5
295.756	104.5
295.987	121.5
296.217	120.5
296.448	108.5
296.679	87.5
296.909	93.5
297.14	85.5
297.37	89.5
297.601	89.5
297.831	102.5
298.062	85.5
298.292	84.5
298.523	92.5
298.753	87.5
298.984	81.5
299.214	96.5
299.445	81.5
299.675	84.5
299.905	102.5
300.136	83.5
300.366	83.5
300.597	94.5
300.827	89.5
301.057	84.5
301.288	105.5
301.518	105.5
301.748	95.5
301.979	101.5
302.209	82.5
302.439	88.5
302.669	92.5
302.9	79.5
303.13	83.5
303.36	98.5
303.59	95.5
303.82	81.5
304.051	94.5
304.281	94.5
304.511	93.5
304.741	90.5
304.971	80.5
305.201	83.5
305.431	90.5
305.661	84.5
305.891	105.5
306.121	96.5
306.352	94.5
306.582	94.5
306.812	96.5
307.042	92.5
307.272	104.5
307.502	93.5
307.731	94.5
307.961	80.5
308.191	91.5
308.421	90.5
308.651	85.5
308.881	79.5
309.111	99.5
309.341	90.5
309.571	85.5
309.8	110.5
310.03	97.5
310.26	94.5
310.49	106.5
310.72	107.5
310.949	91.5
311.179	102.5
311.409	102.5
311.639	103.5
311.868	101.5
312.098	106.5
312.328	100.5
312.557	111.5
312.787	104.5
313.017	95.5
313.246	105.5
313.476	88.5
313.706	96.5
313.935	87.5
314.165	90.5
314.394	77.5
314.624	111.5
314.853	110.5
315.083	95.5
315.312	102.5
315.542	98.5
315.771	92.5
316.001	80.5
316.23	101.5
316.46	87.5
316.689	92.5
316.919	89.5
317.148	96.5
317.377	96.5
317.607	84.5
317.836	77.5
318.065	88.5
318.295	94.5
318.524	91.5
318.753	91.5
318.983	89.5
319.212	102.5
319.441	115.5
319.67	109.5
319.9	86.5
320.129	88.5
320.358	96.5
320.587	90.5
320.816	89.5
321.046	77.5
321.275	104.5
321.504	105.5
321.733	98.5
321.962	114.5
322.191	99.5
322.42	106.5
322.649	106.5
322.878	91.5
323.108	103.5
323.337	136.5
323.566	118.5
323.795	151.5
324.024	211.5
324.253	367.5
324.482	782.5
324.71	1523.5
324.939	2017.5
325.168	758.5
325.397	230.5
325.626	142.5
325.855	128.5
326.084	109.5
326.313	126.5
326.542	155.5
326.77	216.5
326.999	438.5
327.228	910.5
327.457	1522.5
327.686	1244.5
327.914	352.5
328.143	188.5
328.372	132.5
328.6	127.5
328.829	113.5
329.058	126.5
329.287	129.5
329.515	107.5
329.744	96.5
329.972	96.5
330.201	101.5
330.43	107.5
330.658	111.5
330.887	120.5
331.115	107.5
331.344	85.5
331.572	95.5
331.801	106.5
332.03	91.5
332.258	99.5
332.486	93.5
332.715	92.5
332.943	88.5
333.172	94.5
333.4	100.5
333.629	113.5
333.857	118.5
334.085	115.5
334.314	107.5
334.542	100.5
334.771	89.5
334.999	106.5
335.227	95.5
335.455	91.5
335.684	102.5
335.912	90.5
336.14	94.5
336.369	107.5
336.597	96.5
336.825	98.5
337.053	89.5
337.281	86.5
337.51	78.5
337.738	105.5
337.966	86.5
338.194	96.5
338.422	105.5
338.65	104.5
338.878	99.5
339.106	93.5
339.334	92.5
339.562	87.5
339.79	91.5
340.018	90.5
340.246	96.5
340.474	99.5
340.702	97.5
340.93	93.5
341.158	95.5
341.386	93.5
341.614	92.5
341.842	79.5
342.07	82.5
342.298	87.5
342.526	85.5
342.754	84.5
342.981	86.5
343.209	83.5
343.437	97.5
343.665	89.5
343.893	99.5
344.12	90.5
344.348	92.5
344.576	87.5
344.804	100.5
345.031	90.5
345.259	96.5
345.487	84.5
345.714	96.5
345.942	93.5
346.17	101.5
346.397	102.5
346.625	83.5
346.853	91.5
347.08	96.5
347.308	91.5
347.535	88.5
347.763	92.5
347.99	95.5
348.218	97.5
348.445	106.5
348.673	99.5
348.9	91.5
349.128	89.5
349.355	105.5
349.583	96.5
349.81	103.5
350.037	71.5
350.265	94.5
350.492	101.5
350.72	94.5
350.947	93.5
351.174	115.5
351.402	106.5
351.629	103.5
351.856	99.5
352.083	107.5
352.311	122.5
352.538	96.5
352.765	90.5
352.992	107.5
353.22	118.5
353.447	95.5
353.674	103.5
353.901	99.5
354.128	91.5
354.355	96.5
354.583	94.5
354.81	107.5
355.037	78.5
355.264	96.5
355.491	94.5
355.718	88.5
355.945	94.5
356.172	90.5
356.399	83.5
356.626	108.5
356.853	88.5
357.08	92.5
357.307	97.5
357.534	88.5
357.761	92.5
357.988	110.5
358.215	98.5
358.441	94.5
358.668	104.5
358.895	111.5
359.122	91.5
359.349	96.5
359.576	96.5
359.802	103.5
360.029	122.5
360.256	101.5
360.483	93.5
360.709	81.5
360.936	98.5
361.163	102.5
361.39	95.5
361.616	93.5
361.843	90.5
362.07	95.5
362.296	82.5
362.523	97.5
362.749	87.5
362.976	91.5
363.203	111.5
363.429	95.5
363.656	100.5
363.882	88.5
364.109	89.5
364.335	87.5
364.562	84.5
364.788	97.5
365.015	97.5
365.241	99.5
365.468	116.5
365.694	96.5
365.92	100.5
366.147	96.5
366.373	89.5
366.599	98.5
366.826	88.5
367.052	94.5
367.278	89.5
367.505	95.5
367.731	82.5
367.957	95.5
368.184	86.5
368.41	90.5
368.636	102.5
368.862	119.5
369.089	107.5
369.315	104.5
369.541	87.5
369.767	93.5
369.993	92.5
370.219	93.5
370.445	82.5
370.672	79.5
370.898	82.5
371.124	88.5
371.35	102.5
371.576	86.5
371.802	85.5
372.028	88.5
372.254	81.5
372.48	94.5
372.706	99.5
372.932	94.5
373.158	88.5
373.384	82.5
373.61	108.5
373.835	94.5
374.061	94.5
374.287	78.5
374.513	85.5
374.739	94.5
374.965	95.5
375.191	85.5
375.416	90.5
375.642	79.5
375.868	94.5
376.094	89.5
376.319	88.5
376.545	86.5
376.771	87.5
376.997	105.5
377.222	91.5
377.448	87.5
377.674	99.5
377.899	89.5
378.125	94.5
378.35	89.5
378.576	90.5
378.802	90.5
379.027	98.5
379.253	83.5
379.478	78.5
379.704	90.5
379.929	105.5
380.155	104.5
380.38	88.5
380.606	91.5
380.831	95.5
381.057	104.5
381.282	76.5
381.507	90.5
381.733	95.5
381.958	102.5
382.184	95.5
382.409	97.5
382.634	101.5
382.86	102.5
383.085	104.5
383.31	93.5
383.535	98.5
383.761	112.5
383.986	93.5
384.211	89.5
384.436	91.5
384.662	88.5
384.887	96.5
385.112	102.5
385.337	90.5
385.562	104.5
385.787	92.5
386.013	114.5
386.238	106.5
386.463	109.5
386.688	115.5
386.913	108.5
387.138	110.5
387.363	109.5
387.588	87.5
387.813	93.5
388.038	104.5
388.263	108.5
388.488	121.5
388.713	99.5
388.938	91.5
389.163	90.5
389.387	102.5
389.612	104.5
389.837	99.5
390.062	85.5
390.287	80.5
390.512	99.5
390.736	111.5
390.961	86.5
391.186	105.5
391.411	107.5
391.636	89.5
391.86	87.5
392.085	72.5
392.31	89.5
392.534	80.5
392.759	82.5
392.984	92.5
393.208	96.5
393.433	88.5
393.658	92.5
393.882	89.5
394.107	88.5
394.331	88.5
394.556	72.5
394.78	81.5
395.005	98.5
395.229	101.5
395.454	102.5
395.678	97.5
395.903	83.5
396.127	81.5
396.352	93.5
396.576	90.5
396.801	92.5
397.025	91.5
397.249	94.5
397.474	90.5
397.698	88.5
397.922	84.5
398.147	95.5
398.371	96.5
398.595	72.5
398.82	105.5
399.044	80.5
399.268	96.5
399.492	105.5
399.717	98.5
399.941	88.5
400.165	107.5
400.389	95.5
400.613	86.5
400.837	94.5
401.062	68.5
401.286	83.5
401.51	94.5
401.734	86.5
401.958	102.5
402.182	124.5
402.406	150.5
402.63	123.5
402.854	78.5
403.078	88.5
403.302	87.5
403.526	98.5
403.75	84.5
403.974	93.5
404.198	91.5
404.422	88.5
404.645	100.5
404.869	84.5
405.093	95.5
405.317	91.5
405.541	92.5
405.765	100.5
405.988	112.5
406.212	179.5
406.436	222.5
406.66	130.5
406.883	91.5
407.107	105.5
407.331	90.5
407.555	97.5
407.778	99.5
408.002	80.5
408.226	88.5
408.449	92.5
408.673	87.5
408.896	95.5
409.12	102.5
409.344	106.5
409.567	76.5
409.791	98.5
410.014	103.5
410.238	100.5
410.461	96.5
410.685	100.5
410.908	114.5
411.132	103.5
411.355	98.5
411.578	106.5
411.802	90.5
412.025	91.5
412.249	80.5
412.472	78.5
412.695	89.5
412.919	96.5
413.142	95.5
413.365	93.5
413.589	83.5
413.812	93.5
414.035	93.5
414.258	108.5
414.482	89.5
414.705	97.5
414.928	101.5
415.151	84.5
415.374	90.5
415.597	94.5
415.821	97.5
416.044	70.5
416.267	84.5
416.49	90.5
416.713	88.5
416.936	83.5
417.159	96.5
417.382	101.5
417.605	87.5
417.828	83.5
418.051	78.5
418.274	90.5
418.497	89.5
418.72	97.5
418.943	79.5
419.166	83.5
419.389	98.5
419.611	90.5
419.834	99.5
420.057	95.5
420.28	90.5
420.503	92.5
420.726	92.5
420.948	101.5
421.171	87.5
421.394	84.5
421.617	95.5
421.839	91.5
422.062	79.5
422.285	97.5
422.507	98.5
422.73	105.5
422.953	89.5
423.175	88.5
423.398	92.5
423.621	92.5
423.843	92.5
424.066	90.5
424.288	91.5
424.511	91.5
424.733	98.5
424.956	101.5
425.178	98.5
425.401	94.5
425.623	95.5
425.846	88.5
426.068	106.5
426.291	94.5
426.513	92.5
426.735	100.5
426.958	105.5
427.18	86.5
427.402	125.5
427.625	160.5
427.847	129.5
428.069	98.5
428.292	96.5
428.514	85.5
428.736	91.5
428.958	120.5
429.181	83.5
429.403	109.5
429.625	76.5
429.847	76.5
430.069	95.5
430.292	81.5
430.514	100.5
430.736	87.5
430.958	78.5
431.18	72.5
431.402	100.5
431.624	92.5
431.846	84.5
432.068	93.5
432.29	78.5
432.512	83.5
432.734	90.5
432.956	94.5
433.178	93.5
433.4	90.5
433.622	86.5
433.844	91.5
434.066	95.5
434.287	81.5
434.509	78.5
434.731	108.5
434.953	94.5
435.175	87.5
435.397	89.5
435.618	94.5
435.84	106.5
436.062	106.5
436.284	119.5
436.505	102.5
436.727	97.5
436.949	88.5
437.17	71.5
437.392	85.5
437.614	80.5
437.835	96.5
438.057	121.5
438.278	112.5
438.5	86.5
438.721	105.5
438.943	90.5
439.165	86.5
439.386	89.5
439.608	100.5
439.829	105.5
440.05	113.5
440.272	127.5
440.493	90.5
440.715	84.5
440.936	86.5
441.158	94.5
441.379	87.5
441.6	102.5
441.822	91.5
442.043	104.5
442.264	106.5
442.486	103.5
442.707	108.5
442.928	100.5
443.149	114.5
443.371	123.5
443.592	107.5
443.813	107.5
444.034	105.5
444.255	97.5
444.476	93.5
444.698	83.5
444.919	92.5
445.14	130.5
445.361	135.5
445.582	120.5
445.803	131.5
446.024	130.5
446.245	143.5
446.466	93.5
446.687	87.5
446.908	97.5
447.129	87.5
447.35	92.5
447.571	102.5
447.792	95.5
448.013	103.5
448.234	105.5
448.455	92.5
448.675	98.5
448.896	111.5
449.117	88.5
449.338	103.5
449.559	133.5
449.779	118.5
450	92.5
450.221	90.5
450.442	76.5
450.662	96.5
450.883	102.5
451.104	108.5
451.324	98.5
451.545	89.5
451.766	86.5
451.986	82.5
452.207	89.5
452.428	93.5
452.648	105.5
452.869	106.5
453.089	110.5
453.31	102.5
453.53	100.5
453.751	90.5
453.971	98.5
454.192	96.5
454.412	102.5
454.633	92.5
454.853	79.5
455.073	97.5
455.294	79.5
455.514	94.5
455.734	96.5
455.955	91.5
456.175	87.5
456.395	73.5
456.616	83.5
456.836	90.5
457.056	83.5
457.276	84.5
457.497	90.5
457.717	76.5
457.937	88.5
458.157	80.5
458.377	85.5
458.598	115.5
458.818	141.5
459.038	142.5
459.258	120.5
459.478	91.5
459.698	76.5
459.918	75.5
460.138	77.5
460.358	77.5
460.578	84.5
460.798	87.5
461.018	90.5
461.238	85.5
461.458	92.5
461.678	108.5
461.898	86.5
462.118	93.5
462.338	81.5
462.558	88.5
462.777	92.5
462.997	97.5
463.217	80.5
463.437	89.5
463.657	92.5
463.876	95.5
464.096	96.5
464.316	92.5
464.536	95.5
464.755	108.5
464.975	107.5
465.195	167.5
465.414	140.5
465.634	98.5
465.854	78.5
466.073	76.5
466.293	90.5
466.512	100.5
466.732	81.5
466.951	83.5
467.171	79.5
467.391	101.5
467.61	104.5
467.829	102.5
468.049	87.5
468.268	96.5
468.488	86.5
468.707	79.5
468.927	98.5
469.146	85.5
469.365	80.5
469.585	83.5
469.804	87.5
470.023	83.5
470.243	103.5
470.462	104.5
470.681	103.5
470.901	94.5
471.12	86.5
471.339	74.5
471.558	96.5
471.777	94.5
471.997	80.5
472.216	93.5
472.435	86.5
472.654	80.5
472.873	82.5
473.092	96.5
473.311	84.5
473.53	86.5
473.749	88.5
473.968	86.5
474.187	119.5
474.406	100.5
474.625	73.5
474.844	88.5
475.063	94.5
475.282	88.5
475.501	91.5
475.72	91.5
475.939	87.5
476.158	90.5
476.377	88.5
476.596	91.5
476.814	85.5
477.033	91.5
477.252	98.5
477.471	83.5
477.69	83.5
477.908	97.5
478.127	91.5
478.346	90.5
478.564	90.5
478.783	92.5
479.002	68.5
479.22	95.5
479.439	101.5
479.658	106.5
479.876	96.5
480.095	92.5
480.313	81.5
480.532	93.5
480.751	88.5
480.969	79.5
481.188	98.5
481.406	84.5
481.624	79.5
481.843	88.5
482.061	87.5
482.28	94.5
482.498	92.5
482.717	84.5
482.935	87.5
483.153	89.5
483.372	86.5
483.59	89.5
483.808	99.5
484.027	97.5
484.245	93.5
484.463	86.5
484.681	93.5
484.9	87.5
485.118	84.5
485.336	92.5
485.554	101.5
485.772	88.5
485.99	114.5
486.209	105.5
486.427	109.5
486.645	111.5
486.863	111.5
487.081	112.5
487.299	99.5
487.517	93.5
487.735	91.5
487.953	90.5
488.171	98.5
488.389	88.5
488.607	109.5
488.825	99.5
489.043	88.5
489.261	95.5
489.479	79.5
489.696	88.5
489.914	100.5
490.132	81.5
490.35	104.5
490.568	96.5
490.786	84.5
491.003	93.5
491.221	95.5
491.439	83.5
491.657	77.5
491.874	91.5
492.092	75.5
492.31	91.5
492.527	82.5
492.745	95.5
492.963	89.5
493.18	88.5
493.398	81.5
493.615	108.5
493.833	96.5
494.05	88.5
494.268	98.5
494.485	79.5
494.703	89.5
494.92	81.5
495.138	84.5
495.355	96.5
495.573	93.5
495.79	87.5
496.008	99.5
496.225	88.5
496.442	102.5
496.66	89.5
496.877	84.5
497.094	96.5
497.312	90.5
497.529	91.5
497.746	84.5
497.963	90.5
498.181	88.5
498.398	87.5
498.615	112.5
498.832	101.5
499.049	91.5
499.267	95.5
499.484	91.5
499.701	104.5
499.918	87.5
500.135	83.5
500.352	79.5
500.569	98.5
500.786	84.5
501.003	84.5
501.22	90.5
501.437	82.5
501.654	78.5
501.871	97.5
502.088	85.5
502.305	88.5
502.522	82.5
502.739	87.5
502.956	83.5
503.172	97.5
503.389	88.5
503.606	107.5
503.823	97.5
504.04	87.5
504.256	89.5
504.473	91.5
504.69	77.5
504.907	68.5
505.123	103.5
505.34	111.5
505.557	86.5
505.773	98.5
505.99	71.5
506.207	93.5
506.423	97.5
506.64	94.5
506.856	87.5
507.073	89.5
507.289	98.5
507.506	100.5
507.722	107.5
507.939	105.5
508.155	93.5
508.372	87.5
508.588	80.5
508.805	84.5
509.021	92.5
509.238	93.5
509.454	99.5
509.67	108.5
509.887	110.5
510.103	138.5
510.319	218.5
510.536	751.5
510.752	2388.5
510.968	664.5
511.184	158.5
511.401	108.5
511.617	88.5
511.833	100.5
512.049	98.5
512.265	82.5
512.481	100.5
512.698	93.5
512.914	97.5
513.13	90.5
513.346	93.5
513.562	82.5
513.778	91.5
513.994	89.5
514.21	92.5
514.426	118.5
514.642	118.5
514.858	126.5
515.074	172.5
515.29	431.5
515.506	1432.5
515.721	533.5
515.937	136.5
516.153	103.5
516.369	105.5
516.585	84.5
516.801	83.5
517.016	81.5
517.232	97.5
517.448	98.5
517.664	91.5
517.879	84.5
518.095	80.5
518.311	92.5
518.527	103.5
518.742	83.5
518.958	79.5
519.173	91.5
519.389	87.5
519.605	92.5
519.82	94.5
520.036	102.5
520.251	121.5
520.467	115.5
520.682	107.5
520.898	106.5
521.113	112.5
521.329	142.5
521.544	187.5
521.76	513.5
521.975	2332.5
522.19	1421.5
522.406	310.5
522.621	119.5
522.836	100.5
523.052	103.5
523.267	92.5
523.482	84.5
523.698	92.5
523.913	122.5
524.128	87.5
524.343	83.5
524.559	98.5
524.774	99.5
524.989	99.5
525.204	78.5
525.419	101.5
525.634	66.5
525.849	87.5
526.064	89.5
526.28	85.5
526.495	102.5
526.71	86.5
526.925	82.5
527.14	91.5
527.355	86.5
527.57	102.5
527.785	95.5
527.999	84.5
528.214	91.5
528.429	98.5
528.644	97.5
528.859	94.5
529.074	100.5
529.289	118.5
529.503	168.5
529.718	92.5
529.933	104.5
530.148	86.5
530.363	96.5
530.577	78.5
530.792	90.5
531.007	84.5
531.221	95.5
531.436	93.5
531.651	95.5
531.865	100.5
532.08	93.5
532.295	96.5
532.509	83.5
532.724	89.5
532.938	105.5
533.153	86.5
533.367	81.5
533.582	103.5
533.796	94.5
534.011	78.5
534.225	97.5
534.44	84.5
534.654	103.5
534.868	92.5
535.083	73.5
535.297	90.5
535.511	87.5
