Data from Uncirc_2008_H10_HRD10591_00095.txt Node
Date: Wed Jan 03 10:15:49 EST 2024
User: Yrep
Spectrometer: HR+D1059
Trigger mode: 1
Integration Time (sec): 1.000000E-1
Scans to average: 1
Electric dark correction enabled: true
Nonlinearity correction enabled: false
Boxcar width: 0
XAxis mode: Wavelengths
Number of Pixels in Spectrum: 2048
>>>>>Begin Spectral Data<<<<<
223.165	-10.88
223.4	-10.88
223.635	-10.88
223.869	-33.88
224.104	-22.88
224.338	-9.88
224.573	-13.88
224.808	-10.88
225.042	-14.88
225.277	-4.88
225.511	8.12
225.746	0.12
225.98	20.12
226.215	16.12
226.449	10.12
226.683	12.12
226.918	27.12
227.152	28.12
227.387	33.12
227.621	46.12
227.856	46.12
228.09	35.12
228.324	33.12
228.559	34.12
228.793	57.12
229.027	39.12
229.262	62.12
229.496	90.12
229.73	69.12
229.964	89.12
230.199	67.12
230.433	49.12
230.667	69.12
230.901	82.12
231.136	75.12
231.37	80.12
231.604	88.12
231.838	91.12
232.072	87.12
232.306	74.12
232.541	87.12
232.775	79.12
233.009	73.12
233.243	71.12
233.477	72.12
233.711	72.12
233.945	78.12
234.179	73.12
234.413	73.12
234.647	68.12
234.881	78.12
235.115	87.12
235.349	79.12
235.583	83.12
235.817	51.12
236.051	74.12
236.285	75.12
236.519	81.12
236.753	68.12
236.987	68.12
237.221	66.12
237.455	79.12
237.689	71.12
237.922	70.12
238.156	68.12
238.39	64.12
238.624	69.12
238.858	67.12
239.091	67.12
239.325	77.12
239.559	65.12
239.793	61.12
240.027	80.12
240.26	75.12
240.494	70.12
240.728	73.12
240.961	67.12
241.195	78.12
241.429	79.12
241.662	71.12
241.896	60.12
242.13	71.12
242.363	73.12
242.597	69.12
242.83	74.12
243.064	77.12
243.298	80.12
243.531	74.12
243.765	86.12
243.998	68.12
244.232	74.12
244.465	68.12
244.699	67.12
244.932	69.12
245.166	83.12
245.399	76.12
245.633	65.12
245.866	72.12
246.099	72.12
246.333	55.12
246.566	70.12
246.8	78.12
247.033	85.12
247.266	76.12
247.5	88.12
247.733	69.12
247.966	78.12
248.2	82.12
248.433	60.12
248.666	76.12
248.899	76.12
249.133	84.12
249.366	93.12
249.599	111.12
249.832	87.12
250.066	78.12
250.299	82.12
250.532	80.12
250.765	82.12
250.998	67.12
251.231	66.12
251.465	83.12
251.698	66.12
251.931	76.12
252.164	88.12
252.397	76.12
252.63	71.12
252.863	83.12
253.096	86.12
253.329	86.12
253.562	78.12
253.795	81.12
254.028	89.12
254.261	59.12
254.494	82.12
254.727	76.12
254.96	69.12
255.193	73.12
255.426	83.12
255.659	92.12
255.892	86.12
256.124	71.12
256.357	74.12
256.59	77.12
256.823	74.12
257.056	88.12
257.289	84.12
257.521	77.12
257.754	73.12
257.987	67.12
258.22	69.12
258.452	70.12
258.685	82.12
258.918	78.12
259.151	82.12
259.383	73.12
259.616	79.12
259.849	78.12
260.081	81.12
260.314	77.12
260.547	75.12
260.779	76.12
261.012	72.12
261.244	56.12
261.477	79.12
261.71	98.12
261.942	107.12
262.175	106.12
262.407	80.12
262.64	65.12
262.872	81.12
263.105	89.12
263.337	78.12
263.57	78.12
263.802	90.12
264.035	94.12
264.267	73.12
264.499	84.12
264.732	60.12
264.964	78.12
265.197	74.12
265.429	85.12
265.661	79.12
265.894	80.12
266.126	70.12
266.358	89.12
266.591	70.12
266.823	70.12
267.055	77.12
267.287	89.12
267.52	72.12
267.752	86.12
267.984	81.12
268.216	67.12
268.448	79.12
268.681	78.12
268.913	91.12
269.145	65.12
269.377	89.12
269.609	82.12
269.841	83.12
270.073	91.12
270.306	77.12
270.538	83.12
270.77	83.12
271.002	73.12
271.234	86.12
271.466	78.12
271.698	84.12
271.93	73.12
272.162	79.12
272.394	79.12
272.626	70.12
272.858	73.12
273.09	86.12
273.322	83.12
273.553	82.12
273.785	80.12
274.017	83.12
274.249	78.12
274.481	91.12
274.713	71.12
274.945	77.12
275.176	65.12
275.408	79.12
275.64	80.12
275.872	80.12
276.104	82.12
276.335	71.12
276.567	99.12
276.799	101.12
277.031	97.12
277.262	85.12
277.494	87.12
277.726	78.12
277.957	86.12
278.189	89.12
278.421	95.12
278.652	73.12
278.884	87.12
279.115	85.12
279.347	87.12
279.579	82.12
279.81	64.12
280.042	77.12
280.273	70.12
280.505	87.12
280.736	81.12
280.968	74.12
281.199	85.12
281.431	86.12
281.662	86.12
281.894	100.12
282.125	95.12
282.356	100.12
282.588	119.12
282.819	83.12
283.051	77.12
283.282	80.12
283.513	63.12
283.745	86.12
283.976	91.12
284.207	93.12
284.439	97.12
284.67	73.12
284.901	82.12
285.132	72.12
285.364	75.12
285.595	89.12
285.826	83.12
286.057	87.12
286.288	75.12
286.52	105.12
286.751	81.12
286.982	82.12
287.213	79.12
287.444	77.12
287.675	82.12
287.906	78.12
288.138	91.12
288.369	78.12
288.6	90.12
288.831	86.12
289.062	84.12
289.293	79.12
289.524	89.12
289.755	80.12
289.986	87.12
290.217	83.12
290.448	75.12
290.679	83.12
290.91	77.12
291.141	81.12
291.371	84.12
291.602	79.12
291.833	83.12
292.064	83.12
292.295	91.12
292.526	97.12
292.757	82.12
292.987	88.12
293.218	101.12
293.449	87.12
293.68	95.12
293.91	100.12
294.141	101.12
294.372	67.12
294.603	79.12
294.833	90.12
295.064	68.12
295.295	88.12
295.525	86.12
295.756	93.12
295.987	98.12
296.217	131.12
296.448	117.12
296.679	79.12
296.909	77.12
297.14	93.12
297.37	92.12
297.601	93.12
297.831	75.12
298.062	74.12
298.292	85.12
298.523	75.12
298.753	85.12
298.984	95.12
299.214	74.12
299.445	90.12
299.675	91.12
299.905	86.12
300.136	82.12
300.366	85.12
300.597	83.12
300.827	78.12
301.057	92.12
301.288	79.12
301.518	92.12
301.748	70.12
301.979	90.12
302.209	73.12
302.439	100.12
302.669	79.12
302.9	76.12
303.13	88.12
303.36	105.12
303.59	99.12
303.82	115.12
304.051	86.12
304.281	75.12
304.511	91.12
304.741	73.12
304.971	85.12
305.201	92.12
305.431	97.12
305.661	94.12
305.891	90.12
306.121	84.12
306.352	102.12
306.582	82.12
306.812	88.12
307.042	89.12
307.272	81.12
307.502	90.12
307.731	103.12
307.961	94.12
308.191	93.12
308.421	84.12
308.651	75.12
308.881	73.12
309.111	82.12
309.341	86.12
309.571	95.12
309.8	79.12
310.03	96.12
310.26	98.12
310.49	89.12
310.72	101.12
310.949	91.12
311.179	95.12
311.409	84.12
311.639	96.12
311.868	97.12
312.098	78.12
312.328	98.12
312.557	105.12
312.787	97.12
313.017	97.12
313.246	85.12
313.476	82.12
313.706	95.12
313.935	100.12
314.165	94.12
314.394	89.12
314.624	81.12
314.853	94.12
315.083	93.12
315.312	88.12
315.542	78.12
315.771	86.12
316.001	77.12
316.23	81.12
316.46	79.12
316.689	92.12
316.919	93.12
317.148	78.12
317.377	85.12
317.607	98.12
317.836	87.12
318.065	89.12
318.295	86.12
318.524	73.12
318.753	83.12
318.983	93.12
319.212	97.12
319.441	88.12
319.67	98.12
319.9	94.12
320.129	79.12
320.358	113.12
320.587	81.12
320.816	79.12
321.046	86.12
321.275	81.12
321.504	76.12
321.733	78.12
321.962	81.12
322.191	92.12
322.42	98.12
322.649	108.12
322.878	107.12
323.108	117.12
323.337	113.12
323.566	135.12
323.795	143.12
324.024	194.12
324.253	375.12
324.482	804.12
324.71	1649.12
324.939	2155.12
325.168	799.12
325.397	242.12
325.626	134.12
325.855	125.12
326.084	121.12
326.313	130.12
326.542	135.12
326.77	225.12
326.999	453.12
327.228	926.12
327.457	1673.12
327.686	1333.12
327.914	358.12
328.143	178.12
328.372	118.12
328.6	108.12
328.829	105.12
329.058	117.12
329.287	137.12
329.515	105.12
329.744	91.12
329.972	85.12
330.201	93.12
330.43	106.12
330.658	113.12
330.887	129.12
331.115	117.12
331.344	89.12
331.572	99.12
331.801	97.12
332.03	101.12
332.258	92.12
332.486	98.12
332.715	85.12
332.943	89.12
333.172	88.12
333.4	99.12
333.629	98.12
333.857	94.12
334.085	85.12
334.314	99.12
334.542	79.12
334.771	96.12
334.999	78.12
335.227	97.12
335.455	96.12
335.684	97.12
335.912	91.12
336.14	98.12
336.369	87.12
336.597	93.12
336.825	90.12
337.053	81.12
337.281	85.12
337.51	72.12
337.738	85.12
337.966	96.12
338.194	87.12
338.422	98.12
338.65	89.12
338.878	79.12
339.106	95.12
339.334	68.12
339.562	68.12
339.79	78.12
340.018	89.12
340.246	82.12
340.474	99.12
340.702	87.12
340.93	73.12
341.158	81.12
341.386	94.12
341.614	85.12
341.842	101.12
342.07	97.12
342.298	89.12
342.526	87.12
342.754	89.12
342.981	85.12
343.209	90.12
343.437	91.12
343.665	86.12
343.893	94.12
344.12	83.12
344.348	70.12
344.576	101.12
344.804	84.12
345.031	90.12
345.259	98.12
345.487	84.12
345.714	93.12
345.942	77.12
346.17	97.12
346.397	75.12
346.625	86.12
346.853	74.12
347.08	99.12
347.308	96.12
347.535	83.12
347.763	96.12
347.99	103.12
348.218	99.12
348.445	101.12
348.673	96.12
348.9	94.12
349.128	92.12
349.355	92.12
349.583	91.12
349.81	93.12
350.037	78.12
350.265	98.12
350.492	87.12
350.72	89.12
350.947	92.12
351.174	104.12
351.402	111.12
351.629	103.12
351.856	94.12
352.083	89.12
352.311	85.12
352.538	100.12
352.765	100.12
352.992	114.12
353.22	99.12
353.447	97.12
353.674	98.12
353.901	86.12
354.128	76.12
354.355	90.12
354.583	105.12
354.81	99.12
355.037	92.12
355.264	86.12
355.491	95.12
355.718	80.12
355.945	89.12
356.172	98.12
356.399	94.12
356.626	81.12
356.853	94.12
357.08	93.12
357.307	75.12
357.534	89.12
357.761	79.12
357.988	79.12
358.215	92.12
358.441	83.12
358.668	81.12
358.895	85.12
359.122	86.12
359.349	76.12
359.576	87.12
359.802	88.12
360.029	90.12
360.256	107.12
360.483	82.12
360.709	78.12
360.936	84.12
361.163	91.12
361.39	93.12
361.616	83.12
361.843	87.12
362.07	109.12
362.296	93.12
362.523	84.12
362.749	88.12
362.976	78.12
363.203	101.12
363.429	69.12
363.656	79.12
363.882	85.12
364.109	97.12
364.335	98.12
364.562	97.12
364.788	87.12
365.015	84.12
365.241	84.12
365.468	94.12
365.694	93.12
365.92	93.12
366.147	82.12
366.373	95.12
366.599	71.12
366.826	93.12
367.052	98.12
367.278	101.12
367.505	72.12
367.731	91.12
367.957	84.12
368.184	87.12
368.41	93.12
368.636	111.12
368.862	98.12
369.089	96.12
369.315	78.12
369.541	82.12
369.767	92.12
369.993	92.12
370.219	93.12
370.445	86.12
370.672	86.12
370.898	101.12
371.124	96.12
371.35	86.12
371.576	90.12
371.802	78.12
372.028	82.12
372.254	81.12
372.48	83.12
372.706	81.12
372.932	86.12
373.158	82.12
373.384	84.12
373.61	73.12
373.835	76.12
374.061	86.12
374.287	88.12
374.513	83.12
374.739	75.12
374.965	83.12
375.191	95.12
375.416	106.12
375.642	81.12
375.868	76.12
376.094	87.12
376.319	74.12
376.545	76.12
376.771	92.12
376.997	89.12
377.222	71.12
377.448	83.12
377.674	87.12
377.899	95.12
378.125	96.12
378.35	97.12
378.576	96.12
378.802	95.12
379.027	77.12
379.253	73.12
379.478	79.12
379.704	83.12
379.929	81.12
380.155	92.12
380.38	79.12
380.606	83.12
380.831	96.12
381.057	98.12
381.282	89.12
381.507	95.12
381.733	87.12
381.958	93.12
382.184	95.12
382.409	97.12
382.634	93.12
382.86	86.12
383.085	84.12
383.31	93.12
383.535	98.12
383.761	82.12
383.986	89.12
384.211	91.12
384.436	100.12
384.662	104.12
384.887	96.12
385.112	92.12
385.337	104.12
385.562	94.12
385.787	102.12
386.013	91.12
386.238	94.12
386.463	105.12
386.688	96.12
386.913	81.12
387.138	94.12
387.363	91.12
387.588	88.12
387.813	93.12
388.038	102.12
388.263	99.12
388.488	90.12
388.713	97.12
388.938	78.12
389.163	86.12
389.387	90.12
389.612	93.12
389.837	94.12
390.062	82.12
390.287	77.12
390.512	100.12
390.736	99.12
390.961	88.12
391.186	84.12
391.411	82.12
391.636	87.12
391.86	77.12
392.085	72.12
392.31	86.12
392.534	81.12
392.759	66.12
392.984	97.12
393.208	88.12
393.433	92.12
393.658	79.12
393.882	62.12
394.107	80.12
394.331	97.12
394.556	88.12
394.78	100.12
395.005	90.12
395.229	86.12
395.454	90.12
395.678	79.12
395.903	73.12
396.127	84.12
396.352	73.12
396.576	88.12
396.801	78.12
397.025	88.12
397.249	83.12
397.474	87.12
397.698	101.12
397.922	73.12
398.147	84.12
398.371	94.12
398.595	87.12
398.82	76.12
399.044	84.12
399.268	83.12
399.492	79.12
399.717	77.12
399.941	84.12
400.165	89.12
400.389	81.12
400.613	78.12
400.837	91.12
401.062	90.12
401.286	76.12
401.51	89.12
401.734	95.12
401.958	93.12
402.182	111.12
402.406	141.12
402.63	108.12
402.854	80.12
403.078	87.12
403.302	90.12
403.526	94.12
403.75	98.12
403.974	75.12
404.198	90.12
404.422	87.12
404.645	90.12
404.869	95.12
405.093	102.12
405.317	101.12
405.541	87.12
405.765	100.12
405.988	101.12
406.212	147.12
406.436	202.12
406.66	135.12
406.883	92.12
407.107	87.12
407.331	89.12
407.555	81.12
407.778	102.12
408.002	79.12
408.226	76.12
408.449	77.12
408.673	82.12
408.896	90.12
409.12	97.12
409.344	82.12
409.567	78.12
409.791	86.12
410.014	107.12
410.238	98.12
410.461	99.12
410.685	89.12
410.908	97.12
411.132	94.12
411.355	103.12
411.578	86.12
411.802	78.12
412.025	87.12
412.249	94.12
412.472	82.12
412.695	83.12
412.919	69.12
413.142	78.12
413.365	87.12
413.589	92.12
413.812	74.12
414.035	97.12
414.258	98.12
414.482	88.12
414.705	85.12
414.928	83.12
415.151	92.12
415.374	95.12
415.597	86.12
415.821	70.12
416.044	78.12
416.267	73.12
416.49	80.12
416.713	92.12
416.936	90.12
417.159	69.12
417.382	85.12
417.605	83.12
417.828	87.12
418.051	91.12
418.274	92.12
418.497	67.12
418.72	79.12
418.943	85.12
419.166	83.12
419.389	101.12
419.611	70.12
419.834	82.12
420.057	92.12
420.28	68.12
420.503	91.12
420.726	78.12
420.948	84.12
421.171	83.12
421.394	79.12
421.617	83.12
421.839	87.12
422.062	104.12
422.285	97.12
422.507	104.12
422.73	101.12
422.953	94.12
423.175	93.12
423.398	86.12
423.621	82.12
423.843	89.12
424.066	77.12
424.288	95.12
424.511	100.12
424.733	100.12
424.956	105.12
425.178	94.12
425.401	78.12
425.623	84.12
425.846	95.12
426.068	93.12
426.291	83.12
426.513	81.12
426.735	75.12
426.958	87.12
427.18	101.12
427.402	138.12
427.625	160.12
427.847	130.12
428.069	92.12
428.292	76.12
428.514	83.12
428.736	91.12
428.958	78.12
429.181	99.12
429.403	85.12
429.625	90.12
429.847	81.12
430.069	86.12
430.292	98.12
430.514	84.12
430.736	79.12
430.958	89.12
431.18	69.12
431.402	85.12
431.624	78.12
431.846	88.12
432.068	90.12
432.29	91.12
432.512	102.12
432.734	94.12
432.956	89.12
433.178	88.12
433.4	82.12
433.622	77.12
433.844	89.12
434.066	86.12
434.287	100.12
434.509	90.12
434.731	83.12
434.953	73.12
435.175	77.12
435.397	99.12
435.618	83.12
435.84	100.12
436.062	110.12
436.284	113.12
436.505	94.12
436.727	93.12
436.949	89.12
437.17	97.12
437.392	84.12
437.614	79.12
437.835	97.12
438.057	103.12
438.278	119.12
438.5	81.12
438.721	108.12
438.943	113.12
439.165	81.12
439.386	90.12
439.608	88.12
439.829	87.12
440.05	102.12
440.272	123.12
440.493	108.12
440.715	81.12
440.936	78.12
441.158	90.12
441.379	85.12
441.6	91.12
441.822	76.12
442.043	76.12
442.264	110.12
442.486	107.12
442.707	98.12
442.928	96.12
443.149	124.12
443.371	124.12
443.592	101.12
443.813	94.12
444.034	95.12
444.255	92.12
444.476	91.12
444.698	91.12
444.919	98.12
445.14	122.12
445.361	107.12
445.582	119.12
445.803	134.12
446.024	137.12
446.245	132.12
446.466	117.12
446.687	109.12
446.908	96.12
447.129	84.12
447.35	87.12
447.571	81.12
447.792	81.12
448.013	92.12
448.234	98.12
448.455	91.12
448.675	108.12
448.896	97.12
449.117	98.12
449.338	94.12
449.559	141.12
449.779	132.12
450	95.12
450.221	100.12
450.442	73.12
450.662	77.12
450.883	106.12
451.104	109.12
451.324	82.12
451.545	94.12
451.766	77.12
451.986	69.12
452.207	94.12
452.428	92.12
452.648	85.12
452.869	92.12
453.089	113.12
453.31	119.12
453.53	95.12
453.751	77.12
453.971	99.12
454.192	91.12
454.412	93.12
454.633	84.12
454.853	78.12
455.073	88.12
455.294	89.12
455.514	109.12
455.734	91.12
455.955	85.12
456.175	76.12
456.395	77.12
456.616	85.12
456.836	66.12
457.056	102.12
457.276	74.12
457.497	98.12
457.717	80.12
457.937	75.12
458.157	74.12
458.377	83.12
458.598	98.12
458.818	135.12
459.038	150.12
459.258	114.12
459.478	81.12
459.698	89.12
459.918	100.12
460.138	79.12
460.358	74.12
460.578	93.12
460.798	96.12
461.018	79.12
461.238	77.12
461.458	74.12
461.678	75.12
461.898	81.12
462.118	93.12
462.338	79.12
462.558	76.12
462.777	93.12
462.997	78.12
463.217	88.12
463.437	74.12
463.657	77.12
463.876	74.12
464.096	92.12
464.316	94.12
464.536	91.12
464.755	81.12
464.975	100.12
465.195	144.12
465.414	139.12
465.634	94.12
465.854	90.12
466.073	85.12
466.293	89.12
466.512	84.12
466.732	91.12
466.951	92.12
467.171	88.12
467.391	70.12
467.61	99.12
467.829	78.12
468.049	94.12
468.268	81.12
468.488	84.12
468.707	85.12
468.927	87.12
469.146	86.12
469.365	76.12
469.585	86.12
469.804	92.12
470.023	95.12
470.243	97.12
470.462	84.12
470.681	108.12
470.901	85.12
471.12	81.12
471.339	74.12
471.558	83.12
471.777	72.12
471.997	81.12
472.216	89.12
472.435	82.12
472.654	94.12
472.873	91.12
473.092	77.12
473.311	75.12
473.53	83.12
473.749	88.12
473.968	75.12
474.187	85.12
474.406	91.12
474.625	86.12
474.844	80.12
475.063	82.12
475.282	70.12
475.501	95.12
475.72	88.12
475.939	79.12
476.158	79.12
476.377	88.12
476.596	82.12
476.814	90.12
477.033	82.12
477.252	77.12
477.471	72.12
477.69	74.12
477.908	93.12
478.127	89.12
478.346	88.12
478.564	84.12
478.783	91.12
479.002	75.12
479.22	89.12
479.439	93.12
479.658	81.12
479.876	90.12
480.095	100.12
480.313	86.12
480.532	89.12
480.751	85.12
480.969	95.12
481.188	77.12
481.406	90.12
481.624	93.12
481.843	89.12
482.061	85.12
482.28	79.12
482.498	68.12
482.717	66.12
482.935	81.12
483.153	77.12
483.372	87.12
483.59	73.12
483.808	81.12
484.027	92.12
484.245	76.12
484.463	74.12
484.681	90.12
484.9	99.12
485.118	99.12
485.336	97.12
485.554	100.12
485.772	94.12
485.99	97.12
486.209	85.12
486.427	102.12
486.645	114.12
486.863	99.12
487.081	90.12
487.299	92.12
487.517	80.12
487.735	83.12
487.953	85.12
488.171	72.12
488.389	94.12
488.607	99.12
488.825	92.12
489.043	81.12
489.261	102.12
489.479	89.12
489.696	89.12
489.914	82.12
490.132	90.12
490.35	97.12
490.568	97.12
490.786	86.12
491.003	82.12
491.221	90.12
491.439	93.12
491.657	85.12
491.874	76.12
492.092	86.12
492.31	90.12
492.527	92.12
492.745	82.12
492.963	92.12
493.18	86.12
493.398	69.12
493.615	76.12
493.833	86.12
494.05	85.12
494.268	80.12
494.485	90.12
494.703	91.12
494.92	74.12
495.138	89.12
495.355	93.12
495.573	89.12
495.79	79.12
496.008	88.12
496.225	78.12
496.442	76.12
496.66	72.12
496.877	79.12
497.094	82.12
497.312	85.12
497.529	86.12
497.746	92.12
497.963	82.12
498.181	91.12
498.398	89.12
498.615	101.12
498.832	91.12
499.049	80.12
499.267	84.12
499.484	85.12
499.701	84.12
499.918	73.12
500.135	73.12
500.352	90.12
500.569	86.12
500.786	93.12
501.003	81.12
501.22	86.12
501.437	93.12
501.654	86.12
501.871	106.12
502.088	96.12
502.305	90.12
502.522	94.12
502.739	100.12
502.956	83.12
503.172	102.12
503.389	93.12
503.606	101.12
503.823	93.12
504.04	86.12
504.256	85.12
504.473	90.12
504.69	93.12
504.907	91.12
505.123	78.12
505.34	72.12
505.557	90.12
505.773	101.12
505.99	84.12
506.207	81.12
506.423	75.12
506.64	79.12
506.856	90.12
507.073	78.12
507.289	78.12
507.506	87.12
507.722	99.12
507.939	102.12
508.155	90.12
508.372	90.12
508.588	95.12
508.805	86.12
509.021	99.12
509.238	84.12
509.454	104.12
509.67	87.12
509.887	120.12
510.103	134.12
510.319	203.12
510.536	755.12
510.752	2332.12
510.968	649.12
511.184	142.12
511.401	107.12
511.617	94.12
511.833	103.12
512.049	97.12
512.265	85.12
512.481	95.12
512.698	88.12
512.914	78.12
513.13	91.12
513.346	92.12
513.562	92.12
513.778	89.12
513.994	96.12
514.21	102.12
514.426	122.12
514.642	133.12
514.858	103.12
515.074	158.12
515.29	441.12
515.506	1417.12
515.721	550.12
515.937	151.12
516.153	111.12
516.369	105.12
516.585	101.12
516.801	92.12
517.016	89.12
517.232	94.12
517.448	91.12
