Data from Uncirc_2008_H10_HRD10591_00084.txt Node
Date: Wed Jan 03 10:15:47 EST 2024
User: Yrep
Spectrometer: HR+D1059
Trigger mode: 1
Integration Time (sec): 1.000000E-1
Scans to average: 1
Electric dark correction enabled: true
Nonlinearity correction enabled: false
Boxcar width: 0
XAxis mode: Wavelengths
Number of Pixels in Spectrum: 2048
>>>>>Begin Spectral Data<<<<<
223.165	-22.62
223.4	-22.62
223.635	-22.62
223.869	-12.62
224.104	-15.62
224.338	-8.62
224.573	-21.62
224.808	-9.62
225.042	-7.62
225.277	10.38
225.511	3.38
225.746	2.38
225.98	7.38
226.215	7.38
226.449	1.38
226.683	10.38
226.918	29.38
227.152	26.38
227.387	32.38
227.621	42.38
227.856	43.38
228.09	41.38
228.324	54.38
228.559	61.38
228.793	48.38
229.027	55.38
229.262	65.38
229.496	73.38
229.73	64.38
229.964	77.38
230.199	68.38
230.433	64.38
230.667	73.38
230.901	82.38
231.136	77.38
231.37	88.38
231.604	103.38
231.838	72.38
232.072	82.38
232.306	89.38
232.541	81.38
232.775	76.38
233.009	85.38
233.243	73.38
233.477	76.38
233.711	77.38
233.945	93.38
234.179	80.38
234.413	89.38
234.647	65.38
234.881	48.38
235.115	77.38
235.349	79.38
235.583	73.38
235.817	79.38
236.051	78.38
236.285	61.38
236.519	74.38
236.753	65.38
236.987	79.38
237.221	77.38
237.455	73.38
237.689	93.38
237.922	80.38
238.156	58.38
238.39	74.38
238.624	67.38
238.858	74.38
239.091	79.38
239.325	81.38
239.559	71.38
239.793	72.38
240.027	87.38
240.26	77.38
240.494	72.38
240.728	93.38
240.961	77.38
241.195	64.38
241.429	88.38
241.662	72.38
241.896	67.38
242.13	87.38
242.363	72.38
242.597	60.38
242.83	67.38
243.064	67.38
243.298	97.38
243.531	68.38
243.765	71.38
243.998	72.38
244.232	79.38
244.465	78.38
244.699	80.38
244.932	77.38
245.166	79.38
245.399	75.38
245.633	80.38
245.866	85.38
246.099	90.38
246.333	75.38
246.566	79.38
246.8	63.38
247.033	77.38
247.266	71.38
247.5	67.38
247.733	75.38
247.966	92.38
248.2	74.38
248.433	89.38
248.666	79.38
248.899	85.38
249.133	83.38
249.366	92.38
249.599	93.38
249.832	74.38
250.066	90.38
250.299	65.38
250.532	68.38
250.765	65.38
250.998	88.38
251.231	77.38
251.465	81.38
251.698	70.38
251.931	67.38
252.164	73.38
252.397	79.38
252.63	72.38
252.863	79.38
253.096	88.38
253.329	85.38
253.562	71.38
253.795	88.38
254.028	82.38
254.261	69.38
254.494	85.38
254.727	73.38
254.96	85.38
255.193	79.38
255.426	84.38
255.659	76.38
255.892	82.38
256.124	79.38
256.357	85.38
256.59	80.38
256.823	64.38
257.056	69.38
257.289	78.38
257.521	86.38
257.754	85.38
257.987	83.38
258.22	75.38
258.452	82.38
258.685	76.38
258.918	83.38
259.151	86.38
259.383	77.38
259.616	78.38
259.849	71.38
260.081	87.38
260.314	82.38
260.547	106.38
260.779	74.38
261.012	81.38
261.244	84.38
261.477	79.38
261.71	85.38
261.942	98.38
262.175	98.38
262.407	80.38
262.64	74.38
262.872	69.38
263.105	85.38
263.337	85.38
263.57	72.38
263.802	74.38
264.035	68.38
264.267	78.38
264.499	93.38
264.732	89.38
264.964	74.38
265.197	75.38
265.429	90.38
265.661	83.38
265.894	89.38
266.126	98.38
266.358	65.38
266.591	69.38
266.823	69.38
267.055	78.38
267.287	88.38
267.52	81.38
267.752	65.38
267.984	81.38
268.216	80.38
268.448	86.38
268.681	79.38
268.913	83.38
269.145	73.38
269.377	74.38
269.609	73.38
269.841	77.38
270.073	79.38
270.306	75.38
270.538	86.38
270.77	73.38
271.002	67.38
271.234	69.38
271.466	83.38
271.698	82.38
271.93	78.38
272.162	85.38
272.394	90.38
272.626	78.38
272.858	80.38
273.09	83.38
273.322	84.38
273.553	76.38
273.785	69.38
274.017	77.38
274.249	81.38
274.481	85.38
274.713	94.38
274.945	87.38
275.176	91.38
275.408	97.38
275.64	95.38
275.872	81.38
276.104	74.38
276.335	88.38
276.567	78.38
276.799	71.38
277.031	87.38
277.262	78.38
277.494	77.38
277.726	82.38
277.957	73.38
278.189	67.38
278.421	75.38
278.652	81.38
278.884	74.38
279.115	81.38
279.347	85.38
279.579	80.38
279.81	78.38
280.042	84.38
280.273	68.38
280.505	79.38
280.736	78.38
280.968	82.38
281.199	93.38
281.431	87.38
281.662	92.38
281.894	89.38
282.125	96.38
282.356	91.38
282.588	108.38
282.819	103.38
283.051	78.38
283.282	79.38
283.513	90.38
283.745	74.38
283.976	74.38
284.207	83.38
284.439	94.38
284.67	90.38
284.901	87.38
285.132	67.38
285.364	77.38
285.595	78.38
285.826	80.38
286.057	88.38
286.288	87.38
286.52	89.38
286.751	75.38
286.982	88.38
287.213	81.38
287.444	109.38
287.675	80.38
287.906	75.38
288.138	80.38
288.369	90.38
288.6	89.38
288.831	83.38
289.062	86.38
289.293	83.38
289.524	85.38
289.755	92.38
289.986	83.38
290.217	70.38
290.448	77.38
290.679	80.38
290.91	86.38
291.141	70.38
291.371	74.38
291.602	84.38
291.833	82.38
292.064	90.38
292.295	66.38
292.526	74.38
292.757	74.38
292.987	85.38
293.218	87.38
293.449	91.38
293.68	100.38
293.91	82.38
294.141	88.38
294.372	86.38
294.603	86.38
294.833	92.38
295.064	89.38
295.295	90.38
295.525	76.38
295.756	83.38
295.987	104.38
296.217	124.38
296.448	101.38
296.679	88.38
296.909	83.38
297.14	94.38
297.37	87.38
297.601	100.38
297.831	104.38
298.062	90.38
298.292	90.38
298.523	75.38
298.753	80.38
298.984	80.38
299.214	94.38
299.445	81.38
299.675	89.38
299.905	94.38
300.136	77.38
300.366	89.38
300.597	92.38
300.827	95.38
301.057	95.38
301.288	96.38
301.518	98.38
301.748	77.38
301.979	88.38
302.209	85.38
302.439	78.38
302.669	83.38
302.9	85.38
303.13	90.38
303.36	90.38
303.59	94.38
303.82	92.38
304.051	88.38
304.281	90.38
304.511	92.38
304.741	89.38
304.971	91.38
305.201	96.38
305.431	89.38
305.661	83.38
305.891	82.38
306.121	85.38
306.352	93.38
306.582	89.38
306.812	91.38
307.042	90.38
307.272	80.38
307.502	79.38
307.731	88.38
307.961	84.38
308.191	82.38
308.421	83.38
308.651	83.38
308.881	99.38
309.111	92.38
309.341	84.38
309.571	101.38
309.8	94.38
310.03	94.38
310.26	95.38
310.49	83.38
310.72	86.38
310.949	95.38
311.179	89.38
311.409	83.38
311.639	104.38
311.868	94.38
312.098	67.38
312.328	91.38
312.557	81.38
312.787	86.38
313.017	98.38
313.246	95.38
313.476	81.38
313.706	95.38
313.935	95.38
314.165	93.38
314.394	90.38
314.624	79.38
314.853	88.38
315.083	91.38
315.312	85.38
315.542	83.38
315.771	91.38
316.001	85.38
316.23	78.38
316.46	72.38
316.689	73.38
316.919	97.38
317.148	91.38
317.377	94.38
317.607	91.38
317.836	78.38
318.065	75.38
318.295	95.38
318.524	90.38
318.753	90.38
318.983	86.38
319.212	82.38
319.441	94.38
319.67	91.38
319.9	88.38
320.129	81.38
320.358	83.38
320.587	93.38
320.816	80.38
321.046	84.38
321.275	91.38
321.504	97.38
321.733	89.38
321.962	91.38
322.191	112.38
322.42	95.38
322.649	88.38
322.878	88.38
323.108	97.38
323.337	95.38
323.566	102.38
323.795	122.38
324.024	137.38
324.253	232.38
324.482	423.38
324.71	768.38
324.939	1030.38
325.168	444.38
325.397	161.38
325.626	123.38
325.855	98.38
326.084	96.38
326.313	97.38
326.542	104.38
326.77	163.38
326.999	262.38
327.228	464.38
327.457	728.38
327.686	617.38
327.914	227.38
328.143	136.38
328.372	107.38
328.6	97.38
328.829	101.38
329.058	90.38
329.287	97.38
329.515	101.38
329.744	82.38
329.972	89.38
330.201	100.38
330.43	90.38
330.658	117.38
330.887	90.38
331.115	91.38
331.344	101.38
331.572	86.38
331.801	96.38
332.03	71.38
332.258	102.38
332.486	83.38
332.715	96.38
332.943	95.38
333.172	83.38
333.4	93.38
333.629	88.38
333.857	92.38
334.085	106.38
334.314	95.38
334.542	84.38
334.771	89.38
334.999	101.38
335.227	86.38
335.455	108.38
335.684	77.38
335.912	79.38
336.14	82.38
336.369	97.38
336.597	84.38
336.825	97.38
337.053	83.38
337.281	69.38
337.51	69.38
337.738	86.38
337.966	89.38
338.194	71.38
338.422	88.38
338.65	86.38
338.878	90.38
339.106	86.38
339.334	90.38
339.562	89.38
339.79	95.38
340.018	88.38
340.246	70.38
340.474	90.38
340.702	80.38
340.93	70.38
341.158	88.38
341.386	89.38
341.614	91.38
341.842	89.38
342.07	93.38
342.298	75.38
342.526	92.38
342.754	96.38
342.981	89.38
343.209	94.38
343.437	97.38
343.665	98.38
343.893	83.38
344.12	86.38
344.348	81.38
344.576	100.38
344.804	102.38
345.031	83.38
345.259	86.38
345.487	99.38
345.714	85.38
345.942	73.38
346.17	89.38
346.397	80.38
346.625	97.38
346.853	90.38
347.08	83.38
347.308	88.38
347.535	83.38
347.763	84.38
347.99	87.38
348.218	83.38
348.445	94.38
348.673	91.38
348.9	71.38
349.128	82.38
349.355	89.38
349.583	89.38
349.81	85.38
350.037	92.38
350.265	82.38
350.492	97.38
350.72	82.38
350.947	90.38
351.174	80.38
351.402	77.38
351.629	91.38
351.856	85.38
352.083	76.38
352.311	95.38
352.538	105.38
352.765	89.38
352.992	109.38
353.22	98.38
353.447	104.38
353.674	85.38
353.901	86.38
354.128	85.38
354.355	82.38
354.583	95.38
354.81	105.38
355.037	95.38
355.264	81.38
355.491	89.38
355.718	91.38
355.945	78.38
356.172	76.38
356.399	92.38
356.626	90.38
356.853	78.38
357.08	90.38
357.307	81.38
357.534	92.38
357.761	88.38
357.988	86.38
358.215	86.38
358.441	86.38
358.668	89.38
358.895	85.38
359.122	84.38
359.349	85.38
359.576	82.38
359.802	78.38
360.029	79.38
360.256	105.38
360.483	81.38
360.709	87.38
360.936	86.38
361.163	85.38
361.39	89.38
361.616	77.38
361.843	95.38
362.07	83.38
362.296	94.38
362.523	95.38
362.749	88.38
362.976	69.38
363.203	91.38
363.429	70.38
363.656	87.38
363.882	85.38
364.109	106.38
364.335	91.38
364.562	85.38
364.788	81.38
365.015	91.38
365.241	89.38
365.468	94.38
365.694	88.38
365.92	89.38
366.147	92.38
366.373	78.38
366.599	80.38
366.826	76.38
367.052	111.38
367.278	84.38
367.505	73.38
367.731	97.38
367.957	82.38
368.184	82.38
368.41	95.38
368.636	98.38
368.862	111.38
369.089	106.38
369.315	85.38
369.541	80.38
369.767	71.38
369.993	81.38
370.219	86.38
370.445	85.38
370.672	69.38
370.898	90.38
371.124	89.38
371.35	94.38
371.576	79.38
371.802	81.38
372.028	83.38
372.254	87.38
372.48	84.38
372.706	74.38
372.932	80.38
373.158	81.38
373.384	77.38
373.61	82.38
373.835	90.38
374.061	76.38
374.287	81.38
374.513	91.38
374.739	88.38
374.965	97.38
375.191	89.38
375.416	84.38
375.642	91.38
375.868	81.38
376.094	79.38
376.319	83.38
376.545	85.38
376.771	87.38
376.997	98.38
377.222	94.38
377.448	84.38
377.674	88.38
377.899	96.38
378.125	81.38
378.35	69.38
378.576	88.38
378.802	96.38
379.027	80.38
379.253	76.38
379.478	81.38
379.704	94.38
379.929	87.38
380.155	84.38
380.38	76.38
380.606	90.38
380.831	79.38
381.057	79.38
381.282	83.38
381.507	74.38
381.733	78.38
381.958	82.38
382.184	85.38
382.409	75.38
382.634	88.38
382.86	98.38
383.085	92.38
383.31	80.38
383.535	90.38
383.761	92.38
383.986	92.38
384.211	100.38
384.436	92.38
384.662	91.38
384.887	87.38
385.112	105.38
385.337	93.38
385.562	89.38
385.787	79.38
386.013	94.38
386.238	103.38
386.463	90.38
386.688	87.38
386.913	93.38
387.138	75.38
387.363	74.38
387.588	82.38
387.813	98.38
388.038	102.38
388.263	101.38
388.488	91.38
388.713	77.38
388.938	81.38
389.163	86.38
389.387	81.38
389.612	91.38
389.837	86.38
390.062	78.38
390.287	81.38
390.512	79.38
390.736	66.38
390.961	70.38
391.186	83.38
391.411	74.38
391.636	83.38
391.86	89.38
392.085	79.38
392.31	84.38
392.534	91.38
392.759	85.38
392.984	70.38
393.208	77.38
393.433	85.38
393.658	81.38
393.882	70.38
394.107	82.38
394.331	85.38
394.556	90.38
394.78	77.38
395.005	87.38
395.229	65.38
395.454	82.38
395.678	82.38
395.903	67.38
396.127	92.38
396.352	61.38
396.576	82.38
396.801	87.38
397.025	72.38
397.249	90.38
397.474	80.38
397.698	91.38
397.922	83.38
398.147	70.38
398.371	84.38
398.595	73.38
398.82	79.38
399.044	85.38
399.268	87.38
399.492	83.38
399.717	86.38
399.941	79.38
400.165	81.38
400.389	92.38
400.613	85.38
400.837	83.38
401.062	89.38
401.286	83.38
401.51	86.38
401.734	87.38
401.958	81.38
402.182	107.38
402.406	118.38
402.63	113.38
402.854	95.38
403.078	74.38
403.302	74.38
403.526	83.38
403.75	97.38
403.974	72.38
404.198	70.38
404.422	94.38
404.645	90.38
404.869	95.38
405.093	93.38
405.317	95.38
405.541	83.38
405.765	97.38
405.988	103.38
406.212	127.38
406.436	155.38
406.66	106.38
406.883	101.38
407.107	89.38
407.331	84.38
407.555	85.38
407.778	81.38
408.002	80.38
408.226	78.38
408.449	82.38
408.673	77.38
408.896	91.38
409.12	85.38
409.344	94.38
409.567	73.38
409.791	90.38
410.014	92.38
410.238	76.38
410.461	89.38
410.685	92.38
410.908	72.38
411.132	83.38
411.355	82.38
411.578	78.38
411.802	73.38
412.025	80.38
412.249	77.38
412.472	81.38
412.695	70.38
412.919	93.38
413.142	88.38
413.365	88.38
413.589	84.38
413.812	73.38
414.035	89.38
414.258	80.38
414.482	89.38
414.705	90.38
414.928	96.38
415.151	81.38
415.374	83.38
415.597	90.38
415.821	78.38
416.044	62.38
416.267	89.38
416.49	83.38
416.713	91.38
416.936	90.38
417.159	93.38
417.382	85.38
417.605	70.38
417.828	75.38
418.051	70.38
418.274	81.38
418.497	80.38
418.72	90.38
418.943	90.38
419.166	90.38
419.389	92.38
419.611	82.38
419.834	84.38
420.057	103.38
420.28	96.38
420.503	79.38
420.726	84.38
420.948	92.38
421.171	87.38
421.394	85.38
421.617	79.38
421.839	92.38
422.062	82.38
422.285	97.38
422.507	84.38
422.73	91.38
422.953	89.38
423.175	90.38
423.398	76.38
423.621	91.38
423.843	73.38
424.066	86.38
424.288	75.38
424.511	74.38
424.733	83.38
424.956	96.38
425.178	80.38
425.401	87.38
425.623	77.38
425.846	83.38
426.068	78.38
426.291	87.38
426.513	82.38
426.735	92.38
426.958	92.38
427.18	100.38
427.402	97.38
427.625	113.38
427.847	108.38
428.069	85.38
428.292	82.38
428.514	84.38
428.736	77.38
428.958	64.38
429.181	76.38
429.403	81.38
429.625	80.38
429.847	80.38
430.069	95.38
430.292	75.38
430.514	78.38
430.736	79.38
430.958	89.38
431.18	80.38
431.402	84.38
431.624	80.38
431.846	76.38
432.068	82.38
432.29	64.38
432.512	84.38
432.734	88.38
432.956	62.38
433.178	79.38
433.4	90.38
433.622	97.38
433.844	93.38
434.066	81.38
434.287	85.38
434.509	83.38
434.731	86.38
434.953	85.38
435.175	101.38
435.397	81.38
435.618	69.38
435.84	86.38
436.062	89.38
436.284	94.38
436.505	91.38
436.727	81.38
436.949	90.38
437.17	74.38
437.392	69.38
437.614	90.38
437.835	96.38
438.057	94.38
438.278	83.38
438.5	89.38
438.721	96.38
438.943	85.38
439.165	78.38
439.386	77.38
439.608	70.38
439.829	91.38
440.05	90.38
440.272	102.38
440.493	86.38
440.715	91.38
440.936	85.38
441.158	87.38
441.379	79.38
441.6	89.38
441.822	86.38
442.043	88.38
442.264	81.38
442.486	90.38
442.707	78.38
442.928	82.38
443.149	83.38
443.371	103.38
443.592	87.38
443.813	89.38
444.034	87.38
444.255	74.38
444.476	81.38
444.698	81.38
444.919	75.38
445.14	111.38
445.361	103.38
445.582	86.38
445.803	93.38
446.024	109.38
446.245	97.38
446.466	79.38
446.687	82.38
446.908	85.38
447.129	85.38
447.35	90.38
447.571	98.38
447.792	85.38
448.013	81.38
448.234	82.38
448.455	84.38
448.675	94.38
448.896	87.38
449.117	85.38
449.338	91.38
449.559	99.38
449.779	99.38
450	78.38
450.221	95.38
450.442	91.38
450.662	83.38
450.883	83.38
451.104	106.38
451.324	76.38
451.545	96.38
451.766	74.38
451.986	83.38
452.207	87.38
452.428	92.38
452.648	71.38
452.869	82.38
453.089	91.38
453.31	101.38
453.53	83.38
453.751	73.38
453.971	86.38
454.192	99.38
454.412	92.38
454.633	82.38
454.853	88.38
455.073	85.38
455.294	74.38
455.514	69.38
455.734	89.38
455.955	95.38
456.175	85.38
456.395	82.38
456.616	83.38
456.836	83.38
457.056	80.38
457.276	77.38
457.497	75.38
457.717	98.38
457.937	87.38
458.157	85.38
458.377	78.38
458.598	94.38
458.818	101.38
459.038	103.38
459.258	93.38
459.478	82.38
459.698	81.38
459.918	75.38
460.138	76.38
460.358	77.38
460.578	87.38
460.798	86.38
461.018	95.38
461.238	87.38
461.458	91.38
461.678	71.38
461.898	82.38
462.118	85.38
462.338	71.38
462.558	90.38
462.777	68.38
462.997	91.38
463.217	78.38
463.437	79.38
463.657	93.38
463.876	87.38
464.096	69.38
464.316	89.38
464.536	94.38
464.755	82.38
464.975	96.38
465.195	118.38
465.414	133.38
465.634	83.38
465.854	90.38
466.073	82.38
466.293	83.38
466.512	89.38
466.732	88.38
466.951	88.38
467.171	76.38
467.391	88.38
467.61	94.38
467.829	91.38
468.049	81.38
468.268	88.38
468.488	81.38
468.707	91.38
468.927	80.38
469.146	90.38
469.365	85.38
469.585	97.38
469.804	81.38
470.023	84.38
470.243	76.38
470.462	84.38
470.681	93.38
470.901	85.38
471.12	88.38
471.339	90.38
471.558	89.38
471.777	88.38
471.997	77.38
472.216	75.38
472.435	94.38
472.654	97.38
472.873	83.38
473.092	90.38
473.311	86.38
473.53	90.38
473.749	75.38
473.968	82.38
474.187	79.38
474.406	78.38
474.625	89.38
474.844	77.38
475.063	77.38
475.282	86.38
475.501	86.38
475.72	80.38
475.939	94.38
476.158	78.38
476.377	89.38
476.596	73.38
476.814	75.38
477.033	83.38
477.252	84.38
477.471	82.38
477.69	95.38
477.908	74.38
478.127	87.38
478.346	86.38
478.564	72.38
478.783	84.38
479.002	82.38
479.22	96.38
479.439	88.38
479.658	90.38
479.876	88.38
480.095	66.38
480.313	81.38
480.532	83.38
480.751	73.38
480.969	89.38
481.188	94.38
481.406	71.38
481.624	80.38
481.843	82.38
482.061	88.38
482.28	77.38
482.498	86.38
482.717	93.38
482.935	63.38
483.153	64.38
483.372	76.38
483.59	80.38
483.808	74.38
484.027	82.38
484.245	71.38
484.463	66.38
484.681	73.38
484.9	82.38
485.118	80.38
485.336	86.38
485.554	90.38
485.772	84.38
485.99	81.38
486.209	81.38
486.427	89.38
486.645	91.38
486.863	94.38
487.081	83.38
487.299	74.38
487.517	82.38
487.735	87.38
487.953	73.38
488.171	70.38
488.389	102.38
488.607	78.38
488.825	76.38
489.043	76.38
489.261	90.38
489.479	87.38
489.696	79.38
489.914	89.38
490.132	94.38
490.35	93.38
490.568	87.38
490.786	85.38
491.003	76.38
491.221	80.38
491.439	86.38
491.657	72.38
491.874	79.38
492.092	95.38
492.31	90.38
492.527	73.38
492.745	69.38
492.963	91.38
493.18	88.38
493.398	79.38
493.615	81.38
493.833	99.38
494.05	74.38
494.268	82.38
494.485	68.38
494.703	90.38
494.92	89.38
495.138	71.38
495.355	78.38
495.573	79.38
495.79	87.38
496.008	96.38
496.225	82.38
496.442	103.38
496.66	89.38
496.877	95.38
497.094	91.38
497.312	83.38
497.529	80.38
497.746	85.38
497.963	81.38
498.181	81.38
498.398	82.38
498.615	105.38
498.832	92.38
499.049	82.38
499.267	94.38
499.484	93.38
499.701	78.38
499.918	81.38
500.135	92.38
500.352	99.38
500.569	90.38
500.786	90.38
501.003	86.38
501.22	89.38
501.437	97.38
501.654	87.38
501.871	81.38
502.088	86.38
502.305	80.38
502.522	82.38
502.739	91.38
502.956	81.38
503.172	85.38
503.389	93.38
503.606	97.38
503.823	87.38
504.04	89.38
504.256	80.38
504.473	80.38
504.69	80.38
504.907	77.38
505.123	90.38
505.34	98.38
505.557	86.38
505.773	99.38
505.99	86.38
506.207	77.38
506.423	86.38
506.64	86.38
506.856	95.38
507.073	77.38
507.289	72.38
507.506	85.38
507.722	94.38
507.939	92.38
508.155	89.38
508.372	88.38
508.588	87.38
508.805	93.38
509.021	80.38
509.238	90.38
509.454	101.38
509.67	90.38
509.887	88.38
510.103	112.38
510.319	167.38
510.536	559.38
510.752	1623.38
510.968	476.38
511.184	137.38
511.401	97.38
511.617	95.38
511.833	79.38
512.049	88.38
512.265	79.38
512.481	91.38
512.698	87.38
512.914	96.38
513.13	92.38
513.346	79.38
513.562	73.38
513.778	87.38
513.994	88.38
514.21	91.38
514.426	102.38
514.642	122.38
514.858	114.38
515.074	137.38
515.29	304.38
515.506	998.38
515.721	379.38
515.937	123.38
516.153	94.38
516.369	85.38
516.585	86.38
516.801	90.38
517.016	81.38
517.232	72.38
517.448	97.38
517.664	100.38
517.879	89.38
518.095	74.38
518.311	91.38
518.527	89.38
518.742	88.38
