Data from Uncirc_2008_H10_HRD10591_00036.txt Node
Date: Wed Jan 03 10:15:38 EST 2024
User: Yrep
Spectrometer: HR+D1059
Trigger mode: 1
Integration Time (sec): 1.000000E-1
Scans to average: 1
Electric dark correction enabled: true
Nonlinearity correction enabled: false
Boxcar width: 0
XAxis mode: Wavelengths
Number of Pixels in Spectrum: 2048
>>>>>Begin Spectral Data<<<<<
223.165	-27.81
223.4	-27.81
223.635	-27.81
223.869	-8.81
224.104	-19.81
224.338	-13.81
224.573	-16.81
224.808	-6.81
225.042	-8.81
225.277	-1.81
225.511	-8.81
225.746	12.19
225.98	-1.81
226.215	19.19
226.449	10.19
226.683	24.19
226.918	27.19
227.152	22.19
227.387	28.19
227.621	27.19
227.856	35.19
228.09	42.19
228.324	53.19
228.559	60.19
228.793	59.19
229.027	56.19
229.262	57.19
229.496	62.19
229.73	88.19
229.964	74.19
230.199	77.19
230.433	71.19
230.667	76.19
230.901	68.19
231.136	72.19
231.37	64.19
231.604	66.19
231.838	81.19
232.072	71.19
232.306	75.19
232.541	81.19
232.775	73.19
233.009	82.19
233.243	87.19
233.477	85.19
233.711	68.19
233.945	67.19
234.179	52.19
234.413	76.19
234.647	70.19
234.881	68.19
235.115	77.19
235.349	84.19
235.583	76.19
235.817	77.19
236.051	79.19
236.285	65.19
236.519	70.19
236.753	78.19
236.987	79.19
237.221	85.19
237.455	73.19
237.689	69.19
237.922	75.19
238.156	79.19
238.39	72.19
238.624	73.19
238.858	74.19
239.091	76.19
239.325	76.19
239.559	91.19
239.793	60.19
240.027	72.19
240.26	61.19
240.494	70.19
240.728	77.19
240.961	70.19
241.195	66.19
241.429	69.19
241.662	69.19
241.896	80.19
242.13	76.19
242.363	62.19
242.597	70.19
242.83	75.19
243.064	75.19
243.298	85.19
243.531	63.19
243.765	75.19
243.998	72.19
244.232	75.19
244.465	71.19
244.699	72.19
244.932	63.19
245.166	60.19
245.399	79.19
245.633	69.19
245.866	68.19
246.099	80.19
246.333	81.19
246.566	73.19
246.8	67.19
247.033	84.19
247.266	80.19
247.5	75.19
247.733	75.19
247.966	72.19
248.2	58.19
248.433	63.19
248.666	68.19
248.899	85.19
249.133	82.19
249.366	89.19
249.599	90.19
249.832	79.19
250.066	75.19
250.299	67.19
250.532	86.19
250.765	64.19
250.998	74.19
251.231	91.19
251.465	77.19
251.698	59.19
251.931	73.19
252.164	86.19
252.397	63.19
252.63	68.19
252.863	71.19
253.096	77.19
253.329	93.19
253.562	84.19
253.795	79.19
254.028	63.19
254.261	86.19
254.494	80.19
254.727	79.19
254.96	74.19
255.193	60.19
255.426	68.19
255.659	59.19
255.892	80.19
256.124	66.19
256.357	79.19
256.59	69.19
256.823	65.19
257.056	90.19
257.289	68.19
257.521	62.19
257.754	75.19
257.987	72.19
258.22	83.19
258.452	93.19
258.685	82.19
258.918	94.19
259.151	79.19
259.383	79.19
259.616	75.19
259.849	81.19
260.081	70.19
260.314	80.19
260.547	86.19
260.779	71.19
261.012	52.19
261.244	81.19
261.477	85.19
261.71	76.19
261.942	101.19
262.175	97.19
262.407	90.19
262.64	90.19
262.872	83.19
263.105	74.19
263.337	76.19
263.57	80.19
263.802	72.19
264.035	79.19
264.267	87.19
264.499	80.19
264.732	82.19
264.964	82.19
265.197	69.19
265.429	74.19
265.661	82.19
265.894	69.19
266.126	84.19
266.358	75.19
266.591	87.19
266.823	94.19
267.055	72.19
267.287	89.19
267.52	91.19
267.752	82.19
267.984	68.19
268.216	71.19
268.448	74.19
268.681	91.19
268.913	93.19
269.145	74.19
269.377	78.19
269.609	82.19
269.841	79.19
270.073	83.19
270.306	74.19
270.538	77.19
270.77	95.19
271.002	90.19
271.234	77.19
271.466	85.19
271.698	80.19
271.93	82.19
272.162	87.19
272.394	82.19
272.626	103.19
272.858	87.19
273.09	78.19
273.322	82.19
273.553	70.19
273.785	71.19
274.017	77.19
274.249	71.19
274.481	72.19
274.713	85.19
274.945	86.19
275.176	69.19
275.408	75.19
275.64	86.19
275.872	86.19
276.104	81.19
276.335	84.19
276.567	83.19
276.799	111.19
277.031	85.19
277.262	99.19
277.494	92.19
277.726	78.19
277.957	67.19
278.189	80.19
278.421	82.19
278.652	70.19
278.884	79.19
279.115	84.19
279.347	81.19
279.579	91.19
279.81	76.19
280.042	86.19
280.273	68.19
280.505	80.19
280.736	86.19
280.968	76.19
281.199	70.19
281.431	77.19
281.662	77.19
281.894	86.19
282.125	98.19
282.356	100.19
282.588	134.19
282.819	111.19
283.051	97.19
283.282	87.19
283.513	87.19
283.745	90.19
283.976	76.19
284.207	78.19
284.439	90.19
284.67	73.19
284.901	77.19
285.132	82.19
285.364	84.19
285.595	74.19
285.826	85.19
286.057	80.19
286.288	80.19
286.52	74.19
286.751	75.19
286.982	93.19
287.213	78.19
287.444	96.19
287.675	82.19
287.906	88.19
288.138	109.19
288.369	82.19
288.6	78.19
288.831	91.19
289.062	82.19
289.293	85.19
289.524	67.19
289.755	88.19
289.986	75.19
290.217	75.19
290.448	76.19
290.679	86.19
290.91	88.19
291.141	84.19
291.371	96.19
291.602	93.19
291.833	80.19
292.064	56.19
292.295	74.19
292.526	73.19
292.757	85.19
292.987	75.19
293.218	90.19
293.449	64.19
293.68	80.19
293.91	86.19
294.141	77.19
294.372	88.19
294.603	103.19
294.833	88.19
295.064	73.19
295.295	81.19
295.525	87.19
295.756	101.19
295.987	104.19
296.217	128.19
296.448	109.19
296.679	98.19
296.909	67.19
297.14	86.19
297.37	90.19
297.601	69.19
297.831	87.19
298.062	69.19
298.292	76.19
298.523	84.19
298.753	91.19
298.984	87.19
299.214	91.19
299.445	103.19
299.675	88.19
299.905	80.19
300.136	92.19
300.366	71.19
300.597	90.19
300.827	95.19
301.057	103.19
301.288	96.19
301.518	78.19
301.748	86.19
301.979	104.19
302.209	80.19
302.439	77.19
302.669	86.19
302.9	91.19
303.13	92.19
303.36	91.19
303.59	91.19
303.82	100.19
304.051	102.19
304.281	100.19
304.511	86.19
304.741	91.19
304.971	78.19
305.201	99.19
305.431	89.19
305.661	71.19
305.891	95.19
306.121	92.19
306.352	76.19
306.582	95.19
306.812	90.19
307.042	89.19
307.272	81.19
307.502	92.19
307.731	77.19
307.961	85.19
308.191	85.19
308.421	101.19
308.651	77.19
308.881	78.19
309.111	87.19
309.341	84.19
309.571	102.19
309.8	88.19
310.03	92.19
310.26	96.19
310.49	105.19
310.72	102.19
310.949	95.19
311.179	97.19
311.409	97.19
311.639	90.19
311.868	81.19
312.098	104.19
312.328	103.19
312.557	109.19
312.787	96.19
313.017	91.19
313.246	96.19
313.476	100.19
313.706	102.19
313.935	84.19
314.165	105.19
314.394	103.19
314.624	79.19
314.853	73.19
315.083	93.19
315.312	79.19
315.542	84.19
315.771	81.19
316.001	89.19
316.23	91.19
316.46	87.19
316.689	98.19
316.919	76.19
317.148	95.19
317.377	101.19
317.607	93.19
317.836	84.19
318.065	91.19
318.295	91.19
318.524	84.19
318.753	88.19
318.983	84.19
319.212	112.19
319.441	108.19
319.67	106.19
319.9	100.19
320.129	92.19
320.358	106.19
320.587	93.19
320.816	89.19
321.046	93.19
321.275	107.19
321.504	96.19
321.733	95.19
321.962	104.19
322.191	99.19
322.42	114.19
322.649	93.19
322.878	110.19
323.108	104.19
323.337	110.19
323.566	125.19
323.795	148.19
324.024	191.19
324.253	377.19
324.482	786.19
324.71	1595.19
324.939	2056.19
325.168	732.19
325.397	220.19
325.626	148.19
325.855	109.19
326.084	114.19
326.313	118.19
326.542	151.19
326.77	215.19
326.999	441.19
327.228	867.19
327.457	1633.19
327.686	1278.19
327.914	340.19
328.143	178.19
328.372	146.19
328.6	126.19
328.829	106.19
329.058	121.19
329.287	125.19
329.515	86.19
329.744	91.19
329.972	98.19
330.201	98.19
330.43	108.19
330.658	118.19
330.887	132.19
331.115	117.19
331.344	93.19
331.572	97.19
331.801	110.19
332.03	95.19
332.258	91.19
332.486	83.19
332.715	89.19
332.943	87.19
333.172	100.19
333.4	91.19
333.629	99.19
333.857	108.19
334.085	78.19
334.314	91.19
334.542	85.19
334.771	86.19
334.999	84.19
335.227	90.19
335.455	88.19
335.684	82.19
335.912	98.19
336.14	100.19
336.369	103.19
336.597	103.19
336.825	86.19
337.053	92.19
337.281	91.19
337.51	82.19
337.738	89.19
337.966	94.19
338.194	81.19
338.422	89.19
338.65	89.19
338.878	97.19
339.106	95.19
339.334	87.19
339.562	97.19
339.79	79.19
340.018	83.19
340.246	92.19
340.474	84.19
340.702	94.19
340.93	81.19
341.158	94.19
341.386	85.19
341.614	89.19
341.842	88.19
342.07	88.19
342.298	87.19
342.526	90.19
342.754	89.19
342.981	87.19
343.209	82.19
343.437	94.19
343.665	91.19
343.893	91.19
344.12	82.19
344.348	91.19
344.576	96.19
344.804	83.19
345.031	83.19
345.259	90.19
345.487	91.19
345.714	88.19
345.942	84.19
346.17	94.19
346.397	76.19
346.625	78.19
346.853	77.19
347.08	90.19
347.308	91.19
347.535	87.19
347.763	89.19
347.99	96.19
348.218	88.19
348.445	83.19
348.673	89.19
348.9	84.19
349.128	97.19
349.355	88.19
349.583	98.19
349.81	96.19
350.037	91.19
350.265	95.19
350.492	104.19
350.72	102.19
350.947	90.19
351.174	87.19
351.402	86.19
351.629	83.19
351.856	109.19
352.083	100.19
352.311	102.19
352.538	105.19
352.765	111.19
352.992	95.19
353.22	102.19
353.447	92.19
353.674	91.19
353.901	101.19
354.128	99.19
354.355	86.19
354.583	98.19
354.81	91.19
355.037	94.19
355.264	80.19
355.491	85.19
355.718	80.19
355.945	90.19
356.172	84.19
356.399	84.19
356.626	95.19
356.853	98.19
357.08	86.19
357.307	80.19
357.534	96.19
357.761	94.19
357.988	97.19
358.215	92.19
358.441	81.19
358.668	89.19
358.895	84.19
359.122	90.19
359.349	91.19
359.576	83.19
359.802	95.19
360.029	106.19
360.256	99.19
360.483	86.19
360.709	84.19
360.936	80.19
361.163	89.19
361.39	86.19
361.616	90.19
361.843	99.19
362.07	109.19
362.296	89.19
362.523	78.19
362.749	88.19
362.976	104.19
363.203	85.19
363.429	75.19
363.656	89.19
363.882	87.19
364.109	99.19
364.335	102.19
364.562	83.19
364.788	87.19
365.015	100.19
365.241	91.19
365.468	101.19
365.694	98.19
365.92	101.19
366.147	92.19
366.373	90.19
366.599	79.19
366.826	81.19
367.052	102.19
367.278	80.19
367.505	85.19
367.731	88.19
367.957	89.19
368.184	78.19
368.41	84.19
368.636	106.19
368.862	109.19
369.089	103.19
369.315	90.19
369.541	91.19
369.767	82.19
369.993	90.19
370.219	88.19
370.445	101.19
370.672	76.19
370.898	62.19
371.124	89.19
371.35	77.19
371.576	73.19
371.802	86.19
372.028	77.19
372.254	87.19
372.48	100.19
372.706	82.19
372.932	87.19
373.158	84.19
373.384	86.19
373.61	84.19
373.835	94.19
374.061	74.19
374.287	94.19
374.513	88.19
374.739	86.19
374.965	90.19
375.191	74.19
375.416	85.19
375.642	92.19
375.868	102.19
376.094	90.19
376.319	91.19
376.545	93.19
376.771	83.19
376.997	83.19
377.222	88.19
377.448	91.19
377.674	77.19
377.899	102.19
378.125	92.19
378.35	85.19
378.576	93.19
378.802	93.19
379.027	92.19
379.253	95.19
379.478	94.19
379.704	103.19
379.929	108.19
380.155	88.19
380.38	90.19
380.606	84.19
380.831	86.19
381.057	91.19
381.282	94.19
381.507	79.19
381.733	84.19
381.958	96.19
382.184	91.19
382.409	92.19
382.634	100.19
382.86	100.19
383.085	91.19
383.31	84.19
383.535	96.19
383.761	96.19
383.986	92.19
384.211	95.19
384.436	93.19
384.662	90.19
384.887	80.19
385.112	88.19
385.337	112.19
385.562	102.19
385.787	92.19
386.013	91.19
386.238	98.19
386.463	105.19
386.688	98.19
386.913	104.19
387.138	104.19
387.363	97.19
387.588	104.19
387.813	96.19
388.038	120.19
388.263	109.19
388.488	105.19
388.713	91.19
388.938	80.19
389.163	97.19
389.387	96.19
389.612	87.19
389.837	95.19
390.062	85.19
390.287	85.19
390.512	87.19
390.736	84.19
390.961	87.19
391.186	82.19
391.411	99.19
391.636	84.19
391.86	74.19
392.085	88.19
392.31	91.19
392.534	80.19
392.759	84.19
392.984	95.19
393.208	82.19
393.433	73.19
393.658	89.19
393.882	87.19
394.107	86.19
394.331	87.19
394.556	79.19
394.78	83.19
395.005	77.19
395.229	71.19
395.454	75.19
395.678	82.19
395.903	81.19
396.127	90.19
396.352	73.19
396.576	86.19
396.801	88.19
397.025	75.19
397.249	84.19
397.474	86.19
397.698	78.19
397.922	85.19
398.147	84.19
398.371	84.19
398.595	97.19
398.82	83.19
399.044	86.19
399.268	78.19
399.492	76.19
399.717	82.19
399.941	96.19
400.165	83.19
400.389	84.19
400.613	94.19
400.837	84.19
401.062	79.19
401.286	79.19
401.51	93.19
401.734	96.19
401.958	99.19
402.182	117.19
402.406	156.19
402.63	99.19
402.854	103.19
403.078	101.19
403.302	72.19
403.526	81.19
403.75	75.19
403.974	89.19
404.198	82.19
404.422	87.19
404.645	85.19
404.869	90.19
405.093	72.19
405.317	91.19
405.541	87.19
405.765	93.19
405.988	100.19
406.212	156.19
406.436	204.19
406.66	107.19
406.883	89.19
407.107	95.19
407.331	86.19
407.555	103.19
407.778	99.19
408.002	86.19
408.226	94.19
408.449	77.19
408.673	77.19
408.896	73.19
409.12	83.19
409.344	87.19
409.567	95.19
409.791	86.19
410.014	99.19
410.238	86.19
410.461	87.19
410.685	82.19
410.908	95.19
411.132	100.19
411.355	92.19
411.578	76.19
411.802	87.19
412.025	101.19
412.249	82.19
412.472	80.19
412.695	86.19
412.919	72.19
413.142	98.19
413.365	79.19
413.589	90.19
413.812	83.19
414.035	90.19
414.258	84.19
414.482	96.19
414.705	85.19
414.928	86.19
415.151	81.19
415.374	83.19
415.597	74.19
415.821	93.19
416.044	70.19
416.267	81.19
416.49	79.19
416.713	88.19
416.936	74.19
417.159	79.19
417.382	80.19
417.605	91.19
417.828	95.19
418.051	82.19
418.274	90.19
418.497	88.19
418.72	77.19
418.943	89.19
419.166	89.19
419.389	94.19
419.611	80.19
419.834	81.19
420.057	85.19
420.28	74.19
420.503	78.19
420.726	72.19
420.948	86.19
421.171	97.19
421.394	81.19
421.617	86.19
421.839	75.19
422.062	89.19
422.285	86.19
422.507	96.19
422.73	82.19
422.953	81.19
423.175	81.19
423.398	82.19
423.621	96.19
423.843	86.19
424.066	87.19
424.288	79.19
424.511	81.19
424.733	96.19
424.956	98.19
425.178	88.19
425.401	111.19
425.623	90.19
425.846	85.19
426.068	90.19
426.291	76.19
426.513	86.19
426.735	81.19
426.958	73.19
427.18	91.19
427.402	127.19
427.625	155.19
427.847	116.19
428.069	93.19
428.292	77.19
428.514	75.19
428.736	78.19
428.958	73.19
429.181	90.19
429.403	86.19
429.625	92.19
429.847	83.19
430.069	93.19
430.292	93.19
430.514	76.19
430.736	81.19
430.958	77.19
431.18	78.19
431.402	78.19
431.624	87.19
431.846	77.19
432.068	81.19
432.29	84.19
432.512	81.19
432.734	70.19
432.956	67.19
433.178	88.19
433.4	80.19
433.622	80.19
433.844	79.19
434.066	87.19
434.287	91.19
434.509	81.19
434.731	82.19
434.953	88.19
435.175	76.19
435.397	72.19
435.618	79.19
435.84	100.19
436.062	101.19
436.284	104.19
436.505	100.19
436.727	80.19
436.949	94.19
437.17	82.19
437.392	87.19
437.614	83.19
437.835	102.19
438.057	113.19
438.278	110.19
438.5	98.19
438.721	102.19
438.943	87.19
439.165	93.19
439.386	85.19
439.608	81.19
439.829	77.19
440.05	118.19
440.272	137.19
440.493	92.19
440.715	91.19
440.936	86.19
441.158	94.19
441.379	93.19
441.6	93.19
441.822	89.19
442.043	95.19
442.264	99.19
442.486	88.19
442.707	93.19
442.928	98.19
443.149	119.19
443.371	125.19
443.592	102.19
443.813	108.19
444.034	99.19
444.255	99.19
444.476	93.19
444.698	91.19
444.919	90.19
445.14	123.19
445.361	114.19
445.582	96.19
445.803	131.19
446.024	137.19
446.245	120.19
446.466	113.19
446.687	74.19
446.908	73.19
447.129	89.19
447.35	83.19
447.571	85.19
447.792	86.19
448.013	87.19
448.234	96.19
448.455	90.19
448.675	95.19
448.896	102.19
449.117	84.19
449.338	97.19
449.559	110.19
449.779	117.19
450	86.19
450.221	95.19
450.442	88.19
450.662	102.19
450.883	98.19
451.104	106.19
451.324	86.19
451.545	86.19
451.766	89.19
451.986	76.19
452.207	83.19
452.428	96.19
452.648	90.19
452.869	98.19
453.089	106.19
453.31	104.19
453.53	99.19
453.751	79.19
453.971	89.19
454.192	95.19
454.412	79.19
454.633	77.19
454.853	90.19
455.073	79.19
455.294	81.19
455.514	79.19
455.734	79.19
455.955	66.19
456.175	85.19
456.395	80.19
456.616	84.19
456.836	81.19
457.056	83.19
457.276	90.19
457.497	89.19
457.717	84.19
457.937	81.19
458.157	85.19
458.377	83.19
458.598	104.19
458.818	137.19
459.038	148.19
459.258	102.19
459.478	87.19
459.698	79.19
459.918	75.19
460.138	79.19
460.358	92.19
460.578	67.19
460.798	82.19
461.018	69.19
461.238	69.19
461.458	78.19
461.678	85.19
461.898	78.19
462.118	83.19
462.338	77.19
462.558	79.19
462.777	71.19
462.997	78.19
463.217	84.19
463.437	84.19
463.657	94.19
463.876	95.19
464.096	87.19
464.316	90.19
464.536	83.19
464.755	91.19
464.975	100.19
465.195	145.19
465.414	149.19
465.634	92.19
465.854	92.19
466.073	87.19
466.293	90.19
466.512	74.19
466.732	86.19
466.951	82.19
467.171	75.19
467.391	91.19
467.61	93.19
467.829	95.19
468.049	66.19
468.268	66.19
468.488	85.19
468.707	87.19
468.927	80.19
469.146	69.19
469.365	80.19
469.585	91.19
469.804	90.19
470.023	90.19
470.243	75.19
470.462	97.19
470.681	102.19
470.901	75.19
471.12	74.19
471.339	86.19
471.558	98.19
471.777	89.19
471.997	89.19
472.216	88.19
472.435	75.19
472.654	89.19
472.873	76.19
473.092	78.19
473.311	90.19
473.53	79.19
473.749	84.19
473.968	101.19
474.187	96.19
474.406	89.19
474.625	81.19
474.844	66.19
475.063	76.19
475.282	95.19
475.501	73.19
475.72	91.19
475.939	73.19
476.158	84.19
476.377	83.19
476.596	85.19
476.814	94.19
477.033	81.19
477.252	84.19
477.471	77.19
477.69	80.19
477.908	87.19
478.127	86.19
478.346	79.19
478.564	78.19
478.783	87.19
479.002	84.19
479.22	83.19
479.439	90.19
479.658	99.19
479.876	86.19
480.095	84.19
480.313	82.19
480.532	75.19
480.751	85.19
480.969	90.19
481.188	81.19
481.406	107.19
481.624	84.19
481.843	92.19
482.061	94.19
482.28	84.19
482.498	85.19
482.717	74.19
482.935	73.19
483.153	91.19
483.372	86.19
483.59	92.19
483.808	84.19
484.027	81.19
484.245	85.19
484.463	85.19
484.681	87.19
484.9	81.19
485.118	94.19
485.336	77.19
485.554	95.19
485.772	80.19
485.99	104.19
486.209	96.19
486.427	102.19
486.645	106.19
486.863	102.19
487.081	104.19
487.299	86.19
487.517	76.19
487.735	87.19
487.953	86.19
488.171	99.19
488.389	77.19
488.607	97.19
488.825	95.19
489.043	79.19
489.261	91.19
489.479	86.19
489.696	91.19
489.914	101.19
490.132	98.19
490.35	75.19
490.568	82.19
490.786	75.19
491.003	80.19
491.221	88.19
491.439	78.19
491.657	93.19
491.874	82.19
492.092	82.19
492.31	105.19
492.527	84.19
492.745	91.19
492.963	92.19
493.18	75.19
493.398	75.19
493.615	100.19
493.833	104.19
494.05	90.19
494.268	80.19
494.485	84.19
494.703	89.19
494.92	94.19
495.138	84.19
495.355	79.19
495.573	95.19
495.79	78.19
496.008	87.19
496.225	89.19
496.442	102.19
496.66	84.19
496.877	99.19
497.094	86.19
497.312	80.19
497.529	95.19
497.746	79.19
497.963	88.19
498.181	90.19
498.398	88.19
498.615	91.19
498.832	99.19
499.049	85.19
499.267	94.19
499.484	97.19
499.701	76.19
499.918	84.19
500.135	66.19
500.352	91.19
500.569	90.19
500.786	88.19
501.003	91.19
501.22	79.19
501.437	71.19
501.654	81.19
501.871	95.19
502.088	86.19
502.305	91.19
502.522	77.19
502.739	75.19
502.956	81.19
503.172	79.19
503.389	100.19
503.606	108.19
503.823	89.19
504.04	88.19
504.256	90.19
504.473	85.19
504.69	74.19
504.907	87.19
505.123	90.19
505.34	78.19
505.557	95.19
505.773	99.19
505.99	98.19
506.207	99.19
506.423	88.19
506.64	91.19
506.856	98.19
507.073	95.19
507.289	90.19
507.506	81.19
507.722	102.19
507.939	91.19
508.155	84.19
508.372	90.19
508.588	91.19
508.805	93.19
509.021	92.19
509.238	84.19
509.454	119.19
509.67	101.19
509.887	120.19
510.103	138.19
510.319	215.19
510.536	742.19
510.752	2301.19
510.968	664.19
511.184	151.19
511.401	107.19
511.617	83.19
511.833	86.19
512.049	79.19
512.265	93.19
512.481	89.19
512.698	94.19
512.914	98.19
513.13	84.19
513.346	86.19
513.562	84.19
513.778	88.19
513.994	95.19
514.21	116.19
514.426	105.19
514.642	123.19
514.858	107.19
515.074	164.19
515.29	421.19
515.506	1406.19
515.721	514.19
515.937	153.19
516.153	105.19
516.369	92.19
516.585	86.19
516.801	90.19
517.016	94.19
517.232	87.19
