Data from Uncirc_2008_H10_HRD10591_00075.txt Node
Date: Wed Jan 03 10:15:45 EST 2024
User: Yrep
Spectrometer: HR+D1059
Trigger mode: 1
Integration Time (sec): 1.000000E-1
Scans to average: 1
Electric dark correction enabled: true
Nonlinearity correction enabled: false
Boxcar width: 0
XAxis mode: Wavelengths
Number of Pixels in Spectrum: 2048
>>>>>Begin Spectral Data<<<<<
223.165	-29.75
223.4	-29.75
223.635	-29.75
223.869	-19.75
224.104	-19.75
224.338	-1.75
224.573	-5.75
224.808	-10.75
225.042	-13.75
225.277	-9.75
225.511	-13.75
225.746	0.25
225.98	4.25
226.215	13.25
226.449	20.25
226.683	16.25
226.918	24.25
227.152	46.25
227.387	40.25
227.621	48.25
227.856	48.25
228.09	36.25
228.324	57.25
228.559	55.25
228.793	57.25
229.027	60.25
229.262	58.25
229.496	80.25
229.73	69.25
229.964	79.25
230.199	64.25
230.433	70.25
230.667	64.25
230.901	79.25
231.136	76.25
231.37	81.25
231.604	58.25
231.838	91.25
232.072	84.25
232.306	73.25
232.541	77.25
232.775	73.25
233.009	72.25
233.243	82.25
233.477	77.25
233.711	84.25
233.945	80.25
234.179	76.25
234.413	90.25
234.647	72.25
234.881	82.25
235.115	75.25
235.349	97.25
235.583	77.25
235.817	72.25
236.051	63.25
236.285	89.25
236.519	95.25
236.753	72.25
236.987	55.25
237.221	87.25
237.455	81.25
237.689	81.25
237.922	80.25
238.156	76.25
238.39	66.25
238.624	70.25
238.858	77.25
239.091	72.25
239.325	79.25
239.559	82.25
239.793	76.25
240.027	64.25
240.26	73.25
240.494	62.25
240.728	82.25
240.961	63.25
241.195	65.25
241.429	64.25
241.662	69.25
241.896	61.25
242.13	82.25
242.363	66.25
242.597	77.25
242.83	78.25
243.064	80.25
243.298	82.25
243.531	81.25
243.765	76.25
243.998	84.25
244.232	88.25
244.465	78.25
244.699	64.25
244.932	78.25
245.166	72.25
245.399	73.25
245.633	68.25
245.866	74.25
246.099	81.25
246.333	78.25
246.566	82.25
246.8	80.25
247.033	72.25
247.266	60.25
247.5	90.25
247.733	86.25
247.966	81.25
248.2	92.25
248.433	82.25
248.666	90.25
248.899	90.25
249.133	90.25
249.366	90.25
249.599	94.25
249.832	74.25
250.066	74.25
250.299	79.25
250.532	63.25
250.765	67.25
250.998	82.25
251.231	71.25
251.465	71.25
251.698	73.25
251.931	70.25
252.164	73.25
252.397	88.25
252.63	82.25
252.863	71.25
253.096	82.25
253.329	82.25
253.562	81.25
253.795	78.25
254.028	79.25
254.261	73.25
254.494	69.25
254.727	72.25
254.96	72.25
255.193	73.25
255.426	82.25
255.659	74.25
255.892	58.25
256.124	70.25
256.357	76.25
256.59	92.25
256.823	85.25
257.056	93.25
257.289	88.25
257.521	78.25
257.754	77.25
257.987	69.25
258.22	78.25
258.452	68.25
258.685	72.25
258.918	71.25
259.151	68.25
259.383	93.25
259.616	70.25
259.849	72.25
260.081	84.25
260.314	88.25
260.547	77.25
260.779	80.25
261.012	88.25
261.244	78.25
261.477	85.25
261.71	100.25
261.942	97.25
262.175	92.25
262.407	86.25
262.64	80.25
262.872	77.25
263.105	81.25
263.337	78.25
263.57	82.25
263.802	79.25
264.035	76.25
264.267	84.25
264.499	79.25
264.732	87.25
264.964	77.25
265.197	83.25
265.429	70.25
265.661	66.25
265.894	76.25
266.126	69.25
266.358	76.25
266.591	72.25
266.823	83.25
267.055	82.25
267.287	86.25
267.52	75.25
267.752	80.25
267.984	66.25
268.216	83.25
268.448	88.25
268.681	82.25
268.913	80.25
269.145	83.25
269.377	73.25
269.609	81.25
269.841	80.25
270.073	78.25
270.306	81.25
270.538	71.25
270.77	80.25
271.002	88.25
271.234	95.25
271.466	95.25
271.698	90.25
271.93	83.25
272.162	85.25
272.394	82.25
272.626	68.25
272.858	86.25
273.09	83.25
273.322	77.25
273.553	61.25
273.785	95.25
274.017	88.25
274.249	79.25
274.481	73.25
274.713	70.25
274.945	69.25
275.176	89.25
275.408	93.25
275.64	90.25
275.872	81.25
276.104	85.25
276.335	99.25
276.567	95.25
276.799	98.25
277.031	90.25
277.262	85.25
277.494	102.25
277.726	93.25
277.957	90.25
278.189	79.25
278.421	82.25
278.652	85.25
278.884	85.25
279.115	91.25
279.347	84.25
279.579	75.25
279.81	76.25
280.042	73.25
280.273	77.25
280.505	85.25
280.736	84.25
280.968	83.25
281.199	87.25
281.431	71.25
281.662	82.25
281.894	82.25
282.125	92.25
282.356	113.25
282.588	128.25
282.819	126.25
283.051	88.25
283.282	77.25
283.513	92.25
283.745	88.25
283.976	87.25
284.207	69.25
284.439	89.25
284.67	73.25
284.901	85.25
285.132	98.25
285.364	84.25
285.595	76.25
285.826	85.25
286.057	86.25
286.288	86.25
286.52	87.25
286.751	68.25
286.982	81.25
287.213	74.25
287.444	93.25
287.675	82.25
287.906	85.25
288.138	86.25
288.369	84.25
288.6	81.25
288.831	85.25
289.062	83.25
289.293	87.25
289.524	97.25
289.755	74.25
289.986	82.25
290.217	89.25
290.448	77.25
290.679	89.25
290.91	70.25
291.141	85.25
291.371	91.25
291.602	81.25
291.833	71.25
292.064	94.25
292.295	80.25
292.526	84.25
292.757	88.25
292.987	94.25
293.218	79.25
293.449	73.25
293.68	80.25
293.91	73.25
294.141	84.25
294.372	73.25
294.603	93.25
294.833	84.25
295.064	71.25
295.295	91.25
295.525	105.25
295.756	96.25
295.987	102.25
296.217	119.25
296.448	112.25
296.679	94.25
296.909	100.25
297.14	93.25
297.37	97.25
297.601	69.25
297.831	91.25
298.062	92.25
298.292	80.25
298.523	82.25
298.753	91.25
298.984	87.25
299.214	98.25
299.445	80.25
299.675	86.25
299.905	102.25
300.136	91.25
300.366	75.25
300.597	95.25
300.827	101.25
301.057	87.25
301.288	104.25
301.518	104.25
301.748	73.25
301.979	92.25
302.209	85.25
302.439	100.25
302.669	101.25
302.9	85.25
303.13	88.25
303.36	84.25
303.59	92.25
303.82	86.25
304.051	85.25
304.281	91.25
304.511	78.25
304.741	84.25
304.971	83.25
305.201	86.25
305.431	91.25
305.661	88.25
305.891	84.25
306.121	87.25
306.352	86.25
306.582	97.25
306.812	98.25
307.042	95.25
307.272	82.25
307.502	72.25
307.731	96.25
307.961	95.25
308.191	82.25
308.421	89.25
308.651	96.25
308.881	92.25
309.111	100.25
309.341	99.25
309.571	83.25
309.8	99.25
310.03	95.25
310.26	111.25
310.49	111.25
310.72	88.25
310.949	106.25
311.179	82.25
311.409	96.25
311.639	72.25
311.868	98.25
312.098	103.25
312.328	95.25
312.557	103.25
312.787	94.25
313.017	99.25
313.246	86.25
313.476	107.25
313.706	87.25
313.935	92.25
314.165	92.25
314.394	89.25
314.624	85.25
314.853	101.25
315.083	96.25
315.312	75.25
315.542	95.25
315.771	90.25
316.001	80.25
316.23	80.25
316.46	79.25
316.689	105.25
316.919	100.25
317.148	92.25
317.377	78.25
317.607	87.25
317.836	93.25
318.065	94.25
318.295	77.25
318.524	81.25
318.753	76.25
318.983	96.25
319.212	105.25
319.441	107.25
319.67	97.25
319.9	77.25
320.129	81.25
320.358	91.25
320.587	97.25
320.816	86.25
321.046	104.25
321.275	100.25
321.504	68.25
321.733	74.25
321.962	88.25
322.191	97.25
322.42	87.25
322.649	112.25
322.878	89.25
323.108	118.25
323.337	121.25
323.566	143.25
323.795	146.25
324.024	185.25
324.253	351.25
324.482	712.25
324.71	1449.25
324.939	1832.25
325.168	713.25
325.397	217.25
325.626	138.25
325.855	120.25
326.084	115.25
326.313	116.25
326.542	130.25
326.77	204.25
326.999	432.25
327.228	822.25
327.457	1492.25
327.686	1177.25
327.914	330.25
328.143	188.25
328.372	140.25
328.6	113.25
328.829	111.25
329.058	116.25
329.287	109.25
329.515	99.25
329.744	90.25
329.972	86.25
330.201	99.25
330.43	93.25
330.658	117.25
330.887	121.25
331.115	109.25
331.344	81.25
331.572	98.25
331.801	91.25
332.03	100.25
332.258	96.25
332.486	88.25
332.715	90.25
332.943	88.25
333.172	76.25
333.4	90.25
333.629	96.25
333.857	113.25
334.085	90.25
334.314	121.25
334.542	107.25
334.771	94.25
334.999	98.25
335.227	97.25
335.455	101.25
335.684	83.25
335.912	93.25
336.14	82.25
336.369	90.25
336.597	114.25
336.825	108.25
337.053	93.25
337.281	80.25
337.51	87.25
337.738	91.25
337.966	95.25
338.194	91.25
338.422	96.25
338.65	91.25
338.878	83.25
339.106	80.25
339.334	91.25
339.562	99.25
339.79	100.25
340.018	81.25
340.246	101.25
340.474	93.25
340.702	97.25
340.93	93.25
341.158	78.25
341.386	74.25
341.614	94.25
341.842	75.25
342.07	77.25
342.298	88.25
342.526	86.25
342.754	107.25
342.981	83.25
343.209	93.25
343.437	118.25
343.665	91.25
343.893	89.25
344.12	81.25
344.348	82.25
344.576	76.25
344.804	99.25
345.031	77.25
345.259	82.25
345.487	84.25
345.714	88.25
345.942	80.25
346.17	82.25
346.397	95.25
346.625	76.25
346.853	86.25
347.08	96.25
347.308	87.25
347.535	87.25
347.763	87.25
347.99	82.25
348.218	95.25
348.445	99.25
348.673	84.25
348.9	89.25
349.128	104.25
349.355	83.25
349.583	98.25
349.81	89.25
350.037	100.25
350.265	95.25
350.492	103.25
350.72	98.25
350.947	96.25
351.174	101.25
351.402	107.25
351.629	109.25
351.856	100.25
352.083	97.25
352.311	87.25
352.538	101.25
352.765	99.25
352.992	110.25
353.22	98.25
353.447	100.25
353.674	103.25
353.901	99.25
354.128	105.25
354.355	98.25
354.583	118.25
354.81	101.25
355.037	97.25
355.264	102.25
355.491	91.25
355.718	85.25
355.945	101.25
356.172	94.25
356.399	94.25
356.626	82.25
356.853	93.25
357.08	93.25
357.307	101.25
357.534	85.25
357.761	84.25
357.988	82.25
358.215	89.25
358.441	86.25
358.668	91.25
358.895	97.25
359.122	90.25
359.349	77.25
359.576	88.25
359.802	99.25
360.029	103.25
360.256	106.25
360.483	96.25
360.709	71.25
360.936	98.25
361.163	92.25
361.39	84.25
361.616	91.25
361.843	83.25
362.07	84.25
362.296	93.25
362.523	81.25
362.749	78.25
362.976	90.25
363.203	81.25
363.429	76.25
363.656	82.25
363.882	84.25
364.109	91.25
364.335	90.25
364.562	83.25
364.788	85.25
365.015	78.25
365.241	89.25
365.468	101.25
365.694	104.25
365.92	89.25
366.147	78.25
366.373	74.25
366.599	90.25
366.826	92.25
367.052	98.25
367.278	92.25
367.505	85.25
367.731	79.25
367.957	88.25
368.184	82.25
368.41	92.25
368.636	107.25
368.862	109.25
369.089	99.25
369.315	109.25
369.541	73.25
369.767	77.25
369.993	88.25
370.219	94.25
370.445	79.25
370.672	104.25
370.898	95.25
371.124	79.25
371.35	85.25
371.576	86.25
371.802	88.25
372.028	82.25
372.254	86.25
372.48	82.25
372.706	73.25
372.932	85.25
373.158	81.25
373.384	75.25
373.61	82.25
373.835	102.25
374.061	74.25
374.287	89.25
374.513	92.25
374.739	88.25
374.965	87.25
375.191	96.25
375.416	73.25
375.642	93.25
375.868	102.25
376.094	74.25
376.319	99.25
376.545	80.25
376.771	88.25
376.997	79.25
377.222	89.25
377.448	90.25
377.674	89.25
377.899	102.25
378.125	94.25
378.35	96.25
378.576	83.25
378.802	82.25
379.027	102.25
379.253	82.25
379.478	92.25
379.704	82.25
379.929	93.25
380.155	85.25
380.38	91.25
380.606	83.25
380.831	90.25
381.057	104.25
381.282	81.25
381.507	91.25
381.733	80.25
381.958	100.25
382.184	92.25
382.409	99.25
382.634	103.25
382.86	114.25
383.085	101.25
383.31	92.25
383.535	89.25
383.761	106.25
383.986	91.25
384.211	86.25
384.436	84.25
384.662	105.25
384.887	96.25
385.112	103.25
385.337	99.25
385.562	100.25
385.787	86.25
386.013	93.25
386.238	106.25
386.463	89.25
386.688	104.25
386.913	92.25
387.138	118.25
387.363	104.25
387.588	97.25
387.813	86.25
388.038	102.25
388.263	100.25
388.488	85.25
388.713	100.25
388.938	90.25
389.163	89.25
389.387	105.25
389.612	92.25
389.837	92.25
390.062	92.25
390.287	83.25
390.512	107.25
390.736	97.25
390.961	102.25
391.186	94.25
391.411	98.25
391.636	78.25
391.86	85.25
392.085	84.25
392.31	87.25
392.534	72.25
392.759	77.25
392.984	81.25
393.208	79.25
393.433	74.25
393.658	76.25
393.882	94.25
394.107	82.25
394.331	87.25
394.556	72.25
394.78	78.25
395.005	76.25
395.229	85.25
395.454	91.25
395.678	84.25
395.903	82.25
396.127	95.25
396.352	78.25
396.576	82.25
396.801	84.25
397.025	75.25
397.249	85.25
397.474	87.25
397.698	89.25
397.922	92.25
398.147	89.25
398.371	88.25
398.595	100.25
398.82	93.25
399.044	88.25
399.268	82.25
399.492	84.25
399.717	94.25
399.941	87.25
400.165	97.25
400.389	79.25
400.613	82.25
400.837	77.25
401.062	97.25
401.286	92.25
401.51	102.25
401.734	84.25
401.958	92.25
402.182	112.25
402.406	141.25
402.63	111.25
402.854	96.25
403.078	83.25
403.302	95.25
403.526	101.25
403.75	76.25
403.974	90.25
404.198	78.25
404.422	84.25
404.645	86.25
404.869	78.25
405.093	88.25
405.317	93.25
405.541	87.25
405.765	85.25
405.988	106.25
406.212	154.25
406.436	182.25
406.66	149.25
406.883	97.25
407.107	89.25
407.331	88.25
407.555	86.25
407.778	82.25
408.002	106.25
408.226	101.25
408.449	81.25
408.673	96.25
408.896	89.25
409.12	93.25
409.344	97.25
409.567	90.25
409.791	95.25
410.014	88.25
410.238	99.25
410.461	101.25
410.685	89.25
410.908	106.25
411.132	96.25
411.355	101.25
411.578	90.25
411.802	81.25
412.025	94.25
412.249	91.25
412.472	79.25
412.695	80.25
412.919	87.25
413.142	94.25
413.365	74.25
413.589	79.25
413.812	77.25
414.035	79.25
414.258	81.25
414.482	79.25
414.705	89.25
414.928	85.25
415.151	91.25
415.374	87.25
415.597	95.25
415.821	78.25
416.044	99.25
416.267	88.25
416.49	82.25
416.713	88.25
416.936	100.25
417.159	97.25
417.382	87.25
417.605	79.25
417.828	98.25
418.051	103.25
418.274	93.25
418.497	96.25
418.72	87.25
418.943	83.25
419.166	82.25
419.389	80.25
419.611	93.25
419.834	93.25
420.057	71.25
420.28	93.25
420.503	86.25
420.726	91.25
420.948	88.25
421.171	75.25
421.394	90.25
421.617	88.25
421.839	79.25
422.062	87.25
422.285	100.25
422.507	93.25
422.73	89.25
422.953	97.25
423.175	92.25
423.398	87.25
423.621	93.25
423.843	81.25
424.066	80.25
424.288	88.25
424.511	98.25
424.733	98.25
424.956	96.25
425.178	99.25
425.401	95.25
425.623	96.25
425.846	104.25
426.068	94.25
426.291	90.25
426.513	93.25
426.735	90.25
426.958	95.25
427.18	99.25
427.402	140.25
427.625	145.25
427.847	113.25
428.069	93.25
428.292	85.25
428.514	74.25
428.736	89.25
428.958	81.25
429.181	101.25
429.403	67.25
429.625	87.25
429.847	96.25
430.069	99.25
430.292	94.25
430.514	98.25
430.736	85.25
430.958	81.25
431.18	88.25
431.402	96.25
431.624	82.25
431.846	87.25
432.068	70.25
432.29	80.25
432.512	82.25
432.734	87.25
432.956	82.25
433.178	98.25
433.4	96.25
433.622	94.25
433.844	95.25
434.066	86.25
434.287	86.25
434.509	101.25
434.731	84.25
434.953	88.25
435.175	71.25
435.397	87.25
435.618	89.25
435.84	88.25
436.062	109.25
436.284	94.25
436.505	95.25
436.727	95.25
436.949	77.25
437.17	92.25
437.392	86.25
437.614	77.25
437.835	95.25
438.057	106.25
438.278	94.25
438.5	102.25
438.721	118.25
438.943	93.25
439.165	76.25
439.386	97.25
439.608	91.25
439.829	98.25
440.05	111.25
440.272	123.25
440.493	97.25
440.715	92.25
440.936	92.25
441.158	86.25
441.379	90.25
441.6	93.25
441.822	84.25
442.043	90.25
442.264	88.25
442.486	85.25
442.707	100.25
442.928	97.25
443.149	117.25
443.371	132.25
443.592	100.25
443.813	103.25
444.034	101.25
444.255	95.25
444.476	97.25
444.698	91.25
444.919	89.25
445.14	127.25
445.361	93.25
445.582	107.25
445.803	119.25
446.024	127.25
446.245	121.25
446.466	95.25
446.687	92.25
446.908	87.25
447.129	95.25
447.35	83.25
447.571	98.25
447.792	100.25
448.013	95.25
448.234	82.25
448.455	103.25
448.675	107.25
448.896	106.25
449.117	96.25
449.338	99.25
449.559	131.25
449.779	111.25
450	97.25
450.221	73.25
450.442	90.25
450.662	87.25
450.883	107.25
451.104	102.25
451.324	70.25
451.545	95.25
451.766	84.25
451.986	86.25
452.207	92.25
452.428	86.25
452.648	90.25
452.869	103.25
453.089	101.25
453.31	112.25
453.53	87.25
453.751	82.25
453.971	80.25
454.192	109.25
454.412	95.25
454.633	78.25
454.853	68.25
455.073	74.25
455.294	87.25
455.514	87.25
455.734	88.25
455.955	81.25
456.175	81.25
456.395	91.25
456.616	88.25
456.836	77.25
457.056	90.25
457.276	71.25
457.497	77.25
457.717	95.25
457.937	79.25
458.157	81.25
458.377	80.25
458.598	106.25
458.818	120.25
459.038	132.25
459.258	102.25
459.478	102.25
459.698	93.25
459.918	88.25
460.138	89.25
460.358	81.25
460.578	99.25
460.798	73.25
461.018	93.25
461.238	88.25
461.458	88.25
461.678	82.25
461.898	90.25
462.118	81.25
462.338	85.25
462.558	80.25
462.777	76.25
462.997	82.25
463.217	80.25
463.437	91.25
463.657	84.25
463.876	100.25
464.096	99.25
464.316	92.25
464.536	78.25
464.755	84.25
464.975	87.25
465.195	128.25
465.414	138.25
465.634	98.25
465.854	80.25
466.073	82.25
466.293	83.25
466.512	87.25
466.732	94.25
466.951	97.25
467.171	92.25
467.391	78.25
467.61	88.25
467.829	104.25
468.049	95.25
468.268	88.25
468.488	88.25
468.707	81.25
468.927	87.25
469.146	94.25
469.365	79.25
469.585	76.25
469.804	102.25
470.023	79.25
470.243	87.25
470.462	91.25
470.681	109.25
470.901	97.25
471.12	88.25
471.339	101.25
471.558	77.25
471.777	103.25
471.997	101.25
472.216	88.25
472.435	91.25
472.654	94.25
472.873	77.25
473.092	77.25
473.311	83.25
473.53	87.25
473.749	86.25
473.968	87.25
474.187	94.25
474.406	92.25
474.625	91.25
474.844	77.25
475.063	77.25
475.282	88.25
475.501	68.25
475.72	82.25
475.939	97.25
476.158	81.25
476.377	90.25
476.596	91.25
476.814	83.25
477.033	76.25
477.252	102.25
477.471	93.25
477.69	84.25
477.908	83.25
478.127	77.25
478.346	96.25
478.564	91.25
478.783	96.25
479.002	75.25
479.22	84.25
479.439	100.25
479.658	82.25
479.876	85.25
480.095	75.25
480.313	89.25
480.532	101.25
480.751	103.25
480.969	94.25
481.188	93.25
481.406	94.25
481.624	95.25
481.843	64.25
482.061	83.25
482.28	78.25
482.498	85.25
482.717	91.25
482.935	90.25
483.153	89.25
483.372	84.25
483.59	85.25
483.808	89.25
484.027	94.25
484.245	86.25
484.463	89.25
484.681	104.25
484.9	93.25
485.118	86.25
485.336	89.25
485.554	78.25
485.772	95.25
485.99	112.25
486.209	97.25
486.427	107.25
486.645	112.25
486.863	107.25
487.081	96.25
487.299	90.25
487.517	99.25
487.735	85.25
487.953	99.25
488.171	77.25
488.389	98.25
488.607	100.25
488.825	88.25
489.043	74.25
489.261	72.25
489.479	84.25
489.696	82.25
489.914	87.25
490.132	85.25
490.35	82.25
490.568	88.25
490.786	89.25
491.003	73.25
491.221	93.25
491.439	97.25
491.657	89.25
491.874	110.25
492.092	99.25
492.31	90.25
492.527	95.25
492.745	87.25
492.963	74.25
493.18	79.25
493.398	82.25
493.615	90.25
493.833	92.25
494.05	92.25
494.268	108.25
494.485	82.25
494.703	88.25
494.92	82.25
495.138	98.25
495.355	81.25
495.573	97.25
495.79	82.25
496.008	97.25
496.225	99.25
496.442	91.25
496.66	88.25
496.877	82.25
497.094	81.25
497.312	93.25
497.529	75.25
497.746	92.25
497.963	86.25
498.181	94.25
498.398	81.25
498.615	96.25
498.832	90.25
499.049	93.25
499.267	96.25
499.484	90.25
499.701	88.25
499.918	97.25
500.135	81.25
500.352	102.25
500.569	87.25
500.786	88.25
501.003	96.25
501.22	77.25
501.437	86.25
501.654	86.25
501.871	98.25
502.088	97.25
502.305	90.25
502.522	93.25
502.739	74.25
502.956	88.25
503.172	77.25
503.389	120.25
503.606	95.25
503.823	96.25
504.04	88.25
504.256	100.25
504.473	92.25
504.69	89.25
504.907	99.25
505.123	85.25
505.34	87.25
505.557	80.25
505.773	86.25
505.99	79.25
506.207	81.25
506.423	83.25
506.64	95.25
506.856	94.25
507.073	77.25
507.289	95.25
507.506	104.25
507.722	121.25
507.939	97.25
508.155	101.25
508.372	100.25
508.588	91.25
508.805	100.25
509.021	89.25
509.238	105.25
509.454	106.25
509.67	98.25
509.887	104.25
510.103	124.25
510.319	190.25
510.536	665.25
510.752	2020.25
510.968	578.25
511.184	152.25
511.401	100.25
511.617	91.25
511.833	95.25
512.049	92.25
512.265	106.25
512.481	86.25
512.698	100.25
512.914	86.25
513.13	94.25
513.346	106.25
513.562	103.25
513.778	89.25
513.994	90.25
514.21	112.25
514.426	108.25
514.642	118.25
514.858	128.25
515.074	139.25
515.29	376.25
515.506	1213.25
515.721	460.25
515.937	135.25
516.153	104.25
516.369	100.25
516.585	94.25
516.801	98.25
