Data from Uncirc_2008_H10_HRD10591_00090.txt Node
Date: Wed Jan 03 10:15:48 EST 2024
User: Yrep
Spectrometer: HR+D1059
Trigger mode: 1
Integration Time (sec): 1.000000E-1
Scans to average: 1
Electric dark correction enabled: true
Nonlinearity correction enabled: false
Boxcar width: 0
XAxis mode: Wavelengths
Number of Pixels in Spectrum: 2048
>>>>>Begin Spectral Data<<<<<
223.165	-18.06
223.4	-18.06
223.635	-18.06
223.869	-5.06
224.104	-20.06
224.338	-9.06
224.573	-18.06
224.808	-3.06
225.042	-0.06
225.277	0.94
225.511	-10.06
225.746	-7.06
225.98	4.94
226.215	21.94
226.449	10.94
226.683	1.94
226.918	23.94
227.152	25.94
227.387	29.94
227.621	43.94
227.856	43.94
228.09	58.94
228.324	39.94
228.559	56.94
228.793	46.94
229.027	49.94
229.262	61.94
229.496	71.94
229.73	72.94
229.964	84.94
230.199	63.94
230.433	81.94
230.667	73.94
230.901	69.94
231.136	70.94
231.37	78.94
231.604	85.94
231.838	73.94
232.072	71.94
232.306	86.94
232.541	63.94
232.775	77.94
233.009	80.94
233.243	63.94
233.477	75.94
233.711	86.94
233.945	68.94
234.179	72.94
234.413	86.94
234.647	71.94
234.881	66.94
235.115	60.94
235.349	78.94
235.583	86.94
235.817	73.94
236.051	60.94
236.285	69.94
236.519	72.94
236.753	70.94
236.987	72.94
237.221	81.94
237.455	78.94
237.689	83.94
237.922	74.94
238.156	66.94
238.39	65.94
238.624	70.94
238.858	67.94
239.091	68.94
239.325	57.94
239.559	67.94
239.793	83.94
240.027	77.94
240.26	69.94
240.494	73.94
240.728	81.94
240.961	70.94
241.195	61.94
241.429	77.94
241.662	83.94
241.896	92.94
242.13	74.94
242.363	83.94
242.597	74.94
242.83	70.94
243.064	65.94
243.298	81.94
243.531	82.94
243.765	76.94
243.998	71.94
244.232	76.94
244.465	82.94
244.699	69.94
244.932	70.94
245.166	77.94
245.399	84.94
245.633	65.94
245.866	73.94
246.099	74.94
246.333	84.94
246.566	73.94
246.8	67.94
247.033	76.94
247.266	69.94
247.5	76.94
247.733	93.94
247.966	65.94
248.2	78.94
248.433	83.94
248.666	75.94
248.899	77.94
249.133	85.94
249.366	73.94
249.599	101.94
249.832	66.94
250.066	85.94
250.299	76.94
250.532	81.94
250.765	76.94
250.998	80.94
251.231	69.94
251.465	60.94
251.698	66.94
251.931	71.94
252.164	77.94
252.397	77.94
252.63	70.94
252.863	65.94
253.096	78.94
253.329	75.94
253.562	69.94
253.795	77.94
254.028	70.94
254.261	79.94
254.494	77.94
254.727	70.94
254.96	76.94
255.193	84.94
255.426	63.94
255.659	73.94
255.892	87.94
256.124	69.94
256.357	62.94
256.59	73.94
256.823	65.94
257.056	66.94
257.289	78.94
257.521	66.94
257.754	65.94
257.987	78.94
258.22	102.94
258.452	76.94
258.685	64.94
258.918	74.94
259.151	72.94
259.383	96.94
259.616	91.94
259.849	76.94
260.081	76.94
260.314	72.94
260.547	61.94
260.779	73.94
261.012	89.94
261.244	79.94
261.477	71.94
261.71	80.94
261.942	104.94
262.175	115.94
262.407	73.94
262.64	85.94
262.872	85.94
263.105	79.94
263.337	82.94
263.57	78.94
263.802	85.94
264.035	80.94
264.267	86.94
264.499	78.94
264.732	89.94
264.964	67.94
265.197	75.94
265.429	69.94
265.661	72.94
265.894	77.94
266.126	83.94
266.358	69.94
266.591	71.94
266.823	67.94
267.055	76.94
267.287	79.94
267.52	84.94
267.752	79.94
267.984	70.94
268.216	77.94
268.448	75.94
268.681	78.94
268.913	73.94
269.145	76.94
269.377	71.94
269.609	76.94
269.841	79.94
270.073	81.94
270.306	65.94
270.538	82.94
270.77	85.94
271.002	80.94
271.234	79.94
271.466	90.94
271.698	82.94
271.93	84.94
272.162	83.94
272.394	82.94
272.626	75.94
272.858	93.94
273.09	74.94
273.322	84.94
273.553	76.94
273.785	71.94
274.017	83.94
274.249	79.94
274.481	72.94
274.713	79.94
274.945	80.94
275.176	80.94
275.408	77.94
275.64	73.94
275.872	86.94
276.104	77.94
276.335	81.94
276.567	87.94
276.799	102.94
277.031	78.94
277.262	86.94
277.494	73.94
277.726	85.94
277.957	71.94
278.189	80.94
278.421	84.94
278.652	73.94
278.884	78.94
279.115	88.94
279.347	91.94
279.579	69.94
279.81	83.94
280.042	96.94
280.273	66.94
280.505	81.94
280.736	77.94
280.968	88.94
281.199	74.94
281.431	59.94
281.662	75.94
281.894	96.94
282.125	76.94
282.356	117.94
282.588	131.94
282.819	97.94
283.051	93.94
283.282	70.94
283.513	79.94
283.745	80.94
283.976	80.94
284.207	82.94
284.439	89.94
284.67	93.94
284.901	77.94
285.132	77.94
285.364	83.94
285.595	80.94
285.826	85.94
286.057	70.94
286.288	77.94
286.52	91.94
286.751	76.94
286.982	88.94
287.213	83.94
287.444	90.94
287.675	78.94
287.906	79.94
288.138	87.94
288.369	94.94
288.6	88.94
288.831	85.94
289.062	82.94
289.293	87.94
289.524	90.94
289.755	74.94
289.986	78.94
290.217	77.94
290.448	75.94
290.679	78.94
290.91	89.94
291.141	89.94
291.371	92.94
291.602	84.94
291.833	91.94
292.064	92.94
292.295	78.94
292.526	90.94
292.757	89.94
292.987	81.94
293.218	81.94
293.449	86.94
293.68	92.94
293.91	85.94
294.141	83.94
294.372	94.94
294.603	88.94
294.833	89.94
295.064	70.94
295.295	101.94
295.525	86.94
295.756	103.94
295.987	108.94
296.217	138.94
296.448	117.94
296.679	88.94
296.909	84.94
297.14	83.94
297.37	74.94
297.601	86.94
297.831	89.94
298.062	83.94
298.292	79.94
298.523	66.94
298.753	78.94
298.984	78.94
299.214	86.94
299.445	77.94
299.675	93.94
299.905	84.94
300.136	76.94
300.366	77.94
300.597	86.94
300.827	79.94
301.057	87.94
301.288	108.94
301.518	94.94
301.748	99.94
301.979	80.94
302.209	77.94
302.439	82.94
302.669	81.94
302.9	75.94
303.13	70.94
303.36	87.94
303.59	98.94
303.82	111.94
304.051	80.94
304.281	76.94
304.511	91.94
304.741	78.94
304.971	84.94
305.201	82.94
305.431	86.94
305.661	92.94
305.891	86.94
306.121	84.94
306.352	90.94
306.582	91.94
306.812	93.94
307.042	99.94
307.272	91.94
307.502	91.94
307.731	100.94
307.961	74.94
308.191	84.94
308.421	77.94
308.651	91.94
308.881	84.94
309.111	87.94
309.341	99.94
309.571	98.94
309.8	81.94
310.03	96.94
310.26	82.94
310.49	101.94
310.72	92.94
310.949	81.94
311.179	86.94
311.409	90.94
311.639	95.94
311.868	87.94
312.098	91.94
312.328	94.94
312.557	96.94
312.787	94.94
313.017	99.94
313.246	82.94
313.476	84.94
313.706	95.94
313.935	87.94
314.165	95.94
314.394	93.94
314.624	79.94
314.853	106.94
315.083	91.94
315.312	82.94
315.542	91.94
315.771	91.94
316.001	78.94
316.23	84.94
316.46	70.94
316.689	76.94
316.919	90.94
317.148	85.94
317.377	89.94
317.607	82.94
317.836	84.94
318.065	90.94
318.295	94.94
318.524	88.94
318.753	94.94
318.983	86.94
319.212	87.94
319.441	95.94
319.67	99.94
319.9	79.94
320.129	86.94
320.358	94.94
320.587	89.94
320.816	91.94
321.046	90.94
321.275	89.94
321.504	86.94
321.733	95.94
321.962	86.94
322.191	77.94
322.42	99.94
322.649	90.94
322.878	101.94
323.108	123.94
323.337	97.94
323.566	136.94
323.795	146.94
324.024	215.94
324.253	371.94
324.482	779.94
324.71	1654.94
324.939	2122.94
325.168	798.94
325.397	243.94
325.626	142.94
325.855	123.94
326.084	129.94
326.313	128.94
326.542	159.94
326.77	217.94
326.999	416.94
327.228	896.94
327.457	1582.94
327.686	1267.94
327.914	348.94
328.143	188.94
328.372	139.94
328.6	119.94
328.829	116.94
329.058	117.94
329.287	124.94
329.515	102.94
329.744	101.94
329.972	111.94
330.201	104.94
330.43	99.94
330.658	123.94
330.887	132.94
331.115	101.94
331.344	81.94
331.572	85.94
331.801	85.94
332.03	96.94
332.258	85.94
332.486	94.94
332.715	97.94
332.943	97.94
333.172	83.94
333.4	81.94
333.629	85.94
333.857	101.94
334.085	97.94
334.314	98.94
334.542	84.94
334.771	91.94
334.999	72.94
335.227	77.94
335.455	101.94
335.684	108.94
335.912	102.94
336.14	96.94
336.369	91.94
336.597	97.94
336.825	102.94
337.053	92.94
337.281	92.94
337.51	94.94
337.738	95.94
337.966	90.94
338.194	92.94
338.422	81.94
338.65	95.94
338.878	79.94
339.106	79.94
339.334	96.94
339.562	98.94
339.79	87.94
340.018	88.94
340.246	89.94
340.474	101.94
340.702	83.94
340.93	81.94
341.158	79.94
341.386	97.94
341.614	84.94
341.842	93.94
342.07	82.94
342.298	83.94
342.526	78.94
342.754	77.94
342.981	72.94
343.209	77.94
343.437	89.94
343.665	71.94
343.893	94.94
344.12	80.94
344.348	83.94
344.576	85.94
344.804	86.94
345.031	98.94
345.259	85.94
345.487	86.94
345.714	91.94
345.942	87.94
346.17	79.94
346.397	93.94
346.625	93.94
346.853	91.94
347.08	82.94
347.308	87.94
347.535	88.94
347.763	87.94
347.99	94.94
348.218	98.94
348.445	92.94
348.673	89.94
348.9	93.94
349.128	102.94
349.355	91.94
349.583	85.94
349.81	90.94
350.037	100.94
350.265	77.94
350.492	71.94
350.72	88.94
350.947	103.94
351.174	93.94
351.402	102.94
351.629	91.94
351.856	85.94
352.083	113.94
352.311	111.94
352.538	108.94
352.765	98.94
352.992	96.94
353.22	104.94
353.447	107.94
353.674	97.94
353.901	85.94
354.128	71.94
354.355	92.94
354.583	92.94
354.81	81.94
355.037	87.94
355.264	100.94
355.491	90.94
355.718	98.94
355.945	89.94
356.172	98.94
356.399	74.94
356.626	77.94
356.853	79.94
357.08	78.94
357.307	72.94
357.534	99.94
357.761	75.94
357.988	92.94
358.215	86.94
358.441	90.94
358.668	86.94
358.895	83.94
359.122	92.94
359.349	94.94
359.576	92.94
359.802	76.94
360.029	93.94
360.256	93.94
360.483	92.94
360.709	84.94
360.936	90.94
361.163	100.94
361.39	89.94
361.616	93.94
361.843	91.94
362.07	70.94
362.296	91.94
362.523	71.94
362.749	88.94
362.976	85.94
363.203	100.94
363.429	99.94
363.656	90.94
363.882	74.94
364.109	83.94
364.335	80.94
364.562	83.94
364.788	84.94
365.015	89.94
365.241	101.94
365.468	102.94
365.694	105.94
365.92	82.94
366.147	86.94
366.373	89.94
366.599	88.94
366.826	82.94
367.052	70.94
367.278	89.94
367.505	78.94
367.731	104.94
367.957	84.94
368.184	80.94
368.41	103.94
368.636	91.94
368.862	114.94
369.089	110.94
369.315	91.94
369.541	97.94
369.767	78.94
369.993	83.94
370.219	78.94
370.445	79.94
370.672	101.94
370.898	79.94
371.124	84.94
371.35	73.94
371.576	84.94
371.802	77.94
372.028	76.94
372.254	82.94
372.48	95.94
372.706	86.94
372.932	77.94
373.158	79.94
373.384	93.94
373.61	71.94
373.835	89.94
374.061	81.94
374.287	94.94
374.513	83.94
374.739	83.94
374.965	70.94
375.191	68.94
375.416	71.94
375.642	84.94
375.868	99.94
376.094	83.94
376.319	84.94
376.545	79.94
376.771	100.94
376.997	82.94
377.222	84.94
377.448	81.94
377.674	77.94
377.899	87.94
378.125	76.94
378.35	73.94
378.576	87.94
378.802	93.94
379.027	78.94
379.253	101.94
379.478	80.94
379.704	78.94
379.929	82.94
380.155	91.94
380.38	85.94
380.606	96.94
380.831	87.94
381.057	93.94
381.282	92.94
381.507	87.94
381.733	102.94
381.958	94.94
382.184	93.94
382.409	81.94
382.634	100.94
382.86	83.94
383.085	103.94
383.31	94.94
383.535	85.94
383.761	90.94
383.986	88.94
384.211	87.94
384.436	94.94
384.662	84.94
384.887	86.94
385.112	83.94
385.337	100.94
385.562	93.94
385.787	95.94
386.013	109.94
386.238	109.94
386.463	98.94
386.688	99.94
386.913	102.94
387.138	96.94
387.363	93.94
387.588	93.94
387.813	82.94
388.038	88.94
388.263	107.94
388.488	97.94
388.713	94.94
388.938	88.94
389.163	90.94
389.387	91.94
389.612	101.94
389.837	100.94
390.062	101.94
390.287	85.94
390.512	93.94
390.736	88.94
390.961	88.94
391.186	83.94
391.411	88.94
391.636	82.94
391.86	79.94
392.085	82.94
392.31	78.94
392.534	105.94
392.759	89.94
392.984	74.94
393.208	90.94
393.433	100.94
393.658	79.94
393.882	72.94
394.107	94.94
394.331	79.94
394.556	91.94
394.78	94.94
395.005	86.94
395.229	77.94
395.454	87.94
395.678	87.94
395.903	79.94
396.127	78.94
396.352	75.94
396.576	70.94
396.801	95.94
397.025	81.94
397.249	75.94
397.474	78.94
397.698	84.94
397.922	84.94
398.147	80.94
398.371	74.94
398.595	80.94
398.82	81.94
399.044	76.94
399.268	77.94
399.492	76.94
399.717	89.94
399.941	95.94
400.165	96.94
400.389	91.94
400.613	70.94
400.837	100.94
401.062	83.94
401.286	85.94
401.51	91.94
401.734	89.94
401.958	93.94
402.182	125.94
402.406	158.94
402.63	104.94
402.854	89.94
403.078	82.94
403.302	94.94
403.526	97.94
403.75	90.94
403.974	84.94
404.198	101.94
404.422	86.94
404.645	78.94
404.869	81.94
405.093	88.94
405.317	92.94
405.541	84.94
405.765	93.94
405.988	105.94
406.212	186.94
406.436	230.94
406.66	145.94
406.883	94.94
407.107	85.94
407.331	89.94
407.555	85.94
407.778	90.94
408.002	87.94
408.226	78.94
408.449	94.94
408.673	70.94
408.896	85.94
409.12	94.94
409.344	90.94
409.567	74.94
409.791	91.94
410.014	89.94
410.238	96.94
410.461	81.94
410.685	102.94
410.908	111.94
411.132	101.94
411.355	93.94
411.578	77.94
411.802	90.94
412.025	75.94
412.249	76.94
412.472	84.94
412.695	79.94
412.919	83.94
413.142	84.94
413.365	80.94
413.589	88.94
413.812	79.94
414.035	82.94
414.258	87.94
414.482	82.94
414.705	81.94
414.928	79.94
415.151	93.94
415.374	87.94
415.597	97.94
415.821	97.94
416.044	69.94
416.267	83.94
416.49	89.94
416.713	85.94
416.936	85.94
417.159	85.94
417.382	78.94
417.605	74.94
417.828	97.94
418.051	86.94
418.274	74.94
418.497	83.94
418.72	74.94
418.943	72.94
419.166	71.94
419.389	86.94
419.611	91.94
419.834	93.94
420.057	94.94
420.28	79.94
420.503	74.94
420.726	83.94
420.948	75.94
421.171	93.94
421.394	82.94
421.617	102.94
421.839	96.94
422.062	87.94
422.285	80.94
422.507	86.94
422.73	110.94
422.953	91.94
423.175	94.94
423.398	107.94
423.621	78.94
423.843	84.94
424.066	76.94
424.288	79.94
424.511	76.94
424.733	97.94
424.956	85.94
425.178	93.94
425.401	91.94
425.623	88.94
425.846	86.94
426.068	78.94
426.291	74.94
426.513	78.94
426.735	71.94
426.958	99.94
427.18	107.94
427.402	118.94
427.625	165.94
427.847	123.94
428.069	111.94
428.292	84.94
428.514	73.94
428.736	98.94
428.958	91.94
429.181	74.94
429.403	92.94
429.625	94.94
429.847	85.94
430.069	114.94
430.292	89.94
430.514	92.94
430.736	75.94
430.958	83.94
431.18	89.94
431.402	75.94
431.624	73.94
431.846	90.94
432.068	90.94
432.29	78.94
432.512	86.94
432.734	82.94
432.956	99.94
433.178	85.94
433.4	92.94
433.622	99.94
433.844	90.94
434.066	80.94
434.287	83.94
434.509	71.94
434.731	91.94
434.953	85.94
435.175	93.94
435.397	89.94
435.618	92.94
435.84	108.94
436.062	118.94
436.284	103.94
436.505	94.94
436.727	91.94
436.949	89.94
437.17	76.94
437.392	83.94
437.614	94.94
437.835	91.94
438.057	106.94
438.278	95.94
438.5	93.94
438.721	109.94
438.943	94.94
439.165	94.94
439.386	76.94
439.608	93.94
439.829	89.94
440.05	99.94
440.272	138.94
440.493	98.94
440.715	94.94
440.936	94.94
441.158	84.94
441.379	89.94
441.6	73.94
441.822	78.94
442.043	84.94
442.264	94.94
442.486	107.94
442.707	86.94
442.928	86.94
443.149	123.94
443.371	137.94
443.592	106.94
443.813	97.94
444.034	104.94
444.255	75.94
444.476	92.94
444.698	94.94
444.919	77.94
445.14	121.94
445.361	114.94
445.582	111.94
445.803	129.94
446.024	132.94
446.245	115.94
446.466	125.94
446.687	78.94
446.908	80.94
447.129	89.94
447.35	79.94
447.571	75.94
447.792	88.94
448.013	83.94
448.234	87.94
448.455	92.94
448.675	105.94
448.896	121.94
449.117	94.94
449.338	90.94
449.559	114.94
449.779	134.94
450	106.94
450.221	85.94
450.442	76.94
450.662	97.94
450.883	92.94
451.104	99.94
451.324	98.94
451.545	85.94
451.766	75.94
451.986	88.94
452.207	83.94
452.428	92.94
452.648	95.94
452.869	97.94
453.089	107.94
453.31	124.94
453.53	83.94
453.751	93.94
453.971	102.94
454.192	107.94
454.412	105.94
454.633	73.94
454.853	92.94
455.073	85.94
455.294	92.94
455.514	93.94
455.734	80.94
455.955	86.94
456.175	92.94
456.395	90.94
456.616	81.94
456.836	75.94
457.056	81.94
457.276	74.94
457.497	79.94
457.717	97.94
457.937	82.94
458.157	75.94
458.377	77.94
458.598	102.94
458.818	130.94
459.038	136.94
459.258	104.94
459.478	80.94
459.698	75.94
459.918	80.94
460.138	101.94
460.358	88.94
460.578	84.94
460.798	81.94
461.018	91.94
461.238	94.94
461.458	90.94
461.678	89.94
461.898	82.94
462.118	84.94
462.338	90.94
462.558	79.94
462.777	84.94
462.997	90.94
463.217	90.94
463.437	83.94
463.657	76.94
463.876	63.94
464.096	91.94
464.316	89.94
464.536	87.94
464.755	89.94
464.975	99.94
465.195	168.94
465.414	141.94
465.634	98.94
465.854	77.94
466.073	74.94
466.293	92.94
466.512	91.94
466.732	80.94
466.951	70.94
467.171	75.94
467.391	85.94
467.61	94.94
467.829	85.94
468.049	98.94
468.268	81.94
468.488	82.94
468.707	95.94
468.927	87.94
469.146	73.94
469.365	78.94
469.585	72.94
469.804	100.94
470.023	89.94
470.243	99.94
470.462	91.94
470.681	104.94
470.901	83.94
471.12	79.94
471.339	75.94
471.558	77.94
471.777	107.94
471.997	76.94
472.216	82.94
472.435	85.94
472.654	86.94
472.873	97.94
473.092	74.94
473.311	63.94
473.53	71.94
473.749	90.94
473.968	86.94
474.187	97.94
474.406	83.94
474.625	85.94
474.844	86.94
475.063	74.94
475.282	79.94
475.501	80.94
475.72	98.94
475.939	81.94
476.158	82.94
476.377	93.94
476.596	83.94
476.814	91.94
477.033	87.94
477.252	74.94
477.471	78.94
477.69	99.94
477.908	84.94
478.127	80.94
478.346	103.94
478.564	86.94
478.783	93.94
479.002	72.94
479.22	89.94
479.439	114.94
479.658	94.94
479.876	86.94
480.095	93.94
480.313	90.94
480.532	87.94
480.751	75.94
480.969	78.94
481.188	85.94
481.406	85.94
481.624	93.94
481.843	98.94
482.061	81.94
482.28	77.94
482.498	75.94
482.717	87.94
482.935	79.94
483.153	80.94
483.372	84.94
483.59	85.94
483.808	91.94
484.027	91.94
484.245	92.94
484.463	101.94
484.681	88.94
484.9	89.94
485.118	87.94
485.336	85.94
485.554	91.94
485.772	90.94
485.99	85.94
486.209	94.94
486.427	102.94
486.645	92.94
486.863	108.94
487.081	77.94
487.299	90.94
487.517	94.94
487.735	96.94
487.953	90.94
488.171	85.94
488.389	84.94
488.607	92.94
488.825	87.94
489.043	94.94
489.261	89.94
489.479	87.94
489.696	71.94
489.914	94.94
490.132	87.94
490.35	91.94
490.568	97.94
490.786	77.94
491.003	82.94
491.221	87.94
491.439	91.94
491.657	80.94
491.874	83.94
492.092	96.94
492.31	85.94
492.527	97.94
492.745	69.94
492.963	84.94
493.18	93.94
493.398	90.94
493.615	100.94
493.833	92.94
494.05	84.94
494.268	76.94
494.485	95.94
494.703	89.94
494.92	72.94
495.138	84.94
495.355	73.94
495.573	94.94
495.79	91.94
496.008	86.94
496.225	86.94
496.442	94.94
496.66	82.94
496.877	86.94
497.094	76.94
497.312	78.94
497.529	84.94
497.746	84.94
497.963	93.94
498.181	74.94
498.398	91.94
498.615	110.94
498.832	98.94
499.049	108.94
499.267	89.94
499.484	72.94
499.701	100.94
499.918	88.94
500.135	74.94
500.352	85.94
500.569	96.94
500.786	99.94
501.003	86.94
501.22	83.94
501.437	89.94
501.654	90.94
501.871	99.94
502.088	92.94
502.305	92.94
502.522	99.94
502.739	89.94
502.956	82.94
503.172	83.94
503.389	84.94
503.606	99.94
503.823	80.94
504.04	93.94
504.256	83.94
504.473	90.94
504.69	77.94
504.907	74.94
505.123	92.94
505.34	72.94
505.557	91.94
505.773	77.94
505.99	89.94
506.207	97.94
506.423	93.94
506.64	83.94
506.856	91.94
507.073	94.94
507.289	94.94
507.506	114.94
507.722	102.94
507.939	103.94
508.155	92.94
508.372	95.94
508.588	90.94
508.805	89.94
509.021	97.94
509.238	87.94
509.454	91.94
509.67	106.94
509.887	109.94
510.103	126.94
510.319	214.94
510.536	827.94
510.752	2604.94
510.968	724.94
511.184	167.94
511.401	106.94
511.617	93.94
511.833	102.94
512.049	102.94
512.265	81.94
512.481	87.94
512.698	73.94
512.914	104.94
513.13	90.94
513.346	95.94
513.562	94.94
513.778	99.94
513.994	97.94
514.21	97.94
514.426	119.94
514.642	122.94
514.858	122.94
515.074	150.94
515.29	472.94
515.506	1562.94
515.721	582.94
515.937	147.94
516.153	107.94
516.369	104.94
516.585	95.94
516.801	91.94
517.016	104.94
517.232	89.94
517.448	90.94
