Data from Uncirc_2008_H10_HRD10591_00004.txt Node
Date: Wed Jan 03 10:15:31 EST 2024
User: Yrep
Spectrometer: HR+D1059
Trigger mode: 1
Integration Time (sec): 1.000000E-1
Scans to average: 1
Electric dark correction enabled: true
Nonlinearity correction enabled: false
Boxcar width: 0
XAxis mode: Wavelengths
Number of Pixels in Spectrum: 2048
>>>>>Begin Spectral Data<<<<<
223.165	-7.12
223.4	-7.12
223.635	-7.12
223.869	-11.12
224.104	-19.12
224.338	-19.12
224.573	-18.12
224.808	-10.12
225.042	-23.12
225.277	-17.12
225.511	-10.12
225.746	15.88
225.98	11.88
226.215	16.88
226.449	19.88
226.683	9.88
226.918	23.88
227.152	36.88
227.387	44.88
227.621	39.88
227.856	45.88
228.09	51.88
228.324	49.88
228.559	62.88
228.793	46.88
229.027	58.88
229.262	63.88
229.496	70.88
229.73	61.88
229.964	78.88
230.199	76.88
230.433	69.88
230.667	76.88
230.901	76.88
231.136	62.88
231.37	72.88
231.604	72.88
231.838	83.88
232.072	75.88
232.306	76.88
232.541	91.88
232.775	77.88
233.009	70.88
233.243	67.88
233.477	75.88
233.711	83.88
233.945	75.88
234.179	88.88
234.413	69.88
234.647	77.88
234.881	69.88
235.115	71.88
235.349	73.88
235.583	82.88
235.817	86.88
236.051	71.88
236.285	74.88
236.519	83.88
236.753	69.88
236.987	90.88
237.221	72.88
237.455	73.88
237.689	76.88
237.922	70.88
238.156	83.88
238.39	65.88
238.624	67.88
238.858	78.88
239.091	69.88
239.325	83.88
239.559	68.88
239.793	86.88
240.027	84.88
240.26	73.88
240.494	77.88
240.728	75.88
240.961	65.88
241.195	77.88
241.429	91.88
241.662	76.88
241.896	71.88
242.13	89.88
242.363	67.88
242.597	62.88
242.83	75.88
243.064	64.88
243.298	61.88
243.531	81.88
243.765	57.88
243.998	87.88
244.232	80.88
244.465	84.88
244.699	71.88
244.932	86.88
245.166	76.88
245.399	75.88
245.633	89.88
245.866	81.88
246.099	86.88
246.333	76.88
246.566	69.88
246.8	78.88
247.033	72.88
247.266	71.88
247.5	77.88
247.733	76.88
247.966	71.88
248.2	75.88
248.433	78.88
248.666	79.88
248.899	86.88
249.133	82.88
249.366	88.88
249.599	87.88
249.832	75.88
250.066	78.88
250.299	92.88
250.532	78.88
250.765	85.88
250.998	81.88
251.231	86.88
251.465	75.88
251.698	81.88
251.931	78.88
252.164	67.88
252.397	87.88
252.63	67.88
252.863	79.88
253.096	76.88
253.329	79.88
253.562	86.88
253.795	77.88
254.028	72.88
254.261	72.88
254.494	72.88
254.727	78.88
254.96	87.88
255.193	87.88
255.426	88.88
255.659	68.88
255.892	87.88
256.124	81.88
256.357	81.88
256.59	86.88
256.823	87.88
257.056	86.88
257.289	77.88
257.521	74.88
257.754	73.88
257.987	75.88
258.22	86.88
258.452	86.88
258.685	82.88
258.918	78.88
259.151	71.88
259.383	80.88
259.616	82.88
259.849	86.88
260.081	75.88
260.314	87.88
260.547	77.88
260.779	85.88
261.012	78.88
261.244	72.88
261.477	84.88
261.71	69.88
261.942	92.88
262.175	96.88
262.407	76.88
262.64	85.88
262.872	75.88
263.105	71.88
263.337	74.88
263.57	77.88
263.802	83.88
264.035	68.88
264.267	75.88
264.499	71.88
264.732	87.88
264.964	89.88
265.197	84.88
265.429	79.88
265.661	85.88
265.894	91.88
266.126	78.88
266.358	93.88
266.591	73.88
266.823	81.88
267.055	88.88
267.287	83.88
267.52	102.88
267.752	77.88
267.984	75.88
268.216	88.88
268.448	92.88
268.681	68.88
268.913	87.88
269.145	75.88
269.377	85.88
269.609	79.88
269.841	78.88
270.073	76.88
270.306	82.88
270.538	97.88
270.77	78.88
271.002	83.88
271.234	80.88
271.466	81.88
271.698	83.88
271.93	103.88
272.162	77.88
272.394	88.88
272.626	79.88
272.858	80.88
273.09	69.88
273.322	82.88
273.553	76.88
273.785	69.88
274.017	87.88
274.249	76.88
274.481	82.88
274.713	79.88
274.945	96.88
275.176	77.88
275.408	80.88
275.64	97.88
275.872	78.88
276.104	81.88
276.335	93.88
276.567	86.88
276.799	98.88
277.031	87.88
277.262	86.88
277.494	77.88
277.726	85.88
277.957	84.88
278.189	86.88
278.421	91.88
278.652	92.88
278.884	72.88
279.115	83.88
279.347	65.88
279.579	82.88
279.81	83.88
280.042	91.88
280.273	80.88
280.505	69.88
280.736	80.88
280.968	85.88
281.199	73.88
281.431	96.88
281.662	81.88
281.894	86.88
282.125	94.88
282.356	109.88
282.588	124.88
282.819	103.88
283.051	82.88
283.282	95.88
283.513	89.88
283.745	87.88
283.976	96.88
284.207	94.88
284.439	91.88
284.67	73.88
284.901	104.88
285.132	82.88
285.364	76.88
285.595	88.88
285.826	76.88
286.057	66.88
286.288	75.88
286.52	94.88
286.751	77.88
286.982	83.88
287.213	86.88
287.444	86.88
287.675	86.88
287.906	94.88
288.138	88.88
288.369	99.88
288.6	78.88
288.831	82.88
289.062	79.88
289.293	79.88
289.524	78.88
289.755	71.88
289.986	80.88
290.217	66.88
290.448	81.88
290.679	72.88
290.91	80.88
291.141	75.88
291.371	96.88
291.602	86.88
291.833	88.88
292.064	94.88
292.295	97.88
292.526	89.88
292.757	92.88
292.987	83.88
293.218	83.88
293.449	76.88
293.68	90.88
293.91	91.88
294.141	101.88
294.372	93.88
294.603	90.88
294.833	82.88
295.064	78.88
295.295	88.88
295.525	95.88
295.756	96.88
295.987	96.88
296.217	130.88
296.448	106.88
296.679	103.88
296.909	75.88
297.14	88.88
297.37	78.88
297.601	93.88
297.831	86.88
298.062	79.88
298.292	86.88
298.523	79.88
298.753	83.88
298.984	84.88
299.214	88.88
299.445	96.88
299.675	87.88
299.905	92.88
300.136	93.88
300.366	86.88
300.597	86.88
300.827	91.88
301.057	102.88
301.288	86.88
301.518	75.88
301.748	78.88
301.979	93.88
302.209	91.88
302.439	71.88
302.669	77.88
302.9	73.88
303.13	74.88
303.36	89.88
303.59	87.88
303.82	85.88
304.051	71.88
304.281	88.88
304.511	104.88
304.741	75.88
304.971	87.88
305.201	86.88
305.431	85.88
305.661	90.88
305.891	87.88
306.121	86.88
306.352	104.88
306.582	88.88
306.812	96.88
307.042	76.88
307.272	81.88
307.502	93.88
307.731	89.88
307.961	84.88
308.191	93.88
308.421	75.88
308.651	84.88
308.881	85.88
309.111	89.88
309.341	92.88
309.571	89.88
309.8	87.88
310.03	78.88
310.26	88.88
310.49	88.88
310.72	89.88
310.949	93.88
311.179	90.88
311.409	88.88
311.639	87.88
311.868	99.88
312.098	89.88
312.328	92.88
312.557	91.88
312.787	84.88
313.017	96.88
313.246	99.88
313.476	97.88
313.706	85.88
313.935	79.88
314.165	89.88
314.394	87.88
314.624	85.88
314.853	86.88
315.083	90.88
315.312	75.88
315.542	95.88
315.771	94.88
316.001	92.88
316.23	79.88
316.46	83.88
316.689	93.88
316.919	93.88
317.148	92.88
317.377	89.88
317.607	83.88
317.836	87.88
318.065	75.88
318.295	79.88
318.524	92.88
318.753	94.88
318.983	87.88
319.212	102.88
319.441	98.88
319.67	93.88
319.9	79.88
320.129	97.88
320.358	84.88
320.587	100.88
320.816	101.88
321.046	83.88
321.275	99.88
321.504	94.88
321.733	102.88
321.962	88.88
322.191	102.88
322.42	101.88
322.649	100.88
322.878	102.88
323.108	102.88
323.337	109.88
323.566	126.88
323.795	138.88
324.024	177.88
324.253	338.88
324.482	667.88
324.71	1365.88
324.939	1774.88
325.168	687.88
325.397	220.88
325.626	133.88
325.855	112.88
326.084	117.88
326.313	121.88
326.542	129.88
326.77	204.88
326.999	389.88
327.228	819.88
327.457	1418.88
327.686	1111.88
327.914	314.88
328.143	160.88
328.372	120.88
328.6	107.88
328.829	114.88
329.058	105.88
329.287	118.88
329.515	107.88
329.744	98.88
329.972	87.88
330.201	94.88
330.43	94.88
330.658	101.88
330.887	123.88
331.115	110.88
331.344	91.88
331.572	88.88
331.801	86.88
332.03	93.88
332.258	82.88
332.486	89.88
332.715	73.88
332.943	87.88
333.172	99.88
333.4	77.88
333.629	110.88
333.857	102.88
334.085	95.88
334.314	78.88
334.542	90.88
334.771	89.88
334.999	94.88
335.227	82.88
335.455	102.88
335.684	81.88
335.912	87.88
336.14	97.88
336.369	92.88
336.597	87.88
336.825	90.88
337.053	86.88
337.281	82.88
337.51	87.88
337.738	80.88
337.966	86.88
338.194	91.88
338.422	93.88
338.65	92.88
338.878	97.88
339.106	86.88
339.334	92.88
339.562	88.88
339.79	84.88
340.018	84.88
340.246	81.88
340.474	87.88
340.702	88.88
340.93	103.88
341.158	86.88
341.386	110.88
341.614	91.88
341.842	94.88
342.07	85.88
342.298	91.88
342.526	87.88
342.754	80.88
342.981	95.88
343.209	81.88
343.437	93.88
343.665	91.88
343.893	101.88
344.12	99.88
344.348	88.88
344.576	88.88
344.804	80.88
345.031	78.88
345.259	103.88
345.487	81.88
345.714	101.88
345.942	95.88
346.17	88.88
346.397	75.88
346.625	73.88
346.853	77.88
347.08	92.88
347.308	88.88
347.535	106.88
347.763	91.88
347.99	95.88
348.218	96.88
348.445	83.88
348.673	93.88
348.9	89.88
349.128	91.88
349.355	88.88
349.583	99.88
349.81	96.88
350.037	91.88
350.265	83.88
350.492	85.88
350.72	88.88
350.947	99.88
351.174	107.88
351.402	119.88
351.629	88.88
351.856	81.88
352.083	102.88
352.311	97.88
352.538	111.88
352.765	103.88
352.992	117.88
353.22	100.88
353.447	88.88
353.674	102.88
353.901	90.88
354.128	92.88
354.355	91.88
354.583	92.88
354.81	98.88
355.037	83.88
355.264	86.88
355.491	107.88
355.718	83.88
355.945	92.88
356.172	77.88
356.399	93.88
356.626	101.88
356.853	97.88
357.08	98.88
357.307	100.88
357.534	81.88
357.761	99.88
357.988	104.88
358.215	116.88
358.441	95.88
358.668	101.88
358.895	104.88
359.122	84.88
359.349	90.88
359.576	92.88
359.802	116.88
360.029	99.88
360.256	89.88
360.483	94.88
360.709	81.88
360.936	93.88
361.163	107.88
361.39	91.88
361.616	89.88
361.843	88.88
362.07	77.88
362.296	88.88
362.523	93.88
362.749	76.88
362.976	74.88
363.203	90.88
363.429	76.88
363.656	89.88
363.882	74.88
364.109	85.88
364.335	86.88
364.562	70.88
364.788	87.88
365.015	92.88
365.241	95.88
365.468	108.88
365.694	106.88
365.92	92.88
366.147	84.88
366.373	98.88
366.599	84.88
366.826	86.88
367.052	88.88
367.278	67.88
367.505	83.88
367.731	102.88
367.957	82.88
368.184	93.88
368.41	102.88
368.636	94.88
368.862	115.88
369.089	102.88
369.315	96.88
369.541	96.88
369.767	89.88
369.993	93.88
370.219	96.88
370.445	84.88
370.672	79.88
370.898	75.88
371.124	93.88
371.35	96.88
371.576	77.88
371.802	81.88
372.028	79.88
372.254	78.88
372.48	73.88
372.706	87.88
372.932	89.88
373.158	99.88
373.384	87.88
373.61	110.88
373.835	93.88
374.061	73.88
374.287	93.88
374.513	105.88
374.739	90.88
374.965	88.88
375.191	91.88
375.416	78.88
375.642	81.88
375.868	103.88
376.094	84.88
376.319	101.88
376.545	90.88
376.771	95.88
376.997	72.88
377.222	76.88
377.448	94.88
377.674	90.88
377.899	87.88
378.125	79.88
378.35	102.88
378.576	80.88
378.802	94.88
379.027	104.88
379.253	95.88
379.478	101.88
379.704	94.88
379.929	91.88
380.155	104.88
380.38	89.88
380.606	84.88
380.831	99.88
381.057	91.88
381.282	90.88
381.507	95.88
381.733	97.88
381.958	79.88
382.184	99.88
382.409	100.88
382.634	107.88
382.86	98.88
383.085	113.88
383.31	104.88
383.535	101.88
383.761	93.88
383.986	105.88
384.211	102.88
384.436	106.88
384.662	116.88
384.887	115.88
385.112	108.88
385.337	103.88
385.562	111.88
385.787	116.88
386.013	116.88
386.238	121.88
386.463	103.88
386.688	113.88
386.913	99.88
387.138	105.88
387.363	101.88
387.588	123.88
387.813	115.88
388.038	106.88
388.263	127.88
388.488	124.88
388.713	92.88
388.938	86.88
389.163	84.88
389.387	88.88
389.612	99.88
389.837	91.88
390.062	71.88
390.287	78.88
390.512	95.88
390.736	77.88
390.961	88.88
391.186	94.88
391.411	87.88
391.636	82.88
391.86	75.88
392.085	78.88
392.31	86.88
392.534	84.88
392.759	79.88
392.984	77.88
393.208	91.88
393.433	85.88
393.658	88.88
393.882	86.88
394.107	80.88
394.331	86.88
394.556	75.88
394.78	98.88
395.005	73.88
395.229	72.88
395.454	79.88
395.678	88.88
395.903	81.88
396.127	84.88
396.352	88.88
396.576	92.88
396.801	92.88
397.025	84.88
397.249	93.88
397.474	94.88
397.698	82.88
397.922	91.88
398.147	84.88
398.371	96.88
398.595	71.88
398.82	85.88
399.044	82.88
399.268	80.88
399.492	81.88
399.717	95.88
399.941	87.88
400.165	94.88
400.389	79.88
400.613	77.88
400.837	78.88
401.062	76.88
401.286	90.88
401.51	90.88
401.734	91.88
401.958	93.88
402.182	112.88
402.406	140.88
402.63	105.88
402.854	91.88
403.078	83.88
403.302	94.88
403.526	96.88
403.75	79.88
403.974	76.88
404.198	87.88
404.422	83.88
404.645	70.88
404.869	78.88
405.093	86.88
405.317	88.88
405.541	83.88
405.765	90.88
405.988	120.88
406.212	159.88
406.436	191.88
406.66	100.88
406.883	84.88
407.107	97.88
407.331	93.88
407.555	85.88
407.778	88.88
408.002	94.88
408.226	85.88
408.449	80.88
408.673	91.88
408.896	89.88
409.12	99.88
409.344	87.88
409.567	81.88
409.791	90.88
410.014	86.88
410.238	86.88
410.461	102.88
410.685	84.88
410.908	102.88
411.132	95.88
411.355	96.88
411.578	85.88
411.802	90.88
412.025	85.88
412.249	87.88
412.472	93.88
412.695	87.88
412.919	87.88
413.142	108.88
413.365	84.88
413.589	95.88
413.812	92.88
414.035	97.88
414.258	99.88
414.482	83.88
414.705	81.88
414.928	86.88
415.151	85.88
415.374	104.88
415.597	84.88
415.821	77.88
416.044	91.88
416.267	92.88
416.49	84.88
416.713	84.88
416.936	80.88
417.159	79.88
417.382	82.88
417.605	79.88
417.828	73.88
418.051	96.88
418.274	87.88
418.497	66.88
418.72	85.88
418.943	91.88
419.166	91.88
419.389	86.88
419.611	68.88
419.834	83.88
420.057	84.88
420.28	87.88
420.503	91.88
420.726	85.88
420.948	86.88
421.171	76.88
421.394	81.88
421.617	96.88
421.839	95.88
422.062	73.88
422.285	83.88
422.507	86.88
422.73	104.88
422.953	102.88
423.175	95.88
423.398	77.88
423.621	86.88
423.843	78.88
424.066	83.88
424.288	82.88
424.511	88.88
424.733	88.88
424.956	96.88
425.178	97.88
425.401	99.88
425.623	88.88
425.846	100.88
426.068	96.88
426.291	77.88
426.513	84.88
426.735	86.88
426.958	97.88
427.18	82.88
427.402	112.88
427.625	139.88
427.847	97.88
428.069	87.88
428.292	88.88
428.514	86.88
428.736	82.88
428.958	83.88
429.181	76.88
429.403	72.88
429.625	89.88
429.847	75.88
430.069	95.88
430.292	80.88
430.514	93.88
430.736	73.88
430.958	80.88
431.18	70.88
431.402	77.88
431.624	77.88
431.846	87.88
432.068	79.88
432.29	76.88
432.512	91.88
432.734	94.88
432.956	104.88
433.178	85.88
433.4	85.88
433.622	83.88
433.844	99.88
434.066	85.88
434.287	89.88
434.509	92.88
434.731	86.88
434.953	101.88
435.175	95.88
435.397	82.88
435.618	79.88
435.84	96.88
436.062	93.88
436.284	94.88
436.505	88.88
436.727	99.88
436.949	89.88
437.17	77.88
437.392	90.88
437.614	80.88
437.835	99.88
438.057	96.88
438.278	120.88
438.5	95.88
438.721	117.88
438.943	86.88
439.165	78.88
439.386	84.88
439.608	87.88
439.829	90.88
440.05	110.88
440.272	110.88
440.493	98.88
440.715	85.88
440.936	87.88
441.158	96.88
441.379	82.88
441.6	84.88
441.822	84.88
442.043	100.88
442.264	101.88
442.486	106.88
442.707	97.88
442.928	92.88
443.149	101.88
443.371	112.88
443.592	100.88
443.813	102.88
444.034	85.88
444.255	87.88
444.476	78.88
444.698	80.88
444.919	75.88
445.14	118.88
445.361	124.88
445.582	94.88
445.803	115.88
446.024	105.88
446.245	119.88
446.466	115.88
446.687	96.88
446.908	55.88
447.129	88.88
447.35	91.88
447.571	88.88
447.792	77.88
448.013	96.88
448.234	99.88
448.455	98.88
448.675	92.88
448.896	100.88
449.117	91.88
449.338	97.88
449.559	116.88
449.779	138.88
450	84.88
450.221	76.88
450.442	94.88
450.662	98.88
450.883	91.88
451.104	96.88
451.324	80.88
451.545	84.88
451.766	79.88
451.986	75.88
452.207	75.88
452.428	97.88
452.648	99.88
452.869	98.88
453.089	107.88
453.31	118.88
453.53	92.88
453.751	88.88
453.971	98.88
454.192	92.88
454.412	89.88
454.633	87.88
454.853	88.88
455.073	91.88
455.294	81.88
455.514	81.88
455.734	98.88
455.955	84.88
456.175	79.88
456.395	75.88
456.616	79.88
456.836	81.88
457.056	68.88
457.276	87.88
457.497	94.88
457.717	78.88
457.937	77.88
458.157	86.88
458.377	80.88
458.598	91.88
458.818	129.88
459.038	125.88
459.258	99.88
459.478	96.88
459.698	75.88
459.918	83.88
460.138	88.88
460.358	78.88
460.578	81.88
460.798	91.88
461.018	92.88
461.238	79.88
461.458	86.88
461.678	77.88
461.898	69.88
462.118	88.88
462.338	80.88
462.558	80.88
462.777	84.88
462.997	84.88
463.217	76.88
463.437	87.88
463.657	89.88
463.876	86.88
464.096	91.88
464.316	96.88
464.536	85.88
464.755	103.88
464.975	102.88
465.195	140.88
465.414	127.88
465.634	82.88
465.854	72.88
466.073	77.88
466.293	83.88
466.512	94.88
466.732	84.88
466.951	89.88
467.171	81.88
467.391	86.88
467.61	107.88
467.829	92.88
468.049	70.88
468.268	75.88
468.488	88.88
468.707	87.88
468.927	94.88
469.146	92.88
469.365	88.88
469.585	91.88
469.804	83.88
470.023	89.88
470.243	94.88
470.462	93.88
470.681	106.88
470.901	77.88
471.12	83.88
471.339	81.88
471.558	85.88
471.777	90.88
471.997	77.88
472.216	92.88
472.435	80.88
472.654	82.88
472.873	85.88
473.092	88.88
473.311	95.88
473.53	85.88
473.749	92.88
473.968	76.88
474.187	107.88
474.406	96.88
474.625	98.88
474.844	100.88
475.063	100.88
475.282	88.88
475.501	80.88
475.72	88.88
475.939	94.88
476.158	78.88
476.377	94.88
476.596	90.88
476.814	86.88
477.033	92.88
477.252	83.88
477.471	87.88
477.69	88.88
477.908	89.88
478.127	78.88
478.346	88.88
478.564	85.88
478.783	80.88
479.002	94.88
479.22	83.88
479.439	95.88
479.658	80.88
479.876	89.88
480.095	101.88
480.313	87.88
480.532	79.88
480.751	85.88
480.969	91.88
481.188	83.88
481.406	87.88
481.624	99.88
481.843	89.88
482.061	95.88
482.28	92.88
482.498	89.88
482.717	75.88
482.935	90.88
483.153	93.88
483.372	86.88
483.59	95.88
483.808	80.88
484.027	102.88
484.245	97.88
484.463	90.88
484.681	85.88
484.9	102.88
485.118	96.88
485.336	77.88
485.554	96.88
485.772	103.88
485.99	96.88
486.209	94.88
486.427	99.88
486.645	113.88
486.863	99.88
487.081	92.88
487.299	91.88
487.517	80.88
487.735	95.88
487.953	96.88
488.171	99.88
488.389	85.88
488.607	89.88
488.825	85.88
489.043	87.88
489.261	77.88
489.479	96.88
489.696	90.88
489.914	81.88
490.132	79.88
490.35	81.88
490.568	87.88
490.786	77.88
491.003	92.88
491.221	80.88
491.439	89.88
491.657	91.88
491.874	104.88
492.092	91.88
492.31	91.88
492.527	86.88
492.745	89.88
492.963	90.88
493.18	89.88
493.398	95.88
493.615	78.88
493.833	87.88
494.05	81.88
494.268	91.88
494.485	85.88
494.703	81.88
494.92	99.88
495.138	87.88
495.355	89.88
495.573	89.88
495.79	103.88
496.008	92.88
496.225	86.88
496.442	85.88
496.66	85.88
496.877	85.88
497.094	88.88
497.312	88.88
497.529	91.88
497.746	79.88
497.963	85.88
498.181	86.88
498.398	95.88
498.615	98.88
498.832	93.88
499.049	80.88
499.267	99.88
499.484	92.88
499.701	87.88
499.918	91.88
500.135	70.88
500.352	82.88
500.569	92.88
500.786	94.88
501.003	89.88
501.22	91.88
501.437	89.88
501.654	92.88
501.871	98.88
502.088	99.88
502.305	80.88
502.522	76.88
502.739	91.88
502.956	91.88
503.172	97.88
503.389	84.88
503.606	96.88
503.823	100.88
504.04	84.88
504.256	92.88
504.473	83.88
504.69	99.88
504.907	79.88
505.123	90.88
505.34	76.88
505.557	99.88
505.773	82.88
505.99	87.88
506.207	85.88
506.423	96.88
506.64	86.88
506.856	82.88
507.073	88.88
507.289	87.88
507.506	85.88
507.722	112.88
507.939	104.88
508.155	107.88
508.372	91.88
508.588	83.88
508.805	104.88
509.021	95.88
509.238	100.88
509.454	100.88
509.67	104.88
509.887	100.88
510.103	115.88
510.319	187.88
510.536	688.88
510.752	2083.88
510.968	597.88
511.184	150.88
511.401	109.88
511.617	95.88
511.833	92.88
512.049	92.88
512.265	96.88
512.481	75.88
512.698	100.88
512.914	91.88
513.13	96.88
513.346	99.88
513.562	112.88
513.778	86.88
513.994	81.88
514.21	101.88
514.426	111.88
514.642	116.88
514.858	119.88
515.074	139.88
515.29	381.88
515.506	1203.88
515.721	478.88
515.937	124.88
516.153	110.88
516.369	92.88
516.585	92.88
516.801	92.88
517.016	79.88
517.232	91.88
