Data from Uncirc_2008_H10_HRD10591_00073.txt Node
Date: Wed Jan 03 10:15:45 EST 2024
User: Yrep
Spectrometer: HR+D1059
Trigger mode: 1
Integration Time (sec): 1.000000E-1
Scans to average: 1
Electric dark correction enabled: true
Nonlinearity correction enabled: false
Boxcar width: 0
XAxis mode: Wavelengths
Number of Pixels in Spectrum: 2048
>>>>>Begin Spectral Data<<<<<
223.165	-14.19
223.4	-14.19
223.635	-14.19
223.869	-13.19
224.104	-28.19
224.338	-27.19
224.573	-17.19
224.808	-14.19
225.042	0.81
225.277	2.81
225.511	-7.19
225.746	1.81
225.98	7.81
226.215	16.81
226.449	5.81
226.683	12.81
226.918	29.81
227.152	42.81
227.387	40.81
227.621	49.81
227.856	32.81
228.09	42.81
228.324	46.81
228.559	48.81
228.793	70.81
229.027	65.81
229.262	67.81
229.496	81.81
229.73	86.81
229.964	65.81
230.199	62.81
230.433	79.81
230.667	76.81
230.901	82.81
231.136	69.81
231.37	76.81
231.604	79.81
231.838	77.81
232.072	81.81
232.306	73.81
232.541	88.81
232.775	93.81
233.009	72.81
233.243	79.81
233.477	96.81
233.711	82.81
233.945	81.81
234.179	66.81
234.413	88.81
234.647	91.81
234.881	89.81
235.115	77.81
235.349	80.81
235.583	90.81
235.817	75.81
236.051	77.81
236.285	83.81
236.519	84.81
236.753	80.81
236.987	85.81
237.221	82.81
237.455	74.81
237.689	71.81
237.922	71.81
238.156	76.81
238.39	80.81
238.624	82.81
238.858	62.81
239.091	86.81
239.325	85.81
239.559	75.81
239.793	68.81
240.027	71.81
240.26	67.81
240.494	78.81
240.728	75.81
240.961	80.81
241.195	71.81
241.429	77.81
241.662	69.81
241.896	72.81
242.13	87.81
242.363	81.81
242.597	71.81
242.83	85.81
243.064	76.81
243.298	94.81
243.531	73.81
243.765	79.81
243.998	76.81
244.232	82.81
244.465	71.81
244.699	65.81
244.932	79.81
245.166	76.81
245.399	74.81
245.633	99.81
245.866	65.81
246.099	77.81
246.333	82.81
246.566	76.81
246.8	88.81
247.033	85.81
247.266	82.81
247.5	97.81
247.733	85.81
247.966	78.81
248.2	78.81
248.433	76.81
248.666	80.81
248.899	68.81
249.133	95.81
249.366	89.81
249.599	81.81
249.832	84.81
250.066	70.81
250.299	76.81
250.532	95.81
250.765	86.81
250.998	88.81
251.231	80.81
251.465	82.81
251.698	86.81
251.931	99.81
252.164	76.81
252.397	67.81
252.63	100.81
252.863	87.81
253.096	79.81
253.329	81.81
253.562	84.81
253.795	86.81
254.028	89.81
254.261	78.81
254.494	84.81
254.727	79.81
254.96	70.81
255.193	81.81
255.426	95.81
255.659	81.81
255.892	84.81
256.124	91.81
256.357	89.81
256.59	77.81
256.823	80.81
257.056	83.81
257.289	76.81
257.521	70.81
257.754	76.81
257.987	79.81
258.22	82.81
258.452	79.81
258.685	71.81
258.918	72.81
259.151	90.81
259.383	78.81
259.616	80.81
259.849	81.81
260.081	92.81
260.314	80.81
260.547	76.81
260.779	81.81
261.012	74.81
261.244	87.81
261.477	99.81
261.71	93.81
261.942	116.81
262.175	101.81
262.407	98.81
262.64	83.81
262.872	80.81
263.105	82.81
263.337	88.81
263.57	68.81
263.802	91.81
264.035	93.81
264.267	91.81
264.499	79.81
264.732	82.81
264.964	74.81
265.197	84.81
265.429	85.81
265.661	85.81
265.894	81.81
266.126	89.81
266.358	85.81
266.591	92.81
266.823	81.81
267.055	83.81
267.287	85.81
267.52	82.81
267.752	84.81
267.984	71.81
268.216	88.81
268.448	82.81
268.681	77.81
268.913	81.81
269.145	83.81
269.377	80.81
269.609	78.81
269.841	93.81
270.073	96.81
270.306	93.81
270.538	90.81
270.77	87.81
271.002	76.81
271.234	84.81
271.466	86.81
271.698	85.81
271.93	83.81
272.162	91.81
272.394	89.81
272.626	103.81
272.858	77.81
273.09	74.81
273.322	77.81
273.553	85.81
273.785	81.81
274.017	84.81
274.249	94.81
274.481	79.81
274.713	66.81
274.945	89.81
275.176	99.81
275.408	80.81
275.64	84.81
275.872	83.81
276.104	82.81
276.335	92.81
276.567	96.81
276.799	98.81
277.031	90.81
277.262	84.81
277.494	84.81
277.726	97.81
277.957	65.81
278.189	92.81
278.421	95.81
278.652	81.81
278.884	71.81
279.115	86.81
279.347	77.81
279.579	94.81
279.81	91.81
280.042	72.81
280.273	80.81
280.505	96.81
280.736	94.81
280.968	98.81
281.199	93.81
281.431	79.81
281.662	90.81
281.894	88.81
282.125	93.81
282.356	119.81
282.588	139.81
282.819	110.81
283.051	76.81
283.282	82.81
283.513	91.81
283.745	87.81
283.976	94.81
284.207	84.81
284.439	81.81
284.67	92.81
284.901	81.81
285.132	89.81
285.364	84.81
285.595	75.81
285.826	91.81
286.057	81.81
286.288	101.81
286.52	78.81
286.751	79.81
286.982	74.81
287.213	81.81
287.444	91.81
287.675	73.81
287.906	91.81
288.138	103.81
288.369	99.81
288.6	92.81
288.831	79.81
289.062	89.81
289.293	92.81
289.524	96.81
289.755	90.81
289.986	81.81
290.217	90.81
290.448	89.81
290.679	84.81
290.91	96.81
291.141	93.81
291.371	100.81
291.602	81.81
291.833	99.81
292.064	77.81
292.295	93.81
292.526	80.81
292.757	95.81
292.987	87.81
293.218	78.81
293.449	87.81
293.68	77.81
293.91	91.81
294.141	87.81
294.372	94.81
294.603	88.81
294.833	85.81
295.064	88.81
295.295	84.81
295.525	106.81
295.756	98.81
295.987	121.81
296.217	153.81
296.448	120.81
296.679	96.81
296.909	85.81
297.14	93.81
297.37	92.81
297.601	91.81
297.831	91.81
298.062	106.81
298.292	84.81
298.523	87.81
298.753	82.81
298.984	96.81
299.214	92.81
299.445	86.81
299.675	82.81
299.905	104.81
300.136	90.81
300.366	88.81
300.597	82.81
300.827	92.81
301.057	90.81
301.288	104.81
301.518	97.81
301.748	99.81
301.979	106.81
302.209	85.81
302.439	85.81
302.669	93.81
302.9	91.81
303.13	77.81
303.36	96.81
303.59	95.81
303.82	95.81
304.051	87.81
304.281	85.81
304.511	92.81
304.741	82.81
304.971	98.81
305.201	106.81
305.431	92.81
305.661	88.81
305.891	92.81
306.121	92.81
306.352	101.81
306.582	111.81
306.812	91.81
307.042	88.81
307.272	100.81
307.502	92.81
307.731	85.81
307.961	100.81
308.191	101.81
308.421	96.81
308.651	85.81
308.881	103.81
309.111	104.81
309.341	89.81
309.571	111.81
309.8	97.81
310.03	93.81
310.26	96.81
310.49	96.81
310.72	90.81
310.949	93.81
311.179	95.81
311.409	91.81
311.639	107.81
311.868	94.81
312.098	111.81
312.328	86.81
312.557	95.81
312.787	103.81
313.017	100.81
313.246	109.81
313.476	80.81
313.706	96.81
313.935	84.81
314.165	104.81
314.394	96.81
314.624	78.81
314.853	87.81
315.083	100.81
315.312	87.81
315.542	104.81
315.771	92.81
316.001	88.81
316.23	85.81
316.46	92.81
316.689	87.81
316.919	98.81
317.148	99.81
317.377	91.81
317.607	95.81
317.836	104.81
318.065	87.81
318.295	89.81
318.524	97.81
318.753	88.81
318.983	93.81
319.212	105.81
319.441	104.81
319.67	102.81
319.9	101.81
320.129	103.81
320.358	99.81
320.587	84.81
320.816	104.81
321.046	91.81
321.275	103.81
321.504	98.81
321.733	95.81
321.962	103.81
322.191	108.81
322.42	95.81
322.649	115.81
322.878	112.81
323.108	105.81
323.337	123.81
323.566	136.81
323.795	145.81
324.024	206.81
324.253	379.81
324.482	795.81
324.71	1575.81
324.939	2107.81
325.168	771.81
325.397	216.81
325.626	140.81
325.855	129.81
326.084	119.81
326.313	138.81
326.542	163.81
326.77	237.81
326.999	425.81
327.228	897.81
327.457	1633.81
327.686	1275.81
327.914	347.81
328.143	204.81
328.372	139.81
328.6	121.81
328.829	108.81
329.058	114.81
329.287	128.81
329.515	108.81
329.744	96.81
329.972	89.81
330.201	94.81
330.43	107.81
330.658	126.81
330.887	127.81
331.115	115.81
331.344	110.81
331.572	109.81
331.801	111.81
332.03	94.81
332.258	96.81
332.486	93.81
332.715	81.81
332.943	97.81
333.172	94.81
333.4	99.81
333.629	104.81
333.857	123.81
334.085	106.81
334.314	107.81
334.542	95.81
334.771	99.81
334.999	75.81
335.227	77.81
335.455	104.81
335.684	120.81
335.912	101.81
336.14	122.81
336.369	114.81
336.597	92.81
336.825	101.81
337.053	92.81
337.281	86.81
337.51	94.81
337.738	109.81
337.966	103.81
338.194	99.81
338.422	94.81
338.65	102.81
338.878	96.81
339.106	83.81
339.334	79.81
339.562	88.81
339.79	93.81
340.018	99.81
340.246	81.81
340.474	95.81
340.702	86.81
340.93	95.81
341.158	96.81
341.386	94.81
341.614	104.81
341.842	102.81
342.07	91.81
342.298	76.81
342.526	90.81
342.754	83.81
342.981	89.81
343.209	71.81
343.437	102.81
343.665	82.81
343.893	91.81
344.12	89.81
344.348	96.81
344.576	109.81
344.804	95.81
345.031	96.81
345.259	92.81
345.487	99.81
345.714	68.81
345.942	107.81
346.17	83.81
346.397	81.81
346.625	95.81
346.853	95.81
347.08	101.81
347.308	96.81
347.535	94.81
347.763	114.81
347.99	91.81
348.218	97.81
348.445	105.81
348.673	103.81
348.9	83.81
349.128	81.81
349.355	83.81
349.583	104.81
349.81	98.81
350.037	102.81
350.265	91.81
350.492	99.81
350.72	97.81
350.947	100.81
351.174	121.81
351.402	116.81
351.629	95.81
351.856	103.81
352.083	93.81
352.311	100.81
352.538	110.81
352.765	113.81
352.992	103.81
353.22	107.81
353.447	88.81
353.674	108.81
353.901	97.81
354.128	86.81
354.355	123.81
354.583	108.81
354.81	107.81
355.037	93.81
355.264	105.81
355.491	104.81
355.718	97.81
355.945	88.81
356.172	99.81
356.399	90.81
356.626	99.81
356.853	102.81
357.08	107.81
357.307	97.81
357.534	108.81
357.761	74.81
357.988	78.81
358.215	89.81
358.441	100.81
358.668	96.81
358.895	84.81
359.122	105.81
359.349	85.81
359.576	104.81
359.802	95.81
360.029	108.81
360.256	108.81
360.483	100.81
360.709	83.81
360.936	94.81
361.163	101.81
361.39	107.81
361.616	99.81
361.843	79.81
362.07	89.81
362.296	86.81
362.523	95.81
362.749	83.81
362.976	95.81
363.203	79.81
363.429	86.81
363.656	101.81
363.882	83.81
364.109	88.81
364.335	108.81
364.562	91.81
364.788	100.81
365.015	108.81
365.241	84.81
365.468	111.81
365.694	120.81
365.92	97.81
366.147	97.81
366.373	96.81
366.599	82.81
366.826	93.81
367.052	96.81
367.278	90.81
367.505	88.81
367.731	93.81
367.957	91.81
368.184	93.81
368.41	100.81
368.636	114.81
368.862	120.81
369.089	101.81
369.315	100.81
369.541	85.81
369.767	93.81
369.993	84.81
370.219	83.81
370.445	76.81
370.672	96.81
370.898	90.81
371.124	83.81
371.35	87.81
371.576	100.81
371.802	91.81
372.028	80.81
372.254	74.81
372.48	101.81
372.706	96.81
372.932	95.81
373.158	87.81
373.384	96.81
373.61	93.81
373.835	85.81
374.061	96.81
374.287	92.81
374.513	79.81
374.739	83.81
374.965	84.81
375.191	89.81
375.416	96.81
375.642	76.81
375.868	83.81
376.094	79.81
376.319	97.81
376.545	107.81
376.771	85.81
376.997	92.81
377.222	94.81
377.448	99.81
377.674	105.81
377.899	96.81
378.125	87.81
378.35	95.81
378.576	99.81
378.802	91.81
379.027	100.81
379.253	86.81
379.478	99.81
379.704	89.81
379.929	93.81
380.155	93.81
380.38	99.81
380.606	101.81
380.831	91.81
381.057	103.81
381.282	85.81
381.507	93.81
381.733	100.81
381.958	92.81
382.184	108.81
382.409	84.81
382.634	96.81
382.86	86.81
383.085	112.81
383.31	104.81
383.535	109.81
383.761	94.81
383.986	100.81
384.211	93.81
384.436	92.81
384.662	103.81
384.887	90.81
385.112	98.81
385.337	97.81
385.562	106.81
385.787	100.81
386.013	113.81
386.238	118.81
386.463	111.81
386.688	107.81
386.913	107.81
387.138	108.81
387.363	93.81
387.588	106.81
387.813	96.81
388.038	101.81
388.263	103.81
388.488	98.81
388.713	111.81
388.938	100.81
389.163	101.81
389.387	97.81
389.612	95.81
389.837	93.81
390.062	93.81
390.287	76.81
390.512	91.81
390.736	101.81
390.961	86.81
391.186	96.81
391.411	78.81
391.636	94.81
391.86	76.81
392.085	89.81
392.31	83.81
392.534	88.81
392.759	93.81
392.984	83.81
393.208	95.81
393.433	90.81
393.658	76.81
393.882	101.81
394.107	92.81
394.331	91.81
394.556	85.81
394.78	95.81
395.005	89.81
395.229	89.81
395.454	89.81
395.678	91.81
395.903	89.81
396.127	91.81
396.352	91.81
396.576	86.81
396.801	83.81
397.025	91.81
397.249	95.81
397.474	87.81
397.698	92.81
397.922	89.81
398.147	90.81
398.371	79.81
398.595	83.81
398.82	71.81
399.044	78.81
399.268	96.81
399.492	83.81
399.717	103.81
399.941	104.81
400.165	94.81
400.389	84.81
400.613	79.81
400.837	87.81
401.062	87.81
401.286	91.81
401.51	81.81
401.734	91.81
401.958	95.81
402.182	128.81
402.406	149.81
402.63	107.81
402.854	100.81
403.078	102.81
403.302	89.81
403.526	95.81
403.75	84.81
403.974	101.81
404.198	85.81
404.422	90.81
404.645	84.81
404.869	87.81
405.093	94.81
405.317	95.81
405.541	97.81
405.765	99.81
405.988	118.81
406.212	160.81
406.436	228.81
406.66	148.81
406.883	106.81
407.107	94.81
407.331	98.81
407.555	110.81
407.778	99.81
408.002	86.81
408.226	85.81
408.449	82.81
408.673	91.81
408.896	92.81
409.12	84.81
409.344	92.81
409.567	96.81
409.791	104.81
410.014	100.81
410.238	74.81
410.461	85.81
410.685	91.81
410.908	102.81
411.132	108.81
411.355	91.81
411.578	98.81
411.802	71.81
412.025	86.81
412.249	93.81
412.472	81.81
412.695	83.81
412.919	89.81
413.142	99.81
413.365	84.81
413.589	89.81
413.812	91.81
414.035	100.81
414.258	90.81
414.482	93.81
414.705	93.81
414.928	99.81
415.151	93.81
415.374	100.81
415.597	85.81
415.821	103.81
416.044	84.81
416.267	92.81
416.49	74.81
416.713	76.81
416.936	90.81
417.159	91.81
417.382	92.81
417.605	85.81
417.828	97.81
418.051	90.81
418.274	83.81
418.497	84.81
418.72	73.81
418.943	98.81
419.166	95.81
419.389	97.81
419.611	92.81
419.834	83.81
420.057	89.81
420.28	89.81
420.503	87.81
420.726	94.81
420.948	93.81
421.171	85.81
421.394	89.81
421.617	91.81
421.839	102.81
422.062	98.81
422.285	100.81
422.507	89.81
422.73	108.81
422.953	104.81
423.175	88.81
423.398	96.81
423.621	89.81
423.843	84.81
424.066	92.81
424.288	85.81
424.511	88.81
424.733	83.81
424.956	108.81
425.178	98.81
425.401	112.81
425.623	92.81
425.846	65.81
426.068	98.81
426.291	107.81
426.513	87.81
426.735	83.81
426.958	98.81
427.18	95.81
427.402	133.81
427.625	144.81
427.847	119.81
428.069	90.81
428.292	85.81
428.514	84.81
428.736	82.81
428.958	89.81
429.181	89.81
429.403	76.81
429.625	76.81
429.847	92.81
430.069	110.81
430.292	92.81
430.514	88.81
430.736	81.81
430.958	90.81
431.18	85.81
431.402	103.81
431.624	96.81
431.846	98.81
432.068	88.81
432.29	92.81
432.512	82.81
432.734	87.81
432.956	91.81
433.178	97.81
433.4	86.81
433.622	101.81
433.844	96.81
434.066	85.81
434.287	101.81
434.509	92.81
434.731	84.81
434.953	94.81
435.175	90.81
435.397	79.81
435.618	91.81
435.84	88.81
436.062	111.81
436.284	111.81
436.505	101.81
436.727	113.81
436.949	97.81
437.17	90.81
437.392	83.81
437.614	103.81
437.835	95.81
438.057	113.81
438.278	109.81
438.5	109.81
438.721	113.81
438.943	96.81
439.165	78.81
439.386	96.81
439.608	81.81
439.829	105.81
440.05	100.81
440.272	125.81
440.493	91.81
440.715	90.81
440.936	78.81
441.158	77.81
441.379	83.81
441.6	94.81
441.822	93.81
442.043	92.81
442.264	102.81
442.486	103.81
442.707	84.81
442.928	108.81
443.149	116.81
443.371	119.81
443.592	113.81
443.813	112.81
444.034	107.81
444.255	93.81
444.476	90.81
444.698	88.81
444.919	79.81
445.14	124.81
445.361	119.81
445.582	98.81
445.803	121.81
446.024	123.81
446.245	140.81
446.466	120.81
446.687	89.81
446.908	75.81
447.129	75.81
447.35	84.81
447.571	100.81
447.792	73.81
448.013	103.81
448.234	90.81
448.455	108.81
448.675	116.81
448.896	114.81
449.117	105.81
449.338	107.81
449.559	126.81
449.779	123.81
450	109.81
450.221	84.81
450.442	85.81
450.662	100.81
450.883	106.81
451.104	117.81
451.324	115.81
451.545	92.81
451.766	91.81
451.986	87.81
452.207	94.81
452.428	99.81
452.648	92.81
452.869	116.81
453.089	121.81
453.31	111.81
453.53	100.81
453.751	106.81
453.971	101.81
454.192	112.81
454.412	91.81
454.633	91.81
454.853	77.81
455.073	86.81
455.294	100.81
455.514	89.81
455.734	85.81
455.955	88.81
456.175	81.81
456.395	95.81
456.616	69.81
456.836	96.81
457.056	93.81
457.276	82.81
457.497	84.81
457.717	89.81
457.937	75.81
458.157	85.81
458.377	101.81
458.598	113.81
458.818	143.81
459.038	150.81
459.258	110.81
459.478	100.81
459.698	100.81
459.918	92.81
460.138	77.81
460.358	73.81
460.578	95.81
460.798	84.81
461.018	84.81
461.238	101.81
461.458	82.81
461.678	91.81
461.898	81.81
462.118	79.81
462.338	74.81
462.558	86.81
462.777	84.81
462.997	84.81
463.217	80.81
463.437	101.81
463.657	82.81
463.876	84.81
464.096	88.81
464.316	98.81
464.536	94.81
464.755	94.81
464.975	104.81
465.195	137.81
465.414	146.81
465.634	103.81
465.854	97.81
466.073	91.81
466.293	92.81
466.512	75.81
466.732	87.81
466.951	87.81
467.171	90.81
467.391	107.81
467.61	96.81
467.829	87.81
468.049	94.81
468.268	79.81
468.488	86.81
468.707	90.81
468.927	94.81
469.146	91.81
469.365	86.81
469.585	86.81
469.804	90.81
470.023	87.81
470.243	97.81
470.462	107.81
470.681	108.81
470.901	100.81
471.12	99.81
471.339	76.81
471.558	84.81
471.777	91.81
471.997	97.81
472.216	96.81
472.435	90.81
472.654	75.81
472.873	85.81
473.092	96.81
473.311	77.81
473.53	91.81
473.749	80.81
473.968	93.81
474.187	109.81
474.406	84.81
474.625	87.81
474.844	83.81
475.063	93.81
475.282	91.81
475.501	90.81
475.72	91.81
475.939	86.81
476.158	95.81
476.377	93.81
476.596	82.81
476.814	103.81
477.033	94.81
477.252	77.81
477.471	91.81
477.69	92.81
477.908	92.81
478.127	89.81
478.346	98.81
478.564	83.81
478.783	101.81
479.002	105.81
479.22	92.81
479.439	95.81
479.658	105.81
479.876	91.81
480.095	91.81
480.313	101.81
480.532	82.81
480.751	73.81
480.969	81.81
481.188	113.81
481.406	102.81
481.624	96.81
481.843	109.81
482.061	83.81
482.28	84.81
482.498	99.81
482.717	84.81
482.935	74.81
483.153	87.81
483.372	106.81
483.59	87.81
483.808	82.81
484.027	99.81
484.245	102.81
484.463	93.81
484.681	91.81
484.9	85.81
485.118	80.81
485.336	85.81
485.554	95.81
485.772	101.81
485.99	96.81
486.209	98.81
486.427	93.81
486.645	104.81
486.863	112.81
487.081	106.81
487.299	104.81
487.517	91.81
487.735	88.81
487.953	90.81
488.171	103.81
488.389	88.81
488.607	103.81
488.825	81.81
489.043	94.81
489.261	84.81
489.479	96.81
489.696	88.81
489.914	81.81
490.132	86.81
490.35	89.81
490.568	100.81
490.786	80.81
491.003	73.81
491.221	80.81
491.439	106.81
491.657	100.81
491.874	83.81
492.092	85.81
492.31	92.81
492.527	106.81
492.745	78.81
492.963	88.81
493.18	93.81
493.398	98.81
493.615	99.81
493.833	95.81
494.05	84.81
494.268	81.81
494.485	88.81
494.703	90.81
494.92	83.81
495.138	85.81
495.355	90.81
495.573	110.81
495.79	87.81
496.008	96.81
496.225	97.81
496.442	92.81
496.66	89.81
496.877	83.81
497.094	92.81
497.312	80.81
497.529	95.81
497.746	108.81
497.963	86.81
498.181	95.81
498.398	84.81
498.615	109.81
498.832	105.81
499.049	113.81
499.267	94.81
499.484	102.81
499.701	91.81
499.918	97.81
500.135	98.81
500.352	92.81
500.569	92.81
500.786	85.81
501.003	93.81
501.22	79.81
501.437	95.81
501.654	106.81
501.871	97.81
502.088	101.81
502.305	97.81
502.522	83.81
502.739	94.81
502.956	100.81
503.172	92.81
503.389	77.81
503.606	108.81
503.823	88.81
504.04	107.81
504.256	100.81
504.473	108.81
504.69	86.81
504.907	119.81
505.123	106.81
505.34	101.81
505.557	90.81
505.773	104.81
505.99	91.81
506.207	107.81
506.423	90.81
506.64	84.81
506.856	108.81
507.073	78.81
507.289	103.81
507.506	101.81
507.722	113.81
507.939	119.81
508.155	103.81
508.372	104.81
508.588	101.81
508.805	85.81
509.021	102.81
509.238	97.81
509.454	98.81
509.67	95.81
509.887	114.81
510.103	139.81
510.319	236.81
510.536	789.81
510.752	2455.81
510.968	691.81
511.184	147.81
511.401	110.81
511.617	94.81
511.833	92.81
512.049	89.81
512.265	95.81
512.481	87.81
512.698	90.81
512.914	101.81
513.13	84.81
513.346	88.81
513.562	100.81
513.778	100.81
513.994	107.81
514.21	107.81
514.426	127.81
514.642	126.81
514.858	119.81
515.074	152.81
515.29	437.81
