Data from Uncirc_2008_H10_HRD10591_00018.txt Node
Date: Wed Jan 03 10:15:34 EST 2024
User: Yrep
Spectrometer: HR+D1059
Trigger mode: 1
Integration Time (sec): 1.000000E-1
Scans to average: 1
Electric dark correction enabled: true
Nonlinearity correction enabled: false
Boxcar width: 0
XAxis mode: Wavelengths
Number of Pixels in Spectrum: 2048
>>>>>Begin Spectral Data<<<<<
223.165	-22.31
223.4	-22.31
223.635	-22.31
223.869	-18.31
224.104	-19.31
224.338	-15.31
224.573	-15.31
224.808	0.69
225.042	-18.31
225.277	-10.31
225.511	1.69
225.746	9.69
225.98	5.69
226.215	5.69
226.449	11.69
226.683	28.69
226.918	23.69
227.152	31.69
227.387	41.69
227.621	40.69
227.856	38.69
228.09	38.69
228.324	57.69
228.559	57.69
228.793	53.69
229.027	70.69
229.262	80.69
229.496	76.69
229.73	72.69
229.964	79.69
230.199	70.69
230.433	82.69
230.667	88.69
230.901	67.69
231.136	81.69
231.37	74.69
231.604	74.69
231.838	68.69
232.072	72.69
232.306	76.69
232.541	84.69
232.775	78.69
233.009	79.69
233.243	70.69
233.477	92.69
233.711	90.69
233.945	72.69
234.179	89.69
234.413	77.69
234.647	82.69
234.881	76.69
235.115	80.69
235.349	75.69
235.583	64.69
235.817	69.69
236.051	75.69
236.285	75.69
236.519	74.69
236.753	75.69
236.987	79.69
237.221	75.69
237.455	86.69
237.689	73.69
237.922	82.69
238.156	79.69
238.39	76.69
238.624	78.69
238.858	77.69
239.091	74.69
239.325	76.69
239.559	78.69
239.793	77.69
240.027	86.69
240.26	82.69
240.494	61.69
240.728	65.69
240.961	77.69
241.195	66.69
241.429	75.69
241.662	78.69
241.896	67.69
242.13	73.69
242.363	82.69
242.597	63.69
242.83	71.69
243.064	86.69
243.298	76.69
243.531	77.69
243.765	74.69
243.998	78.69
244.232	77.69
244.465	72.69
244.699	90.69
244.932	85.69
245.166	85.69
245.399	77.69
245.633	79.69
245.866	84.69
246.099	72.69
246.333	100.69
246.566	68.69
246.8	69.69
247.033	75.69
247.266	91.69
247.5	71.69
247.733	74.69
247.966	78.69
248.2	70.69
248.433	92.69
248.666	84.69
248.899	88.69
249.133	75.69
249.366	101.69
249.599	100.69
249.832	81.69
250.066	89.69
250.299	74.69
250.532	76.69
250.765	81.69
250.998	94.69
251.231	87.69
251.465	78.69
251.698	91.69
251.931	65.69
252.164	87.69
252.397	70.69
252.63	85.69
252.863	77.69
253.096	83.69
253.329	82.69
253.562	69.69
253.795	84.69
254.028	81.69
254.261	84.69
254.494	83.69
254.727	74.69
254.96	78.69
255.193	90.69
255.426	84.69
255.659	91.69
255.892	88.69
256.124	83.69
256.357	91.69
256.59	85.69
256.823	85.69
257.056	93.69
257.289	87.69
257.521	89.69
257.754	83.69
257.987	76.69
258.22	79.69
258.452	92.69
258.685	96.69
258.918	90.69
259.151	82.69
259.383	83.69
259.616	82.69
259.849	86.69
260.081	78.69
260.314	95.69
260.547	82.69
260.779	90.69
261.012	98.69
261.244	77.69
261.477	88.69
261.71	90.69
261.942	108.69
262.175	103.69
262.407	87.69
262.64	87.69
262.872	88.69
263.105	82.69
263.337	86.69
263.57	80.69
263.802	89.69
264.035	81.69
264.267	78.69
264.499	78.69
264.732	75.69
264.964	69.69
265.197	86.69
265.429	87.69
265.661	93.69
265.894	79.69
266.126	71.69
266.358	78.69
266.591	86.69
266.823	84.69
267.055	89.69
267.287	101.69
267.52	83.69
267.752	69.69
267.984	89.69
268.216	87.69
268.448	85.69
268.681	86.69
268.913	81.69
269.145	80.69
269.377	72.69
269.609	86.69
269.841	90.69
270.073	83.69
270.306	76.69
270.538	80.69
270.77	78.69
271.002	85.69
271.234	84.69
271.466	97.69
271.698	79.69
271.93	77.69
272.162	88.69
272.394	77.69
272.626	91.69
272.858	94.69
273.09	83.69
273.322	85.69
273.553	98.69
273.785	85.69
274.017	87.69
274.249	84.69
274.481	80.69
274.713	83.69
274.945	81.69
275.176	98.69
275.408	83.69
275.64	92.69
275.872	93.69
276.104	74.69
276.335	92.69
276.567	99.69
276.799	84.69
277.031	85.69
277.262	97.69
277.494	83.69
277.726	72.69
277.957	91.69
278.189	79.69
278.421	91.69
278.652	83.69
278.884	90.69
279.115	73.69
279.347	97.69
279.579	85.69
279.81	89.69
280.042	88.69
280.273	76.69
280.505	93.69
280.736	101.69
280.968	74.69
281.199	86.69
281.431	108.69
281.662	86.69
281.894	80.69
282.125	100.69
282.356	104.69
282.588	118.69
282.819	96.69
283.051	93.69
283.282	57.69
283.513	83.69
283.745	77.69
283.976	97.69
284.207	83.69
284.439	70.69
284.67	91.69
284.901	87.69
285.132	90.69
285.364	89.69
285.595	94.69
285.826	96.69
286.057	102.69
286.288	106.69
286.52	92.69
286.751	94.69
286.982	85.69
287.213	83.69
287.444	87.69
287.675	80.69
287.906	90.69
288.138	85.69
288.369	87.69
288.6	93.69
288.831	74.69
289.062	87.69
289.293	111.69
289.524	92.69
289.755	95.69
289.986	88.69
290.217	91.69
290.448	90.69
290.679	82.69
290.91	93.69
291.141	93.69
291.371	92.69
291.602	89.69
291.833	90.69
292.064	94.69
292.295	90.69
292.526	86.69
292.757	93.69
292.987	88.69
293.218	77.69
293.449	90.69
293.68	94.69
293.91	83.69
294.141	93.69
294.372	80.69
294.603	81.69
294.833	89.69
295.064	95.69
295.295	106.69
295.525	95.69
295.756	84.69
295.987	91.69
296.217	123.69
296.448	120.69
296.679	88.69
296.909	87.69
297.14	87.69
297.37	98.69
297.601	89.69
297.831	103.69
298.062	85.69
298.292	85.69
298.523	87.69
298.753	86.69
298.984	86.69
299.214	82.69
299.445	88.69
299.675	86.69
299.905	90.69
300.136	93.69
300.366	80.69
300.597	101.69
300.827	92.69
301.057	93.69
301.288	107.69
301.518	102.69
301.748	84.69
301.979	83.69
302.209	84.69
302.439	101.69
302.669	101.69
302.9	83.69
303.13	83.69
303.36	94.69
303.59	89.69
303.82	98.69
304.051	96.69
304.281	91.69
304.511	78.69
304.741	87.69
304.971	95.69
305.201	84.69
305.431	94.69
305.661	81.69
305.891	84.69
306.121	90.69
306.352	97.69
306.582	95.69
306.812	76.69
307.042	90.69
307.272	91.69
307.502	91.69
307.731	81.69
307.961	87.69
308.191	90.69
308.421	87.69
308.651	98.69
308.881	95.69
309.111	96.69
309.341	100.69
309.571	97.69
309.8	95.69
310.03	89.69
310.26	104.69
310.49	102.69
310.72	97.69
310.949	97.69
311.179	87.69
311.409	85.69
311.639	86.69
311.868	85.69
312.098	80.69
312.328	93.69
312.557	97.69
312.787	94.69
313.017	89.69
313.246	94.69
313.476	87.69
313.706	91.69
313.935	95.69
314.165	95.69
314.394	85.69
314.624	82.69
314.853	100.69
315.083	93.69
315.312	94.69
315.542	98.69
315.771	97.69
316.001	75.69
316.23	81.69
316.46	90.69
316.689	87.69
316.919	94.69
317.148	118.69
317.377	96.69
317.607	94.69
317.836	103.69
318.065	90.69
318.295	83.69
318.524	90.69
318.753	83.69
318.983	97.69
319.212	107.69
319.441	98.69
319.67	99.69
319.9	87.69
320.129	79.69
320.358	90.69
320.587	94.69
320.816	100.69
321.046	101.69
321.275	81.69
321.504	98.69
321.733	97.69
321.962	80.69
322.191	91.69
322.42	117.69
322.649	113.69
322.878	99.69
323.108	128.69
323.337	136.69
323.566	114.69
323.795	145.69
324.024	191.69
324.253	337.69
324.482	668.69
324.71	1394.69
324.939	1822.69
325.168	652.69
325.397	201.69
325.626	121.69
325.855	108.69
326.084	123.69
326.313	141.69
326.542	144.69
326.77	208.69
326.999	387.69
327.228	785.69
327.457	1409.69
327.686	1117.69
327.914	335.69
328.143	166.69
328.372	141.69
328.6	118.69
328.829	105.69
329.058	123.69
329.287	104.69
329.515	112.69
329.744	90.69
329.972	90.69
330.201	111.69
330.43	101.69
330.658	117.69
330.887	119.69
331.115	127.69
331.344	92.69
331.572	89.69
331.801	98.69
332.03	99.69
332.258	87.69
332.486	97.69
332.715	95.69
332.943	109.69
333.172	89.69
333.4	90.69
333.629	95.69
333.857	120.69
334.085	102.69
334.314	103.69
334.542	94.69
334.771	102.69
334.999	109.69
335.227	90.69
335.455	92.69
335.684	92.69
335.912	91.69
336.14	87.69
336.369	103.69
336.597	87.69
336.825	91.69
337.053	90.69
337.281	87.69
337.51	91.69
337.738	82.69
337.966	101.69
338.194	81.69
338.422	82.69
338.65	96.69
338.878	85.69
339.106	77.69
339.334	84.69
339.562	82.69
339.79	85.69
340.018	94.69
340.246	88.69
340.474	93.69
340.702	98.69
340.93	85.69
341.158	96.69
341.386	90.69
341.614	82.69
341.842	78.69
342.07	94.69
342.298	104.69
342.526	95.69
342.754	85.69
342.981	96.69
343.209	86.69
343.437	93.69
343.665	83.69
343.893	92.69
344.12	103.69
344.348	99.69
344.576	89.69
344.804	95.69
345.031	82.69
345.259	77.69
345.487	90.69
345.714	103.69
345.942	89.69
346.17	98.69
346.397	88.69
346.625	94.69
346.853	91.69
347.08	98.69
347.308	103.69
347.535	95.69
347.763	106.69
347.99	95.69
348.218	108.69
348.445	114.69
348.673	104.69
348.9	93.69
349.128	107.69
349.355	89.69
349.583	78.69
349.81	98.69
350.037	102.69
350.265	99.69
350.492	99.69
350.72	87.69
350.947	104.69
351.174	104.69
351.402	94.69
351.629	90.69
351.856	90.69
352.083	99.69
352.311	117.69
352.538	98.69
352.765	119.69
352.992	106.69
353.22	108.69
353.447	97.69
353.674	99.69
353.901	113.69
354.128	100.69
354.355	106.69
354.583	89.69
354.81	89.69
355.037	101.69
355.264	94.69
355.491	98.69
355.718	79.69
355.945	95.69
356.172	101.69
356.399	90.69
356.626	102.69
356.853	93.69
357.08	77.69
357.307	91.69
357.534	96.69
357.761	94.69
357.988	92.69
358.215	98.69
358.441	95.69
358.668	84.69
358.895	97.69
359.122	90.69
359.349	78.69
359.576	96.69
359.802	79.69
360.029	105.69
360.256	110.69
360.483	96.69
360.709	87.69
360.936	104.69
361.163	102.69
361.39	87.69
361.616	92.69
361.843	97.69
362.07	85.69
362.296	84.69
362.523	79.69
362.749	69.69
362.976	86.69
363.203	98.69
363.429	94.69
363.656	101.69
363.882	93.69
364.109	88.69
364.335	88.69
364.562	85.69
364.788	78.69
365.015	90.69
365.241	83.69
365.468	96.69
365.694	84.69
365.92	93.69
366.147	88.69
366.373	105.69
366.599	96.69
366.826	91.69
367.052	81.69
367.278	82.69
367.505	96.69
367.731	92.69
367.957	90.69
368.184	97.69
368.41	90.69
368.636	118.69
368.862	112.69
369.089	107.69
369.315	89.69
369.541	90.69
369.767	80.69
369.993	86.69
370.219	89.69
370.445	77.69
370.672	102.69
370.898	88.69
371.124	82.69
371.35	84.69
371.576	78.69
371.802	72.69
372.028	86.69
372.254	89.69
372.48	74.69
372.706	88.69
372.932	87.69
373.158	87.69
373.384	91.69
373.61	93.69
373.835	90.69
374.061	85.69
374.287	80.69
374.513	96.69
374.739	92.69
374.965	85.69
375.191	86.69
375.416	106.69
375.642	80.69
375.868	82.69
376.094	81.69
376.319	95.69
376.545	78.69
376.771	92.69
376.997	83.69
377.222	93.69
377.448	91.69
377.674	90.69
377.899	88.69
378.125	97.69
378.35	103.69
378.576	96.69
378.802	87.69
379.027	90.69
379.253	93.69
379.478	94.69
379.704	99.69
379.929	85.69
380.155	89.69
380.38	86.69
380.606	95.69
380.831	95.69
381.057	87.69
381.282	99.69
381.507	99.69
381.733	105.69
381.958	102.69
382.184	99.69
382.409	83.69
382.634	84.69
382.86	101.69
383.085	97.69
383.31	101.69
383.535	105.69
383.761	101.69
383.986	103.69
384.211	101.69
384.436	104.69
384.662	105.69
384.887	98.69
385.112	109.69
385.337	104.69
385.562	98.69
385.787	115.69
386.013	112.69
386.238	114.69
386.463	105.69
386.688	92.69
386.913	105.69
387.138	125.69
387.363	110.69
387.588	92.69
387.813	118.69
388.038	98.69
388.263	117.69
388.488	112.69
388.713	93.69
388.938	106.69
389.163	95.69
389.387	97.69
389.612	101.69
389.837	101.69
390.062	105.69
390.287	91.69
390.512	84.69
390.736	102.69
390.961	97.69
391.186	98.69
391.411	91.69
391.636	96.69
391.86	92.69
392.085	88.69
392.31	77.69
392.534	79.69
392.759	78.69
392.984	93.69
393.208	103.69
393.433	87.69
393.658	90.69
393.882	74.69
394.107	85.69
394.331	85.69
394.556	82.69
394.78	91.69
395.005	80.69
395.229	84.69
395.454	91.69
395.678	74.69
395.903	91.69
396.127	85.69
396.352	85.69
396.576	94.69
396.801	89.69
397.025	86.69
397.249	92.69
397.474	89.69
397.698	90.69
397.922	84.69
398.147	79.69
398.371	87.69
398.595	89.69
398.82	95.69
399.044	98.69
399.268	89.69
399.492	75.69
399.717	90.69
399.941	90.69
400.165	91.69
400.389	85.69
400.613	91.69
400.837	81.69
401.062	89.69
401.286	89.69
401.51	85.69
401.734	75.69
401.958	86.69
402.182	105.69
402.406	113.69
402.63	111.69
402.854	101.69
403.078	91.69
403.302	96.69
403.526	89.69
403.75	87.69
403.974	76.69
404.198	87.69
404.422	81.69
404.645	93.69
404.869	94.69
405.093	78.69
405.317	91.69
405.541	77.69
405.765	94.69
405.988	91.69
406.212	159.69
406.436	199.69
406.66	120.69
406.883	109.69
407.107	81.69
407.331	104.69
407.555	94.69
407.778	92.69
408.002	85.69
408.226	81.69
408.449	75.69
408.673	94.69
408.896	86.69
409.12	103.69
409.344	87.69
409.567	91.69
409.791	76.69
410.014	97.69
410.238	82.69
410.461	98.69
410.685	96.69
410.908	108.69
411.132	88.69
411.355	103.69
411.578	96.69
411.802	90.69
412.025	86.69
412.249	89.69
412.472	90.69
412.695	99.69
412.919	102.69
413.142	91.69
413.365	101.69
413.589	94.69
413.812	78.69
414.035	77.69
414.258	83.69
414.482	82.69
414.705	89.69
414.928	85.69
415.151	92.69
415.374	97.69
415.597	91.69
415.821	91.69
416.044	89.69
416.267	84.69
416.49	83.69
416.713	83.69
416.936	80.69
417.159	82.69
417.382	78.69
417.605	88.69
417.828	90.69
418.051	97.69
418.274	103.69
418.497	79.69
418.72	88.69
418.943	84.69
419.166	81.69
419.389	79.69
419.611	90.69
419.834	88.69
420.057	86.69
420.28	97.69
420.503	77.69
420.726	90.69
420.948	84.69
421.171	82.69
421.394	91.69
421.617	80.69
421.839	96.69
422.062	94.69
422.285	96.69
422.507	94.69
422.73	82.69
422.953	88.69
423.175	83.69
423.398	74.69
423.621	86.69
423.843	81.69
424.066	85.69
424.288	78.69
424.511	80.69
424.733	87.69
424.956	97.69
425.178	94.69
425.401	78.69
425.623	110.69
425.846	97.69
426.068	95.69
426.291	85.69
426.513	97.69
426.735	70.69
426.958	87.69
427.18	98.69
427.402	130.69
427.625	135.69
427.847	126.69
428.069	102.69
428.292	95.69
428.514	88.69
428.736	70.69
428.958	80.69
429.181	94.69
429.403	96.69
429.625	88.69
429.847	89.69
430.069	79.69
430.292	102.69
430.514	94.69
430.736	79.69
430.958	83.69
431.18	84.69
431.402	74.69
431.624	97.69
431.846	93.69
432.068	80.69
432.29	75.69
432.512	89.69
432.734	90.69
432.956	89.69
433.178	94.69
433.4	87.69
433.622	93.69
433.844	95.69
434.066	82.69
434.287	81.69
434.509	86.69
434.731	92.69
434.953	80.69
435.175	92.69
435.397	89.69
435.618	94.69
435.84	91.69
436.062	103.69
436.284	106.69
436.505	103.69
436.727	92.69
436.949	80.69
437.17	94.69
437.392	93.69
437.614	83.69
437.835	124.69
438.057	98.69
438.278	99.69
438.5	112.69
438.721	106.69
438.943	90.69
439.165	80.69
439.386	77.69
439.608	91.69
439.829	104.69
440.05	105.69
440.272	116.69
440.493	102.69
440.715	78.69
440.936	101.69
441.158	72.69
441.379	83.69
441.6	86.69
441.822	99.69
442.043	94.69
442.264	82.69
442.486	88.69
442.707	94.69
442.928	92.69
443.149	107.69
443.371	116.69
443.592	98.69
443.813	112.69
444.034	97.69
444.255	94.69
444.476	87.69
444.698	91.69
444.919	89.69
445.14	135.69
445.361	120.69
445.582	111.69
445.803	119.69
446.024	122.69
446.245	124.69
446.466	105.69
446.687	80.69
446.908	90.69
447.129	90.69
447.35	82.69
447.571	90.69
447.792	90.69
448.013	94.69
448.234	98.69
448.455	94.69
448.675	101.69
448.896	119.69
449.117	102.69
449.338	102.69
449.559	115.69
449.779	111.69
450	101.69
450.221	84.69
450.442	80.69
450.662	87.69
450.883	88.69
451.104	103.69
451.324	105.69
451.545	85.69
451.766	93.69
451.986	91.69
452.207	102.69
452.428	80.69
452.648	95.69
452.869	109.69
453.089	101.69
453.31	98.69
453.53	105.69
453.751	82.69
453.971	71.69
454.192	94.69
454.412	95.69
454.633	89.69
454.853	76.69
455.073	83.69
455.294	91.69
455.514	87.69
455.734	82.69
455.955	89.69
456.175	95.69
456.395	90.69
456.616	81.69
456.836	78.69
457.056	95.69
457.276	109.69
457.497	83.69
457.717	86.69
457.937	81.69
458.157	78.69
458.377	78.69
458.598	103.69
458.818	127.69
459.038	147.69
459.258	117.69
459.478	88.69
459.698	90.69
459.918	106.69
460.138	75.69
460.358	93.69
460.578	83.69
460.798	80.69
461.018	78.69
461.238	72.69
461.458	77.69
461.678	74.69
461.898	84.69
462.118	84.69
462.338	89.69
462.558	82.69
462.777	82.69
462.997	91.69
463.217	82.69
463.437	97.69
463.657	85.69
463.876	86.69
464.096	93.69
464.316	85.69
464.536	83.69
464.755	94.69
464.975	97.69
465.195	135.69
465.414	125.69
465.634	82.69
465.854	76.69
466.073	78.69
466.293	87.69
466.512	79.69
466.732	85.69
466.951	82.69
467.171	106.69
467.391	95.69
467.61	93.69
467.829	91.69
468.049	79.69
468.268	88.69
468.488	94.69
468.707	70.69
468.927	84.69
469.146	66.69
469.365	77.69
469.585	101.69
469.804	94.69
470.023	94.69
470.243	88.69
470.462	91.69
470.681	113.69
470.901	82.69
471.12	96.69
471.339	89.69
471.558	89.69
471.777	89.69
471.997	78.69
472.216	98.69
472.435	81.69
472.654	97.69
472.873	86.69
473.092	91.69
473.311	79.69
473.53	81.69
473.749	88.69
473.968	86.69
474.187	94.69
474.406	77.69
474.625	82.69
474.844	85.69
475.063	90.69
475.282	92.69
475.501	73.69
475.72	90.69
475.939	88.69
476.158	94.69
476.377	78.69
476.596	87.69
476.814	73.69
477.033	89.69
477.252	87.69
477.471	84.69
477.69	81.69
477.908	93.69
478.127	94.69
478.346	84.69
478.564	77.69
478.783	88.69
479.002	87.69
479.22	89.69
479.439	86.69
479.658	95.69
479.876	95.69
480.095	82.69
480.313	91.69
480.532	91.69
480.751	96.69
480.969	86.69
481.188	93.69
481.406	99.69
481.624	102.69
481.843	98.69
482.061	82.69
482.28	93.69
482.498	90.69
482.717	82.69
482.935	79.69
483.153	88.69
483.372	98.69
483.59	77.69
483.808	80.69
484.027	87.69
484.245	97.69
484.463	95.69
484.681	96.69
484.9	93.69
485.118	76.69
485.336	81.69
485.554	87.69
485.772	100.69
485.99	107.69
486.209	97.69
486.427	110.69
486.645	121.69
486.863	95.69
487.081	94.69
487.299	96.69
487.517	97.69
487.735	89.69
487.953	91.69
488.171	94.69
488.389	105.69
488.607	93.69
488.825	102.69
489.043	99.69
489.261	91.69
489.479	86.69
489.696	91.69
489.914	85.69
490.132	79.69
490.35	79.69
490.568	95.69
490.786	95.69
491.003	83.69
491.221	84.69
491.439	95.69
491.657	81.69
491.874	97.69
492.092	91.69
492.31	83.69
492.527	93.69
492.745	82.69
492.963	83.69
493.18	98.69
493.398	108.69
493.615	95.69
493.833	96.69
494.05	96.69
494.268	91.69
494.485	89.69
494.703	74.69
494.92	98.69
495.138	89.69
495.355	105.69
495.573	89.69
495.79	76.69
496.008	93.69
496.225	104.69
496.442	87.69
496.66	87.69
496.877	93.69
497.094	103.69
497.312	88.69
497.529	99.69
497.746	118.69
497.963	89.69
498.181	89.69
498.398	103.69
498.615	100.69
498.832	90.69
499.049	87.69
499.267	90.69
499.484	95.69
499.701	93.69
499.918	95.69
500.135	85.69
500.352	79.69
500.569	88.69
500.786	85.69
501.003	86.69
501.22	81.69
501.437	84.69
501.654	92.69
501.871	95.69
502.088	79.69
502.305	93.69
502.522	93.69
502.739	80.69
502.956	88.69
503.172	81.69
503.389	91.69
503.606	85.69
503.823	94.69
504.04	113.69
504.256	96.69
504.473	88.69
504.69	95.69
504.907	85.69
505.123	100.69
505.34	81.69
505.557	87.69
505.773	89.69
505.99	94.69
506.207	83.69
506.423	81.69
506.64	88.69
506.856	88.69
507.073	114.69
507.289	97.69
507.506	99.69
507.722	99.69
507.939	118.69
508.155	99.69
508.372	102.69
508.588	107.69
508.805	85.69
509.021	79.69
509.238	96.69
509.454	89.69
509.67	93.69
509.887	104.69
510.103	121.69
510.319	209.69
510.536	663.69
510.752	2067.69
510.968	600.69
511.184	150.69
511.401	117.69
511.617	81.69
511.833	89.69
512.049	90.69
512.265	99.69
512.481	90.69
512.698	90.69
512.914	86.69
513.13	83.69
513.346	97.69
513.562	100.69
513.778	102.69
513.994	95.69
514.21	93.69
514.426	111.69
514.642	139.69
514.858	125.69
515.074	152.69
515.29	398.69
515.506	1239.69
515.721	476.69
515.937	148.69
516.153	109.69
516.369	81.69
516.585	91.69
