Data from Uncirc_2008_H10_HRD10591_00033.txt Node
Date: Wed Jan 03 10:15:37 EST 2024
User: Yrep
Spectrometer: HR+D1059
Trigger mode: 1
Integration Time (sec): 1.000000E-1
Scans to average: 1
Electric dark correction enabled: true
Nonlinearity correction enabled: false
Boxcar width: 0
XAxis mode: Wavelengths
Number of Pixels in Spectrum: 2048
>>>>>Begin Spectral Data<<<<<
223.165	-21.81
223.4	-21.81
223.635	-21.81
223.869	-24.81
224.104	-18.81
224.338	-24.81
224.573	-7.81
224.808	-16.81
225.042	4.19
225.277	-1.81
225.511	9.19
225.746	0.19
225.98	0.19
226.215	16.19
226.449	19.19
226.683	26.19
226.918	13.19
227.152	28.19
227.387	33.19
227.621	47.19
227.856	46.19
228.09	46.19
228.324	39.19
228.559	64.19
228.793	48.19
229.027	46.19
229.262	66.19
229.496	65.19
229.73	76.19
229.964	77.19
230.199	73.19
230.433	67.19
230.667	78.19
230.901	87.19
231.136	72.19
231.37	81.19
231.604	80.19
231.838	77.19
232.072	78.19
232.306	85.19
232.541	82.19
232.775	72.19
233.009	74.19
233.243	76.19
233.477	77.19
233.711	77.19
233.945	71.19
234.179	68.19
234.413	96.19
234.647	74.19
234.881	88.19
235.115	74.19
235.349	72.19
235.583	88.19
235.817	79.19
236.051	89.19
236.285	75.19
236.519	81.19
236.753	73.19
236.987	82.19
237.221	79.19
237.455	87.19
237.689	80.19
237.922	90.19
238.156	75.19
238.39	76.19
238.624	77.19
238.858	65.19
239.091	76.19
239.325	73.19
239.559	66.19
239.793	64.19
240.027	70.19
240.26	77.19
240.494	65.19
240.728	87.19
240.961	77.19
241.195	69.19
241.429	73.19
241.662	74.19
241.896	68.19
242.13	72.19
242.363	80.19
242.597	73.19
242.83	70.19
243.064	64.19
243.298	73.19
243.531	81.19
243.765	65.19
243.998	82.19
244.232	81.19
244.465	78.19
244.699	68.19
244.932	73.19
245.166	60.19
245.399	72.19
245.633	65.19
245.866	85.19
246.099	93.19
246.333	90.19
246.566	78.19
246.8	88.19
247.033	68.19
247.266	71.19
247.5	76.19
247.733	61.19
247.966	80.19
248.2	80.19
248.433	72.19
248.666	72.19
248.899	81.19
249.133	88.19
249.366	93.19
249.599	92.19
249.832	76.19
250.066	67.19
250.299	85.19
250.532	72.19
250.765	80.19
250.998	89.19
251.231	76.19
251.465	89.19
251.698	77.19
251.931	83.19
252.164	82.19
252.397	87.19
252.63	72.19
252.863	68.19
253.096	73.19
253.329	72.19
253.562	92.19
253.795	79.19
254.028	73.19
254.261	79.19
254.494	82.19
254.727	94.19
254.96	77.19
255.193	84.19
255.426	74.19
255.659	73.19
255.892	82.19
256.124	67.19
256.357	83.19
256.59	87.19
256.823	72.19
257.056	57.19
257.289	69.19
257.521	83.19
257.754	86.19
257.987	77.19
258.22	85.19
258.452	77.19
258.685	75.19
258.918	81.19
259.151	71.19
259.383	94.19
259.616	94.19
259.849	84.19
260.081	78.19
260.314	87.19
260.547	76.19
260.779	78.19
261.012	58.19
261.244	77.19
261.477	72.19
261.71	83.19
261.942	93.19
262.175	110.19
262.407	93.19
262.64	76.19
262.872	91.19
263.105	87.19
263.337	84.19
263.57	83.19
263.802	90.19
264.035	88.19
264.267	70.19
264.499	73.19
264.732	82.19
264.964	76.19
265.197	90.19
265.429	74.19
265.661	80.19
265.894	88.19
266.126	95.19
266.358	92.19
266.591	84.19
266.823	87.19
267.055	85.19
267.287	79.19
267.52	75.19
267.752	94.19
267.984	80.19
268.216	86.19
268.448	92.19
268.681	90.19
268.913	86.19
269.145	93.19
269.377	64.19
269.609	72.19
269.841	71.19
270.073	95.19
270.306	77.19
270.538	75.19
270.77	84.19
271.002	86.19
271.234	76.19
271.466	97.19
271.698	79.19
271.93	77.19
272.162	76.19
272.394	89.19
272.626	87.19
272.858	87.19
273.09	80.19
273.322	80.19
273.553	88.19
273.785	84.19
274.017	89.19
274.249	86.19
274.481	80.19
274.713	87.19
274.945	91.19
275.176	83.19
275.408	77.19
275.64	76.19
275.872	79.19
276.104	95.19
276.335	87.19
276.567	100.19
276.799	96.19
277.031	92.19
277.262	90.19
277.494	90.19
277.726	81.19
277.957	87.19
278.189	71.19
278.421	69.19
278.652	83.19
278.884	79.19
279.115	83.19
279.347	81.19
279.579	79.19
279.81	78.19
280.042	68.19
280.273	88.19
280.505	84.19
280.736	72.19
280.968	73.19
281.199	62.19
281.431	88.19
281.662	75.19
281.894	99.19
282.125	101.19
282.356	120.19
282.588	143.19
282.819	110.19
283.051	90.19
283.282	90.19
283.513	71.19
283.745	77.19
283.976	88.19
284.207	84.19
284.439	80.19
284.67	70.19
284.901	77.19
285.132	72.19
285.364	89.19
285.595	88.19
285.826	80.19
286.057	85.19
286.288	80.19
286.52	92.19
286.751	92.19
286.982	81.19
287.213	90.19
287.444	94.19
287.675	89.19
287.906	87.19
288.138	104.19
288.369	97.19
288.6	101.19
288.831	85.19
289.062	93.19
289.293	78.19
289.524	95.19
289.755	62.19
289.986	82.19
290.217	80.19
290.448	90.19
290.679	91.19
290.91	94.19
291.141	90.19
291.371	100.19
291.602	94.19
291.833	86.19
292.064	95.19
292.295	81.19
292.526	92.19
292.757	88.19
292.987	86.19
293.218	81.19
293.449	85.19
293.68	92.19
293.91	76.19
294.141	84.19
294.372	81.19
294.603	95.19
294.833	92.19
295.064	93.19
295.295	86.19
295.525	82.19
295.756	93.19
295.987	109.19
296.217	128.19
296.448	102.19
296.679	98.19
296.909	89.19
297.14	94.19
297.37	82.19
297.601	90.19
297.831	92.19
298.062	95.19
298.292	92.19
298.523	74.19
298.753	83.19
298.984	86.19
299.214	85.19
299.445	68.19
299.675	100.19
299.905	87.19
300.136	98.19
300.366	92.19
300.597	90.19
300.827	77.19
301.057	84.19
301.288	97.19
301.518	90.19
301.748	86.19
301.979	92.19
302.209	103.19
302.439	81.19
302.669	92.19
302.9	82.19
303.13	81.19
303.36	91.19
303.59	86.19
303.82	90.19
304.051	82.19
304.281	94.19
304.511	96.19
304.741	86.19
304.971	84.19
305.201	86.19
305.431	73.19
305.661	89.19
305.891	84.19
306.121	104.19
306.352	107.19
306.582	95.19
306.812	80.19
307.042	80.19
307.272	89.19
307.502	86.19
307.731	87.19
307.961	84.19
308.191	92.19
308.421	103.19
308.651	94.19
308.881	86.19
309.111	78.19
309.341	101.19
309.571	84.19
309.8	90.19
310.03	91.19
310.26	85.19
310.49	95.19
310.72	91.19
310.949	102.19
311.179	84.19
311.409	100.19
311.639	97.19
311.868	95.19
312.098	90.19
312.328	92.19
312.557	100.19
312.787	112.19
313.017	85.19
313.246	95.19
313.476	88.19
313.706	89.19
313.935	97.19
314.165	91.19
314.394	112.19
314.624	89.19
314.853	86.19
315.083	91.19
315.312	80.19
315.542	85.19
315.771	74.19
316.001	102.19
316.23	97.19
316.46	88.19
316.689	77.19
316.919	82.19
317.148	85.19
317.377	99.19
317.607	99.19
317.836	94.19
318.065	96.19
318.295	87.19
318.524	75.19
318.753	84.19
318.983	84.19
319.212	117.19
319.441	89.19
319.67	104.19
319.9	92.19
320.129	97.19
320.358	101.19
320.587	97.19
320.816	83.19
321.046	97.19
321.275	99.19
321.504	94.19
321.733	96.19
321.962	89.19
322.191	104.19
322.42	96.19
322.649	112.19
322.878	109.19
323.108	95.19
323.337	117.19
323.566	129.19
323.795	140.19
324.024	197.19
324.253	377.19
324.482	786.19
324.71	1536.19
324.939	2066.19
325.168	773.19
325.397	217.19
325.626	133.19
325.855	115.19
326.084	112.19
326.313	130.19
326.542	151.19
326.77	203.19
326.999	439.19
327.228	904.19
327.457	1595.19
327.686	1242.19
327.914	330.19
328.143	180.19
328.372	130.19
328.6	113.19
328.829	112.19
329.058	130.19
329.287	117.19
329.515	103.19
329.744	86.19
329.972	95.19
330.201	98.19
330.43	102.19
330.658	97.19
330.887	129.19
331.115	127.19
331.344	116.19
331.572	97.19
331.801	100.19
332.03	93.19
332.258	95.19
332.486	85.19
332.715	75.19
332.943	80.19
333.172	101.19
333.4	91.19
333.629	99.19
333.857	113.19
334.085	113.19
334.314	77.19
334.542	99.19
334.771	90.19
334.999	96.19
335.227	85.19
335.455	104.19
335.684	95.19
335.912	89.19
336.14	90.19
336.369	105.19
336.597	90.19
336.825	93.19
337.053	91.19
337.281	87.19
337.51	94.19
337.738	91.19
337.966	91.19
338.194	107.19
338.422	98.19
338.65	87.19
338.878	108.19
339.106	86.19
339.334	94.19
339.562	88.19
339.79	94.19
340.018	99.19
340.246	92.19
340.474	92.19
340.702	98.19
340.93	81.19
341.158	89.19
341.386	102.19
341.614	110.19
341.842	89.19
342.07	96.19
342.298	91.19
342.526	84.19
342.754	87.19
342.981	91.19
343.209	87.19
343.437	85.19
343.665	86.19
343.893	93.19
344.12	97.19
344.348	86.19
344.576	91.19
344.804	88.19
345.031	104.19
345.259	100.19
345.487	81.19
345.714	100.19
345.942	93.19
346.17	91.19
346.397	90.19
346.625	77.19
346.853	84.19
347.08	90.19
347.308	104.19
347.535	95.19
347.763	103.19
347.99	103.19
348.218	94.19
348.445	93.19
348.673	103.19
348.9	93.19
349.128	101.19
349.355	101.19
349.583	98.19
349.81	103.19
350.037	89.19
350.265	76.19
350.492	97.19
350.72	95.19
350.947	98.19
351.174	102.19
351.402	111.19
351.629	107.19
351.856	102.19
352.083	89.19
352.311	104.19
352.538	93.19
352.765	107.19
352.992	120.19
353.22	111.19
353.447	112.19
353.674	98.19
353.901	80.19
354.128	95.19
354.355	89.19
354.583	100.19
354.81	80.19
355.037	101.19
355.264	105.19
355.491	85.19
355.718	93.19
355.945	101.19
356.172	90.19
356.399	106.19
356.626	97.19
356.853	94.19
357.08	82.19
357.307	91.19
357.534	94.19
357.761	96.19
357.988	90.19
358.215	94.19
358.441	109.19
358.668	81.19
358.895	90.19
359.122	109.19
359.349	78.19
359.576	90.19
359.802	97.19
360.029	117.19
360.256	102.19
360.483	98.19
360.709	98.19
360.936	105.19
361.163	92.19
361.39	95.19
361.616	98.19
361.843	94.19
362.07	95.19
362.296	76.19
362.523	82.19
362.749	84.19
362.976	82.19
363.203	76.19
363.429	85.19
363.656	86.19
363.882	81.19
364.109	92.19
364.335	92.19
364.562	94.19
364.788	81.19
365.015	106.19
365.241	107.19
365.468	99.19
365.694	88.19
365.92	76.19
366.147	89.19
366.373	89.19
366.599	80.19
366.826	84.19
367.052	84.19
367.278	88.19
367.505	95.19
367.731	89.19
367.957	81.19
368.184	92.19
368.41	100.19
368.636	109.19
368.862	124.19
369.089	112.19
369.315	109.19
369.541	96.19
369.767	81.19
369.993	89.19
370.219	79.19
370.445	90.19
370.672	85.19
370.898	75.19
371.124	92.19
371.35	90.19
371.576	96.19
371.802	78.19
372.028	85.19
372.254	88.19
372.48	89.19
372.706	84.19
372.932	90.19
373.158	104.19
373.384	81.19
373.61	94.19
373.835	75.19
374.061	97.19
374.287	95.19
374.513	91.19
374.739	98.19
374.965	89.19
375.191	90.19
375.416	91.19
375.642	88.19
375.868	97.19
376.094	91.19
376.319	74.19
376.545	94.19
376.771	88.19
376.997	95.19
377.222	82.19
377.448	88.19
377.674	92.19
377.899	89.19
378.125	93.19
378.35	89.19
378.576	90.19
378.802	95.19
379.027	85.19
379.253	84.19
379.478	84.19
379.704	83.19
379.929	82.19
380.155	97.19
380.38	89.19
380.606	93.19
380.831	100.19
381.057	97.19
381.282	84.19
381.507	95.19
381.733	108.19
381.958	102.19
382.184	102.19
382.409	107.19
382.634	109.19
382.86	100.19
383.085	88.19
383.31	96.19
383.535	93.19
383.761	96.19
383.986	85.19
384.211	95.19
384.436	103.19
384.662	96.19
384.887	92.19
385.112	118.19
385.337	96.19
385.562	94.19
385.787	103.19
386.013	117.19
386.238	125.19
386.463	124.19
386.688	121.19
386.913	108.19
387.138	112.19
387.363	113.19
387.588	114.19
387.813	98.19
388.038	100.19
388.263	115.19
388.488	110.19
388.713	100.19
388.938	80.19
389.163	84.19
389.387	89.19
389.612	82.19
389.837	98.19
390.062	94.19
390.287	88.19
390.512	96.19
390.736	93.19
390.961	85.19
391.186	90.19
391.411	90.19
391.636	95.19
391.86	78.19
392.085	83.19
392.31	86.19
392.534	80.19
392.759	81.19
392.984	87.19
393.208	88.19
393.433	99.19
393.658	85.19
393.882	92.19
394.107	88.19
394.331	85.19
394.556	82.19
394.78	85.19
395.005	82.19
395.229	78.19
395.454	88.19
395.678	79.19
395.903	93.19
396.127	92.19
396.352	102.19
396.576	86.19
396.801	76.19
397.025	92.19
397.249	78.19
397.474	90.19
397.698	94.19
397.922	86.19
398.147	81.19
398.371	82.19
398.595	88.19
398.82	65.19
399.044	88.19
399.268	89.19
399.492	82.19
399.717	82.19
399.941	87.19
400.165	96.19
400.389	88.19
400.613	87.19
400.837	92.19
401.062	81.19
401.286	81.19
401.51	87.19
401.734	78.19
401.958	97.19
402.182	112.19
402.406	152.19
402.63	114.19
402.854	87.19
403.078	87.19
403.302	90.19
403.526	94.19
403.75	95.19
403.974	76.19
404.198	89.19
404.422	86.19
404.645	90.19
404.869	80.19
405.093	88.19
405.317	92.19
405.541	93.19
405.765	94.19
405.988	101.19
406.212	139.19
406.436	173.19
406.66	141.19
406.883	102.19
407.107	82.19
407.331	104.19
407.555	100.19
407.778	102.19
408.002	107.19
408.226	93.19
408.449	94.19
408.673	84.19
408.896	103.19
409.12	98.19
409.344	85.19
409.567	81.19
409.791	79.19
410.014	89.19
410.238	86.19
410.461	105.19
410.685	80.19
410.908	97.19
411.132	104.19
411.355	106.19
411.578	90.19
411.802	91.19
412.025	81.19
412.249	82.19
412.472	73.19
412.695	77.19
412.919	89.19
413.142	79.19
413.365	106.19
413.589	91.19
413.812	81.19
414.035	90.19
414.258	100.19
414.482	92.19
414.705	88.19
414.928	97.19
415.151	95.19
415.374	84.19
415.597	94.19
415.821	100.19
416.044	92.19
416.267	81.19
416.49	73.19
416.713	104.19
416.936	86.19
417.159	90.19
417.382	86.19
417.605	91.19
417.828	87.19
418.051	82.19
418.274	83.19
418.497	88.19
418.72	87.19
418.943	85.19
419.166	79.19
419.389	87.19
419.611	78.19
419.834	88.19
420.057	85.19
420.28	88.19
420.503	85.19
420.726	96.19
420.948	84.19
421.171	100.19
421.394	89.19
421.617	92.19
421.839	87.19
422.062	78.19
422.285	75.19
422.507	95.19
422.73	101.19
422.953	85.19
423.175	98.19
423.398	98.19
423.621	96.19
423.843	87.19
424.066	89.19
424.288	74.19
424.511	88.19
424.733	84.19
424.956	98.19
425.178	96.19
425.401	89.19
425.623	90.19
425.846	89.19
426.068	88.19
426.291	81.19
426.513	89.19
426.735	99.19
426.958	81.19
427.18	99.19
427.402	124.19
427.625	129.19
427.847	121.19
428.069	93.19
428.292	85.19
428.514	91.19
428.736	93.19
428.958	73.19
429.181	75.19
429.403	93.19
429.625	86.19
429.847	98.19
430.069	96.19
430.292	90.19
430.514	75.19
430.736	86.19
430.958	102.19
431.18	81.19
431.402	79.19
431.624	88.19
431.846	67.19
432.068	86.19
432.29	96.19
432.512	82.19
432.734	94.19
432.956	93.19
433.178	102.19
433.4	87.19
433.622	93.19
433.844	88.19
434.066	101.19
434.287	97.19
434.509	85.19
434.731	81.19
434.953	79.19
435.175	86.19
435.397	88.19
435.618	92.19
435.84	89.19
436.062	96.19
436.284	105.19
436.505	96.19
436.727	88.19
436.949	83.19
437.17	100.19
437.392	73.19
437.614	99.19
437.835	102.19
438.057	100.19
438.278	110.19
438.5	97.19
438.721	122.19
438.943	105.19
439.165	82.19
439.386	86.19
439.608	97.19
439.829	94.19
440.05	116.19
440.272	122.19
440.493	95.19
440.715	89.19
440.936	73.19
441.158	76.19
441.379	98.19
441.6	91.19
441.822	82.19
442.043	111.19
442.264	99.19
442.486	95.19
442.707	89.19
442.928	84.19
443.149	109.19
443.371	119.19
443.592	115.19
443.813	110.19
444.034	102.19
444.255	95.19
444.476	90.19
444.698	83.19
444.919	84.19
445.14	117.19
445.361	125.19
445.582	87.19
445.803	126.19
446.024	122.19
446.245	113.19
446.466	98.19
446.687	91.19
446.908	92.19
447.129	87.19
447.35	98.19
447.571	89.19
447.792	90.19
448.013	92.19
448.234	94.19
448.455	102.19
448.675	96.19
448.896	105.19
449.117	91.19
449.338	97.19
449.559	123.19
449.779	110.19
450	94.19
450.221	86.19
450.442	97.19
450.662	95.19
450.883	103.19
451.104	97.19
451.324	90.19
451.545	89.19
451.766	90.19
451.986	70.19
452.207	90.19
452.428	94.19
452.648	86.19
452.869	106.19
453.089	99.19
453.31	104.19
453.53	95.19
453.751	93.19
453.971	104.19
454.192	111.19
454.412	86.19
454.633	85.19
454.853	77.19
455.073	77.19
455.294	91.19
455.514	96.19
455.734	87.19
455.955	88.19
456.175	89.19
456.395	87.19
456.616	89.19
456.836	74.19
457.056	89.19
457.276	81.19
457.497	82.19
457.717	78.19
457.937	97.19
458.157	90.19
458.377	82.19
458.598	92.19
458.818	125.19
459.038	141.19
459.258	102.19
459.478	76.19
459.698	85.19
459.918	80.19
460.138	79.19
460.358	79.19
460.578	72.19
460.798	95.19
461.018	90.19
461.238	87.19
461.458	90.19
461.678	72.19
461.898	76.19
462.118	96.19
462.338	80.19
462.558	88.19
462.777	77.19
462.997	79.19
463.217	79.19
463.437	78.19
463.657	86.19
463.876	89.19
464.096	82.19
464.316	85.19
464.536	96.19
464.755	76.19
464.975	100.19
465.195	154.19
465.414	163.19
465.634	99.19
465.854	87.19
466.073	98.19
466.293	76.19
466.512	79.19
466.732	76.19
466.951	79.19
467.171	87.19
467.391	75.19
467.61	89.19
467.829	86.19
468.049	93.19
468.268	91.19
468.488	89.19
468.707	88.19
468.927	96.19
469.146	87.19
469.365	86.19
469.585	85.19
469.804	97.19
470.023	95.19
470.243	69.19
470.462	84.19
470.681	94.19
470.901	79.19
471.12	91.19
471.339	90.19
471.558	92.19
471.777	82.19
471.997	87.19
472.216	89.19
472.435	97.19
472.654	79.19
472.873	101.19
473.092	68.19
473.311	75.19
473.53	81.19
473.749	71.19
473.968	88.19
474.187	94.19
474.406	81.19
474.625	76.19
474.844	77.19
475.063	71.19
475.282	78.19
475.501	81.19
475.72	89.19
475.939	71.19
476.158	85.19
476.377	89.19
476.596	86.19
476.814	80.19
477.033	88.19
477.252	70.19
477.471	80.19
477.69	92.19
477.908	94.19
478.127	95.19
478.346	87.19
478.564	97.19
478.783	82.19
479.002	92.19
479.22	91.19
479.439	88.19
479.658	94.19
479.876	92.19
480.095	76.19
480.313	87.19
480.532	91.19
480.751	85.19
480.969	80.19
481.188	86.19
481.406	79.19
481.624	90.19
481.843	73.19
482.061	68.19
482.28	80.19
482.498	90.19
482.717	78.19
482.935	66.19
483.153	94.19
483.372	80.19
483.59	69.19
483.808	76.19
484.027	94.19
484.245	93.19
484.463	81.19
484.681	100.19
484.9	101.19
485.118	104.19
485.336	88.19
485.554	93.19
485.772	91.19
485.99	108.19
486.209	115.19
486.427	105.19
486.645	112.19
486.863	109.19
487.081	92.19
487.299	92.19
487.517	88.19
487.735	92.19
487.953	95.19
488.171	94.19
488.389	80.19
488.607	98.19
488.825	92.19
489.043	103.19
489.261	85.19
489.479	90.19
489.696	101.19
489.914	85.19
490.132	86.19
490.35	93.19
490.568	77.19
490.786	88.19
491.003	89.19
491.221	84.19
491.439	70.19
491.657	101.19
491.874	88.19
492.092	94.19
492.31	80.19
492.527	93.19
492.745	75.19
492.963	88.19
493.18	96.19
493.398	85.19
493.615	95.19
493.833	92.19
494.05	93.19
494.268	85.19
494.485	81.19
494.703	91.19
494.92	90.19
495.138	87.19
495.355	97.19
495.573	91.19
495.79	96.19
496.008	94.19
496.225	88.19
496.442	94.19
496.66	81.19
496.877	95.19
497.094	96.19
497.312	81.19
497.529	93.19
497.746	94.19
497.963	87.19
498.181	87.19
498.398	101.19
498.615	111.19
498.832	99.19
499.049	96.19
499.267	81.19
499.484	89.19
499.701	72.19
499.918	93.19
500.135	97.19
500.352	70.19
500.569	79.19
500.786	93.19
501.003	82.19
501.22	77.19
501.437	79.19
501.654	94.19
501.871	87.19
502.088	87.19
502.305	85.19
502.522	88.19
502.739	82.19
502.956	80.19
503.172	80.19
503.389	95.19
503.606	100.19
503.823	101.19
504.04	99.19
504.256	101.19
504.473	78.19
504.69	94.19
504.907	102.19
505.123	92.19
505.34	76.19
505.557	93.19
505.773	82.19
505.99	85.19
506.207	73.19
506.423	89.19
506.64	99.19
506.856	95.19
507.073	83.19
507.289	88.19
507.506	98.19
507.722	89.19
507.939	129.19
508.155	107.19
508.372	84.19
508.588	77.19
508.805	101.19
509.021	94.19
509.238	92.19
509.454	104.19
509.67	95.19
509.887	108.19
510.103	124.19
510.319	199.19
510.536	718.19
510.752	2244.19
510.968	625.19
511.184	151.19
511.401	106.19
511.617	96.19
511.833	97.19
512.049	87.19
512.265	95.19
512.481	93.19
512.698	98.19
512.914	81.19
513.13	90.19
513.346	100.19
513.562	90.19
513.778	97.19
513.994	109.19
514.21	90.19
514.426	100.19
514.642	118.19
514.858	133.19
515.074	154.19
515.29	414.19
515.506	1374.19
515.721	491.19
515.937	136.19
516.153	110.19
516.369	89.19
516.585	96.19
516.801	92.19
