Data from Uncirc_2008_H10_HRD10591_00100.txt Node
Date: Wed Jan 03 10:15:50 EST 2024
User: Yrep
Spectrometer: HR+D1059
Trigger mode: 1
Integration Time (sec): 1.000000E-1
Scans to average: 1
Electric dark correction enabled: true
Nonlinearity correction enabled: false
Boxcar width: 0
XAxis mode: Wavelengths
Number of Pixels in Spectrum: 2048
>>>>>Begin Spectral Data<<<<<
223.165	-24
223.4	-24
223.635	-24
223.869	-18
224.104	-13
224.338	-5
224.573	-18
224.808	-5
225.042	-6
225.277	-6
225.511	-8
225.746	-3
225.98	8
226.215	18
226.449	11
226.683	21
226.918	19
227.152	29
227.387	39
227.621	27
227.856	29
228.09	42
228.324	49
228.559	53
228.793	67
229.027	60
229.262	56
229.496	65
229.73	86
229.964	72
230.199	73
230.433	87
230.667	64
230.901	79
231.136	71
231.37	95
231.604	78
231.838	79
232.072	73
232.306	79
232.541	89
232.775	77
233.009	71
233.243	85
233.477	91
233.711	85
233.945	69
234.179	77
234.413	88
234.647	79
234.881	78
235.115	62
235.349	76
235.583	64
235.817	70
236.051	77
236.285	79
236.519	78
236.753	64
236.987	76
237.221	105
237.455	76
237.689	86
237.922	74
238.156	85
238.39	77
238.624	78
238.858	77
239.091	73
239.325	70
239.559	67
239.793	74
240.027	61
240.26	75
240.494	71
240.728	68
240.961	78
241.195	86
241.429	67
241.662	79
241.896	84
242.13	83
242.363	81
242.597	67
242.83	78
243.064	78
243.298	81
243.531	57
243.765	67
243.998	73
244.232	83
244.465	73
244.699	78
244.932	77
245.166	81
245.399	101
245.633	73
245.866	80
246.099	67
246.333	71
246.566	83
246.8	81
247.033	76
247.266	76
247.5	73
247.733	87
247.966	82
248.2	70
248.433	79
248.666	77
248.899	91
249.133	66
249.366	84
249.599	100
249.832	83
250.066	85
250.299	78
250.532	87
250.765	80
250.998	72
251.231	84
251.465	87
251.698	66
251.931	73
252.164	76
252.397	80
252.63	84
252.863	84
253.096	78
253.329	83
253.562	76
253.795	79
254.028	80
254.261	89
254.494	92
254.727	91
254.96	88
255.193	89
255.426	86
255.659	73
255.892	82
256.124	93
256.357	77
256.59	84
256.823	78
257.056	76
257.289	86
257.521	79
257.754	83
257.987	75
258.22	94
258.452	68
258.685	81
258.918	77
259.151	82
259.383	83
259.616	78
259.849	87
260.081	87
260.314	83
260.547	69
260.779	74
261.012	74
261.244	84
261.477	89
261.71	79
261.942	98
262.175	94
262.407	84
262.64	88
262.872	75
263.105	89
263.337	90
263.57	77
263.802	90
264.035	75
264.267	85
264.499	93
264.732	80
264.964	87
265.197	78
265.429	77
265.661	80
265.894	78
266.126	83
266.358	71
266.591	83
266.823	78
267.055	72
267.287	87
267.52	85
267.752	89
267.984	94
268.216	90
268.448	81
268.681	99
268.913	74
269.145	89
269.377	82
269.609	80
269.841	87
270.073	84
270.306	76
270.538	90
270.77	77
271.002	78
271.234	79
271.466	79
271.698	70
271.93	75
272.162	95
272.394	87
272.626	78
272.858	82
273.09	80
273.322	93
273.553	71
273.785	75
274.017	81
274.249	89
274.481	84
274.713	87
274.945	84
275.176	75
275.408	88
275.64	83
275.872	71
276.104	90
276.335	83
276.567	94
276.799	95
277.031	91
277.262	90
277.494	86
277.726	84
277.957	97
278.189	89
278.421	73
278.652	79
278.884	74
279.115	67
279.347	85
279.579	84
279.81	80
280.042	77
280.273	80
280.505	90
280.736	83
280.968	75
281.199	90
281.431	101
281.662	83
281.894	93
282.125	98
282.356	103
282.588	126
282.819	113
283.051	87
283.282	77
283.513	91
283.745	94
283.976	70
284.207	92
284.439	86
284.67	99
284.901	78
285.132	89
285.364	89
285.595	72
285.826	94
286.057	85
286.288	79
286.52	64
286.751	79
286.982	74
287.213	86
287.444	81
287.675	79
287.906	79
288.138	105
288.369	90
288.6	92
288.831	91
289.062	85
289.293	64
289.524	81
289.755	92
289.986	91
290.217	81
290.448	88
290.679	79
290.91	89
291.141	84
291.371	83
291.602	89
291.833	75
292.064	88
292.295	84
292.526	86
292.757	88
292.987	94
293.218	104
293.449	81
293.68	85
293.91	67
294.141	84
294.372	92
294.603	80
294.833	82
295.064	75
295.295	92
295.525	92
295.756	98
295.987	105
296.217	126
296.448	110
296.679	106
296.909	93
297.14	89
297.37	80
297.601	97
297.831	92
298.062	95
298.292	68
298.523	105
298.753	90
298.984	76
299.214	73
299.445	84
299.675	98
299.905	94
300.136	98
300.366	93
300.597	72
300.827	88
301.057	89
301.288	103
301.518	86
301.748	93
301.979	101
302.209	80
302.439	98
302.669	88
302.9	82
303.13	75
303.36	85
303.59	98
303.82	101
304.051	95
304.281	75
304.511	100
304.741	91
304.971	92
305.201	92
305.431	81
305.661	88
305.891	85
306.121	78
306.352	104
306.582	104
306.812	93
307.042	98
307.272	87
307.502	85
307.731	86
307.961	96
308.191	83
308.421	97
308.651	92
308.881	81
309.111	88
309.341	89
309.571	71
309.8	86
310.03	103
310.26	86
310.49	97
310.72	92
310.949	98
311.179	81
311.409	85
311.639	106
311.868	83
312.098	104
312.328	104
312.557	118
312.787	87
313.017	82
313.246	80
313.476	104
313.706	94
313.935	89
314.165	100
314.394	89
314.624	94
314.853	100
315.083	106
315.312	101
315.542	99
315.771	103
316.001	80
316.23	83
316.46	91
316.689	89
316.919	97
317.148	89
317.377	98
317.607	88
317.836	100
318.065	87
318.295	87
318.524	98
318.753	93
318.983	88
319.212	83
319.441	89
319.67	88
319.9	88
320.129	94
320.358	83
320.587	96
320.816	104
321.046	88
321.275	103
321.504	102
321.733	101
321.962	83
322.191	103
322.42	99
322.649	103
322.878	116
323.108	115
323.337	105
323.566	118
323.795	167
324.024	201
324.253	358
324.482	758
324.71	1532
324.939	2017
325.168	751
325.397	225
325.626	143
325.855	113
326.084	115
326.313	128
326.542	155
326.77	216
326.999	441
327.228	874
327.457	1542
327.686	1233
327.914	353
328.143	189
328.372	135
328.6	133
328.829	103
329.058	128
329.287	118
329.515	118
329.744	102
329.972	95
330.201	89
330.43	101
330.658	102
330.887	118
331.115	105
331.344	89
331.572	116
331.801	99
332.03	95
332.258	103
332.486	98
332.715	93
332.943	95
333.172	89
333.4	114
333.629	100
333.857	98
334.085	106
334.314	97
334.542	84
334.771	84
334.999	81
335.227	99
335.455	101
335.684	103
335.912	110
336.14	96
336.369	97
336.597	99
336.825	108
337.053	104
337.281	87
337.51	84
337.738	87
337.966	101
338.194	107
338.422	87
338.65	90
338.878	98
339.106	94
339.334	78
339.562	91
339.79	98
340.018	94
340.246	88
340.474	77
340.702	81
340.93	89
341.158	91
341.386	83
341.614	94
341.842	88
342.07	92
342.298	95
342.526	91
342.754	79
342.981	90
343.209	86
343.437	94
343.665	77
343.893	94
344.12	88
344.348	87
344.576	78
344.804	83
345.031	81
345.259	92
345.487	90
345.714	88
345.942	98
346.17	101
346.397	98
346.625	85
346.853	90
347.08	87
347.308	91
347.535	106
347.763	98
347.99	84
348.218	78
348.445	91
348.673	94
348.9	94
349.128	89
349.355	98
349.583	97
349.81	93
350.037	90
350.265	97
350.492	91
350.72	99
350.947	100
351.174	109
351.402	102
351.629	93
351.856	96
352.083	97
352.311	104
352.538	95
352.765	103
352.992	114
353.22	121
353.447	104
353.674	102
353.901	93
354.128	96
354.355	102
354.583	102
354.81	109
355.037	94
355.264	82
355.491	83
355.718	82
355.945	80
356.172	86
356.399	110
356.626	90
356.853	98
357.08	86
357.307	91
357.534	80
357.761	98
357.988	91
358.215	101
358.441	97
358.668	101
358.895	106
359.122	95
359.349	96
359.576	105
359.802	111
360.029	100
360.256	103
360.483	97
360.709	74
360.936	103
361.163	83
361.39	97
361.616	94
361.843	84
362.07	101
362.296	81
362.523	108
362.749	84
362.976	81
363.203	84
363.429	94
363.656	92
363.882	90
364.109	75
364.335	77
364.562	73
364.788	66
365.015	80
365.241	88
365.468	90
365.694	110
365.92	92
366.147	98
366.373	97
366.599	76
366.826	76
367.052	87
367.278	88
367.505	88
367.731	99
367.957	99
368.184	94
368.41	95
368.636	94
368.862	102
369.089	117
369.315	80
369.541	88
369.767	101
369.993	90
370.219	82
370.445	77
370.672	91
370.898	83
371.124	89
371.35	83
371.576	85
371.802	76
372.028	89
372.254	80
372.48	83
372.706	80
372.932	84
373.158	81
373.384	89
373.61	82
373.835	96
374.061	76
374.287	91
374.513	81
374.739	89
374.965	92
375.191	96
375.416	88
375.642	75
375.868	92
376.094	82
376.319	91
376.545	77
376.771	79
376.997	91
377.222	85
377.448	99
377.674	92
377.899	101
378.125	100
378.35	96
378.576	79
378.802	88
379.027	92
379.253	83
379.478	82
379.704	103
379.929	90
380.155	99
380.38	98
380.606	95
380.831	88
381.057	112
381.282	87
381.507	87
381.733	95
381.958	80
382.184	85
382.409	102
382.634	92
382.86	112
383.085	103
383.31	101
383.535	103
383.761	91
383.986	92
384.211	85
384.436	92
384.662	96
384.887	96
385.112	97
385.337	91
385.562	87
385.787	99
386.013	104
386.238	104
386.463	107
386.688	112
386.913	122
387.138	95
387.363	102
387.588	93
387.813	106
388.038	107
388.263	105
388.488	97
388.713	87
388.938	102
389.163	109
389.387	97
389.612	98
389.837	96
390.062	95
390.287	90
390.512	97
390.736	101
390.961	87
391.186	102
391.411	82
391.636	87
391.86	89
392.085	86
392.31	82
392.534	84
392.759	83
392.984	90
393.208	82
393.433	101
393.658	69
393.882	100
394.107	77
394.331	86
394.556	78
394.78	98
395.005	87
395.229	89
395.454	94
395.678	77
395.903	81
396.127	93
396.352	90
396.576	87
396.801	97
397.025	80
397.249	81
397.474	96
397.698	87
397.922	84
398.147	96
398.371	78
398.595	89
398.82	87
399.044	105
399.268	97
399.492	88
399.717	96
399.941	98
400.165	103
400.389	80
400.613	87
400.837	76
401.062	80
401.286	74
401.51	71
401.734	92
401.958	99
402.182	131
402.406	156
402.63	107
402.854	97
403.078	81
403.302	91
403.526	88
403.75	76
403.974	89
404.198	103
404.422	89
404.645	80
404.869	83
405.093	99
405.317	83
405.541	82
405.765	106
405.988	139
406.212	150
406.436	205
406.66	125
406.883	105
407.107	91
407.331	95
407.555	107
407.778	90
408.002	93
408.226	96
408.449	96
408.673	93
408.896	92
409.12	97
409.344	85
409.567	96
409.791	101
410.014	95
410.238	87
410.461	93
410.685	105
410.908	97
411.132	95
411.355	90
411.578	97
411.802	83
412.025	97
412.249	88
412.472	73
412.695	89
412.919	74
413.142	71
413.365	79
413.589	83
413.812	88
414.035	96
414.258	97
414.482	101
414.705	74
414.928	93
415.151	89
415.374	82
415.597	82
415.821	85
416.044	92
416.267	78
416.49	90
416.713	83
416.936	90
417.159	65
417.382	99
417.605	78
417.828	84
418.051	95
418.274	92
418.497	88
418.72	78
418.943	81
419.166	89
419.389	83
419.611	90
419.834	91
420.057	81
420.28	72
420.503	81
420.726	85
420.948	92
421.171	98
421.394	85
421.617	93
421.839	98
422.062	82
422.285	93
422.507	93
422.73	108
422.953	94
423.175	99
423.398	95
423.621	86
423.843	91
424.066	94
424.288	87
424.511	81
424.733	87
424.956	93
425.178	101
425.401	97
425.623	98
425.846	93
426.068	89
426.291	103
426.513	99
426.735	89
426.958	91
427.18	96
427.402	144
427.625	139
427.847	114
428.069	95
428.292	97
428.514	93
428.736	101
428.958	84
429.181	83
429.403	91
429.625	90
429.847	85
430.069	88
430.292	85
430.514	78
430.736	76
430.958	85
431.18	74
431.402	90
431.624	88
431.846	74
432.068	89
432.29	79
432.512	88
432.734	88
432.956	86
433.178	99
433.4	96
433.622	86
433.844	83
434.066	83
434.287	85
434.509	83
434.731	108
434.953	91
435.175	91
435.397	94
435.618	86
435.84	91
436.062	118
436.284	115
436.505	84
436.727	93
436.949	84
437.17	77
437.392	87
437.614	97
437.835	109
438.057	111
438.278	122
438.5	99
438.721	113
438.943	95
439.165	86
439.386	83
439.608	102
439.829	100
440.05	108
440.272	128
440.493	91
440.715	99
440.936	98
441.158	82
441.379	78
441.6	75
441.822	83
442.043	85
442.264	99
442.486	99
442.707	83
442.928	85
443.149	121
443.371	122
443.592	110
443.813	98
444.034	89
444.255	82
444.476	82
444.698	81
444.919	76
445.14	131
445.361	111
445.582	118
445.803	123
446.024	125
446.245	134
446.466	96
446.687	101
446.908	93
447.129	94
447.35	90
447.571	92
447.792	107
448.013	108
448.234	93
448.455	112
448.675	104
448.896	100
449.117	84
449.338	97
449.559	123
449.779	135
450	95
450.221	82
450.442	89
450.662	87
450.883	99
451.104	121
451.324	98
451.545	85
451.766	85
451.986	82
452.207	85
452.428	102
452.648	89
452.869	102
453.089	117
453.31	99
453.53	83
453.751	82
453.971	106
454.192	99
454.412	92
454.633	95
454.853	81
455.073	79
455.294	94
455.514	93
455.734	73
455.955	89
456.175	92
456.395	88
456.616	87
456.836	85
457.056	83
457.276	97
457.497	79
457.717	77
457.937	95
458.157	82
458.377	70
458.598	103
458.818	141
459.038	145
459.258	117
459.478	83
459.698	83
459.918	83
460.138	87
460.358	92
460.578	87
460.798	97
461.018	94
461.238	97
461.458	84
461.678	87
461.898	95
462.118	88
462.338	84
462.558	81
462.777	72
462.997	87
463.217	79
463.437	83
463.657	85
463.876	91
464.096	94
464.316	95
464.536	81
464.755	87
464.975	95
465.195	148
465.414	144
465.634	94
465.854	87
466.073	93
466.293	95
466.512	79
466.732	97
466.951	86
467.171	90
467.391	97
467.61	95
467.829	85
468.049	91
468.268	95
468.488	78
468.707	72
468.927	87
469.146	81
469.365	91
469.585	90
469.804	89
470.023	87
470.243	101
470.462	97
470.681	112
470.901	94
471.12	82
471.339	86
471.558	95
471.777	85
471.997	85
472.216	90
472.435	83
472.654	69
472.873	83
473.092	68
473.311	89
473.53	95
473.749	86
473.968	97
474.187	100
474.406	94
474.625	94
474.844	88
475.063	82
475.282	88
475.501	80
475.72	75
475.939	82
476.158	77
476.377	76
476.596	90
476.814	90
477.033	93
477.252	90
477.471	88
477.69	90
477.908	90
478.127	90
478.346	83
478.564	87
478.783	94
479.002	94
479.22	97
479.439	104
479.658	107
479.876	100
480.095	91
480.313	80
480.532	87
480.751	93
480.969	87
481.188	85
481.406	88
481.624	89
481.843	80
482.061	87
482.28	88
482.498	94
482.717	81
482.935	93
483.153	88
483.372	87
483.59	77
483.808	77
484.027	85
484.245	77
484.463	97
484.681	99
484.9	94
485.118	85
485.336	81
485.554	90
485.772	93
485.99	99
486.209	113
486.427	103
486.645	105
486.863	113
487.081	95
487.299	85
487.517	88
487.735	97
487.953	88
488.171	86
488.389	78
488.607	90
488.825	78
489.043	89
489.261	96
489.479	62
489.696	78
489.914	87
490.132	95
490.35	89
490.568	86
490.786	91
491.003	108
491.221	100
491.439	97
491.657	85
491.874	86
492.092	99
492.31	76
492.527	91
492.745	95
492.963	87
493.18	79
493.398	74
493.615	91
493.833	95
494.05	111
494.268	89
494.485	95
494.703	86
494.92	89
495.138	90
495.355	111
495.573	105
495.79	89
496.008	92
496.225	96
496.442	88
496.66	99
496.877	85
497.094	91
497.312	99
497.529	90
497.746	79
497.963	95
498.181	96
498.398	90
498.615	105
498.832	126
499.049	81
499.267	110
499.484	76
499.701	81
499.918	82
500.135	99
500.352	94
500.569	87
500.786	93
501.003	82
501.22	90
501.437	93
501.654	99
501.871	96
502.088	93
502.305	85
502.522	106
502.739	95
502.956	101
503.172	105
503.389	89
503.606	107
503.823	101
504.04	82
504.256	84
504.473	88
504.69	91
504.907	98
505.123	85
505.34	92
505.557	77
505.773	84
505.99	88
506.207	87
506.423	91
506.64	82
506.856	75
507.073	79
507.289	82
507.506	81
507.722	99
507.939	113
508.155	103
508.372	96
508.588	87
508.805	87
509.021	99
509.238	86
509.454	105
509.67	108
509.887	104
510.103	121
510.319	213
510.536	738
510.752	2238
510.968	677
511.184	174
511.401	123
511.617	107
511.833	85
512.049	90
512.265	96
512.481	98
512.698	95
512.914	93
513.13	91
513.346	85
513.562	104
513.778	95
513.994	97
514.21	103
514.426	107
514.642	125
514.858	137
515.074	169
515.29	413
515.506	1343
515.721	523
515.937	149
516.153	106
516.369	96
516.585	96
516.801	91
517.016	93
517.232	83
517.448	94
517.664	106
517.879	99
518.095	77
518.311	90
518.527	82
518.742	100
518.958	89
519.173	87
519.389	105
519.605	89
519.82	96
520.036	95
520.251	104
520.467	104
520.682	102
520.898	110
521.113	109
521.329	133
521.544	183
521.76	512
521.975	2229
522.19	1348
522.406	301
522.621	124
522.836	92
523.052	75
523.267	101
523.482	79
523.698	110
523.913	111
524.128	117
524.343	79
524.559	81
524.774	95
524.989	95
525.204	109
525.419	98
525.634	85
525.849	92
526.064	106
526.28	80
526.495	94
526.71	89
526.925	94
527.14	84
527.355	88
527.57	98
527.785	75
527.999	80
528.214	89
528.429	90
528.644	108
528.859	90
529.074	102
529.289	121
529.503	151
529.718	102
529.933	85
530.148	72
530.363	100
530.577	81
530.792	99
531.007	89
531.221	93
531.436	89
531.651	89
531.865	87
532.08	86
532.295	83
532.509	84
532.724	86
532.938	95
533.153	93
533.367	94
533.582	96
533.796	94
534.011	96
534.225	83
534.44	97
534.654	76
534.868	86
535.083	76
535.297	104
535.511	99
535.726	103
535.94	95
536.154	89
536.369	100
536.583	89
536.797	113
537.011	86
537.225	82
537.44	96
537.654	93
537.868	90
538.082	95
538.296	82
538.51	105
538.724	85
538.938	97
539.153	102
539.367	104
539.581	101
539.795	94
540.009	83
540.222	93
540.436	93
540.65	82
540.864	79
541.078	94
541.292	99
541.506	79
541.72	103
541.934	91
542.147	98
542.361	85
542.575	91
542.789	94
543.002	88
543.216	95
543.43	91
543.644	103
543.857	88
544.071	83
544.285	94
544.498	93
544.712	77
544.925	88
545.139	98
545.352	96
545.566	78
545.779	83
545.993	70
546.206	92
546.42	83
546.633	81
546.847	92
547.06	91
547.274	84
547.487	88
547.7	77
547.914	84
548.127	73
548.34	89
548.554	86
548.767	92
548.98	91
549.193	105
549.407	81
549.62	93
549.833	90
550.046	74
550.259	90
550.473	90
550.686	82
550.899	91
551.112	85
551.325	72
551.538	78
551.751	82
551.964	83
552.177	89
552.39	94
552.603	86
552.816	81
553.029	87
553.242	88
553.455	89
553.667	109
553.88	82
554.093	91
554.306	105
554.519	88
554.732	88
554.944	90
555.157	98
555.37	90
555.583	99
555.795	98
556.008	91
556.221	82
556.433	93
556.646	86
556.859	94
557.071	96
557.284	87
557.496	80
557.709	83
557.921	96
558.134	93
558.346	94
558.559	90
558.771	96
558.984	85
559.196	76
559.409	91
559.621	80
559.833	85
560.046	105
560.258	84
560.47	91
560.683	96
560.895	82
561.107	86
561.32	87
561.532	81
561.744	88
561.956	80
562.168	83
562.381	94
562.593	97
562.805	90
563.017	86
563.229	95
563.441	81
563.653	81
563.865	78
564.077	85
564.289	79
564.501	96
564.713	93
564.925	99
565.137	89
565.349	87
565.561	104
565.773	103
565.985	92
566.197	88
566.408	91
566.62	79
566.832	77
567.044	78
567.255	81
567.467	94
567.679	92
567.891	91
568.102	89
568.314	81
568.526	90
568.737	106
568.949	81
569.161	90
569.372	77
569.584	83
569.795	102
570.007	119
570.218	214
570.43	131
570.641	97
570.853	83
571.064	92
571.276	82
571.487	84
571.698	98
571.91	83
572.121	93
572.333	92
572.544	71
572.755	80
572.966	93
573.178	84
573.389	91
573.6	99
573.811	81
574.023	91
574.234	83
574.445	86
574.656	81
574.867	87
575.078	76
575.289	101
575.501	101
575.712	93
575.923	88
576.134	81
576.345	77
576.556	104
576.767	86
576.978	92
577.188	77
577.399	79
577.61	91
577.821	93
578.032	87
578.243	272
578.454	773
578.665	208
578.875	105
579.086	99
579.297	77
579.508	91
579.718	80
579.929	74
580.14	74
580.35	87
580.561	84
580.772	87
580.982	85
581.193	80
581.403	79
581.614	78
581.825	86
582.035	90
582.246	94
582.456	89
582.667	82
582.877	73
583.087	73
583.298	88
583.508	99
583.719	78
583.929	87
584.139	80
584.35	96
584.56	93
584.77	74
584.981	95
585.191	91
585.401	85
585.611	89
