Data from Uncirc_2008_H10_HRD10591_00068.txt Node
Date: Wed Jan 03 10:15:44 EST 2024
User: Yrep
Spectrometer: HR+D1059
Trigger mode: 1
Integration Time (sec): 1.000000E-1
Scans to average: 1
Electric dark correction enabled: true
Nonlinearity correction enabled: false
Boxcar width: 0
XAxis mode: Wavelengths
Number of Pixels in Spectrum: 2048
>>>>>Begin Spectral Data<<<<<
223.165	-12.56
223.4	-12.56
223.635	-12.56
223.869	-16.56
224.104	-19.56
224.338	-23.56
224.573	-0.56
224.808	-20.56
225.042	-22.56
225.277	-0.56
225.511	-4.56
225.746	5.44
225.98	22.44
226.215	13.44
226.449	4.44
226.683	20.44
226.918	14.44
227.152	40.44
227.387	35.44
227.621	36.44
227.856	46.44
228.09	52.44
228.324	54.44
228.559	53.44
228.793	60.44
229.027	53.44
229.262	54.44
229.496	61.44
229.73	77.44
229.964	86.44
230.199	65.44
230.433	76.44
230.667	64.44
230.901	63.44
231.136	85.44
231.37	77.44
231.604	78.44
231.838	82.44
232.072	77.44
232.306	79.44
232.541	80.44
232.775	71.44
233.009	58.44
233.243	66.44
233.477	80.44
233.711	75.44
233.945	76.44
234.179	79.44
234.413	82.44
234.647	60.44
234.881	75.44
235.115	86.44
235.349	73.44
235.583	79.44
235.817	76.44
236.051	77.44
236.285	80.44
236.519	83.44
236.753	66.44
236.987	97.44
237.221	83.44
237.455	86.44
237.689	63.44
237.922	63.44
238.156	66.44
238.39	78.44
238.624	58.44
238.858	76.44
239.091	79.44
239.325	67.44
239.559	61.44
239.793	67.44
240.027	88.44
240.26	73.44
240.494	68.44
240.728	65.44
240.961	79.44
241.195	78.44
241.429	67.44
241.662	84.44
241.896	62.44
242.13	69.44
242.363	72.44
242.597	70.44
242.83	68.44
243.064	80.44
243.298	78.44
243.531	84.44
243.765	77.44
243.998	83.44
244.232	62.44
244.465	90.44
244.699	61.44
244.932	84.44
245.166	63.44
245.399	76.44
245.633	73.44
245.866	99.44
246.099	68.44
246.333	71.44
246.566	69.44
246.8	67.44
247.033	77.44
247.266	74.44
247.5	91.44
247.733	70.44
247.966	78.44
248.2	82.44
248.433	68.44
248.666	54.44
248.899	91.44
249.133	88.44
249.366	88.44
249.599	92.44
249.832	80.44
250.066	79.44
250.299	75.44
250.532	81.44
250.765	75.44
250.998	77.44
251.231	80.44
251.465	91.44
251.698	61.44
251.931	71.44
252.164	77.44
252.397	72.44
252.63	76.44
252.863	73.44
253.096	83.44
253.329	70.44
253.562	77.44
253.795	77.44
254.028	75.44
254.261	59.44
254.494	88.44
254.727	90.44
254.96	80.44
255.193	76.44
255.426	74.44
255.659	79.44
255.892	84.44
256.124	78.44
256.357	76.44
256.59	80.44
256.823	72.44
257.056	77.44
257.289	87.44
257.521	80.44
257.754	84.44
257.987	71.44
258.22	86.44
258.452	71.44
258.685	75.44
258.918	83.44
259.151	81.44
259.383	86.44
259.616	62.44
259.849	78.44
260.081	75.44
260.314	71.44
260.547	67.44
260.779	70.44
261.012	84.44
261.244	87.44
261.477	83.44
261.71	75.44
261.942	107.44
262.175	107.44
262.407	96.44
262.64	70.44
262.872	87.44
263.105	88.44
263.337	91.44
263.57	85.44
263.802	71.44
264.035	78.44
264.267	70.44
264.499	87.44
264.732	86.44
264.964	84.44
265.197	93.44
265.429	76.44
265.661	76.44
265.894	77.44
266.126	65.44
266.358	61.44
266.591	76.44
266.823	66.44
267.055	72.44
267.287	72.44
267.52	87.44
267.752	107.44
267.984	85.44
268.216	69.44
268.448	80.44
268.681	76.44
268.913	87.44
269.145	86.44
269.377	89.44
269.609	88.44
269.841	74.44
270.073	76.44
270.306	80.44
270.538	69.44
270.77	79.44
271.002	78.44
271.234	95.44
271.466	94.44
271.698	75.44
271.93	78.44
272.162	76.44
272.394	94.44
272.626	74.44
272.858	93.44
273.09	80.44
273.322	95.44
273.553	85.44
273.785	80.44
274.017	70.44
274.249	87.44
274.481	95.44
274.713	66.44
274.945	74.44
275.176	85.44
275.408	79.44
275.64	82.44
275.872	82.44
276.104	76.44
276.335	84.44
276.567	76.44
276.799	100.44
277.031	78.44
277.262	70.44
277.494	78.44
277.726	92.44
277.957	91.44
278.189	78.44
278.421	73.44
278.652	78.44
278.884	71.44
279.115	69.44
279.347	72.44
279.579	83.44
279.81	91.44
280.042	83.44
280.273	63.44
280.505	80.44
280.736	85.44
280.968	84.44
281.199	73.44
281.431	92.44
281.662	69.44
281.894	99.44
282.125	89.44
282.356	107.44
282.588	138.44
282.819	107.44
283.051	93.44
283.282	96.44
283.513	82.44
283.745	75.44
283.976	87.44
284.207	89.44
284.439	91.44
284.67	74.44
284.901	93.44
285.132	85.44
285.364	84.44
285.595	93.44
285.826	68.44
286.057	67.44
286.288	83.44
286.52	80.44
286.751	82.44
286.982	77.44
287.213	80.44
287.444	83.44
287.675	81.44
287.906	85.44
288.138	82.44
288.369	88.44
288.6	95.44
288.831	84.44
289.062	97.44
289.293	87.44
289.524	80.44
289.755	77.44
289.986	91.44
290.217	79.44
290.448	84.44
290.679	94.44
290.91	80.44
291.141	77.44
291.371	80.44
291.602	94.44
291.833	85.44
292.064	82.44
292.295	82.44
292.526	90.44
292.757	85.44
292.987	91.44
293.218	98.44
293.449	83.44
293.68	85.44
293.91	79.44
294.141	83.44
294.372	91.44
294.603	82.44
294.833	99.44
295.064	86.44
295.295	84.44
295.525	92.44
295.756	80.44
295.987	94.44
296.217	128.44
296.448	107.44
296.679	82.44
296.909	84.44
297.14	78.44
297.37	94.44
297.601	72.44
297.831	80.44
298.062	90.44
298.292	95.44
298.523	103.44
298.753	90.44
298.984	91.44
299.214	77.44
299.445	94.44
299.675	100.44
299.905	96.44
300.136	93.44
300.366	82.44
300.597	83.44
300.827	80.44
301.057	83.44
301.288	88.44
301.518	95.44
301.748	84.44
301.979	83.44
302.209	80.44
302.439	78.44
302.669	89.44
302.9	84.44
303.13	94.44
303.36	80.44
303.59	104.44
303.82	75.44
304.051	80.44
304.281	88.44
304.511	88.44
304.741	83.44
304.971	72.44
305.201	89.44
305.431	88.44
305.661	95.44
305.891	96.44
306.121	86.44
306.352	84.44
306.582	87.44
306.812	90.44
307.042	85.44
307.272	84.44
307.502	78.44
307.731	80.44
307.961	84.44
308.191	88.44
308.421	86.44
308.651	82.44
308.881	81.44
309.111	82.44
309.341	85.44
309.571	93.44
309.8	101.44
310.03	92.44
310.26	99.44
310.49	83.44
310.72	94.44
310.949	87.44
311.179	84.44
311.409	87.44
311.639	95.44
311.868	97.44
312.098	89.44
312.328	97.44
312.557	93.44
312.787	83.44
313.017	93.44
313.246	90.44
313.476	81.44
313.706	90.44
313.935	85.44
314.165	92.44
314.394	80.44
314.624	103.44
314.853	107.44
315.083	85.44
315.312	92.44
315.542	84.44
315.771	98.44
316.001	87.44
316.23	72.44
316.46	87.44
316.689	86.44
316.919	100.44
317.148	98.44
317.377	93.44
317.607	89.44
317.836	87.44
318.065	95.44
318.295	73.44
318.524	84.44
318.753	81.44
318.983	85.44
319.212	91.44
319.441	101.44
319.67	103.44
319.9	90.44
320.129	84.44
320.358	69.44
320.587	93.44
320.816	90.44
321.046	104.44
321.275	104.44
321.504	91.44
321.733	88.44
321.962	95.44
322.191	87.44
322.42	105.44
322.649	101.44
322.878	109.44
323.108	117.44
323.337	119.44
323.566	119.44
323.795	138.44
324.024	187.44
324.253	392.44
324.482	778.44
324.71	1594.44
324.939	2069.44
325.168	784.44
325.397	217.44
325.626	136.44
325.855	134.44
326.084	129.44
326.313	140.44
326.542	148.44
326.77	232.44
326.999	453.44
327.228	908.44
327.457	1639.44
327.686	1270.44
327.914	356.44
328.143	169.44
328.372	138.44
328.6	109.44
328.829	110.44
329.058	117.44
329.287	132.44
329.515	98.44
329.744	100.44
329.972	101.44
330.201	87.44
330.43	90.44
330.658	106.44
330.887	133.44
331.115	119.44
331.344	107.44
331.572	83.44
331.801	83.44
332.03	75.44
332.258	92.44
332.486	78.44
332.715	95.44
332.943	90.44
333.172	81.44
333.4	93.44
333.629	103.44
333.857	107.44
334.085	100.44
334.314	87.44
334.542	88.44
334.771	99.44
334.999	83.44
335.227	101.44
335.455	92.44
335.684	85.44
335.912	83.44
336.14	97.44
336.369	89.44
336.597	79.44
336.825	96.44
337.053	90.44
337.281	92.44
337.51	85.44
337.738	87.44
337.966	80.44
338.194	92.44
338.422	105.44
338.65	82.44
338.878	94.44
339.106	84.44
339.334	92.44
339.562	90.44
339.79	86.44
340.018	93.44
340.246	74.44
340.474	80.44
340.702	88.44
340.93	93.44
341.158	83.44
341.386	91.44
341.614	93.44
341.842	96.44
342.07	89.44
342.298	87.44
342.526	94.44
342.754	89.44
342.981	95.44
343.209	85.44
343.437	82.44
343.665	93.44
343.893	102.44
344.12	98.44
344.348	88.44
344.576	86.44
344.804	77.44
345.031	91.44
345.259	99.44
345.487	86.44
345.714	88.44
345.942	72.44
346.17	84.44
346.397	94.44
346.625	86.44
346.853	88.44
347.08	77.44
347.308	80.44
347.535	87.44
347.763	106.44
347.99	101.44
348.218	98.44
348.445	93.44
348.673	76.44
348.9	80.44
349.128	91.44
349.355	93.44
349.583	75.44
349.81	93.44
350.037	98.44
350.265	94.44
350.492	91.44
350.72	86.44
350.947	84.44
351.174	92.44
351.402	99.44
351.629	88.44
351.856	87.44
352.083	107.44
352.311	99.44
352.538	95.44
352.765	103.44
352.992	97.44
353.22	104.44
353.447	107.44
353.674	95.44
353.901	88.44
354.128	80.44
354.355	96.44
354.583	78.44
354.81	88.44
355.037	87.44
355.264	77.44
355.491	90.44
355.718	89.44
355.945	100.44
356.172	86.44
356.399	93.44
356.626	82.44
356.853	92.44
357.08	97.44
357.307	96.44
357.534	92.44
357.761	103.44
357.988	84.44
358.215	91.44
358.441	87.44
358.668	82.44
358.895	70.44
359.122	81.44
359.349	92.44
359.576	83.44
359.802	101.44
360.029	106.44
360.256	102.44
360.483	95.44
360.709	80.44
360.936	85.44
361.163	99.44
361.39	88.44
361.616	88.44
361.843	81.44
362.07	95.44
362.296	88.44
362.523	86.44
362.749	99.44
362.976	94.44
363.203	89.44
363.429	76.44
363.656	100.44
363.882	88.44
364.109	88.44
364.335	94.44
364.562	97.44
364.788	75.44
365.015	90.44
365.241	79.44
365.468	107.44
365.694	104.44
365.92	90.44
366.147	82.44
366.373	92.44
366.599	92.44
366.826	100.44
367.052	86.44
367.278	71.44
367.505	81.44
367.731	92.44
367.957	84.44
368.184	86.44
368.41	94.44
368.636	115.44
368.862	102.44
369.089	96.44
369.315	87.44
369.541	88.44
369.767	80.44
369.993	88.44
370.219	89.44
370.445	99.44
370.672	87.44
370.898	76.44
371.124	82.44
371.35	88.44
371.576	81.44
371.802	79.44
372.028	86.44
372.254	88.44
372.48	89.44
372.706	90.44
372.932	79.44
373.158	106.44
373.384	86.44
373.61	92.44
373.835	78.44
374.061	102.44
374.287	94.44
374.513	91.44
374.739	84.44
374.965	78.44
375.191	80.44
375.416	88.44
375.642	79.44
375.868	83.44
376.094	85.44
376.319	81.44
376.545	89.44
376.771	85.44
376.997	79.44
377.222	87.44
377.448	88.44
377.674	79.44
377.899	89.44
378.125	87.44
378.35	99.44
378.576	94.44
378.802	88.44
379.027	83.44
379.253	85.44
379.478	70.44
379.704	91.44
379.929	91.44
380.155	100.44
380.38	94.44
380.606	100.44
380.831	102.44
381.057	86.44
381.282	86.44
381.507	91.44
381.733	98.44
381.958	106.44
382.184	88.44
382.409	97.44
382.634	86.44
382.86	105.44
383.085	85.44
383.31	91.44
383.535	99.44
383.761	102.44
383.986	91.44
384.211	97.44
384.436	86.44
384.662	83.44
384.887	107.44
385.112	96.44
385.337	102.44
385.562	100.44
385.787	87.44
386.013	91.44
386.238	106.44
386.463	121.44
386.688	103.44
386.913	92.44
387.138	83.44
387.363	82.44
387.588	108.44
387.813	103.44
388.038	86.44
388.263	117.44
388.488	96.44
388.713	90.44
388.938	92.44
389.163	90.44
389.387	89.44
389.612	92.44
389.837	93.44
390.062	100.44
390.287	88.44
390.512	84.44
390.736	86.44
390.961	87.44
391.186	94.44
391.411	98.44
391.636	103.44
391.86	85.44
392.085	90.44
392.31	90.44
392.534	85.44
392.759	76.44
392.984	94.44
393.208	69.44
393.433	79.44
393.658	83.44
393.882	78.44
394.107	75.44
394.331	84.44
394.556	85.44
394.78	91.44
395.005	99.44
395.229	82.44
395.454	89.44
395.678	71.44
395.903	85.44
396.127	83.44
396.352	77.44
396.576	90.44
396.801	80.44
397.025	89.44
397.249	89.44
397.474	94.44
397.698	100.44
397.922	90.44
398.147	90.44
398.371	71.44
398.595	92.44
398.82	83.44
399.044	82.44
399.268	88.44
399.492	92.44
399.717	92.44
399.941	92.44
400.165	93.44
400.389	82.44
400.613	76.44
400.837	79.44
401.062	86.44
401.286	95.44
401.51	91.44
401.734	83.44
401.958	87.44
402.182	116.44
402.406	145.44
402.63	103.44
402.854	91.44
403.078	90.44
403.302	94.44
403.526	74.44
403.75	99.44
403.974	87.44
404.198	80.44
404.422	85.44
404.645	86.44
404.869	87.44
405.093	87.44
405.317	84.44
405.541	91.44
405.765	102.44
405.988	103.44
406.212	165.44
406.436	196.44
406.66	134.44
406.883	115.44
407.107	90.44
407.331	90.44
407.555	92.44
407.778	97.44
408.002	74.44
408.226	91.44
408.449	73.44
408.673	91.44
408.896	99.44
409.12	99.44
409.344	83.44
409.567	81.44
409.791	81.44
410.014	91.44
410.238	93.44
410.461	91.44
410.685	104.44
410.908	107.44
411.132	103.44
411.355	93.44
411.578	93.44
411.802	77.44
412.025	85.44
412.249	90.44
412.472	76.44
412.695	70.44
412.919	77.44
413.142	95.44
413.365	80.44
413.589	78.44
413.812	79.44
414.035	97.44
414.258	90.44
414.482	88.44
414.705	91.44
414.928	92.44
415.151	103.44
415.374	65.44
415.597	72.44
415.821	78.44
416.044	94.44
416.267	89.44
416.49	84.44
416.713	84.44
416.936	87.44
417.159	89.44
417.382	102.44
417.605	79.44
417.828	90.44
418.051	93.44
418.274	87.44
418.497	85.44
418.72	89.44
418.943	72.44
419.166	77.44
419.389	87.44
419.611	89.44
419.834	76.44
420.057	83.44
420.28	77.44
420.503	94.44
420.726	79.44
420.948	82.44
421.171	92.44
421.394	98.44
421.617	72.44
421.839	84.44
422.062	87.44
422.285	94.44
422.507	77.44
422.73	95.44
422.953	97.44
423.175	88.44
423.398	88.44
423.621	83.44
423.843	81.44
424.066	75.44
424.288	71.44
424.511	92.44
424.733	95.44
424.956	90.44
425.178	81.44
425.401	79.44
425.623	96.44
425.846	83.44
426.068	102.44
426.291	78.44
426.513	92.44
426.735	82.44
426.958	79.44
427.18	90.44
427.402	124.44
427.625	152.44
427.847	120.44
428.069	97.44
428.292	86.44
428.514	74.44
428.736	73.44
428.958	77.44
429.181	92.44
429.403	81.44
429.625	73.44
429.847	83.44
430.069	94.44
430.292	98.44
430.514	78.44
430.736	86.44
430.958	90.44
431.18	83.44
431.402	75.44
431.624	79.44
431.846	79.44
432.068	87.44
432.29	85.44
432.512	86.44
432.734	76.44
432.956	86.44
433.178	80.44
433.4	86.44
433.622	79.44
433.844	93.44
434.066	86.44
434.287	91.44
434.509	89.44
434.731	82.44
434.953	79.44
435.175	84.44
435.397	85.44
435.618	97.44
435.84	111.44
436.062	114.44
436.284	106.44
436.505	105.44
436.727	86.44
436.949	90.44
437.17	76.44
437.392	84.44
437.614	85.44
437.835	108.44
438.057	105.44
438.278	102.44
438.5	104.44
438.721	102.44
438.943	92.44
439.165	93.44
439.386	84.44
439.608	92.44
439.829	91.44
440.05	115.44
440.272	134.44
440.493	107.44
440.715	79.44
440.936	80.44
441.158	97.44
441.379	74.44
441.6	89.44
441.822	88.44
442.043	90.44
442.264	108.44
442.486	88.44
442.707	95.44
442.928	108.44
443.149	119.44
443.371	122.44
443.592	114.44
443.813	110.44
444.034	91.44
444.255	98.44
444.476	84.44
444.698	85.44
444.919	93.44
445.14	120.44
445.361	120.44
445.582	107.44
445.803	122.44
446.024	131.44
446.245	128.44
446.466	114.44
446.687	94.44
446.908	98.44
447.129	72.44
447.35	85.44
447.571	83.44
447.792	86.44
448.013	93.44
448.234	97.44
448.455	98.44
448.675	98.44
448.896	116.44
449.117	84.44
449.338	95.44
449.559	130.44
449.779	122.44
450	105.44
450.221	71.44
450.442	79.44
450.662	80.44
450.883	91.44
451.104	108.44
451.324	98.44
451.545	76.44
451.766	77.44
451.986	88.44
452.207	69.44
452.428	76.44
452.648	97.44
452.869	104.44
453.089	95.44
453.31	112.44
453.53	88.44
453.751	86.44
453.971	78.44
454.192	101.44
454.412	95.44
454.633	103.44
454.853	82.44
455.073	80.44
455.294	80.44
455.514	79.44
455.734	77.44
455.955	87.44
456.175	88.44
456.395	83.44
456.616	82.44
456.836	79.44
457.056	77.44
457.276	79.44
457.497	88.44
457.717	83.44
457.937	82.44
458.157	83.44
458.377	82.44
458.598	93.44
458.818	145.44
459.038	145.44
459.258	126.44
459.478	81.44
459.698	80.44
459.918	77.44
460.138	82.44
460.358	77.44
460.578	71.44
460.798	91.44
461.018	80.44
461.238	86.44
461.458	89.44
461.678	95.44
461.898	82.44
462.118	70.44
462.338	94.44
462.558	76.44
462.777	86.44
462.997	59.44
463.217	88.44
463.437	88.44
463.657	74.44
463.876	88.44
464.096	93.44
464.316	98.44
464.536	89.44
464.755	78.44
464.975	103.44
465.195	157.44
465.414	129.44
465.634	92.44
465.854	95.44
466.073	80.44
466.293	84.44
466.512	71.44
466.732	76.44
466.951	88.44
467.171	87.44
467.391	80.44
467.61	93.44
467.829	85.44
468.049	98.44
468.268	89.44
468.488	90.44
468.707	76.44
468.927	68.44
469.146	79.44
469.365	84.44
469.585	95.44
469.804	88.44
470.023	98.44
470.243	107.44
470.462	97.44
470.681	106.44
470.901	84.44
471.12	78.44
471.339	68.44
471.558	79.44
471.777	84.44
471.997	86.44
472.216	89.44
472.435	77.44
472.654	87.44
472.873	94.44
473.092	81.44
473.311	93.44
473.53	85.44
473.749	76.44
473.968	86.44
474.187	90.44
474.406	91.44
474.625	84.44
474.844	88.44
475.063	76.44
475.282	67.44
475.501	71.44
475.72	94.44
475.939	67.44
476.158	84.44
476.377	99.44
476.596	76.44
476.814	82.44
477.033	87.44
477.252	81.44
477.471	72.44
477.69	79.44
477.908	85.44
478.127	82.44
478.346	95.44
478.564	82.44
478.783	96.44
479.002	85.44
479.22	98.44
479.439	97.44
479.658	88.44
479.876	78.44
480.095	91.44
480.313	79.44
480.532	86.44
480.751	83.44
480.969	79.44
481.188	77.44
481.406	77.44
481.624	73.44
481.843	93.44
482.061	80.44
482.28	82.44
482.498	79.44
482.717	90.44
482.935	79.44
483.153	85.44
483.372	92.44
483.59	94.44
483.808	81.44
484.027	83.44
484.245	89.44
484.463	83.44
484.681	84.44
484.9	84.44
485.118	89.44
485.336	92.44
485.554	96.44
485.772	102.44
485.99	104.44
486.209	100.44
486.427	91.44
486.645	101.44
486.863	103.44
487.081	84.44
487.299	86.44
487.517	82.44
487.735	86.44
487.953	89.44
488.171	82.44
488.389	87.44
488.607	90.44
488.825	75.44
489.043	87.44
489.261	84.44
489.479	88.44
489.696	99.44
489.914	90.44
490.132	65.44
490.35	90.44
490.568	78.44
490.786	87.44
491.003	89.44
491.221	85.44
491.439	77.44
491.657	77.44
491.874	81.44
492.092	87.44
492.31	74.44
492.527	84.44
492.745	98.44
492.963	80.44
493.18	71.44
493.398	92.44
493.615	92.44
493.833	93.44
494.05	80.44
494.268	66.44
494.485	93.44
494.703	91.44
494.92	98.44
495.138	96.44
495.355	80.44
495.573	83.44
495.79	86.44
496.008	102.44
496.225	84.44
496.442	91.44
496.66	81.44
496.877	77.44
497.094	93.44
497.312	77.44
497.529	81.44
497.746	77.44
497.963	75.44
498.181	83.44
498.398	99.44
498.615	117.44
498.832	104.44
499.049	79.44
499.267	85.44
499.484	79.44
499.701	83.44
499.918	91.44
500.135	97.44
500.352	84.44
500.569	87.44
500.786	81.44
501.003	77.44
501.22	80.44
501.437	82.44
501.654	87.44
501.871	95.44
502.088	84.44
502.305	77.44
502.522	88.44
502.739	91.44
502.956	93.44
503.172	85.44
503.389	91.44
503.606	102.44
503.823	97.44
504.04	86.44
504.256	88.44
504.473	77.44
504.69	80.44
504.907	100.44
505.123	98.44
505.34	84.44
505.557	86.44
505.773	92.44
505.99	88.44
506.207	90.44
506.423	86.44
506.64	71.44
506.856	76.44
507.073	99.44
507.289	79.44
507.506	90.44
507.722	104.44
507.939	87.44
508.155	89.44
508.372	84.44
508.588	87.44
508.805	95.44
509.021	87.44
509.238	97.44
509.454	92.44
509.67	100.44
509.887	104.44
510.103	131.44
510.319	199.44
510.536	708.44
510.752	2262.44
510.968	635.44
511.184	152.44
511.401	111.44
511.617	88.44
511.833	102.44
512.049	89.44
512.265	88.44
512.481	77.44
512.698	83.44
512.914	103.44
513.13	88.44
513.346	85.44
513.562	90.44
513.778	86.44
513.994	86.44
514.21	100.44
514.426	117.44
514.642	116.44
514.858	117.44
515.074	161.44
515.29	427.44
515.506	1382.44
515.721	503.44
515.937	138.44
516.153	104.44
516.369	86.44
516.585	94.44
516.801	82.44
517.016	85.44
517.232	95.44
