Data from CBS_1_HRD10591_00043.txt Node
Date: Mon Jan 19 14:04:10 EST 2026
User: Yrep
Spectrometer: HR+D1059
Trigger mode: 1
Integration Time (sec): 1.000000E-1
Scans to average: 1
Electric dark correction enabled: true
Nonlinearity correction enabled: false
Boxcar width: 0
XAxis mode: Wavelengths
Number of Pixels in Spectrum: 2048
>>>>>Begin Spectral Data<<<<<
223.165	-18
223.4	-18
223.635	-18
223.869	-2
224.104	-27
224.338	-12
224.573	1
224.808	-11
225.042	-17
225.277	-7
225.511	2
225.746	-6
225.98	5
226.215	19
226.449	4
226.683	29
226.918	14
227.152	26
227.387	37
227.621	38
227.856	42
228.09	33
228.324	44
228.559	68
228.793	67
229.027	64
229.262	67
229.496	60
229.73	73
229.964	73
230.199	78
230.433	85
230.667	78
230.901	93
231.136	79
231.37	86
231.604	84
231.838	90
232.072	94
232.306	72
232.541	68
232.775	76
233.009	82
233.243	89
233.477	84
233.711	86
233.945	81
234.179	72
234.413	93
234.647	88
234.881	94
235.115	67
235.349	76
235.583	82
235.817	80
236.051	84
236.285	66
236.519	74
236.753	90
236.987	89
237.221	79
237.455	82
237.689	64
237.922	74
238.156	79
238.39	75
238.624	76
238.858	72
239.091	78
239.325	92
239.559	83
239.793	66
240.027	85
240.26	80
240.494	80
240.728	93
240.961	98
241.195	90
241.429	83
241.662	70
241.896	77
242.13	95
242.363	75
242.597	75
242.83	88
243.064	74
243.298	76
243.531	77
243.765	84
243.998	82
244.232	87
244.465	91
244.699	85
244.932	85
245.166	83
245.399	66
245.633	69
245.866	73
246.099	88
246.333	72
246.566	74
246.8	82
247.033	89
247.266	92
247.5	73
247.733	87
247.966	75
248.2	93
248.433	91
248.666	78
248.899	89
249.133	86
249.366	75
249.599	86
249.832	92
250.066	76
250.299	77
250.532	78
250.765	82
250.998	68
251.231	76
251.465	84
251.698	86
251.931	94
252.164	88
252.397	79
252.63	90
252.863	74
253.096	75
253.329	84
253.562	76
253.795	89
254.028	88
254.261	71
254.494	83
254.727	93
254.96	112
255.193	86
255.426	89
255.659	75
255.892	99
256.124	78
256.357	83
256.59	76
256.823	79
257.056	75
257.289	70
257.521	93
257.754	77
257.987	71
258.22	90
258.452	84
258.685	75
258.918	77
259.151	56
259.383	82
259.616	91
259.849	84
260.081	58
260.314	87
260.547	82
260.779	68
261.012	82
261.244	96
261.477	87
261.71	76
261.942	90
262.175	78
262.407	96
262.64	93
262.872	92
263.105	67
263.337	75
263.57	80
263.802	101
264.035	99
264.267	77
264.499	93
264.732	74
264.964	83
265.197	76
265.429	86
265.661	79
265.894	84
266.126	89
266.358	82
266.591	106
266.823	85
267.055	66
267.287	100
267.52	82
267.752	87
267.984	85
268.216	74
268.448	85
268.681	80
268.913	92
269.145	92
269.377	69
269.609	72
269.841	90
270.073	84
270.306	88
270.538	106
270.77	84
271.002	79
271.234	91
271.466	84
271.698	80
271.93	78
272.162	79
272.394	87
272.626	79
272.858	90
273.09	92
273.322	76
273.553	82
273.785	84
274.017	94
274.249	83
274.481	78
274.713	86
274.945	98
275.176	77
275.408	70
275.64	81
275.872	91
276.104	88
276.335	98
276.567	82
276.799	82
277.031	99
277.262	96
277.494	75
277.726	91
277.957	88
278.189	90
278.421	92
278.652	85
278.884	89
279.115	66
279.347	99
279.579	80
279.81	76
280.042	98
280.273	109
280.505	87
280.736	93
280.968	94
281.199	81
281.431	86
281.662	79
281.894	97
282.125	100
282.356	74
282.588	72
282.819	84
283.051	90
283.282	90
283.513	90
283.745	74
283.976	93
284.207	72
284.439	95
284.67	82
284.901	77
285.132	80
285.364	89
285.595	87
285.826	85
286.057	78
286.288	103
286.52	101
286.751	82
286.982	96
287.213	78
287.444	95
287.675	76
287.906	88
288.138	74
288.369	78
288.6	86
288.831	81
289.062	76
289.293	88
289.524	94
289.755	82
289.986	79
290.217	92
290.448	69
290.679	98
290.91	104
291.141	90
291.371	88
291.602	80
291.833	84
292.064	72
292.295	86
292.526	82
292.757	82
292.987	81
293.218	87
293.449	86
293.68	98
293.91	90
294.141	96
294.372	68
294.603	88
294.833	89
295.064	85
295.295	91
295.525	86
295.756	94
295.987	98
296.217	94
296.448	89
296.679	84
296.909	84
297.14	76
297.37	93
297.601	72
297.831	79
298.062	88
298.292	75
298.523	78
298.753	93
298.984	76
299.214	94
299.445	97
299.675	96
299.905	85
300.136	92
300.366	89
300.597	90
300.827	95
301.057	97
301.288	98
301.518	96
301.748	84
301.979	102
302.209	90
302.439	89
302.669	81
302.9	102
303.13	104
303.36	92
303.59	82
303.82	84
304.051	89
304.281	107
304.511	94
304.741	100
304.971	92
305.201	94
305.431	86
305.661	82
305.891	78
306.121	93
306.352	89
306.582	92
306.812	85
307.042	82
307.272	76
307.502	75
307.731	82
307.961	89
308.191	81
308.421	89
308.651	88
308.881	68
309.111	84
309.341	83
309.571	97
309.8	98
310.03	94
310.26	92
310.49	96
310.72	81
310.949	96
311.179	82
311.409	84
311.639	91
311.868	90
312.098	80
312.328	81
312.557	84
312.787	82
313.017	84
313.246	89
313.476	96
313.706	86
313.935	88
314.165	84
314.394	78
314.624	82
314.853	77
315.083	86
315.312	86
315.542	87
315.771	87
316.001	99
316.23	86
316.46	84
316.689	90
316.919	84
317.148	94
317.377	86
317.607	84
317.836	77
318.065	88
318.295	96
318.524	90
318.753	94
318.983	99
319.212	85
319.441	84
319.67	92
319.9	93
320.129	87
320.358	81
320.587	103
320.816	85
321.046	77
321.275	100
321.504	88
321.733	85
321.962	72
322.191	89
322.42	84
322.649	93
322.878	95
323.108	94
323.337	91
323.566	82
323.795	86
324.024	91
324.253	93
324.482	81
324.71	69
324.939	84
325.168	90
325.397	91
325.626	101
325.855	78
326.084	88
326.313	92
326.542	86
326.77	99
326.999	98
327.228	98
327.457	92
327.686	96
327.914	96
328.143	92
328.372	86
328.6	94
328.829	101
329.058	99
329.287	100
329.515	82
329.744	87
329.972	89
330.201	75
330.43	96
330.658	82
330.887	85
331.115	78
331.344	92
331.572	84
331.801	75
332.03	68
332.258	89
332.486	84
332.715	74
332.943	85
333.172	76
333.4	91
333.629	84
333.857	83
334.085	93
334.314	89
334.542	87
334.771	87
334.999	90
335.227	75
335.455	91
335.684	93
335.912	84
336.14	76
336.369	91
336.597	76
336.825	76
337.053	81
337.281	78
337.51	92
337.738	94
337.966	87
338.194	67
338.422	106
338.65	84
338.878	74
339.106	70
339.334	93
339.562	79
339.79	86
340.018	94
340.246	71
340.474	91
340.702	77
340.93	75
341.158	96
341.386	96
341.614	92
341.842	91
342.07	86
342.298	84
342.526	91
342.754	85
342.981	88
343.209	80
343.437	98
343.665	96
343.893	80
344.12	79
344.348	96
344.576	78
344.804	96
345.031	84
345.259	102
345.487	83
345.714	83
345.942	91
346.17	93
346.397	77
346.625	90
346.853	89
347.08	93
347.308	88
347.535	93
347.763	88
347.99	97
348.218	92
348.445	90
348.673	85
348.9	86
349.128	94
349.355	84
349.583	93
349.81	97
350.037	94
350.265	86
350.492	82
350.72	86
350.947	85
351.174	89
351.402	88
351.629	84
351.856	101
352.083	94
352.311	97
352.538	80
352.765	86
352.992	84
353.22	90
353.447	79
353.674	90
353.901	83
354.128	76
354.355	94
354.583	73
354.81	75
355.037	81
355.264	80
355.491	69
355.718	88
355.945	92
356.172	82
356.399	89
356.626	82
356.853	84
357.08	65
357.307	85
357.534	83
357.761	82
357.988	92
358.215	81
358.441	78
358.668	86
358.895	77
359.122	85
359.349	85
359.576	97
359.802	89
360.029	99
360.256	94
360.483	91
360.709	83
360.936	98
361.163	86
361.39	92
361.616	78
361.843	95
362.07	94
362.296	106
362.523	97
362.749	82
362.976	86
363.203	101
363.429	82
363.656	90
363.882	85
364.109	76
364.335	114
364.562	109
364.788	82
365.015	89
365.241	91
365.468	93
365.694	85
365.92	75
366.147	81
366.373	93
366.599	90
366.826	86
367.052	83
367.278	91
367.505	87
367.731	85
367.957	75
368.184	67
368.41	85
368.636	94
368.862	88
369.089	73
369.315	90
369.541	83
369.767	81
369.993	83
370.219	83
370.445	85
370.672	78
370.898	90
371.124	79
371.35	71
371.576	103
371.802	98
372.028	90
372.254	75
372.48	78
372.706	71
372.932	89
373.158	84
373.384	78
373.61	92
373.835	98
374.061	78
374.287	96
374.513	80
374.739	86
374.965	91
375.191	90
375.416	85
375.642	86
375.868	90
376.094	100
376.319	73
376.545	94
376.771	86
376.997	90
377.222	90
377.448	82
377.674	78
377.899	87
378.125	84
378.35	79
378.576	100
378.802	94
379.027	79
379.253	72
379.478	86
379.704	75
379.929	82
380.155	82
380.38	84
380.606	76
380.831	82
381.057	84
381.282	92
381.507	89
381.733	73
381.958	88
382.184	78
382.409	86
382.634	87
382.86	88
383.085	82
383.31	97
383.535	86
383.761	80
383.986	83
384.211	89
384.436	84
384.662	97
384.887	72
385.112	88
385.337	87
385.562	93
385.787	84
386.013	72
386.238	75
386.463	71
386.688	101
386.913	84
387.138	91
387.363	97
387.588	88
387.813	99
388.038	93
388.263	100
388.488	89
388.713	90
388.938	100
389.163	84
389.387	93
389.612	87
389.837	77
390.062	86
390.287	91
390.512	80
390.736	88
390.961	84
391.186	81
391.411	86
391.636	86
391.86	88
392.085	88
392.31	89
392.534	88
392.759	103
392.984	102
393.208	162
393.433	197
393.658	141
393.882	98
394.107	92
394.331	88
394.556	93
394.78	97
395.005	90
395.229	93
395.454	88
395.678	80
395.903	88
396.127	91
396.352	104
396.576	96
396.801	128
397.025	158
397.249	118
397.474	102
397.698	79
397.922	91
398.147	98
398.371	93
398.595	87
398.82	81
399.044	83
399.268	84
399.492	80
399.717	84
399.941	89
400.165	90
400.389	69
400.613	89
400.837	82
401.062	82
401.286	88
401.51	78
401.734	85
401.958	88
402.182	88
402.406	83
402.63	85
402.854	101
403.078	95
403.302	88
403.526	95
403.75	92
403.974	94
404.198	70
404.422	91
404.645	79
404.869	100
405.093	89
405.317	89
405.541	94
405.765	99
405.988	88
406.212	89
406.436	70
406.66	101
406.883	79
407.107	79
407.331	70
407.555	74
407.778	82
408.002	94
408.226	84
408.449	83
408.673	76
408.896	88
409.12	89
409.344	101
409.567	91
409.791	96
410.014	87
410.238	85
410.461	84
410.685	82
410.908	81
411.132	88
411.355	87
411.578	84
411.802	97
412.025	86
412.249	73
412.472	83
412.695	82
412.919	86
413.142	77
413.365	82
413.589	79
413.812	87
414.035	87
414.258	89
414.482	76
414.705	92
414.928	92
415.151	91
415.374	104
415.597	78
415.821	98
416.044	92
416.267	92
416.49	77
416.713	88
416.936	93
417.159	96
417.382	89
417.605	83
417.828	88
418.051	76
418.274	86
418.497	88
418.72	69
418.943	84
419.166	80
419.389	83
419.611	77
419.834	93
420.057	76
420.28	93
420.503	92
420.726	89
420.948	90
421.171	90
421.394	94
421.617	94
421.839	97
422.062	96
422.285	126
422.507	156
422.73	210
422.953	201
423.175	121
423.398	105
423.621	104
423.843	98
424.066	85
424.288	87
424.511	86
424.733	75
424.956	74
425.178	96
425.401	82
425.623	74
425.846	81
426.068	88
426.291	80
426.513	84
426.735	83
426.958	93
427.18	85
427.402	90
427.625	83
427.847	94
428.069	88
428.292	121
428.514	114
428.736	89
428.958	90
429.181	96
429.403	81
429.625	85
429.847	96
430.069	101
430.292	119
430.514	114
430.736	108
430.958	102
431.18	90
431.402	93
431.624	90
431.846	105
432.068	94
432.29	84
432.512	86
432.734	89
432.956	89
433.178	89
433.4	94
433.622	88
433.844	78
434.066	101
434.287	78
434.509	89
434.731	82
434.953	89
435.175	85
435.397	96
435.618	104
435.84	92
436.062	96
436.284	98
436.505	89
436.727	74
436.949	86
437.17	80
437.392	93
437.614	78
437.835	81
438.057	81
438.278	83
438.5	83
438.721	86
438.943	85
439.165	79
439.386	76
439.608	80
439.829	88
440.05	78
440.272	92
440.493	88
440.715	79
440.936	91
441.158	86
441.379	86
441.6	97
441.822	87
442.043	80
442.264	87
442.486	93
442.707	122
442.928	84
443.149	98
443.371	100
443.592	138
443.813	128
444.034	88
444.255	81
444.476	81
444.698	88
444.919	82
445.14	174
445.361	143
445.582	163
445.803	141
446.024	104
446.245	100
446.466	75
446.687	97
446.908	85
447.129	87
447.35	89
447.571	106
447.792	86
448.013	75
448.234	99
448.455	88
448.675	83
448.896	76
449.117	74
449.338	83
449.559	90
449.779	86
450	86
450.221	85
450.442	107
450.662	84
450.883	78
451.104	96
451.324	82
451.545	86
451.766	85
451.986	73
452.207	97
452.428	92
452.648	81
452.869	104
453.089	93
453.31	90
453.53	71
453.751	85
453.971	93
454.192	84
454.412	74
454.633	86
454.853	83
455.073	83
455.294	93
455.514	78
455.734	81
455.955	82
456.175	81
456.395	95
456.616	81
456.836	79
457.056	84
457.276	90
457.497	81
457.717	79
457.937	102
458.157	90
458.377	96
458.598	98
458.818	103
459.038	67
459.258	84
459.478	66
459.698	75
459.918	86
460.138	91
460.358	93
460.578	87
460.798	106
461.018	104
461.238	86
461.458	79
461.678	81
461.898	90
462.118	86
462.338	82
462.558	90
462.777	78
462.997	90
463.217	82
463.437	97
463.657	83
463.876	70
464.096	94
464.316	90
464.536	92
464.755	89
464.975	79
465.195	84
465.414	80
465.634	92
465.854	81
466.073	100
466.293	77
466.512	92
466.732	86
466.951	79
467.171	86
467.391	99
467.61	91
467.829	87
468.049	73
468.268	87
468.488	62
468.707	79
468.927	77
469.146	74
469.365	88
469.585	87
469.804	76
470.023	87
470.243	78
470.462	74
470.681	85
470.901	90
471.12	82
471.339	78
471.558	80
471.777	85
471.997	91
472.216	89
472.435	92
472.654	96
472.873	86
473.092	92
473.311	82
473.53	85
473.749	78
473.968	97
474.187	72
474.406	60
474.625	84
474.844	88
475.063	95
475.282	95
475.501	81
475.72	85
475.939	85
476.158	99
476.377	95
476.596	83
476.814	88
477.033	76
477.252	78
477.471	81
477.69	90
477.908	78
478.127	80
478.346	86
478.564	85
478.783	89
479.002	89
479.22	85
479.439	86
479.658	94
479.876	89
480.095	79
480.313	92
480.532	86
480.751	81
480.969	78
481.188	72
481.406	77
481.624	95
481.843	90
482.061	84
482.28	93
482.498	101
482.717	87
482.935	113
483.153	88
483.372	78
483.59	96
483.808	88
484.027	92
484.245	83
484.463	89
484.681	85
484.9	96
485.118	100
485.336	87
485.554	84
485.772	97
485.99	91
486.209	89
486.427	78
486.645	94
486.863	89
487.081	86
487.299	82
487.517	82
487.735	99
487.953	115
488.171	115
488.389	83
488.607	90
488.825	85
489.043	95
489.261	90
489.479	85
489.696	85
489.914	84
490.132	97
490.35	107
490.568	98
490.786	95
491.003	84
491.221	86
491.439	83
491.657	83
491.874	93
492.092	83
492.31	116
492.527	96
492.745	82
492.963	82
493.18	87
493.398	84
493.615	100
493.833	105
494.05	98
494.268	92
494.485	89
494.703	78
494.92	78
495.138	101
495.355	86
495.573	84
495.79	83
496.008	94
496.225	96
496.442	105
496.66	100
496.877	98
497.094	84
497.312	81
497.529	95
497.746	78
497.963	96
498.181	88
498.398	93
498.615	91
498.832	82
499.049	86
499.267	74
499.484	93
499.701	79
499.918	92
500.135	85
500.352	84
500.569	73
500.786	74
501.003	79
501.22	86
501.437	88
501.654	84
501.871	104
502.088	78
502.305	85
502.522	74
502.739	98
502.956	80
503.172	84
503.389	87
503.606	96
503.823	85
504.04	96
504.256	92
504.473	107
504.69	102
504.907	82
505.123	83
505.34	93
505.557	90
505.773	84
505.99	77
506.207	82
506.423	74
506.64	78
506.856	84
507.073	80
507.289	82
507.506	87
507.722	87
507.939	86
508.155	92
508.372	80
508.588	97
508.805	96
509.021	102
509.238	88
509.454	90
509.67	94
509.887	94
510.103	94
510.319	89
510.536	96
510.752	76
510.968	85
511.184	76
511.401	92
511.617	75
511.833	87
512.049	81
512.265	86
512.481	73
512.698	87
512.914	107
513.13	90
513.346	88
513.562	101
513.778	85
513.994	91
514.21	99
514.426	94
514.642	85
514.858	86
515.074	93
515.29	86
515.506	79
515.721	77
515.937	86
516.153	76
516.369	89
516.585	86
516.801	71
517.016	90
517.232	93
517.448	101
517.664	72
517.879	92
518.095	90
518.311	89
518.527	99
518.742	86
518.958	102
519.173	122
519.389	93
519.605	89
519.82	75
520.036	79
520.251	91
520.467	96
520.682	96
520.898	79
521.113	82
521.329	76
521.544	94
521.76	84
521.975	87
522.19	84
522.406	77
522.621	85
522.836	90
523.052	87
523.267	85
523.482	82
523.698	93
523.913	94
524.128	98
524.343	85
524.559	96
524.774	83
524.989	88
525.204	89
525.419	94
525.634	99
525.849	82
526.064	112
526.28	137
526.495	157
526.71	182
526.925	148
527.14	146
527.355	162
527.57	100
527.785	88
527.999	84
528.214	93
528.429	96
528.644	90
528.859	91
529.074	95
529.289	90
529.503	106
529.718	82
529.933	93
530.148	105
530.363	97
530.577	89
530.792	81
531.007	99
531.221	95
531.436	100
531.651	82
531.865	90
532.08	89
532.295	87
532.509	93
532.724	72
532.938	92
533.153	94
533.367	95
533.582	98
533.796	87
534.011	96
534.225	89
534.44	86
534.654	92
534.868	96
535.083	132
535.297	105
535.511	90
535.726	99
535.94	101
536.154	95
536.369	90
536.583	73
536.797	94
537.011	80
537.225	81
537.44	79
537.654	95
537.868	102
538.082	97
538.296	78
538.51	93
538.724	92
538.938	92
539.153	88
539.367	91
539.581	79
539.795	96
540.009	81
540.222	84
540.436	88
540.65	91
540.864	75
541.078	97
541.292	92
541.506	81
541.72	82
541.934	102
542.147	97
542.361	85
542.575	96
542.789	95
543.002	77
543.216	106
543.43	87
543.644	84
543.857	84
544.071	85
544.285	92
544.498	99
544.712	86
544.925	88
545.139	91
545.352	87
545.566	78
545.779	89
545.993	100
546.206	121
546.42	101
546.633	102
546.847	98
547.06	116
547.274	107
547.487	111
547.7	128
547.914	122
548.127	123
548.34	123
548.554	138
548.767	146
548.98	129
549.193	128
549.407	137
549.62	128
549.833	154
550.046	139
550.259	141
550.473	153
550.686	148
550.899	159
551.112	165
551.325	166
551.538	165
551.751	165
551.964	155
552.177	165
552.39	165
552.603	162
552.816	161
553.029	157
553.242	154
553.455	163
553.667	169
553.88	162
554.093	164
554.306	157
554.519	173
554.732	165
554.944	162
555.157	161
555.37	155
555.583	164
555.795	154
556.008	123
556.221	130
556.433	135
556.646	134
556.859	133
557.071	125
557.284	118
557.496	123
557.709	108
557.921	114
558.134	127
558.346	146
558.559	120
558.771	110
558.984	178
559.196	204
559.409	131
559.621	165
559.833	148
560.046	157
560.258	132
560.47	154
560.683	92
560.895	105
561.107	94
561.32	111
561.532	80
561.744	89
561.956	105
562.168	94
562.381	99
562.593	98
562.805	118
563.017	90
563.229	98
563.441	106
563.653	81
563.865	87
564.077	99
564.289	88
564.501	88
564.713	101
564.925	77
565.137	92
565.349	95
565.561	100
565.773	88
565.985	104
566.197	96
566.408	98
566.62	96
566.832	94
567.044	75
567.255	92
567.467	89
567.679	89
567.891	90
568.102	98
568.314	94
568.526	92
568.737	104
568.949	98
569.161	82
569.372	86
569.584	86
569.795	97
570.007	96
570.218	92
570.43	82
570.641	103
570.853	94
571.064	89
571.276	93
571.487	91
571.698	97
571.91	76
572.121	96
572.333	82
572.544	88
572.755	84
572.966	81
573.178	91
573.389	96
573.6	90
573.811	101
574.023	101
574.234	106
574.445	84
574.656	99
574.867	84
575.078	88
575.289	89
575.501	93
575.712	93
575.923	81
576.134	96
576.345	91
576.556	84
576.767	88
576.978	95
577.188	100
577.399	71
577.61	94
577.821	86
578.032	84
578.243	92
578.454	86
578.665	92
578.875	103
579.086	90
579.297	97
579.508	94
579.718	78
579.929	90
580.14	90
580.35	102
580.561	90
580.772	85
580.982	78
581.193	96
581.403	90
581.614	99
581.825	85
582.035	84
582.246	88
582.456	88
582.667	94
582.877	89
583.087	86
583.298	98
583.508	83
583.719	92
583.929	88
584.139	84
584.35	85
584.56	108
584.77	96
584.981	93
585.191	92
585.401	84
585.611	92
585.821	127
586.032	138
586.242	93
586.452	103
586.662	78
586.872	100
587.082	96
587.292	81
587.502	98
