Data from CBS_1_HRD10591_00017.txt Node
Date: Mon Jan 19 14:03:57 EST 2026
User: Yrep
Spectrometer: HR+D1059
Trigger mode: 1
Integration Time (sec): 1.000000E-1
Scans to average: 1
Electric dark correction enabled: true
Nonlinearity correction enabled: false
Boxcar width: 0
XAxis mode: Wavelengths
Number of Pixels in Spectrum: 2048
>>>>>Begin Spectral Data<<<<<
223.165	-6.75
223.4	-6.75
223.635	-6.75
223.869	-20.75
224.104	-17.75
224.338	-20.75
224.573	-16.75
224.808	-9.75
225.042	-4.75
225.277	-0.75
225.511	-10.75
225.746	13.25
225.98	12.25
226.215	1.25
226.449	17.25
226.683	22.25
226.918	25.25
227.152	17.25
227.387	25.25
227.621	26.25
227.856	53.25
228.09	60.25
228.324	56.25
228.559	61.25
228.793	55.25
229.027	59.25
229.262	70.25
229.496	72.25
229.73	71.25
229.964	70.25
230.199	86.25
230.433	75.25
230.667	76.25
230.901	80.25
231.136	81.25
231.37	72.25
231.604	68.25
231.838	68.25
232.072	78.25
232.306	92.25
232.541	79.25
232.775	82.25
233.009	90.25
233.243	70.25
233.477	76.25
233.711	72.25
233.945	74.25
234.179	77.25
234.413	87.25
234.647	70.25
234.881	76.25
235.115	89.25
235.349	74.25
235.583	78.25
235.817	69.25
236.051	75.25
236.285	62.25
236.519	76.25
236.753	89.25
236.987	82.25
237.221	75.25
237.455	82.25
237.689	74.25
237.922	76.25
238.156	75.25
238.39	66.25
238.624	73.25
238.858	63.25
239.091	81.25
239.325	68.25
239.559	77.25
239.793	86.25
240.027	83.25
240.26	74.25
240.494	79.25
240.728	69.25
240.961	77.25
241.195	71.25
241.429	53.25
241.662	69.25
241.896	75.25
242.13	85.25
242.363	79.25
242.597	63.25
242.83	85.25
243.064	67.25
243.298	83.25
243.531	73.25
243.765	87.25
243.998	86.25
244.232	80.25
244.465	71.25
244.699	85.25
244.932	82.25
245.166	75.25
245.399	61.25
245.633	75.25
245.866	74.25
246.099	82.25
246.333	80.25
246.566	83.25
246.8	80.25
247.033	91.25
247.266	75.25
247.5	82.25
247.733	77.25
247.966	71.25
248.2	70.25
248.433	77.25
248.666	84.25
248.899	74.25
249.133	70.25
249.366	86.25
249.599	69.25
249.832	75.25
250.066	81.25
250.299	90.25
250.532	69.25
250.765	77.25
250.998	78.25
251.231	78.25
251.465	88.25
251.698	91.25
251.931	61.25
252.164	71.25
252.397	84.25
252.63	79.25
252.863	78.25
253.096	67.25
253.329	81.25
253.562	82.25
253.795	93.25
254.028	83.25
254.261	69.25
254.494	73.25
254.727	88.25
254.96	75.25
255.193	81.25
255.426	81.25
255.659	93.25
255.892	93.25
256.124	80.25
256.357	87.25
256.59	86.25
256.823	76.25
257.056	80.25
257.289	68.25
257.521	83.25
257.754	84.25
257.987	99.25
258.22	83.25
258.452	74.25
258.685	77.25
258.918	71.25
259.151	83.25
259.383	93.25
259.616	80.25
259.849	73.25
260.081	79.25
260.314	81.25
260.547	78.25
260.779	88.25
261.012	86.25
261.244	90.25
261.477	91.25
261.71	73.25
261.942	75.25
262.175	73.25
262.407	84.25
262.64	74.25
262.872	81.25
263.105	83.25
263.337	80.25
263.57	85.25
263.802	78.25
264.035	89.25
264.267	72.25
264.499	87.25
264.732	87.25
264.964	97.25
265.197	73.25
265.429	84.25
265.661	90.25
265.894	75.25
266.126	98.25
266.358	71.25
266.591	84.25
266.823	69.25
267.055	79.25
267.287	97.25
267.52	82.25
267.752	81.25
267.984	74.25
268.216	90.25
268.448	80.25
268.681	77.25
268.913	82.25
269.145	83.25
269.377	92.25
269.609	74.25
269.841	70.25
270.073	83.25
270.306	73.25
270.538	86.25
270.77	69.25
271.002	95.25
271.234	83.25
271.466	86.25
271.698	82.25
271.93	70.25
272.162	80.25
272.394	86.25
272.626	72.25
272.858	81.25
273.09	79.25
273.322	89.25
273.553	77.25
273.785	85.25
274.017	84.25
274.249	81.25
274.481	82.25
274.713	95.25
274.945	79.25
275.176	79.25
275.408	87.25
275.64	74.25
275.872	89.25
276.104	70.25
276.335	77.25
276.567	102.25
276.799	95.25
277.031	73.25
277.262	88.25
277.494	90.25
277.726	73.25
277.957	83.25
278.189	66.25
278.421	78.25
278.652	72.25
278.884	90.25
279.115	81.25
279.347	94.25
279.579	85.25
279.81	87.25
280.042	77.25
280.273	102.25
280.505	82.25
280.736	98.25
280.968	80.25
281.199	83.25
281.431	74.25
281.662	81.25
281.894	95.25
282.125	87.25
282.356	89.25
282.588	81.25
282.819	86.25
283.051	78.25
283.282	79.25
283.513	96.25
283.745	82.25
283.976	75.25
284.207	87.25
284.439	86.25
284.67	90.25
284.901	89.25
285.132	85.25
285.364	87.25
285.595	93.25
285.826	78.25
286.057	74.25
286.288	74.25
286.52	74.25
286.751	77.25
286.982	89.25
287.213	79.25
287.444	83.25
287.675	83.25
287.906	79.25
288.138	87.25
288.369	93.25
288.6	80.25
288.831	87.25
289.062	82.25
289.293	92.25
289.524	89.25
289.755	87.25
289.986	83.25
290.217	74.25
290.448	80.25
290.679	83.25
290.91	83.25
291.141	71.25
291.371	96.25
291.602	79.25
291.833	84.25
292.064	81.25
292.295	78.25
292.526	90.25
292.757	87.25
292.987	70.25
293.218	102.25
293.449	97.25
293.68	82.25
293.91	93.25
294.141	86.25
294.372	74.25
294.603	87.25
294.833	80.25
295.064	74.25
295.295	87.25
295.525	83.25
295.756	99.25
295.987	99.25
296.217	87.25
296.448	85.25
296.679	91.25
296.909	88.25
297.14	78.25
297.37	95.25
297.601	85.25
297.831	82.25
298.062	88.25
298.292	85.25
298.523	94.25
298.753	79.25
298.984	97.25
299.214	93.25
299.445	112.25
299.675	93.25
299.905	93.25
300.136	97.25
300.366	97.25
300.597	89.25
300.827	104.25
301.057	102.25
301.288	93.25
301.518	100.25
301.748	84.25
301.979	122.25
302.209	101.25
302.439	89.25
302.669	100.25
302.9	87.25
303.13	82.25
303.36	83.25
303.59	87.25
303.82	93.25
304.051	89.25
304.281	98.25
304.511	97.25
304.741	90.25
304.971	90.25
305.201	105.25
305.431	95.25
305.661	93.25
305.891	85.25
306.121	89.25
306.352	100.25
306.582	85.25
306.812	82.25
307.042	80.25
307.272	77.25
307.502	87.25
307.731	93.25
307.961	90.25
308.191	88.25
308.421	98.25
308.651	91.25
308.881	100.25
309.111	94.25
309.341	112.25
309.571	105.25
309.8	81.25
310.03	87.25
310.26	91.25
310.49	82.25
310.72	94.25
310.949	89.25
311.179	97.25
311.409	82.25
311.639	87.25
311.868	77.25
312.098	83.25
312.328	97.25
312.557	93.25
312.787	83.25
313.017	87.25
313.246	87.25
313.476	88.25
313.706	82.25
313.935	101.25
314.165	91.25
314.394	85.25
314.624	91.25
314.853	91.25
315.083	99.25
315.312	97.25
315.542	92.25
315.771	112.25
316.001	111.25
316.23	107.25
316.46	96.25
316.689	85.25
316.919	87.25
317.148	88.25
317.377	84.25
317.607	116.25
317.836	108.25
318.065	130.25
318.295	137.25
318.524	94.25
318.753	103.25
318.983	102.25
319.212	102.25
319.441	97.25
319.67	96.25
319.9	83.25
320.129	98.25
320.358	87.25
320.587	86.25
320.816	79.25
321.046	103.25
321.275	90.25
321.504	96.25
321.733	98.25
321.962	99.25
322.191	76.25
322.42	92.25
322.649	100.25
322.878	95.25
323.108	107.25
323.337	98.25
323.566	92.25
323.795	82.25
324.024	86.25
324.253	81.25
324.482	96.25
324.71	93.25
324.939	89.25
325.168	75.25
325.397	103.25
325.626	103.25
325.855	83.25
326.084	82.25
326.313	91.25
326.542	73.25
326.77	102.25
326.999	94.25
327.228	91.25
327.457	104.25
327.686	103.25
327.914	82.25
328.143	97.25
328.372	96.25
328.6	91.25
328.829	100.25
329.058	100.25
329.287	89.25
329.515	88.25
329.744	105.25
329.972	90.25
330.201	96.25
330.43	91.25
330.658	95.25
330.887	87.25
331.115	87.25
331.344	84.25
331.572	96.25
331.801	78.25
332.03	96.25
332.258	87.25
332.486	83.25
332.715	80.25
332.943	95.25
333.172	82.25
333.4	84.25
333.629	93.25
333.857	111.25
334.085	100.25
334.314	106.25
334.542	103.25
334.771	105.25
334.999	118.25
335.227	109.25
335.455	98.25
335.684	110.25
335.912	120.25
336.14	121.25
336.369	130.25
336.597	100.25
336.825	99.25
337.053	106.25
337.281	94.25
337.51	100.25
337.738	93.25
337.966	92.25
338.194	83.25
338.422	88.25
338.65	109.25
338.878	94.25
339.106	89.25
339.334	80.25
339.562	75.25
339.79	92.25
340.018	93.25
340.246	93.25
340.474	101.25
340.702	90.25
340.93	95.25
341.158	81.25
341.386	95.25
341.614	86.25
341.842	98.25
342.07	104.25
342.298	93.25
342.526	86.25
342.754	90.25
342.981	90.25
343.209	97.25
343.437	101.25
343.665	90.25
343.893	100.25
344.12	99.25
344.348	97.25
344.576	93.25
344.804	84.25
345.031	89.25
345.259	94.25
345.487	90.25
345.714	95.25
345.942	101.25
346.17	102.25
346.397	83.25
346.625	85.25
346.853	89.25
347.08	97.25
347.308	94.25
347.535	95.25
347.763	82.25
347.99	98.25
348.218	103.25
348.445	95.25
348.673	120.25
348.9	105.25
349.128	95.25
349.355	100.25
349.583	92.25
349.81	91.25
350.037	90.25
350.265	82.25
350.492	79.25
350.72	82.25
350.947	80.25
351.174	77.25
351.402	91.25
351.629	89.25
351.856	103.25
352.083	103.25
352.311	93.25
352.538	90.25
352.765	99.25
352.992	76.25
353.22	81.25
353.447	96.25
353.674	89.25
353.901	82.25
354.128	95.25
354.355	83.25
354.583	98.25
354.81	82.25
355.037	70.25
355.264	84.25
355.491	88.25
355.718	97.25
355.945	95.25
356.172	90.25
356.399	107.25
356.626	101.25
356.853	96.25
357.08	88.25
357.307	93.25
357.534	85.25
357.761	102.25
357.988	106.25
358.215	117.25
358.441	98.25
358.668	103.25
358.895	94.25
359.122	92.25
359.349	87.25
359.576	97.25
359.802	82.25
360.029	90.25
360.256	99.25
360.483	87.25
360.709	98.25
360.936	91.25
361.163	89.25
361.39	98.25
361.616	98.25
361.843	96.25
362.07	127.25
362.296	138.25
362.523	149.25
362.749	165.25
362.976	202.25
363.203	201.25
363.429	163.25
363.656	133.25
363.882	132.25
364.109	178.25
364.335	249.25
364.562	269.25
364.788	184.25
365.015	119.25
365.241	101.25
365.468	100.25
365.694	105.25
365.92	124.25
366.147	104.25
366.373	85.25
366.599	103.25
366.826	92.25
367.052	93.25
367.278	106.25
367.505	102.25
367.731	93.25
367.957	93.25
368.184	101.25
368.41	78.25
368.636	114.25
368.862	90.25
369.089	93.25
369.315	94.25
369.541	103.25
369.767	97.25
369.993	103.25
370.219	106.25
370.445	114.25
370.672	119.25
370.898	115.25
371.124	92.25
371.35	90.25
371.576	96.25
371.802	96.25
372.028	93.25
372.254	109.25
372.48	86.25
372.706	99.25
372.932	96.25
373.158	110.25
373.384	113.25
373.61	150.25
373.835	161.25
374.061	133.25
374.287	104.25
374.513	97.25
374.739	106.25
374.965	113.25
375.191	90.25
375.416	100.25
375.642	119.25
375.868	110.25
376.094	112.25
376.319	102.25
376.545	93.25
376.771	110.25
376.997	95.25
377.222	87.25
377.448	92.25
377.674	81.25
377.899	82.25
378.125	111.25
378.35	102.25
378.576	97.25
378.802	99.25
379.027	102.25
379.253	104.25
379.478	114.25
379.704	88.25
379.929	103.25
380.155	94.25
380.38	85.25
380.606	100.25
380.831	112.25
381.057	100.25
381.282	102.25
381.507	88.25
381.733	107.25
381.958	117.25
382.184	104.25
382.409	107.25
382.634	109.25
382.86	116.25
383.085	98.25
383.31	119.25
383.535	118.25
383.761	112.25
383.986	111.25
384.211	93.25
384.436	106.25
384.662	109.25
384.887	103.25
385.112	100.25
385.337	112.25
385.562	93.25
385.787	109.25
386.013	128.25
386.238	115.25
386.463	122.25
386.688	115.25
386.913	109.25
387.138	117.25
387.363	114.25
387.588	125.25
387.813	118.25
388.038	120.25
388.263	109.25
388.488	107.25
388.713	113.25
388.938	102.25
389.163	118.25
389.387	93.25
389.612	97.25
389.837	97.25
390.062	103.25
390.287	101.25
390.512	128.25
390.736	107.25
390.961	107.25
391.186	110.25
391.411	120.25
391.636	111.25
391.86	128.25
392.085	130.25
392.31	131.25
392.534	151.25
392.759	224.25
392.984	353.25
393.208	677.25
393.433	982.25
393.658	745.25
393.882	321.25
394.107	185.25
394.331	190.25
394.556	191.25
394.78	147.25
395.005	154.25
395.229	131.25
395.454	127.25
395.678	157.25
395.903	215.25
396.127	234.25
396.352	311.25
396.576	375.25
396.801	689.25
397.025	783.25
397.249	413.25
397.474	226.25
397.698	166.25
397.922	136.25
398.147	118.25
398.371	106.25
398.595	109.25
398.82	93.25
399.044	113.25
399.268	91.25
399.492	95.25
399.717	98.25
399.941	97.25
400.165	97.25
400.389	98.25
400.613	91.25
400.837	102.25
401.062	102.25
401.286	94.25
401.51	97.25
401.734	102.25
401.958	95.25
402.182	93.25
402.406	97.25
402.63	97.25
402.854	103.25
403.078	101.25
403.302	105.25
403.526	114.25
403.75	108.25
403.974	100.25
404.198	128.25
404.422	139.25
404.645	140.25
404.869	130.25
405.093	96.25
405.317	91.25
405.541	101.25
405.765	95.25
405.988	103.25
406.212	99.25
406.436	89.25
406.66	101.25
406.883	90.25
407.107	104.25
407.331	112.25
407.555	131.25
407.778	159.25
408.002	166.25
408.226	106.25
408.449	91.25
408.673	99.25
408.896	102.25
409.12	120.25
409.344	126.25
409.567	153.25
409.791	158.25
410.014	152.25
410.238	144.25
410.461	120.25
410.685	102.25
410.908	96.25
411.132	103.25
411.355	111.25
411.578	106.25
411.802	109.25
412.025	93.25
412.249	105.25
412.472	102.25
412.695	102.25
412.919	90.25
413.142	109.25
413.365	91.25
413.589	79.25
413.812	95.25
414.035	91.25
414.258	99.25
414.482	99.25
414.705	87.25
414.928	77.25
415.151	99.25
415.374	104.25
415.597	100.25
415.821	94.25
416.044	92.25
416.267	92.25
416.49	93.25
416.713	75.25
416.936	103.25
417.159	100.25
417.382	96.25
417.605	86.25
417.828	95.25
418.051	91.25
418.274	85.25
418.497	98.25
418.72	113.25
418.943	106.25
419.166	95.25
419.389	96.25
419.611	94.25
419.834	101.25
420.057	113.25
420.28	101.25
420.503	97.25
420.726	104.25
420.948	111.25
421.171	146.25
421.394	156.25
421.617	207.25
421.839	222.25
422.062	268.25
422.285	417.25
422.507	723.25
422.73	1051.25
422.953	977.25
423.175	566.25
423.398	305.25
423.621	209.25
423.843	162.25
424.066	151.25
424.288	139.25
424.511	148.25
424.733	123.25
424.956	116.25
425.178	110.25
425.401	102.25
425.623	105.25
425.846	98.25
426.068	103.25
426.291	109.25
426.513	112.25
426.735	96.25
426.958	110.25
427.18	95.25
427.402	117.25
427.625	102.25
427.847	115.25
428.069	147.25
428.292	243.25
428.514	280.25
428.736	199.25
428.958	236.25
429.181	262.25
429.403	153.25
429.625	149.25
429.847	224.25
430.069	371.25
430.292	439.25
430.514	410.25
430.736	266.25
430.958	282.25
431.18	142.25
431.402	123.25
431.624	136.25
431.846	240.25
432.068	279.25
432.29	144.25
432.512	96.25
432.734	72.25
432.956	87.25
433.178	97.25
433.4	85.25
433.622	104.25
433.844	89.25
434.066	73.25
434.287	102.25
434.509	114.25
434.731	85.25
434.953	97.25
435.175	92.25
435.397	105.25
435.618	136.25
435.84	130.25
436.062	104.25
436.284	105.25
436.505	114.25
436.727	106.25
436.949	95.25
437.17	91.25
437.392	88.25
437.614	92.25
437.835	80.25
438.057	100.25
438.278	103.25
438.5	99.25
438.721	100.25
438.943	85.25
439.165	102.25
439.386	99.25
439.608	85.25
439.829	89.25
440.05	100.25
440.272	92.25
440.493	104.25
440.715	109.25
440.936	104.25
441.158	101.25
441.379	111.25
441.6	102.25
441.822	110.25
442.043	121.25
442.264	162.25
442.486	277.25
442.707	423.25
442.928	245.25
443.149	185.25
443.371	344.25
443.592	661.25
443.813	580.25
444.034	215.25
444.255	129.25
444.476	123.25
444.698	124.25
444.919	141.25
445.14	261.25
445.361	450.25
445.582	823.25
445.803	688.25
446.024	243.25
446.245	143.25
446.466	100.25
446.687	93.25
446.908	97.25
447.129	98.25
447.35	76.25
447.571	82.25
447.792	89.25
448.013	86.25
448.234	97.25
448.455	74.25
448.675	95.25
448.896	81.25
449.117	97.25
449.338	91.25
449.559	88.25
449.779	91.25
450	89.25
450.221	91.25
450.442	95.25
450.662	95.25
450.883	105.25
451.104	114.25
451.324	93.25
451.545	118.25
451.766	99.25
451.986	105.25
452.207	98.25
452.428	94.25
452.648	119.25
452.869	149.25
453.089	127.25
453.31	121.25
453.53	104.25
453.751	103.25
453.971	106.25
454.192	94.25
454.412	90.25
454.633	101.25
454.853	86.25
455.073	101.25
455.294	101.25
455.514	106.25
455.734	99.25
455.955	91.25
456.175	94.25
456.395	109.25
456.616	95.25
456.836	114.25
457.056	83.25
457.276	88.25
457.497	117.25
457.717	132.25
457.937	181.25
458.157	273.25
458.377	261.25
458.598	255.25
458.818	286.25
459.038	161.25
459.258	113.25
459.478	96.25
459.698	95.25
459.918	96.25
460.138	103.25
460.358	96.25
460.578	122.25
460.798	183.25
461.018	175.25
461.238	118.25
461.458	101.25
461.678	91.25
461.898	85.25
462.118	95.25
462.338	87.25
462.558	101.25
462.777	98.25
462.997	81.25
463.217	83.25
463.437	106.25
463.657	97.25
463.876	98.25
464.096	93.25
464.316	93.25
464.536	99.25
464.755	80.25
464.975	84.25
465.195	88.25
465.414	94.25
465.634	84.25
465.854	89.25
466.073	91.25
466.293	96.25
466.512	89.25
466.732	89.25
466.951	89.25
467.171	91.25
467.391	87.25
467.61	76.25
467.829	99.25
468.049	92.25
468.268	105.25
468.488	115.25
468.707	103.25
468.927	93.25
469.146	93.25
469.365	96.25
469.585	95.25
469.804	95.25
470.023	98.25
470.243	91.25
470.462	86.25
470.681	94.25
470.901	101.25
471.12	89.25
471.339	87.25
471.558	98.25
471.777	93.25
471.997	85.25
472.216	89.25
472.435	102.25
472.654	95.25
472.873	83.25
473.092	92.25
473.311	86.25
473.53	91.25
473.749	97.25
473.968	104.25
474.187	87.25
474.406	95.25
474.625	87.25
474.844	90.25
475.063	78.25
475.282	88.25
475.501	92.25
475.72	94.25
475.939	96.25
476.158	106.25
476.377	90.25
476.596	92.25
476.814	81.25
477.033	89.25
477.252	90.25
477.471	97.25
477.69	83.25
477.908	93.25
478.127	90.25
478.346	95.25
478.564	94.25
478.783	102.25
479.002	88.25
479.22	86.25
479.439	93.25
479.658	92.25
479.876	86.25
480.095	101.25
480.313	93.25
480.532	98.25
480.751	106.25
480.969	90.25
481.188	98.25
481.406	102.25
481.624	91.25
481.843	80.25
482.061	103.25
482.28	97.25
482.498	105.25
482.717	94.25
482.935	101.25
483.153	100.25
483.372	118.25
483.59	125.25
483.808	99.25
484.027	101.25
484.245	91.25
484.463	105.25
484.681	116.25
484.9	110.25
485.118	90.25
485.336	93.25
485.554	99.25
485.772	104.25
485.99	74.25
486.209	102.25
486.427	104.25
486.645	97.25
486.863	105.25
487.081	99.25
487.299	116.25
487.517	126.25
487.735	223.25
487.953	469.25
488.171	353.25
488.389	135.25
488.607	117.25
488.825	102.25
489.043	111.25
489.261	111.25
489.479	82.25
489.696	105.25
489.914	93.25
490.132	96.25
490.35	95.25
490.568	94.25
490.786	92.25
491.003	74.25
491.221	92.25
491.439	98.25
491.657	99.25
491.874	102.25
492.092	99.25
492.31	102.25
492.527	102.25
492.745	99.25
492.963	95.25
493.18	98.25
493.398	93.25
493.615	107.25
493.833	86.25
494.05	116.25
494.268	93.25
494.485	93.25
494.703	112.25
494.92	78.25
495.138	107.25
495.355	106.25
495.573	109.25
495.79	117.25
496.008	105.25
496.225	96.25
496.442	110.25
496.66	102.25
496.877	96.25
497.094	105.25
497.312	99.25
497.529	110.25
497.746	106.25
497.963	93.25
498.181	110.25
498.398	108.25
498.615	95.25
498.832	99.25
499.049	93.25
499.267	116.25
499.484	104.25
499.701	93.25
499.918	103.25
500.135	93.25
500.352	103.25
500.569	95.25
500.786	105.25
501.003	107.25
501.22	99.25
501.437	105.25
501.654	119.25
501.871	113.25
502.088	89.25
502.305	95.25
502.522	107.25
502.739	118.25
502.956	103.25
503.172	107.25
503.389	119.25
503.606	116.25
503.823	122.25
504.04	154.25
504.256	306.25
504.473	306.25
504.69	142.25
504.907	101.25
505.123	95.25
505.34	88.25
505.557	113.25
505.773	97.25
505.99	104.25
506.207	88.25
506.423	105.25
506.64	95.25
506.856	89.25
507.073	103.25
507.289	96.25
507.506	103.25
507.722	100.25
507.939	95.25
508.155	95.25
508.372	88.25
508.588	85.25
508.805	104.25
509.021	96.25
509.238	94.25
509.454	101.25
509.67	106.25
509.887	104.25
510.103	96.25
510.319	97.25
510.536	99.25
510.752	87.25
510.968	101.25
511.184	105.25
511.401	91.25
511.617	102.25
511.833	105.25
512.049	107.25
512.265	90.25
512.481	106.25
512.698	104.25
512.914	77.25
513.13	106.25
513.346	99.25
513.562	103.25
