Data from CBS_1_HRD10591_00023.txt Node
Date: Mon Jan 19 14:04:00 EST 2026
User: Yrep
Spectrometer: HR+D1059
Trigger mode: 1
Integration Time (sec): 1.000000E-1
Scans to average: 1
Electric dark correction enabled: true
Nonlinearity correction enabled: false
Boxcar width: 0
XAxis mode: Wavelengths
Number of Pixels in Spectrum: 2048
>>>>>Begin Spectral Data<<<<<
223.165	-16.88
223.4	-16.88
223.635	-16.88
223.869	-17.88
224.104	-23.88
224.338	-5.88
224.573	-24.88
224.808	-12.88
225.042	-13.88
225.277	3.12
225.511	1.12
225.746	1.12
225.98	24.12
226.215	16.12
226.449	11.12
226.683	14.12
226.918	15.12
227.152	30.12
227.387	42.12
227.621	21.12
227.856	42.12
228.09	39.12
228.324	55.12
228.559	65.12
228.793	54.12
229.027	67.12
229.262	72.12
229.496	53.12
229.73	58.12
229.964	75.12
230.199	72.12
230.433	72.12
230.667	62.12
230.901	71.12
231.136	69.12
231.37	75.12
231.604	67.12
231.838	67.12
232.072	87.12
232.306	88.12
232.541	85.12
232.775	59.12
233.009	76.12
233.243	90.12
233.477	81.12
233.711	87.12
233.945	67.12
234.179	74.12
234.413	78.12
234.647	86.12
234.881	82.12
235.115	71.12
235.349	74.12
235.583	89.12
235.817	85.12
236.051	89.12
236.285	81.12
236.519	86.12
236.753	76.12
236.987	75.12
237.221	69.12
237.455	78.12
237.689	73.12
237.922	73.12
238.156	77.12
238.39	67.12
238.624	75.12
238.858	93.12
239.091	64.12
239.325	93.12
239.559	84.12
239.793	68.12
240.027	76.12
240.26	74.12
240.494	70.12
240.728	69.12
240.961	73.12
241.195	83.12
241.429	71.12
241.662	75.12
241.896	79.12
242.13	81.12
242.363	69.12
242.597	79.12
242.83	69.12
243.064	74.12
243.298	75.12
243.531	79.12
243.765	82.12
243.998	84.12
244.232	63.12
244.465	63.12
244.699	83.12
244.932	72.12
245.166	61.12
245.399	83.12
245.633	81.12
245.866	74.12
246.099	78.12
246.333	91.12
246.566	76.12
246.8	87.12
247.033	71.12
247.266	67.12
247.5	68.12
247.733	72.12
247.966	68.12
248.2	85.12
248.433	86.12
248.666	79.12
248.899	67.12
249.133	69.12
249.366	97.12
249.599	75.12
249.832	93.12
250.066	71.12
250.299	79.12
250.532	85.12
250.765	76.12
250.998	83.12
251.231	82.12
251.465	83.12
251.698	78.12
251.931	87.12
252.164	82.12
252.397	80.12
252.63	81.12
252.863	92.12
253.096	77.12
253.329	71.12
253.562	77.12
253.795	68.12
254.028	74.12
254.261	72.12
254.494	95.12
254.727	75.12
254.96	68.12
255.193	72.12
255.426	72.12
255.659	65.12
255.892	84.12
256.124	79.12
256.357	79.12
256.59	87.12
256.823	84.12
257.056	78.12
257.289	81.12
257.521	75.12
257.754	75.12
257.987	85.12
258.22	93.12
258.452	86.12
258.685	75.12
258.918	79.12
259.151	84.12
259.383	81.12
259.616	89.12
259.849	77.12
260.081	82.12
260.314	88.12
260.547	73.12
260.779	83.12
261.012	95.12
261.244	84.12
261.477	71.12
261.71	81.12
261.942	73.12
262.175	78.12
262.407	67.12
262.64	90.12
262.872	80.12
263.105	75.12
263.337	89.12
263.57	86.12
263.802	71.12
264.035	77.12
264.267	75.12
264.499	89.12
264.732	86.12
264.964	76.12
265.197	83.12
265.429	73.12
265.661	98.12
265.894	71.12
266.126	73.12
266.358	72.12
266.591	89.12
266.823	91.12
267.055	90.12
267.287	81.12
267.52	74.12
267.752	91.12
267.984	61.12
268.216	87.12
268.448	76.12
268.681	88.12
268.913	76.12
269.145	83.12
269.377	72.12
269.609	81.12
269.841	72.12
270.073	79.12
270.306	77.12
270.538	81.12
270.77	83.12
271.002	74.12
271.234	72.12
271.466	86.12
271.698	78.12
271.93	82.12
272.162	75.12
272.394	83.12
272.626	90.12
272.858	78.12
273.09	84.12
273.322	95.12
273.553	93.12
273.785	86.12
274.017	86.12
274.249	81.12
274.481	76.12
274.713	89.12
274.945	80.12
275.176	69.12
275.408	86.12
275.64	77.12
275.872	87.12
276.104	83.12
276.335	82.12
276.567	86.12
276.799	83.12
277.031	79.12
277.262	75.12
277.494	76.12
277.726	75.12
277.957	98.12
278.189	80.12
278.421	72.12
278.652	87.12
278.884	81.12
279.115	80.12
279.347	87.12
279.579	89.12
279.81	80.12
280.042	84.12
280.273	90.12
280.505	84.12
280.736	73.12
280.968	69.12
281.199	87.12
281.431	76.12
281.662	93.12
281.894	81.12
282.125	93.12
282.356	87.12
282.588	70.12
282.819	81.12
283.051	74.12
283.282	83.12
283.513	90.12
283.745	90.12
283.976	81.12
284.207	89.12
284.439	80.12
284.67	74.12
284.901	82.12
285.132	87.12
285.364	93.12
285.595	71.12
285.826	84.12
286.057	93.12
286.288	91.12
286.52	74.12
286.751	79.12
286.982	86.12
287.213	87.12
287.444	77.12
287.675	83.12
287.906	83.12
288.138	90.12
288.369	82.12
288.6	81.12
288.831	74.12
289.062	79.12
289.293	80.12
289.524	85.12
289.755	93.12
289.986	78.12
290.217	75.12
290.448	75.12
290.679	87.12
290.91	93.12
291.141	90.12
291.371	81.12
291.602	75.12
291.833	84.12
292.064	83.12
292.295	84.12
292.526	97.12
292.757	74.12
292.987	85.12
293.218	81.12
293.449	82.12
293.68	87.12
293.91	73.12
294.141	90.12
294.372	96.12
294.603	85.12
294.833	87.12
295.064	94.12
295.295	86.12
295.525	76.12
295.756	75.12
295.987	69.12
296.217	79.12
296.448	87.12
296.679	85.12
296.909	80.12
297.14	85.12
297.37	80.12
297.601	85.12
297.831	79.12
298.062	85.12
298.292	88.12
298.523	82.12
298.753	87.12
298.984	97.12
299.214	82.12
299.445	83.12
299.675	80.12
299.905	81.12
300.136	82.12
300.366	93.12
300.597	81.12
300.827	103.12
301.057	88.12
301.288	76.12
301.518	80.12
301.748	87.12
301.979	98.12
302.209	89.12
302.439	95.12
302.669	80.12
302.9	84.12
303.13	89.12
303.36	84.12
303.59	85.12
303.82	83.12
304.051	91.12
304.281	92.12
304.511	78.12
304.741	92.12
304.971	87.12
305.201	84.12
305.431	81.12
305.661	77.12
305.891	74.12
306.121	82.12
306.352	81.12
306.582	75.12
306.812	73.12
307.042	99.12
307.272	81.12
307.502	97.12
307.731	81.12
307.961	91.12
308.191	84.12
308.421	79.12
308.651	92.12
308.881	91.12
309.111	91.12
309.341	89.12
309.571	87.12
309.8	92.12
310.03	83.12
310.26	81.12
310.49	90.12
310.72	91.12
310.949	91.12
311.179	82.12
311.409	86.12
311.639	89.12
311.868	96.12
312.098	82.12
312.328	91.12
312.557	77.12
312.787	85.12
313.017	89.12
313.246	94.12
313.476	83.12
313.706	87.12
313.935	99.12
314.165	90.12
314.394	84.12
314.624	86.12
314.853	77.12
315.083	77.12
315.312	73.12
315.542	95.12
315.771	83.12
316.001	84.12
316.23	86.12
316.46	82.12
316.689	80.12
316.919	82.12
317.148	75.12
317.377	78.12
317.607	105.12
317.836	85.12
318.065	87.12
318.295	90.12
318.524	81.12
318.753	69.12
318.983	87.12
319.212	93.12
319.441	84.12
319.67	83.12
319.9	81.12
320.129	78.12
320.358	89.12
320.587	77.12
320.816	83.12
321.046	82.12
321.275	82.12
321.504	73.12
321.733	82.12
321.962	83.12
322.191	87.12
322.42	83.12
322.649	83.12
322.878	98.12
323.108	90.12
323.337	83.12
323.566	72.12
323.795	91.12
324.024	85.12
324.253	89.12
324.482	69.12
324.71	86.12
324.939	83.12
325.168	87.12
325.397	87.12
325.626	86.12
325.855	83.12
326.084	91.12
326.313	88.12
326.542	86.12
326.77	98.12
326.999	85.12
327.228	96.12
327.457	81.12
327.686	96.12
327.914	89.12
328.143	91.12
328.372	78.12
328.6	83.12
328.829	90.12
329.058	87.12
329.287	93.12
329.515	105.12
329.744	101.12
329.972	86.12
330.201	80.12
330.43	96.12
330.658	68.12
330.887	74.12
331.115	83.12
331.344	84.12
331.572	86.12
331.801	97.12
332.03	76.12
332.258	85.12
332.486	85.12
332.715	94.12
332.943	86.12
333.172	74.12
333.4	95.12
333.629	99.12
333.857	93.12
334.085	99.12
334.314	89.12
334.542	85.12
334.771	77.12
334.999	88.12
335.227	78.12
335.455	82.12
335.684	89.12
335.912	75.12
336.14	93.12
336.369	93.12
336.597	96.12
336.825	98.12
337.053	90.12
337.281	88.12
337.51	78.12
337.738	82.12
337.966	90.12
338.194	101.12
338.422	79.12
338.65	87.12
338.878	77.12
339.106	87.12
339.334	63.12
339.562	76.12
339.79	94.12
340.018	84.12
340.246	88.12
340.474	84.12
340.702	81.12
340.93	105.12
341.158	87.12
341.386	88.12
341.614	97.12
341.842	83.12
342.07	83.12
342.298	94.12
342.526	91.12
342.754	72.12
342.981	89.12
343.209	72.12
343.437	87.12
343.665	85.12
343.893	84.12
344.12	98.12
344.348	88.12
344.576	89.12
344.804	83.12
345.031	74.12
345.259	85.12
345.487	89.12
345.714	75.12
345.942	93.12
346.17	85.12
346.397	77.12
346.625	89.12
346.853	68.12
347.08	94.12
347.308	94.12
347.535	83.12
347.763	75.12
347.99	78.12
348.218	87.12
348.445	90.12
348.673	96.12
348.9	81.12
349.128	87.12
349.355	85.12
349.583	71.12
349.81	82.12
350.037	79.12
350.265	90.12
350.492	80.12
350.72	93.12
350.947	90.12
351.174	87.12
351.402	94.12
351.629	79.12
351.856	73.12
352.083	70.12
352.311	75.12
352.538	77.12
352.765	79.12
352.992	95.12
353.22	97.12
353.447	83.12
353.674	92.12
353.901	78.12
354.128	89.12
354.355	90.12
354.583	91.12
354.81	90.12
355.037	92.12
355.264	81.12
355.491	84.12
355.718	91.12
355.945	73.12
356.172	77.12
356.399	86.12
356.626	90.12
356.853	81.12
357.08	87.12
357.307	89.12
357.534	91.12
357.761	88.12
357.988	90.12
358.215	83.12
358.441	81.12
358.668	93.12
358.895	77.12
359.122	91.12
359.349	95.12
359.576	79.12
359.802	77.12
360.029	93.12
360.256	85.12
360.483	81.12
360.709	85.12
360.936	78.12
361.163	85.12
361.39	87.12
361.616	92.12
361.843	113.12
362.07	104.12
362.296	101.12
362.523	89.12
362.749	100.12
362.976	116.12
363.203	129.12
363.429	108.12
363.656	104.12
363.882	95.12
364.109	117.12
364.335	117.12
364.562	139.12
364.788	111.12
365.015	86.12
365.241	78.12
365.468	98.12
365.694	79.12
365.92	68.12
366.147	86.12
366.373	74.12
366.599	80.12
366.826	81.12
367.052	83.12
367.278	77.12
367.505	89.12
367.731	92.12
367.957	96.12
368.184	79.12
368.41	73.12
368.636	83.12
368.862	96.12
369.089	89.12
369.315	97.12
369.541	89.12
369.767	93.12
369.993	94.12
370.219	98.12
370.445	85.12
370.672	81.12
370.898	83.12
371.124	92.12
371.35	88.12
371.576	89.12
371.802	86.12
372.028	90.12
372.254	97.12
372.48	99.12
372.706	96.12
372.932	85.12
373.158	74.12
373.384	97.12
373.61	96.12
373.835	96.12
374.061	75.12
374.287	90.12
374.513	85.12
374.739	89.12
374.965	91.12
375.191	102.12
375.416	100.12
375.642	100.12
375.868	76.12
376.094	99.12
376.319	94.12
376.545	82.12
376.771	89.12
376.997	99.12
377.222	93.12
377.448	95.12
377.674	93.12
377.899	89.12
378.125	81.12
378.35	76.12
378.576	89.12
378.802	87.12
379.027	78.12
379.253	86.12
379.478	100.12
379.704	81.12
379.929	79.12
380.155	87.12
380.38	88.12
380.606	91.12
380.831	84.12
381.057	93.12
381.282	81.12
381.507	92.12
381.733	101.12
381.958	92.12
382.184	82.12
382.409	96.12
382.634	82.12
382.86	95.12
383.085	82.12
383.31	94.12
383.535	98.12
383.761	93.12
383.986	82.12
384.211	99.12
384.436	95.12
384.662	82.12
384.887	83.12
385.112	76.12
385.337	92.12
385.562	93.12
385.787	97.12
386.013	85.12
386.238	97.12
386.463	86.12
386.688	97.12
386.913	88.12
387.138	94.12
387.363	89.12
387.588	88.12
387.813	89.12
388.038	95.12
388.263	90.12
388.488	82.12
388.713	87.12
388.938	99.12
389.163	76.12
389.387	68.12
389.612	80.12
389.837	104.12
390.062	81.12
390.287	90.12
390.512	83.12
390.736	70.12
390.961	77.12
391.186	75.12
391.411	79.12
391.636	85.12
391.86	89.12
392.085	92.12
392.31	105.12
392.534	104.12
392.759	111.12
392.984	145.12
393.208	225.12
393.433	313.12
393.658	239.12
393.882	127.12
394.107	115.12
394.331	114.12
394.556	98.12
394.78	99.12
395.005	83.12
395.229	88.12
395.454	100.12
395.678	106.12
395.903	120.12
396.127	111.12
396.352	142.12
396.576	162.12
396.801	228.12
397.025	265.12
397.249	168.12
397.474	132.12
397.698	95.12
397.922	85.12
398.147	103.12
398.371	79.12
398.595	99.12
398.82	89.12
399.044	85.12
399.268	95.12
399.492	76.12
399.717	85.12
399.941	93.12
400.165	88.12
400.389	87.12
400.613	89.12
400.837	96.12
401.062	89.12
401.286	77.12
401.51	73.12
401.734	93.12
401.958	95.12
402.182	80.12
402.406	79.12
402.63	85.12
402.854	84.12
403.078	88.12
403.302	79.12
403.526	84.12
403.75	92.12
403.974	88.12
404.198	85.12
404.422	92.12
404.645	99.12
404.869	87.12
405.093	91.12
405.317	72.12
405.541	81.12
405.765	94.12
405.988	101.12
406.212	87.12
406.436	76.12
406.66	95.12
406.883	90.12
407.107	79.12
407.331	103.12
407.555	79.12
407.778	95.12
408.002	110.12
408.226	101.12
408.449	93.12
408.673	95.12
408.896	82.12
409.12	84.12
409.344	63.12
409.567	105.12
409.791	101.12
410.014	96.12
410.238	97.12
410.461	84.12
410.685	97.12
410.908	88.12
411.132	95.12
411.355	95.12
411.578	89.12
411.802	90.12
412.025	74.12
412.249	72.12
412.472	91.12
412.695	78.12
412.919	97.12
413.142	83.12
413.365	71.12
413.589	75.12
413.812	87.12
414.035	73.12
414.258	82.12
414.482	77.12
414.705	98.12
414.928	92.12
415.151	78.12
415.374	96.12
415.597	86.12
415.821	74.12
416.044	85.12
416.267	84.12
416.49	78.12
416.713	86.12
416.936	87.12
417.159	97.12
417.382	68.12
417.605	86.12
417.828	73.12
418.051	80.12
418.274	90.12
418.497	90.12
418.72	81.12
418.943	89.12
419.166	83.12
419.389	89.12
419.611	94.12
419.834	79.12
420.057	83.12
420.28	98.12
420.503	87.12
420.726	73.12
420.948	89.12
421.171	95.12
421.394	101.12
421.617	121.12
421.839	124.12
422.062	146.12
422.285	195.12
422.507	284.12
422.73	389.12
422.953	357.12
423.175	240.12
423.398	161.12
423.621	127.12
423.843	106.12
424.066	101.12
424.288	103.12
424.511	90.12
424.733	89.12
424.956	73.12
425.178	83.12
425.401	75.12
425.623	77.12
425.846	73.12
426.068	93.12
426.291	83.12
426.513	86.12
426.735	90.12
426.958	80.12
427.18	94.12
427.402	82.12
427.625	90.12
427.847	86.12
428.069	96.12
428.292	132.12
428.514	144.12
428.736	122.12
428.958	131.12
429.181	134.12
429.403	106.12
429.625	96.12
429.847	119.12
430.069	166.12
430.292	192.12
430.514	170.12
430.736	124.12
430.958	135.12
431.18	119.12
431.402	99.12
431.624	95.12
431.846	120.12
432.068	140.12
432.29	95.12
432.512	93.12
432.734	74.12
432.956	92.12
433.178	81.12
433.4	72.12
433.622	85.12
433.844	85.12
434.066	90.12
434.287	79.12
434.509	82.12
434.731	84.12
434.953	94.12
435.175	86.12
435.397	87.12
435.618	92.12
435.84	89.12
436.062	87.12
436.284	82.12
436.505	93.12
436.727	81.12
436.949	79.12
437.17	84.12
437.392	82.12
437.614	88.12
437.835	77.12
438.057	91.12
438.278	79.12
438.5	93.12
438.721	86.12
438.943	85.12
439.165	85.12
439.386	78.12
439.608	75.12
439.829	83.12
440.05	83.12
440.272	71.12
440.493	77.12
440.715	86.12
440.936	64.12
441.158	86.12
441.379	77.12
441.6	88.12
441.822	94.12
442.043	86.12
442.264	107.12
442.486	142.12
442.707	167.12
442.928	120.12
443.149	118.12
443.371	137.12
443.592	253.12
443.813	229.12
444.034	118.12
444.255	85.12
444.476	93.12
444.698	89.12
444.919	90.12
445.14	191.12
445.361	216.12
445.582	298.12
445.803	277.12
446.024	129.12
446.245	103.12
446.466	88.12
446.687	81.12
446.908	88.12
447.129	86.12
447.35	86.12
447.571	82.12
447.792	74.12
448.013	87.12
448.234	86.12
448.455	88.12
448.675	91.12
448.896	81.12
449.117	90.12
449.338	97.12
449.559	86.12
449.779	85.12
450	75.12
450.221	79.12
450.442	84.12
450.662	85.12
450.883	88.12
451.104	86.12
451.324	96.12
451.545	85.12
451.766	71.12
451.986	89.12
452.207	80.12
452.428	84.12
452.648	89.12
452.869	105.12
453.089	89.12
453.31	75.12
453.53	98.12
453.751	78.12
453.971	75.12
454.192	71.12
454.412	79.12
454.633	78.12
454.853	85.12
455.073	87.12
455.294	78.12
455.514	81.12
455.734	71.12
455.955	79.12
456.175	84.12
456.395	90.12
456.616	86.12
456.836	88.12
457.056	82.12
457.276	88.12
457.497	78.12
457.717	98.12
457.937	118.12
458.157	127.12
458.377	142.12
458.598	133.12
458.818	139.12
459.038	101.12
459.258	100.12
459.478	81.12
459.698	82.12
459.918	83.12
460.138	88.12
460.358	91.12
460.578	107.12
460.798	113.12
461.018	107.12
461.238	83.12
461.458	79.12
461.678	83.12
461.898	93.12
462.118	73.12
462.338	85.12
462.558	90.12
462.777	70.12
462.997	97.12
463.217	98.12
463.437	72.12
463.657	87.12
463.876	72.12
464.096	81.12
464.316	85.12
464.536	79.12
464.755	86.12
464.975	76.12
465.195	75.12
465.414	87.12
465.634	83.12
465.854	91.12
466.073	86.12
466.293	86.12
466.512	78.12
466.732	78.12
466.951	90.12
467.171	86.12
467.391	83.12
467.61	79.12
467.829	88.12
468.049	72.12
468.268	84.12
468.488	86.12
468.707	91.12
468.927	81.12
469.146	84.12
469.365	85.12
469.585	79.12
469.804	76.12
470.023	71.12
470.243	79.12
470.462	80.12
470.681	92.12
470.901	81.12
471.12	63.12
471.339	79.12
471.558	97.12
471.777	73.12
471.997	92.12
472.216	79.12
472.435	87.12
472.654	86.12
472.873	91.12
473.092	82.12
473.311	89.12
473.53	86.12
473.749	96.12
473.968	82.12
474.187	90.12
474.406	90.12
474.625	92.12
474.844	83.12
475.063	96.12
475.282	81.12
475.501	84.12
475.72	87.12
475.939	70.12
476.158	74.12
476.377	95.12
476.596	85.12
476.814	93.12
477.033	80.12
477.252	83.12
477.471	82.12
477.69	71.12
477.908	77.12
478.127	94.12
478.346	73.12
478.564	86.12
478.783	83.12
479.002	82.12
479.22	73.12
479.439	81.12
479.658	83.12
479.876	86.12
480.095	81.12
480.313	87.12
480.532	81.12
480.751	73.12
480.969	81.12
481.188	80.12
481.406	93.12
481.624	90.12
481.843	71.12
482.061	83.12
482.28	97.12
482.498	90.12
482.717	89.12
482.935	95.12
483.153	81.12
483.372	90.12
483.59	84.12
483.808	78.12
484.027	87.12
484.245	88.12
484.463	92.12
484.681	86.12
484.9	94.12
485.118	89.12
485.336	84.12
485.554	96.12
485.772	71.12
485.99	90.12
486.209	88.12
486.427	88.12
486.645	81.12
486.863	69.12
487.081	87.12
487.299	90.12
487.517	112.12
487.735	118.12
487.953	210.12
488.171	168.12
488.389	113.12
488.607	106.12
488.825	97.12
489.043	88.12
489.261	97.12
489.479	88.12
489.696	76.12
489.914	78.12
490.132	85.12
490.35	78.12
490.568	80.12
490.786	88.12
491.003	98.12
491.221	80.12
491.439	83.12
491.657	91.12
491.874	92.12
492.092	97.12
492.31	87.12
492.527	89.12
492.745	86.12
492.963	79.12
493.18	89.12
493.398	90.12
493.615	90.12
493.833	87.12
494.05	92.12
494.268	86.12
494.485	78.12
494.703	73.12
494.92	95.12
495.138	90.12
495.355	76.12
495.573	95.12
495.79	96.12
496.008	79.12
496.225	104.12
496.442	77.12
496.66	76.12
496.877	96.12
497.094	103.12
497.312	88.12
497.529	80.12
497.746	74.12
497.963	83.12
498.181	81.12
498.398	82.12
498.615	84.12
498.832	77.12
499.049	93.12
499.267	75.12
499.484	93.12
499.701	89.12
499.918	95.12
500.135	90.12
500.352	81.12
500.569	77.12
500.786	80.12
501.003	81.12
501.22	79.12
501.437	83.12
501.654	91.12
501.871	86.12
502.088	83.12
502.305	90.12
502.522	87.12
502.739	82.12
502.956	92.12
503.172	98.12
503.389	91.12
503.606	84.12
503.823	100.12
504.04	109.12
504.256	139.12
504.473	149.12
504.69	101.12
504.907	103.12
505.123	86.12
505.34	90.12
505.557	82.12
505.773	79.12
505.99	77.12
506.207	80.12
506.423	90.12
506.64	89.12
506.856	76.12
507.073	81.12
507.289	93.12
507.506	82.12
507.722	95.12
507.939	87.12
508.155	87.12
508.372	90.12
508.588	80.12
508.805	92.12
509.021	91.12
509.238	97.12
509.454	76.12
509.67	77.12
509.887	96.12
510.103	71.12
510.319	91.12
510.536	85.12
510.752	89.12
510.968	98.12
511.184	79.12
511.401	93.12
511.617	77.12
511.833	98.12
512.049	103.12
512.265	86.12
512.481	93.12
512.698	81.12
512.914	89.12
513.13	76.12
513.346	77.12
513.562	73.12
513.778	86.12
513.994	87.12
514.21	79.12
514.426	88.12
514.642	93.12
514.858	90.12
515.074	99.12
515.29	85.12
515.506	75.12
515.721	100.12
515.937	93.12
516.153	92.12
516.369	93.12
516.585	90.12
516.801	91.12
517.016	90.12
517.232	90.12
517.448	94.12
517.664	88.12
517.879	75.12
518.095	84.12
518.311	88.12
518.527	77.12
