Data from CBS_1_HRD10591_00012.txt Node
Date: Mon Jan 19 14:03:54 EST 2026
User: Yrep
Spectrometer: HR+D1059
Trigger mode: 1
Integration Time (sec): 1.000000E-1
Scans to average: 1
Electric dark correction enabled: true
Nonlinearity correction enabled: false
Boxcar width: 0
XAxis mode: Wavelengths
Number of Pixels in Spectrum: 2048
>>>>>Begin Spectral Data<<<<<
223.165	-27.5
223.4	-27.5
223.635	-27.5
223.869	-13.5
224.104	-11.5
224.338	-20.5
224.573	-10.5
224.808	-22.5
225.042	-5.5
225.277	1.5
225.511	6.5
225.746	-6.5
225.98	9.5
226.215	5.5
226.449	16.5
226.683	26.5
226.918	17.5
227.152	34.5
227.387	28.5
227.621	40.5
227.856	44.5
228.09	46.5
228.324	61.5
228.559	51.5
228.793	50.5
229.027	50.5
229.262	56.5
229.496	65.5
229.73	60.5
229.964	64.5
230.199	86.5
230.433	74.5
230.667	86.5
230.901	75.5
231.136	60.5
231.37	86.5
231.604	70.5
231.838	80.5
232.072	70.5
232.306	60.5
232.541	75.5
232.775	89.5
233.009	86.5
233.243	67.5
233.477	82.5
233.711	92.5
233.945	80.5
234.179	78.5
234.413	80.5
234.647	74.5
234.881	79.5
235.115	71.5
235.349	72.5
235.583	70.5
235.817	93.5
236.051	83.5
236.285	77.5
236.519	86.5
236.753	85.5
236.987	90.5
237.221	84.5
237.455	79.5
237.689	75.5
237.922	68.5
238.156	71.5
238.39	72.5
238.624	77.5
238.858	77.5
239.091	90.5
239.325	63.5
239.559	80.5
239.793	76.5
240.027	71.5
240.26	81.5
240.494	82.5
240.728	74.5
240.961	72.5
241.195	85.5
241.429	63.5
241.662	78.5
241.896	70.5
242.13	80.5
242.363	73.5
242.597	61.5
242.83	82.5
243.064	76.5
243.298	65.5
243.531	87.5
243.765	65.5
243.998	81.5
244.232	89.5
244.465	92.5
244.699	68.5
244.932	78.5
245.166	63.5
245.399	73.5
245.633	74.5
245.866	74.5
246.099	63.5
246.333	62.5
246.566	86.5
246.8	72.5
247.033	68.5
247.266	74.5
247.5	80.5
247.733	82.5
247.966	60.5
248.2	85.5
248.433	80.5
248.666	76.5
248.899	96.5
249.133	80.5
249.366	78.5
249.599	77.5
249.832	57.5
250.066	71.5
250.299	90.5
250.532	72.5
250.765	65.5
250.998	74.5
251.231	72.5
251.465	75.5
251.698	72.5
251.931	67.5
252.164	84.5
252.397	69.5
252.63	74.5
252.863	79.5
253.096	86.5
253.329	82.5
253.562	76.5
253.795	95.5
254.028	74.5
254.261	79.5
254.494	89.5
254.727	78.5
254.96	71.5
255.193	75.5
255.426	68.5
255.659	83.5
255.892	76.5
256.124	78.5
256.357	87.5
256.59	81.5
256.823	84.5
257.056	74.5
257.289	85.5
257.521	75.5
257.754	60.5
257.987	82.5
258.22	85.5
258.452	90.5
258.685	83.5
258.918	73.5
259.151	79.5
259.383	90.5
259.616	74.5
259.849	90.5
260.081	86.5
260.314	85.5
260.547	92.5
260.779	78.5
261.012	82.5
261.244	90.5
261.477	92.5
261.71	82.5
261.942	83.5
262.175	85.5
262.407	80.5
262.64	82.5
262.872	81.5
263.105	75.5
263.337	74.5
263.57	72.5
263.802	80.5
264.035	85.5
264.267	81.5
264.499	75.5
264.732	82.5
264.964	79.5
265.197	86.5
265.429	78.5
265.661	90.5
265.894	88.5
266.126	89.5
266.358	76.5
266.591	93.5
266.823	91.5
267.055	79.5
267.287	84.5
267.52	80.5
267.752	87.5
267.984	84.5
268.216	82.5
268.448	82.5
268.681	73.5
268.913	75.5
269.145	73.5
269.377	86.5
269.609	90.5
269.841	81.5
270.073	77.5
270.306	86.5
270.538	95.5
270.77	73.5
271.002	88.5
271.234	84.5
271.466	73.5
271.698	81.5
271.93	89.5
272.162	78.5
272.394	91.5
272.626	76.5
272.858	86.5
273.09	80.5
273.322	69.5
273.553	70.5
273.785	71.5
274.017	82.5
274.249	76.5
274.481	85.5
274.713	72.5
274.945	84.5
275.176	100.5
275.408	92.5
275.64	88.5
275.872	83.5
276.104	79.5
276.335	82.5
276.567	84.5
276.799	80.5
277.031	76.5
277.262	80.5
277.494	96.5
277.726	70.5
277.957	70.5
278.189	82.5
278.421	74.5
278.652	72.5
278.884	75.5
279.115	80.5
279.347	95.5
279.579	85.5
279.81	80.5
280.042	86.5
280.273	82.5
280.505	92.5
280.736	84.5
280.968	82.5
281.199	77.5
281.431	83.5
281.662	76.5
281.894	81.5
282.125	92.5
282.356	87.5
282.588	83.5
282.819	86.5
283.051	88.5
283.282	77.5
283.513	90.5
283.745	87.5
283.976	78.5
284.207	95.5
284.439	105.5
284.67	91.5
284.901	94.5
285.132	95.5
285.364	98.5
285.595	84.5
285.826	84.5
286.057	90.5
286.288	90.5
286.52	88.5
286.751	93.5
286.982	85.5
287.213	94.5
287.444	91.5
287.675	93.5
287.906	101.5
288.138	82.5
288.369	96.5
288.6	85.5
288.831	86.5
289.062	70.5
289.293	72.5
289.524	80.5
289.755	82.5
289.986	92.5
290.217	88.5
290.448	89.5
290.679	88.5
290.91	92.5
291.141	80.5
291.371	72.5
291.602	81.5
291.833	88.5
292.064	87.5
292.295	89.5
292.526	92.5
292.757	89.5
292.987	86.5
293.218	87.5
293.449	83.5
293.68	79.5
293.91	77.5
294.141	86.5
294.372	82.5
294.603	92.5
294.833	81.5
295.064	78.5
295.295	84.5
295.525	81.5
295.756	80.5
295.987	92.5
296.217	81.5
296.448	68.5
296.679	83.5
296.909	97.5
297.14	78.5
297.37	91.5
297.601	85.5
297.831	77.5
298.062	95.5
298.292	82.5
298.523	91.5
298.753	88.5
298.984	82.5
299.214	83.5
299.445	78.5
299.675	102.5
299.905	110.5
300.136	96.5
300.366	86.5
300.597	93.5
300.827	92.5
301.057	93.5
301.288	89.5
301.518	90.5
301.748	82.5
301.979	118.5
302.209	84.5
302.439	88.5
302.669	89.5
302.9	89.5
303.13	78.5
303.36	102.5
303.59	73.5
303.82	84.5
304.051	84.5
304.281	85.5
304.511	81.5
304.741	96.5
304.971	94.5
305.201	96.5
305.431	85.5
305.661	99.5
305.891	94.5
306.121	93.5
306.352	95.5
306.582	88.5
306.812	100.5
307.042	83.5
307.272	85.5
307.502	85.5
307.731	80.5
307.961	92.5
308.191	104.5
308.421	85.5
308.651	81.5
308.881	96.5
309.111	94.5
309.341	105.5
309.571	83.5
309.8	81.5
310.03	86.5
310.26	99.5
310.49	84.5
310.72	71.5
310.949	89.5
311.179	72.5
311.409	73.5
311.639	83.5
311.868	96.5
312.098	91.5
312.328	82.5
312.557	93.5
312.787	82.5
313.017	85.5
313.246	78.5
313.476	87.5
313.706	93.5
313.935	80.5
314.165	93.5
314.394	92.5
314.624	97.5
314.853	87.5
315.083	97.5
315.312	94.5
315.542	92.5
315.771	93.5
316.001	112.5
316.23	99.5
316.46	95.5
316.689	87.5
316.919	86.5
317.148	90.5
317.377	84.5
317.607	105.5
317.836	108.5
318.065	113.5
318.295	113.5
318.524	81.5
318.753	87.5
318.983	90.5
319.212	100.5
319.441	94.5
319.67	78.5
319.9	82.5
320.129	85.5
320.358	80.5
320.587	84.5
320.816	80.5
321.046	84.5
321.275	94.5
321.504	100.5
321.733	80.5
321.962	88.5
322.191	102.5
322.42	113.5
322.649	88.5
322.878	94.5
323.108	90.5
323.337	95.5
323.566	89.5
323.795	96.5
324.024	83.5
324.253	69.5
324.482	89.5
324.71	75.5
324.939	79.5
325.168	87.5
325.397	81.5
325.626	81.5
325.855	82.5
326.084	79.5
326.313	81.5
326.542	91.5
326.77	72.5
326.999	74.5
327.228	100.5
327.457	85.5
327.686	92.5
327.914	105.5
328.143	102.5
328.372	82.5
328.6	90.5
328.829	88.5
329.058	87.5
329.287	81.5
329.515	80.5
329.744	94.5
329.972	84.5
330.201	88.5
330.43	95.5
330.658	80.5
330.887	96.5
331.115	84.5
331.344	98.5
331.572	104.5
331.801	83.5
332.03	91.5
332.258	85.5
332.486	74.5
332.715	90.5
332.943	90.5
333.172	73.5
333.4	89.5
333.629	105.5
333.857	83.5
334.085	100.5
334.314	114.5
334.542	98.5
334.771	112.5
334.999	110.5
335.227	112.5
335.455	90.5
335.684	108.5
335.912	116.5
336.14	124.5
336.369	125.5
336.597	100.5
336.825	104.5
337.053	97.5
337.281	81.5
337.51	87.5
337.738	102.5
337.966	94.5
338.194	90.5
338.422	95.5
338.65	86.5
338.878	98.5
339.106	92.5
339.334	89.5
339.562	98.5
339.79	103.5
340.018	93.5
340.246	92.5
340.474	81.5
340.702	92.5
340.93	77.5
341.158	85.5
341.386	80.5
341.614	85.5
341.842	88.5
342.07	65.5
342.298	91.5
342.526	91.5
342.754	75.5
342.981	76.5
343.209	80.5
343.437	106.5
343.665	95.5
343.893	95.5
344.12	104.5
344.348	97.5
344.576	97.5
344.804	98.5
345.031	98.5
345.259	94.5
345.487	85.5
345.714	93.5
345.942	97.5
346.17	87.5
346.397	90.5
346.625	95.5
346.853	100.5
347.08	80.5
347.308	93.5
347.535	85.5
347.763	93.5
347.99	92.5
348.218	86.5
348.445	84.5
348.673	99.5
348.9	111.5
349.128	103.5
349.355	85.5
349.583	84.5
349.81	98.5
350.037	104.5
350.265	101.5
350.492	90.5
350.72	89.5
350.947	81.5
351.174	76.5
351.402	86.5
351.629	78.5
351.856	92.5
352.083	97.5
352.311	72.5
352.538	98.5
352.765	96.5
352.992	85.5
353.22	88.5
353.447	82.5
353.674	92.5
353.901	105.5
354.128	78.5
354.355	92.5
354.583	85.5
354.81	88.5
355.037	94.5
355.264	102.5
355.491	110.5
355.718	83.5
355.945	89.5
356.172	84.5
356.399	93.5
356.626	110.5
356.853	90.5
357.08	97.5
357.307	97.5
357.534	87.5
357.761	103.5
357.988	93.5
358.215	105.5
358.441	98.5
358.668	92.5
358.895	86.5
359.122	94.5
359.349	83.5
359.576	97.5
359.802	97.5
360.029	104.5
360.256	92.5
360.483	101.5
360.709	109.5
360.936	108.5
361.163	95.5
361.39	104.5
361.616	92.5
361.843	88.5
362.07	103.5
362.296	126.5
362.523	152.5
362.749	133.5
362.976	186.5
363.203	192.5
363.429	142.5
363.656	120.5
363.882	129.5
364.109	152.5
364.335	208.5
364.562	236.5
364.788	168.5
365.015	112.5
365.241	88.5
365.468	93.5
365.694	106.5
365.92	90.5
366.147	95.5
366.373	102.5
366.599	85.5
366.826	85.5
367.052	80.5
367.278	96.5
367.505	103.5
367.731	93.5
367.957	96.5
368.184	89.5
368.41	76.5
368.636	97.5
368.862	103.5
369.089	101.5
369.315	89.5
369.541	85.5
369.767	81.5
369.993	91.5
370.219	96.5
370.445	97.5
370.672	111.5
370.898	102.5
371.124	92.5
371.35	85.5
371.576	102.5
371.802	85.5
372.028	101.5
372.254	115.5
372.48	86.5
372.706	92.5
372.932	92.5
373.158	97.5
373.384	118.5
373.61	135.5
373.835	129.5
374.061	102.5
374.287	108.5
374.513	104.5
374.739	102.5
374.965	102.5
375.191	101.5
375.416	96.5
375.642	114.5
375.868	104.5
376.094	108.5
376.319	96.5
376.545	106.5
376.771	86.5
376.997	98.5
377.222	87.5
377.448	94.5
377.674	97.5
377.899	88.5
378.125	98.5
378.35	93.5
378.576	103.5
378.802	105.5
379.027	100.5
379.253	92.5
379.478	110.5
379.704	103.5
379.929	89.5
380.155	114.5
380.38	93.5
380.606	101.5
380.831	111.5
381.057	103.5
381.282	105.5
381.507	103.5
381.733	105.5
381.958	101.5
382.184	99.5
382.409	93.5
382.634	104.5
382.86	116.5
383.085	105.5
383.31	110.5
383.535	108.5
383.761	110.5
383.986	106.5
384.211	104.5
384.436	93.5
384.662	110.5
384.887	97.5
385.112	105.5
385.337	110.5
385.562	104.5
385.787	100.5
386.013	92.5
386.238	89.5
386.463	110.5
386.688	121.5
386.913	99.5
387.138	112.5
387.363	107.5
387.588	124.5
387.813	128.5
388.038	115.5
388.263	109.5
388.488	102.5
388.713	105.5
388.938	98.5
389.163	100.5
389.387	97.5
389.612	89.5
389.837	94.5
390.062	101.5
390.287	96.5
390.512	116.5
390.736	100.5
390.961	90.5
391.186	116.5
391.411	105.5
391.636	110.5
391.86	118.5
392.085	110.5
392.31	123.5
392.534	159.5
392.759	179.5
392.984	287.5
393.208	505.5
393.433	759.5
393.658	577.5
393.882	246.5
394.107	163.5
394.331	144.5
394.556	147.5
394.78	136.5
395.005	116.5
395.229	109.5
395.454	120.5
395.678	154.5
395.903	173.5
396.127	188.5
396.352	247.5
396.576	310.5
396.801	490.5
397.025	588.5
397.249	320.5
397.474	202.5
397.698	146.5
397.922	130.5
398.147	115.5
398.371	96.5
398.595	98.5
398.82	105.5
399.044	108.5
399.268	105.5
399.492	87.5
399.717	113.5
399.941	101.5
400.165	102.5
400.389	109.5
400.613	89.5
400.837	86.5
401.062	88.5
401.286	104.5
401.51	90.5
401.734	105.5
401.958	80.5
402.182	86.5
402.406	92.5
402.63	99.5
402.854	115.5
403.078	103.5
403.302	98.5
403.526	106.5
403.75	112.5
403.974	90.5
404.198	101.5
404.422	120.5
404.645	120.5
404.869	104.5
405.093	105.5
405.317	92.5
405.541	102.5
405.765	88.5
405.988	89.5
406.212	90.5
406.436	103.5
406.66	88.5
406.883	90.5
407.107	102.5
407.331	96.5
407.555	108.5
407.778	155.5
408.002	136.5
408.226	103.5
408.449	105.5
408.673	84.5
408.896	105.5
409.12	88.5
409.344	131.5
409.567	137.5
409.791	144.5
410.014	133.5
410.238	141.5
410.461	117.5
410.685	120.5
410.908	119.5
411.132	109.5
411.355	90.5
411.578	96.5
411.802	109.5
412.025	100.5
412.249	95.5
412.472	96.5
412.695	81.5
412.919	109.5
413.142	92.5
413.365	92.5
413.589	101.5
413.812	94.5
414.035	87.5
414.258	100.5
414.482	89.5
414.705	110.5
414.928	105.5
415.151	90.5
415.374	102.5
415.597	110.5
415.821	90.5
416.044	104.5
416.267	87.5
416.49	84.5
416.713	99.5
416.936	102.5
417.159	90.5
417.382	92.5
417.605	93.5
417.828	88.5
418.051	91.5
418.274	90.5
418.497	99.5
418.72	85.5
418.943	103.5
419.166	91.5
419.389	96.5
419.611	110.5
419.834	113.5
420.057	110.5
420.28	111.5
420.503	96.5
420.726	114.5
420.948	129.5
421.171	126.5
421.394	146.5
421.617	193.5
421.839	195.5
422.062	223.5
422.285	329.5
422.507	585.5
422.73	837.5
422.953	760.5
423.175	443.5
423.398	284.5
423.621	201.5
423.843	140.5
424.066	124.5
424.288	139.5
424.511	123.5
424.733	118.5
424.956	111.5
425.178	110.5
425.401	99.5
425.623	104.5
425.846	90.5
426.068	101.5
426.291	86.5
426.513	108.5
426.735	114.5
426.958	102.5
427.18	102.5
427.402	109.5
427.625	114.5
427.847	126.5
428.069	137.5
428.292	200.5
428.514	232.5
428.736	161.5
428.958	204.5
429.181	218.5
429.403	139.5
429.625	124.5
429.847	189.5
430.069	273.5
430.292	341.5
430.514	312.5
430.736	234.5
430.958	229.5
431.18	150.5
431.402	120.5
431.624	118.5
431.846	200.5
432.068	226.5
432.29	119.5
432.512	100.5
432.734	85.5
432.956	108.5
433.178	89.5
433.4	78.5
433.622	97.5
433.844	94.5
434.066	79.5
434.287	105.5
434.509	99.5
434.731	90.5
434.953	88.5
435.175	80.5
435.397	103.5
435.618	112.5
435.84	112.5
436.062	114.5
436.284	121.5
436.505	99.5
436.727	97.5
436.949	108.5
437.17	77.5
437.392	99.5
437.614	90.5
437.835	88.5
438.057	87.5
438.278	100.5
438.5	85.5
438.721	89.5
438.943	100.5
439.165	84.5
439.386	89.5
439.608	99.5
439.829	96.5
440.05	88.5
440.272	94.5
440.493	103.5
440.715	92.5
440.936	99.5
441.158	89.5
441.379	93.5
441.6	102.5
441.822	92.5
442.043	111.5
442.264	124.5
442.486	238.5
442.707	334.5
442.928	205.5
443.149	184.5
443.371	282.5
443.592	522.5
443.813	442.5
444.034	177.5
444.255	128.5
444.476	122.5
444.698	104.5
444.919	129.5
445.14	268.5
445.361	360.5
445.582	627.5
445.803	535.5
446.024	224.5
446.245	117.5
446.466	111.5
446.687	94.5
446.908	103.5
447.129	110.5
447.35	99.5
447.571	94.5
447.792	86.5
448.013	95.5
448.234	93.5
448.455	80.5
448.675	100.5
448.896	103.5
449.117	97.5
449.338	88.5
449.559	95.5
449.779	91.5
450	100.5
450.221	98.5
450.442	93.5
450.662	88.5
450.883	86.5
451.104	98.5
451.324	95.5
451.545	87.5
451.766	92.5
451.986	96.5
452.207	89.5
452.428	84.5
452.648	114.5
452.869	142.5
453.089	128.5
453.31	114.5
453.53	104.5
453.751	98.5
453.971	93.5
454.192	97.5
454.412	90.5
454.633	102.5
454.853	103.5
455.073	81.5
455.294	87.5
455.514	81.5
455.734	97.5
455.955	90.5
456.175	85.5
456.395	85.5
456.616	79.5
456.836	103.5
457.056	92.5
457.276	108.5
457.497	105.5
457.717	114.5
457.937	178.5
458.157	231.5
458.377	236.5
458.598	230.5
458.818	222.5
459.038	156.5
459.258	103.5
459.478	92.5
459.698	90.5
459.918	85.5
460.138	97.5
460.358	95.5
460.578	117.5
460.798	167.5
461.018	158.5
461.238	87.5
461.458	87.5
461.678	96.5
461.898	83.5
462.118	91.5
462.338	96.5
462.558	103.5
462.777	80.5
462.997	86.5
463.217	92.5
463.437	97.5
463.657	74.5
463.876	87.5
464.096	90.5
464.316	96.5
464.536	112.5
464.755	93.5
464.975	92.5
465.195	90.5
465.414	83.5
465.634	74.5
465.854	88.5
466.073	86.5
466.293	100.5
466.512	103.5
466.732	88.5
466.951	84.5
467.171	70.5
467.391	92.5
467.61	82.5
467.829	96.5
468.049	101.5
468.268	108.5
468.488	95.5
468.707	114.5
468.927	88.5
469.146	96.5
469.365	100.5
469.585	90.5
469.804	104.5
470.023	104.5
470.243	98.5
470.462	96.5
470.681	100.5
470.901	85.5
471.12	92.5
471.339	100.5
471.558	94.5
471.777	104.5
471.997	115.5
472.216	97.5
472.435	101.5
472.654	85.5
472.873	99.5
473.092	90.5
473.311	86.5
473.53	96.5
473.749	73.5
473.968	86.5
474.187	102.5
474.406	93.5
474.625	96.5
474.844	108.5
475.063	89.5
475.282	104.5
475.501	93.5
475.72	78.5
475.939	101.5
476.158	102.5
476.377	97.5
476.596	97.5
476.814	96.5
477.033	98.5
477.252	89.5
477.471	90.5
477.69	88.5
477.908	88.5
478.127	98.5
478.346	100.5
478.564	110.5
478.783	108.5
479.002	100.5
479.22	99.5
479.439	92.5
479.658	95.5
479.876	94.5
480.095	110.5
480.313	112.5
480.532	105.5
480.751	105.5
480.969	84.5
481.188	91.5
481.406	102.5
481.624	85.5
481.843	89.5
482.061	110.5
482.28	96.5
482.498	108.5
482.717	90.5
482.935	97.5
483.153	97.5
483.372	114.5
483.59	115.5
483.808	92.5
484.027	99.5
484.245	96.5
484.463	100.5
484.681	92.5
484.9	101.5
485.118	110.5
485.336	81.5
485.554	103.5
485.772	99.5
485.99	110.5
486.209	103.5
486.427	100.5
486.645	86.5
486.863	103.5
487.081	96.5
487.299	121.5
487.517	124.5
487.735	188.5
487.953	385.5
488.171	304.5
488.389	131.5
488.607	110.5
488.825	95.5
489.043	83.5
489.261	101.5
489.479	89.5
489.696	105.5
489.914	100.5
490.132	111.5
490.35	92.5
490.568	88.5
490.786	98.5
491.003	112.5
491.221	107.5
491.439	110.5
491.657	96.5
491.874	98.5
492.092	97.5
492.31	100.5
492.527	101.5
492.745	96.5
492.963	90.5
493.18	117.5
493.398	105.5
493.615	94.5
493.833	108.5
494.05	90.5
494.268	96.5
494.485	96.5
494.703	98.5
494.92	98.5
495.138	106.5
495.355	101.5
495.573	98.5
495.79	105.5
496.008	96.5
496.225	95.5
496.442	106.5
496.66	103.5
496.877	102.5
497.094	115.5
497.312	92.5
497.529	106.5
497.746	98.5
497.963	113.5
498.181	94.5
498.398	108.5
498.615	110.5
498.832	96.5
499.049	98.5
499.267	106.5
499.484	100.5
499.701	92.5
499.918	93.5
500.135	110.5
500.352	106.5
500.569	86.5
500.786	87.5
501.003	99.5
501.22	90.5
501.437	98.5
501.654	112.5
501.871	104.5
502.088	97.5
502.305	109.5
502.522	98.5
502.739	99.5
502.956	96.5
503.172	98.5
503.389	124.5
503.606	93.5
503.823	114.5
504.04	150.5
504.256	275.5
504.473	272.5
504.69	135.5
504.907	102.5
505.123	120.5
505.34	88.5
505.557	111.5
505.773	81.5
505.99	82.5
506.207	85.5
506.423	101.5
506.64	111.5
506.856	91.5
507.073	100.5
507.289	97.5
507.506	86.5
507.722	107.5
507.939	104.5
508.155	94.5
508.372	84.5
508.588	105.5
508.805	112.5
509.021	101.5
509.238	88.5
509.454	86.5
509.67	83.5
509.887	101.5
510.103	97.5
510.319	98.5
510.536	95.5
510.752	104.5
510.968	90.5
511.184	92.5
511.401	87.5
511.617	94.5
511.833	94.5
512.049	100.5
512.265	103.5
512.481	92.5
512.698	94.5
512.914	92.5
513.13	91.5
513.346	95.5
513.562	98.5
513.778	104.5
513.994	98.5
514.21	98.5
514.426	106.5
514.642	111.5
514.858	93.5
515.074	96.5
515.29	93.5
515.506	103.5
515.721	97.5
515.937	113.5
516.153	102.5
516.369	83.5
516.585	94.5
516.801	100.5
517.016	112.5
517.232	95.5
517.448	108.5
517.664	100.5
517.879	114.5
518.095	120.5
518.311	110.5
518.527	146.5
518.742	156.5
518.958	334.5
519.173	395.5
519.389	172.5
519.605	114.5
519.82	92.5
520.036	105.5
520.251	96.5
520.467	99.5
520.682	81.5
520.898	106.5
521.113	120.5
521.329	99.5
521.544	92.5
521.76	94.5
521.975	83.5
522.19	98.5
522.406	103.5
522.621	110.5
522.836	116.5
523.052	109.5
523.267	94.5
523.482	119.5
523.698	113.5
523.913	100.5
524.128	102.5
524.343	101.5
524.559	103.5
524.774	129.5
524.989	105.5
525.204	102.5
525.419	106.5
525.634	108.5
525.849	146.5
526.064	217.5
526.28	496.5
526.495	764.5
526.71	828.5
526.925	486.5
527.14	607.5
527.355	574.5
527.57	186.5
527.785	106.5
527.999	115.5
528.214	102.5
528.429	99.5
528.644	103.5
528.859	98.5
529.074	112.5
529.289	113.5
529.503	117.5
529.718	110.5
529.933	118.5
530.148	109.5
530.363	105.5
530.577	111.5
530.792	110.5
531.007	117.5
531.221	118.5
531.436	118.5
531.651	128.5
531.865	111.5
532.08	120.5
532.295	117.5
532.509	119.5
532.724	116.5
532.938	115.5
533.153	132.5
