Data from CBS_1_HRD10591_00009.txt Node
Date: Mon Jan 19 14:03:53 EST 2026
User: Yrep
Spectrometer: HR+D1059
Trigger mode: 1
Integration Time (sec): 1.000000E-1
Scans to average: 1
Electric dark correction enabled: true
Nonlinearity correction enabled: false
Boxcar width: 0
XAxis mode: Wavelengths
Number of Pixels in Spectrum: 2048
>>>>>Begin Spectral Data<<<<<
223.165	-25.44
223.4	-25.44
223.635	-25.44
223.869	-32.44
224.104	-19.44
224.338	-8.44
224.573	-5.44
224.808	-8.44
225.042	-10.44
225.277	4.56
225.511	3.56
225.746	-2.44
225.98	5.56
226.215	27.56
226.449	18.56
226.683	7.56
226.918	17.56
227.152	27.56
227.387	28.56
227.621	38.56
227.856	29.56
228.09	44.56
228.324	51.56
228.559	58.56
228.793	51.56
229.027	45.56
229.262	65.56
229.496	61.56
229.73	70.56
229.964	71.56
230.199	71.56
230.433	76.56
230.667	78.56
230.901	71.56
231.136	65.56
231.37	74.56
231.604	94.56
231.838	74.56
232.072	70.56
232.306	76.56
232.541	81.56
232.775	78.56
233.009	86.56
233.243	95.56
233.477	80.56
233.711	80.56
233.945	73.56
234.179	83.56
234.413	84.56
234.647	89.56
234.881	70.56
235.115	85.56
235.349	80.56
235.583	85.56
235.817	86.56
236.051	87.56
236.285	65.56
236.519	79.56
236.753	71.56
236.987	62.56
237.221	66.56
237.455	74.56
237.689	78.56
237.922	74.56
238.156	69.56
238.39	86.56
238.624	73.56
238.858	83.56
239.091	80.56
239.325	67.56
239.559	74.56
239.793	72.56
240.027	81.56
240.26	75.56
240.494	85.56
240.728	75.56
240.961	81.56
241.195	75.56
241.429	69.56
241.662	64.56
241.896	76.56
242.13	61.56
242.363	85.56
242.597	78.56
242.83	103.56
243.064	66.56
243.298	70.56
243.531	76.56
243.765	75.56
243.998	56.56
244.232	81.56
244.465	72.56
244.699	77.56
244.932	88.56
245.166	71.56
245.399	81.56
245.633	81.56
245.866	75.56
246.099	79.56
246.333	82.56
246.566	71.56
246.8	69.56
247.033	80.56
247.266	67.56
247.5	66.56
247.733	76.56
247.966	75.56
248.2	65.56
248.433	70.56
248.666	80.56
248.899	66.56
249.133	64.56
249.366	89.56
249.599	81.56
249.832	72.56
250.066	83.56
250.299	80.56
250.532	61.56
250.765	71.56
250.998	85.56
251.231	72.56
251.465	74.56
251.698	86.56
251.931	89.56
252.164	71.56
252.397	85.56
252.63	82.56
252.863	73.56
253.096	69.56
253.329	80.56
253.562	69.56
253.795	69.56
254.028	86.56
254.261	81.56
254.494	80.56
254.727	73.56
254.96	71.56
255.193	82.56
255.426	75.56
255.659	85.56
255.892	77.56
256.124	84.56
256.357	82.56
256.59	85.56
256.823	81.56
257.056	80.56
257.289	69.56
257.521	87.56
257.754	97.56
257.987	77.56
258.22	77.56
258.452	74.56
258.685	82.56
258.918	73.56
259.151	82.56
259.383	91.56
259.616	88.56
259.849	77.56
260.081	73.56
260.314	69.56
260.547	73.56
260.779	89.56
261.012	69.56
261.244	86.56
261.477	83.56
261.71	75.56
261.942	79.56
262.175	83.56
262.407	79.56
262.64	79.56
262.872	86.56
263.105	65.56
263.337	83.56
263.57	86.56
263.802	75.56
264.035	73.56
264.267	81.56
264.499	79.56
264.732	96.56
264.964	87.56
265.197	71.56
265.429	87.56
265.661	76.56
265.894	99.56
266.126	93.56
266.358	71.56
266.591	76.56
266.823	85.56
267.055	77.56
267.287	76.56
267.52	90.56
267.752	83.56
267.984	71.56
268.216	73.56
268.448	82.56
268.681	91.56
268.913	84.56
269.145	81.56
269.377	83.56
269.609	87.56
269.841	98.56
270.073	76.56
270.306	88.56
270.538	83.56
270.77	73.56
271.002	83.56
271.234	95.56
271.466	82.56
271.698	67.56
271.93	79.56
272.162	80.56
272.394	73.56
272.626	82.56
272.858	79.56
273.09	74.56
273.322	89.56
273.553	78.56
273.785	73.56
274.017	97.56
274.249	90.56
274.481	79.56
274.713	81.56
274.945	79.56
275.176	87.56
275.408	87.56
275.64	75.56
275.872	81.56
276.104	79.56
276.335	99.56
276.567	87.56
276.799	83.56
277.031	79.56
277.262	76.56
277.494	86.56
277.726	93.56
277.957	73.56
278.189	76.56
278.421	93.56
278.652	88.56
278.884	93.56
279.115	83.56
279.347	77.56
279.579	86.56
279.81	87.56
280.042	84.56
280.273	85.56
280.505	84.56
280.736	90.56
280.968	100.56
281.199	93.56
281.431	94.56
281.662	85.56
281.894	81.56
282.125	92.56
282.356	65.56
282.588	74.56
282.819	78.56
283.051	75.56
283.282	89.56
283.513	93.56
283.745	75.56
283.976	90.56
284.207	65.56
284.439	77.56
284.67	85.56
284.901	93.56
285.132	79.56
285.364	85.56
285.595	90.56
285.826	70.56
286.057	81.56
286.288	87.56
286.52	78.56
286.751	81.56
286.982	91.56
287.213	76.56
287.444	92.56
287.675	93.56
287.906	88.56
288.138	82.56
288.369	93.56
288.6	78.56
288.831	73.56
289.062	96.56
289.293	83.56
289.524	77.56
289.755	79.56
289.986	84.56
290.217	72.56
290.448	75.56
290.679	94.56
290.91	77.56
291.141	77.56
291.371	85.56
291.602	93.56
291.833	74.56
292.064	89.56
292.295	81.56
292.526	80.56
292.757	94.56
292.987	88.56
293.218	89.56
293.449	92.56
293.68	77.56
293.91	72.56
294.141	88.56
294.372	69.56
294.603	85.56
294.833	80.56
295.064	78.56
295.295	81.56
295.525	90.56
295.756	83.56
295.987	92.56
296.217	81.56
296.448	79.56
296.679	89.56
296.909	91.56
297.14	84.56
297.37	81.56
297.601	74.56
297.831	90.56
298.062	81.56
298.292	84.56
298.523	93.56
298.753	96.56
298.984	83.56
299.214	81.56
299.445	90.56
299.675	102.56
299.905	101.56
300.136	95.56
300.366	93.56
300.597	97.56
300.827	85.56
301.057	96.56
301.288	98.56
301.518	89.56
301.748	87.56
301.979	97.56
302.209	86.56
302.439	82.56
302.669	85.56
302.9	83.56
303.13	89.56
303.36	81.56
303.59	83.56
303.82	91.56
304.051	86.56
304.281	82.56
304.511	84.56
304.741	81.56
304.971	90.56
305.201	80.56
305.431	105.56
305.661	93.56
305.891	83.56
306.121	100.56
306.352	84.56
306.582	78.56
306.812	92.56
307.042	75.56
307.272	79.56
307.502	93.56
307.731	83.56
307.961	79.56
308.191	89.56
308.421	89.56
308.651	79.56
308.881	81.56
309.111	91.56
309.341	91.56
309.571	95.56
309.8	80.56
310.03	81.56
310.26	84.56
310.49	85.56
310.72	86.56
310.949	83.56
311.179	85.56
311.409	88.56
311.639	83.56
311.868	82.56
312.098	84.56
312.328	90.56
312.557	74.56
312.787	75.56
313.017	86.56
313.246	75.56
313.476	87.56
313.706	106.56
313.935	89.56
314.165	85.56
314.394	96.56
314.624	80.56
314.853	83.56
315.083	81.56
315.312	79.56
315.542	75.56
315.771	89.56
316.001	96.56
316.23	75.56
316.46	85.56
316.689	94.56
316.919	87.56
317.148	91.56
317.377	85.56
317.607	95.56
317.836	87.56
318.065	99.56
318.295	95.56
318.524	103.56
318.753	93.56
318.983	82.56
319.212	81.56
319.441	87.56
319.67	86.56
319.9	86.56
320.129	91.56
320.358	85.56
320.587	85.56
320.816	88.56
321.046	97.56
321.275	95.56
321.504	95.56
321.733	89.56
321.962	94.56
322.191	96.56
322.42	101.56
322.649	98.56
322.878	95.56
323.108	100.56
323.337	73.56
323.566	81.56
323.795	89.56
324.024	107.56
324.253	78.56
324.482	87.56
324.71	97.56
324.939	98.56
325.168	79.56
325.397	82.56
325.626	85.56
325.855	86.56
326.084	86.56
326.313	102.56
326.542	97.56
326.77	98.56
326.999	88.56
327.228	96.56
327.457	93.56
327.686	89.56
327.914	83.56
328.143	84.56
328.372	98.56
328.6	77.56
328.829	91.56
329.058	79.56
329.287	86.56
329.515	98.56
329.744	83.56
329.972	96.56
330.201	88.56
330.43	84.56
330.658	95.56
330.887	91.56
331.115	86.56
331.344	93.56
331.572	91.56
331.801	82.56
332.03	82.56
332.258	90.56
332.486	87.56
332.715	96.56
332.943	84.56
333.172	90.56
333.4	90.56
333.629	82.56
333.857	98.56
334.085	72.56
334.314	89.56
334.542	86.56
334.771	105.56
334.999	104.56
335.227	93.56
335.455	83.56
335.684	100.56
335.912	112.56
336.14	113.56
336.369	94.56
336.597	101.56
336.825	90.56
337.053	75.56
337.281	85.56
337.51	85.56
337.738	86.56
337.966	97.56
338.194	92.56
338.422	93.56
338.65	106.56
338.878	82.56
339.106	86.56
339.334	84.56
339.562	82.56
339.79	102.56
340.018	89.56
340.246	90.56
340.474	85.56
340.702	69.56
340.93	90.56
341.158	96.56
341.386	94.56
341.614	88.56
341.842	86.56
342.07	87.56
342.298	89.56
342.526	77.56
342.754	83.56
342.981	86.56
343.209	87.56
343.437	99.56
343.665	94.56
343.893	98.56
344.12	94.56
344.348	90.56
344.576	80.56
344.804	88.56
345.031	81.56
345.259	94.56
345.487	81.56
345.714	85.56
345.942	99.56
346.17	103.56
346.397	94.56
346.625	83.56
346.853	97.56
347.08	99.56
347.308	96.56
347.535	98.56
347.763	99.56
347.99	99.56
348.218	100.56
348.445	91.56
348.673	108.56
348.9	82.56
349.128	93.56
349.355	102.56
349.583	91.56
349.81	81.56
350.037	89.56
350.265	87.56
350.492	81.56
350.72	81.56
350.947	92.56
351.174	106.56
351.402	93.56
351.629	90.56
351.856	85.56
352.083	89.56
352.311	89.56
352.538	82.56
352.765	82.56
352.992	90.56
353.22	93.56
353.447	101.56
353.674	97.56
353.901	100.56
354.128	93.56
354.355	77.56
354.583	88.56
354.81	91.56
355.037	94.56
355.264	97.56
355.491	95.56
355.718	74.56
355.945	82.56
356.172	82.56
356.399	85.56
356.626	72.56
356.853	85.56
357.08	104.56
357.307	88.56
357.534	74.56
357.761	86.56
357.988	109.56
358.215	97.56
358.441	96.56
358.668	93.56
358.895	96.56
359.122	95.56
359.349	85.56
359.576	84.56
359.802	85.56
360.029	104.56
360.256	96.56
360.483	89.56
360.709	103.56
360.936	91.56
361.163	97.56
361.39	96.56
361.616	89.56
361.843	96.56
362.07	112.56
362.296	139.56
362.523	122.56
362.749	127.56
362.976	137.56
363.203	152.56
363.429	123.56
363.656	96.56
363.882	113.56
364.109	129.56
364.335	166.56
364.562	180.56
364.788	125.56
365.015	95.56
365.241	102.56
365.468	93.56
365.694	93.56
365.92	83.56
366.147	98.56
366.373	103.56
366.599	85.56
366.826	93.56
367.052	99.56
367.278	105.56
367.505	94.56
367.731	88.56
367.957	85.56
368.184	99.56
368.41	73.56
368.636	100.56
368.862	90.56
369.089	78.56
369.315	80.56
369.541	105.56
369.767	98.56
369.993	96.56
370.219	108.56
370.445	92.56
370.672	108.56
370.898	103.56
371.124	81.56
371.35	85.56
371.576	86.56
371.802	94.56
372.028	103.56
372.254	99.56
372.48	98.56
372.706	100.56
372.932	106.56
373.158	93.56
373.384	109.56
373.61	127.56
373.835	109.56
374.061	105.56
374.287	92.56
374.513	87.56
374.739	98.56
374.965	95.56
375.191	97.56
375.416	95.56
375.642	91.56
375.868	100.56
376.094	111.56
376.319	105.56
376.545	90.56
376.771	98.56
376.997	99.56
377.222	86.56
377.448	98.56
377.674	99.56
377.899	118.56
378.125	100.56
378.35	101.56
378.576	97.56
378.802	91.56
379.027	101.56
379.253	96.56
379.478	91.56
379.704	86.56
379.929	93.56
380.155	91.56
380.38	97.56
380.606	77.56
380.831	113.56
381.057	110.56
381.282	103.56
381.507	95.56
381.733	80.56
381.958	94.56
382.184	91.56
382.409	106.56
382.634	102.56
382.86	86.56
383.085	105.56
383.31	111.56
383.535	101.56
383.761	85.56
383.986	113.56
384.211	99.56
384.436	86.56
384.662	93.56
384.887	105.56
385.112	86.56
385.337	94.56
385.562	107.56
385.787	85.56
386.013	110.56
386.238	98.56
386.463	112.56
386.688	115.56
386.913	102.56
387.138	102.56
387.363	99.56
387.588	103.56
387.813	100.56
388.038	109.56
388.263	96.56
388.488	95.56
388.713	101.56
388.938	100.56
389.163	93.56
389.387	87.56
389.612	91.56
389.837	89.56
390.062	103.56
390.287	109.56
390.512	81.56
390.736	103.56
390.961	98.56
391.186	101.56
391.411	99.56
391.636	96.56
391.86	95.56
392.085	109.56
392.31	107.56
392.534	121.56
392.759	150.56
392.984	197.56
393.208	329.56
393.433	495.56
393.658	404.56
393.882	192.56
394.107	133.56
394.331	142.56
394.556	133.56
394.78	120.56
395.005	104.56
395.229	103.56
395.454	114.56
395.678	121.56
395.903	145.56
396.127	130.56
396.352	188.56
396.576	226.56
396.801	329.56
397.025	385.56
397.249	230.56
397.474	165.56
397.698	134.56
397.922	114.56
398.147	104.56
398.371	99.56
398.595	102.56
398.82	108.56
399.044	94.56
399.268	94.56
399.492	84.56
399.717	111.56
399.941	105.56
400.165	104.56
400.389	99.56
400.613	89.56
400.837	91.56
401.062	100.56
401.286	78.56
401.51	91.56
401.734	101.56
401.958	101.56
402.182	96.56
402.406	101.56
402.63	91.56
402.854	100.56
403.078	98.56
403.302	95.56
403.526	117.56
403.75	105.56
403.974	101.56
404.198	107.56
404.422	120.56
404.645	129.56
404.869	123.56
405.093	115.56
405.317	94.56
405.541	91.56
405.765	90.56
405.988	104.56
406.212	94.56
406.436	92.56
406.66	96.56
406.883	114.56
407.107	113.56
407.331	93.56
407.555	111.56
407.778	129.56
408.002	111.56
408.226	109.56
408.449	100.56
408.673	98.56
408.896	113.56
409.12	106.56
409.344	125.56
409.567	126.56
409.791	120.56
410.014	127.56
410.238	127.56
410.461	112.56
410.685	91.56
410.908	111.56
411.132	101.56
411.355	86.56
411.578	96.56
411.802	95.56
412.025	103.56
412.249	100.56
412.472	79.56
412.695	98.56
412.919	86.56
413.142	108.56
413.365	85.56
413.589	81.56
413.812	94.56
414.035	97.56
414.258	84.56
414.482	109.56
414.705	102.56
414.928	77.56
415.151	83.56
415.374	105.56
415.597	101.56
415.821	110.56
416.044	98.56
416.267	86.56
416.49	107.56
416.713	85.56
416.936	97.56
417.159	105.56
417.382	102.56
417.605	109.56
417.828	99.56
418.051	88.56
418.274	105.56
418.497	97.56
418.72	81.56
418.943	94.56
419.166	75.56
419.389	91.56
419.611	94.56
419.834	81.56
420.057	91.56
420.28	104.56
420.503	101.56
420.726	105.56
420.948	113.56
421.171	121.56
421.394	131.56
421.617	151.56
421.839	185.56
422.062	196.56
422.285	255.56
422.507	380.56
422.73	453.56
422.953	450.56
423.175	310.56
423.398	215.56
423.621	174.56
423.843	139.56
424.066	127.56
424.288	111.56
424.511	125.56
424.733	115.56
424.956	110.56
425.178	106.56
425.401	116.56
425.623	103.56
425.846	113.56
426.068	111.56
426.291	121.56
426.513	95.56
426.735	98.56
426.958	95.56
427.18	93.56
427.402	109.56
427.625	99.56
427.847	105.56
428.069	130.56
428.292	147.56
428.514	176.56
428.736	136.56
428.958	155.56
429.181	181.56
429.403	111.56
429.625	129.56
429.847	164.56
430.069	211.56
430.292	253.56
430.514	245.56
430.736	164.56
430.958	173.56
431.18	119.56
431.402	120.56
431.624	104.56
431.846	135.56
432.068	164.56
432.29	126.56
432.512	92.56
432.734	110.56
432.956	91.56
433.178	100.56
433.4	109.56
433.622	99.56
433.844	91.56
434.066	87.56
434.287	87.56
434.509	90.56
434.731	98.56
434.953	91.56
435.175	98.56
435.397	100.56
435.618	98.56
435.84	113.56
436.062	93.56
436.284	101.56
436.505	96.56
436.727	95.56
436.949	101.56
437.17	98.56
437.392	98.56
437.614	91.56
437.835	98.56
438.057	99.56
438.278	117.56
438.5	97.56
438.721	93.56
438.943	97.56
439.165	93.56
439.386	89.56
439.608	95.56
439.829	110.56
440.05	106.56
440.272	92.56
440.493	91.56
440.715	97.56
440.936	96.56
441.158	97.56
441.379	95.56
441.6	100.56
441.822	99.56
442.043	91.56
442.264	128.56
442.486	173.56
442.707	234.56
442.928	165.56
443.149	145.56
443.371	227.56
443.592	359.56
443.813	304.56
444.034	143.56
444.255	103.56
444.476	111.56
444.698	117.56
444.919	112.56
445.14	232.56
445.361	285.56
445.582	429.56
445.803	385.56
446.024	164.56
446.245	134.56
446.466	115.56
446.687	89.56
446.908	92.56
447.129	89.56
447.35	97.56
447.571	91.56
447.792	98.56
448.013	87.56
448.234	98.56
448.455	93.56
448.675	87.56
448.896	89.56
449.117	87.56
449.338	99.56
449.559	98.56
449.779	88.56
450	97.56
450.221	76.56
450.442	96.56
450.662	83.56
450.883	94.56
451.104	73.56
451.324	80.56
451.545	97.56
451.766	83.56
451.986	98.56
452.207	89.56
452.428	113.56
452.648	113.56
452.869	122.56
453.089	125.56
453.31	89.56
453.53	99.56
453.751	88.56
453.971	88.56
454.192	96.56
454.412	81.56
454.633	90.56
454.853	90.56
455.073	89.56
455.294	82.56
455.514	86.56
455.734	90.56
455.955	95.56
456.175	97.56
456.395	81.56
456.616	90.56
456.836	86.56
457.056	89.56
457.276	89.56
457.497	105.56
457.717	114.56
457.937	155.56
458.157	184.56
458.377	195.56
458.598	175.56
458.818	188.56
459.038	131.56
459.258	102.56
459.478	106.56
459.698	90.56
459.918	83.56
460.138	90.56
460.358	87.56
460.578	116.56
460.798	129.56
461.018	145.56
461.238	90.56
461.458	98.56
461.678	89.56
461.898	87.56
462.118	96.56
462.338	96.56
462.558	100.56
462.777	96.56
462.997	83.56
463.217	99.56
463.437	88.56
463.657	80.56
463.876	82.56
464.096	88.56
464.316	78.56
464.536	86.56
464.755	86.56
464.975	87.56
465.195	99.56
465.414	85.56
465.634	94.56
465.854	87.56
466.073	115.56
466.293	95.56
466.512	93.56
466.732	86.56
466.951	83.56
467.171	90.56
467.391	106.56
467.61	102.56
467.829	100.56
468.049	107.56
468.268	94.56
468.488	104.56
468.707	89.56
468.927	97.56
469.146	96.56
469.365	82.56
469.585	85.56
469.804	111.56
470.023	94.56
470.243	93.56
470.462	95.56
470.681	96.56
470.901	101.56
471.12	99.56
471.339	98.56
471.558	94.56
471.777	106.56
471.997	92.56
472.216	91.56
472.435	86.56
472.654	81.56
472.873	100.56
473.092	85.56
473.311	104.56
473.53	84.56
473.749	98.56
473.968	97.56
474.187	83.56
474.406	95.56
474.625	89.56
474.844	91.56
475.063	105.56
475.282	99.56
475.501	96.56
475.72	86.56
475.939	91.56
476.158	88.56
476.377	85.56
476.596	91.56
476.814	90.56
477.033	93.56
477.252	97.56
477.471	90.56
477.69	91.56
477.908	91.56
478.127	82.56
478.346	89.56
478.564	93.56
478.783	100.56
479.002	99.56
479.22	83.56
479.439	83.56
479.658	89.56
479.876	91.56
480.095	109.56
480.313	89.56
480.532	93.56
480.751	100.56
480.969	95.56
481.188	104.56
481.406	98.56
481.624	104.56
481.843	93.56
482.061	96.56
482.28	97.56
482.498	103.56
482.717	88.56
482.935	98.56
483.153	88.56
483.372	109.56
483.59	103.56
483.808	98.56
484.027	107.56
484.245	84.56
484.463	93.56
484.681	118.56
484.9	98.56
485.118	94.56
485.336	96.56
485.554	109.56
485.772	104.56
485.99	93.56
486.209	95.56
486.427	98.56
486.645	85.56
486.863	78.56
487.081	106.56
487.299	109.56
487.517	127.56
487.735	148.56
487.953	296.56
488.171	238.56
488.389	115.56
488.607	98.56
488.825	97.56
489.043	86.56
489.261	101.56
489.479	112.56
489.696	103.56
489.914	88.56
490.132	106.56
490.35	98.56
490.568	111.56
490.786	96.56
491.003	87.56
491.221	114.56
491.439	114.56
491.657	100.56
491.874	98.56
492.092	101.56
492.31	105.56
492.527	101.56
492.745	92.56
492.963	92.56
493.18	94.56
493.398	106.56
493.615	98.56
493.833	105.56
494.05	96.56
494.268	96.56
494.485	102.56
494.703	97.56
494.92	86.56
495.138	98.56
495.355	81.56
495.573	97.56
495.79	102.56
496.008	115.56
496.225	101.56
496.442	116.56
496.66	91.56
496.877	104.56
497.094	101.56
497.312	87.56
497.529	93.56
497.746	97.56
497.963	87.56
498.181	103.56
498.398	131.56
498.615	95.56
498.832	91.56
499.049	95.56
499.267	96.56
499.484	103.56
499.701	89.56
499.918	105.56
500.135	88.56
500.352	97.56
500.569	99.56
500.786	103.56
501.003	115.56
501.22	82.56
501.437	94.56
501.654	97.56
501.871	98.56
502.088	89.56
502.305	92.56
502.522	96.56
502.739	102.56
502.956	85.56
503.172	97.56
503.389	93.56
503.606	105.56
503.823	123.56
504.04	132.56
504.256	209.56
504.473	213.56
504.69	134.56
504.907	104.56
505.123	92.56
505.34	89.56
505.557	95.56
505.773	92.56
505.99	79.56
506.207	81.56
506.423	97.56
506.64	91.56
506.856	97.56
507.073	106.56
507.289	98.56
507.506	100.56
507.722	98.56
507.939	91.56
508.155	94.56
508.372	100.56
508.588	100.56
508.805	88.56
509.021	100.56
509.238	87.56
509.454	100.56
509.67	89.56
509.887	106.56
510.103	101.56
510.319	116.56
510.536	109.56
510.752	102.56
510.968	99.56
511.184	91.56
511.401	89.56
511.617	106.56
511.833	91.56
512.049	99.56
512.265	85.56
512.481	90.56
512.698	88.56
512.914	101.56
513.13	97.56
513.346	105.56
513.562	90.56
513.778	96.56
513.994	101.56
514.21	102.56
514.426	100.56
514.642	99.56
514.858	94.56
515.074	87.56
515.29	90.56
