Data from CBS_1_HRD10591_00048.txt Node
Date: Mon Jan 19 14:04:12 EST 2026
User: Yrep
Spectrometer: HR+D1059
Trigger mode: 1
Integration Time (sec): 1.000000E-1
Scans to average: 1
Electric dark correction enabled: true
Nonlinearity correction enabled: false
Boxcar width: 0
XAxis mode: Wavelengths
Number of Pixels in Spectrum: 2048
>>>>>Begin Spectral Data<<<<<
223.165	-10
223.4	-10
223.635	-10
223.869	-22
224.104	-22
224.338	-10
224.573	-8
224.808	-17
225.042	-11
225.277	6
225.511	0
225.746	-4
225.98	6
226.215	7
226.449	22
226.683	20
226.918	13
227.152	30
227.387	37
227.621	33
227.856	54
228.09	46
228.324	49
228.559	64
228.793	65
229.027	66
229.262	54
229.496	60
229.73	62
229.964	87
230.199	81
230.433	71
230.667	67
230.901	74
231.136	77
231.37	67
231.604	87
231.838	63
232.072	80
232.306	54
232.541	84
232.775	84
233.009	77
233.243	70
233.477	94
233.711	89
233.945	80
234.179	90
234.413	84
234.647	76
234.881	80
235.115	84
235.349	67
235.583	74
235.817	68
236.051	72
236.285	63
236.519	73
236.753	76
236.987	78
237.221	68
237.455	78
237.689	71
237.922	62
238.156	65
238.39	72
238.624	68
238.858	88
239.091	86
239.325	89
239.559	68
239.793	76
240.027	77
240.26	83
240.494	85
240.728	74
240.961	67
241.195	86
241.429	82
241.662	77
241.896	74
242.13	68
242.363	67
242.597	68
242.83	79
243.064	72
243.298	74
243.531	85
243.765	67
243.998	76
244.232	87
244.465	69
244.699	80
244.932	74
245.166	76
245.399	86
245.633	67
245.866	73
246.099	72
246.333	86
246.566	80
246.8	78
247.033	66
247.266	79
247.5	73
247.733	77
247.966	87
248.2	85
248.433	77
248.666	69
248.899	79
249.133	79
249.366	61
249.599	84
249.832	76
250.066	72
250.299	79
250.532	95
250.765	73
250.998	75
251.231	80
251.465	79
251.698	79
251.931	67
252.164	85
252.397	75
252.63	80
252.863	67
253.096	70
253.329	84
253.562	85
253.795	88
254.028	74
254.261	80
254.494	74
254.727	74
254.96	68
255.193	78
255.426	90
255.659	85
255.892	78
256.124	80
256.357	86
256.59	86
256.823	89
257.056	78
257.289	72
257.521	91
257.754	75
257.987	86
258.22	84
258.452	66
258.685	70
258.918	60
259.151	84
259.383	74
259.616	84
259.849	76
260.081	80
260.314	75
260.547	88
260.779	78
261.012	80
261.244	74
261.477	89
261.71	94
261.942	77
262.175	88
262.407	70
262.64	72
262.872	64
263.105	75
263.337	74
263.57	76
263.802	84
264.035	90
264.267	72
264.499	74
264.732	93
264.964	78
265.197	64
265.429	70
265.661	93
265.894	73
266.126	94
266.358	90
266.591	83
266.823	84
267.055	89
267.287	81
267.52	86
267.752	72
267.984	78
268.216	94
268.448	84
268.681	84
268.913	81
269.145	93
269.377	84
269.609	80
269.841	68
270.073	57
270.306	84
270.538	92
270.77	96
271.002	96
271.234	94
271.466	89
271.698	83
271.93	76
272.162	78
272.394	101
272.626	80
272.858	92
273.09	89
273.322	101
273.553	73
273.785	71
274.017	87
274.249	71
274.481	83
274.713	65
274.945	88
275.176	75
275.408	82
275.64	83
275.872	84
276.104	81
276.335	88
276.567	90
276.799	85
277.031	88
277.262	88
277.494	70
277.726	82
277.957	85
278.189	59
278.421	84
278.652	87
278.884	92
279.115	82
279.347	88
279.579	84
279.81	74
280.042	84
280.273	72
280.505	75
280.736	82
280.968	89
281.199	73
281.431	83
281.662	72
281.894	74
282.125	85
282.356	90
282.588	89
282.819	94
283.051	71
283.282	84
283.513	90
283.745	80
283.976	79
284.207	77
284.439	85
284.67	80
284.901	80
285.132	69
285.364	102
285.595	84
285.826	79
286.057	96
286.288	73
286.52	84
286.751	76
286.982	80
287.213	85
287.444	86
287.675	84
287.906	80
288.138	80
288.369	83
288.6	89
288.831	94
289.062	77
289.293	79
289.524	90
289.755	74
289.986	82
290.217	68
290.448	82
290.679	81
290.91	83
291.141	84
291.371	85
291.602	84
291.833	83
292.064	83
292.295	80
292.526	83
292.757	83
292.987	89
293.218	93
293.449	82
293.68	84
293.91	82
294.141	87
294.372	74
294.603	70
294.833	67
295.064	69
295.295	88
295.525	88
295.756	92
295.987	86
296.217	77
296.448	78
296.679	86
296.909	97
297.14	92
297.37	94
297.601	74
297.831	76
298.062	88
298.292	88
298.523	89
298.753	65
298.984	74
299.214	87
299.445	84
299.675	82
299.905	94
300.136	92
300.366	90
300.597	95
300.827	87
301.057	78
301.288	85
301.518	87
301.748	100
301.979	93
302.209	77
302.439	84
302.669	80
302.9	88
303.13	88
303.36	89
303.59	81
303.82	84
304.051	90
304.281	87
304.511	71
304.741	85
304.971	71
305.201	78
305.431	75
305.661	79
305.891	89
306.121	98
306.352	90
306.582	73
306.812	66
307.042	84
307.272	81
307.502	85
307.731	86
307.961	85
308.191	88
308.421	84
308.651	80
308.881	95
309.111	83
309.341	82
309.571	86
309.8	66
310.03	98
310.26	96
310.49	86
310.72	85
310.949	86
311.179	97
311.409	75
311.639	75
311.868	83
312.098	90
312.328	99
312.557	86
312.787	86
313.017	89
313.246	98
313.476	101
313.706	82
313.935	79
314.165	81
314.394	103
314.624	96
314.853	95
315.083	77
315.312	92
315.542	95
315.771	90
316.001	83
316.23	81
316.46	89
316.689	74
316.919	72
317.148	92
317.377	84
317.607	98
317.836	97
318.065	94
318.295	96
318.524	80
318.753	79
318.983	91
319.212	97
319.441	93
319.67	80
319.9	80
320.129	87
320.358	82
320.587	75
320.816	92
321.046	85
321.275	89
321.504	105
321.733	81
321.962	81
322.191	81
322.42	73
322.649	95
322.878	73
323.108	78
323.337	88
323.566	76
323.795	86
324.024	91
324.253	99
324.482	91
324.71	93
324.939	78
325.168	80
325.397	81
325.626	82
325.855	85
326.084	90
326.313	79
326.542	81
326.77	68
326.999	84
327.228	95
327.457	89
327.686	87
327.914	88
328.143	90
328.372	85
328.6	66
328.829	80
329.058	84
329.287	90
329.515	95
329.744	92
329.972	81
330.201	80
330.43	84
330.658	83
330.887	86
331.115	83
331.344	79
331.572	93
331.801	95
332.03	85
332.258	68
332.486	86
332.715	88
332.943	83
333.172	93
333.4	84
333.629	73
333.857	76
334.085	72
334.314	67
334.542	73
334.771	88
334.999	84
335.227	77
335.455	86
335.684	83
335.912	84
336.14	86
336.369	82
336.597	103
336.825	78
337.053	73
337.281	76
337.51	66
337.738	96
337.966	97
338.194	83
338.422	77
338.65	86
338.878	89
339.106	72
339.334	74
339.562	85
339.79	79
340.018	95
340.246	72
340.474	75
340.702	82
340.93	102
341.158	86
341.386	76
341.614	88
341.842	77
342.07	100
342.298	90
342.526	85
342.754	76
342.981	98
343.209	94
343.437	89
343.665	88
343.893	95
344.12	75
344.348	78
344.576	80
344.804	80
345.031	91
345.259	85
345.487	87
345.714	82
345.942	85
346.17	81
346.397	81
346.625	83
346.853	87
347.08	84
347.308	73
347.535	82
347.763	98
347.99	93
348.218	83
348.445	85
348.673	78
348.9	84
349.128	96
349.355	85
349.583	80
349.81	82
350.037	89
350.265	74
350.492	84
350.72	86
350.947	78
351.174	88
351.402	84
351.629	94
351.856	88
352.083	62
352.311	81
352.538	92
352.765	90
352.992	96
353.22	90
353.447	82
353.674	82
353.901	73
354.128	82
354.355	78
354.583	95
354.81	82
355.037	94
355.264	83
355.491	87
355.718	79
355.945	88
356.172	81
356.399	76
356.626	100
356.853	94
357.08	82
357.307	96
357.534	91
357.761	69
357.988	80
358.215	85
358.441	85
358.668	79
358.895	72
359.122	74
359.349	74
359.576	86
359.802	74
360.029	76
360.256	73
360.483	90
360.709	101
360.936	97
361.163	100
361.39	80
361.616	82
361.843	86
362.07	86
362.296	97
362.523	95
362.749	90
362.976	104
363.203	118
363.429	105
363.656	97
363.882	98
364.109	112
364.335	118
364.562	128
364.788	97
365.015	103
365.241	84
365.468	84
365.694	70
365.92	81
366.147	68
366.373	90
366.599	68
366.826	71
367.052	88
367.278	82
367.505	78
367.731	80
367.957	79
368.184	86
368.41	82
368.636	85
368.862	85
369.089	84
369.315	79
369.541	86
369.767	91
369.993	96
370.219	87
370.445	84
370.672	91
370.898	90
371.124	80
371.35	78
371.576	90
371.802	85
372.028	81
372.254	85
372.48	94
372.706	75
372.932	99
373.158	87
373.384	78
373.61	70
373.835	94
374.061	90
374.287	94
374.513	82
374.739	94
374.965	89
375.191	85
375.416	102
375.642	74
375.868	90
376.094	81
376.319	88
376.545	78
376.771	96
376.997	88
377.222	92
377.448	89
377.674	71
377.899	77
378.125	88
378.35	88
378.576	83
378.802	87
379.027	86
379.253	74
379.478	80
379.704	88
379.929	95
380.155	79
380.38	100
380.606	86
380.831	94
381.057	78
381.282	93
381.507	103
381.733	95
381.958	80
382.184	78
382.409	87
382.634	85
382.86	93
383.085	93
383.31	103
383.535	95
383.761	100
383.986	94
384.211	99
384.436	73
384.662	81
384.887	88
385.112	89
385.337	89
385.562	84
385.787	79
386.013	79
386.238	94
386.463	74
386.688	98
386.913	81
387.138	88
387.363	88
387.588	77
387.813	79
388.038	90
388.263	89
388.488	88
388.713	90
388.938	81
389.163	88
389.387	101
389.612	88
389.837	89
390.062	92
390.287	83
390.512	94
390.736	85
390.961	90
391.186	89
391.411	89
391.636	90
391.86	97
392.085	99
392.31	104
392.534	105
392.759	102
392.984	139
393.208	225
393.433	332
393.658	265
393.882	129
394.107	97
394.331	112
394.556	105
394.78	91
395.005	96
395.229	91
395.454	88
395.678	80
395.903	97
396.127	116
396.352	117
396.576	136
396.801	234
397.025	261
397.249	154
397.474	128
397.698	100
397.922	92
398.147	78
398.371	98
398.595	79
398.82	94
399.044	82
399.268	67
399.492	96
399.717	88
399.941	96
400.165	89
400.389	84
400.613	81
400.837	97
401.062	94
401.286	87
401.51	84
401.734	78
401.958	86
402.182	79
402.406	83
402.63	75
402.854	83
403.078	86
403.302	77
403.526	101
403.75	93
403.974	81
404.198	72
404.422	88
404.645	86
404.869	87
405.093	88
405.317	80
405.541	80
405.765	97
405.988	72
406.212	87
406.436	68
406.66	74
406.883	84
407.107	78
407.331	85
407.555	86
407.778	96
408.002	112
408.226	80
408.449	77
408.673	72
408.896	82
409.12	89
409.344	105
409.567	100
409.791	79
410.014	103
410.238	97
410.461	101
410.685	80
410.908	84
411.132	99
411.355	79
411.578	82
411.802	87
412.025	85
412.249	84
412.472	79
412.695	73
412.919	80
413.142	77
413.365	75
413.589	84
413.812	116
414.035	95
414.258	81
414.482	88
414.705	79
414.928	84
415.151	77
415.374	80
415.597	85
415.821	87
416.044	92
416.267	106
416.49	80
416.713	85
416.936	88
417.159	87
417.382	81
417.605	74
417.828	94
418.051	86
418.274	95
418.497	81
418.72	84
418.943	90
419.166	88
419.389	92
419.611	80
419.834	88
420.057	88
420.28	74
420.503	90
420.726	84
420.948	78
421.171	87
421.394	93
421.617	102
421.839	122
422.062	122
422.285	135
422.507	227
422.73	313
422.953	316
423.175	173
423.398	110
423.621	100
423.843	92
424.066	100
424.288	93
424.511	89
424.733	86
424.956	85
425.178	75
425.401	82
425.623	82
425.846	78
426.068	80
426.291	78
426.513	85
426.735	88
426.958	86
427.18	81
427.402	88
427.625	95
427.847	84
428.069	94
428.292	108
428.514	132
428.736	102
428.958	111
429.181	102
429.403	83
429.625	90
429.847	116
430.069	158
430.292	166
430.514	153
430.736	111
430.958	132
431.18	88
431.402	98
431.624	95
431.846	114
432.068	124
432.29	107
432.512	80
432.734	84
432.956	80
433.178	81
433.4	73
433.622	81
433.844	88
434.066	84
434.287	86
434.509	81
434.731	86
434.953	83
435.175	84
435.397	95
435.618	83
435.84	80
436.062	92
436.284	80
436.505	82
436.727	77
436.949	72
437.17	78
437.392	91
437.614	89
437.835	79
438.057	78
438.278	91
438.5	86
438.721	92
438.943	86
439.165	60
439.386	80
439.608	84
439.829	84
440.05	78
440.272	76
440.493	77
440.715	74
440.936	86
441.158	92
441.379	90
441.6	94
441.822	79
442.043	92
442.264	85
442.486	126
442.707	158
442.928	108
443.149	87
443.371	121
443.592	206
443.813	183
444.034	105
444.255	80
444.476	70
444.698	82
444.919	82
445.14	161
445.361	176
445.582	255
445.803	213
446.024	118
446.245	98
446.466	95
446.687	86
446.908	90
447.129	77
447.35	82
447.571	67
447.792	76
448.013	76
448.234	83
448.455	74
448.675	84
448.896	80
449.117	79
449.338	80
449.559	84
449.779	74
450	82
450.221	77
450.442	85
450.662	88
450.883	82
451.104	80
451.324	74
451.545	80
451.766	77
451.986	70
452.207	84
452.428	74
452.648	98
452.869	102
453.089	95
453.31	70
453.53	80
453.751	93
453.971	81
454.192	90
454.412	89
454.633	89
454.853	70
455.073	64
455.294	86
455.514	80
455.734	78
455.955	81
456.175	94
456.395	81
456.616	78
456.836	81
457.056	69
457.276	80
457.497	86
457.717	80
457.937	87
458.157	115
458.377	105
458.598	110
458.818	125
459.038	89
459.258	82
459.478	75
459.698	68
459.918	85
460.138	90
460.358	72
460.578	102
460.798	104
461.018	114
461.238	87
461.458	85
461.678	74
461.898	72
462.118	74
462.338	76
462.558	78
462.777	74
462.997	78
463.217	84
463.437	68
463.657	78
463.876	86
464.096	82
464.316	75
464.536	70
464.755	95
464.975	82
465.195	83
465.414	97
465.634	78
465.854	86
466.073	86
466.293	99
466.512	83
466.732	83
466.951	90
467.171	73
467.391	81
467.61	80
467.829	76
468.049	85
468.268	71
468.488	81
468.707	90
468.927	67
469.146	89
469.365	72
469.585	78
469.804	80
470.023	71
470.243	90
470.462	82
470.681	82
470.901	84
471.12	93
471.339	87
471.558	75
471.777	90
471.997	83
472.216	82
472.435	81
472.654	86
472.873	82
473.092	85
473.311	67
473.53	83
473.749	91
473.968	86
474.187	95
474.406	82
474.625	87
474.844	88
475.063	78
475.282	86
475.501	92
475.72	76
475.939	82
476.158	92
476.377	83
476.596	86
476.814	81
477.033	82
477.252	86
477.471	68
477.69	84
477.908	93
478.127	84
478.346	96
478.564	85
478.783	75
479.002	72
479.22	80
479.439	80
479.658	84
479.876	74
480.095	87
480.313	84
480.532	109
480.751	98
480.969	92
481.188	86
481.406	82
481.624	97
481.843	87
482.061	106
482.28	96
482.498	95
482.717	74
482.935	96
483.153	100
483.372	83
483.59	90
483.808	95
484.027	86
484.245	78
484.463	92
484.681	85
484.9	76
485.118	87
485.336	99
485.554	78
485.772	63
485.99	75
486.209	80
486.427	86
486.645	92
486.863	82
487.081	81
487.299	85
487.517	100
487.735	106
487.953	172
488.171	140
488.389	104
488.607	63
488.825	77
489.043	96
489.261	83
489.479	74
489.696	83
489.914	88
490.132	81
490.35	85
490.568	78
490.786	82
491.003	74
491.221	94
491.439	87
491.657	92
491.874	76
492.092	73
492.31	97
492.527	87
492.745	73
492.963	96
493.18	88
493.398	97
493.615	97
493.833	92
494.05	98
494.268	89
494.485	83
494.703	79
494.92	85
495.138	85
495.355	90
495.573	81
495.79	74
496.008	78
496.225	75
496.442	91
496.66	87
496.877	104
497.094	77
497.312	87
497.529	83
497.746	90
497.963	78
498.181	79
498.398	83
498.615	89
498.832	85
499.049	85
499.267	74
499.484	80
499.701	78
499.918	88
500.135	95
500.352	84
500.569	96
500.786	88
501.003	88
501.22	74
501.437	86
501.654	92
501.871	93
502.088	88
502.305	80
502.522	71
502.739	83
502.956	84
503.172	86
503.389	87
503.606	81
503.823	87
504.04	90
504.256	132
504.473	122
504.69	96
504.907	93
505.123	79
505.34	92
505.557	86
505.773	90
505.99	78
506.207	75
506.423	80
506.64	89
506.856	82
507.073	80
507.289	76
507.506	84
507.722	65
507.939	92
508.155	80
508.372	93
508.588	82
508.805	100
509.021	79
509.238	85
509.454	83
509.67	86
509.887	74
510.103	91
510.319	80
510.536	86
510.752	85
510.968	80
511.184	73
511.401	82
511.617	82
511.833	81
512.049	71
512.265	80
512.481	98
512.698	82
512.914	77
513.13	91
513.346	83
513.562	80
513.778	92
513.994	91
514.21	69
514.426	80
514.642	86
514.858	91
515.074	90
515.29	84
515.506	80
515.721	95
515.937	84
516.153	74
516.369	98
516.585	78
516.801	89
517.016	96
517.232	84
517.448	95
517.664	86
517.879	74
518.095	86
518.311	83
518.527	93
518.742	102
518.958	133
519.173	152
519.389	108
519.605	92
519.82	97
520.036	85
520.251	100
520.467	79
520.682	90
520.898	90
521.113	89
521.329	85
521.544	91
521.76	68
521.975	90
522.19	78
522.406	78
522.621	79
522.836	81
523.052	89
523.267	90
523.482	88
523.698	86
523.913	101
524.128	95
524.343	84
524.559	90
524.774	83
524.989	91
525.204	89
525.419	86
525.634	83
525.849	90
526.064	128
526.28	176
526.495	249
526.71	274
526.925	191
527.14	236
527.355	213
527.57	106
527.785	86
527.999	78
528.214	96
528.429	92
528.644	88
528.859	92
529.074	84
529.289	85
529.503	96
529.718	82
529.933	98
530.148	98
530.363	91
530.577	83
530.792	84
531.007	88
531.221	95
531.436	92
531.651	79
531.865	94
532.08	89
532.295	89
532.509	76
532.724	95
532.938	84
533.153	85
533.367	76
533.582	92
533.796	97
534.011	92
534.225	97
534.44	97
534.654	93
534.868	105
535.083	136
535.297	127
535.511	96
535.726	94
535.94	95
536.154	91
536.369	87
536.583	80
536.797	102
537.011	96
537.225	74
537.44	94
537.654	100
537.868	84
538.082	80
538.296	84
538.51	85
538.724	83
538.938	85
539.153	82
539.367	95
539.581	95
539.795	79
540.009	103
540.222	99
540.436	80
540.65	92
540.864	80
541.078	102
541.292	106
541.506	95
541.72	102
541.934	99
542.147	106
542.361	102
542.575	90
542.789	88
543.002	89
543.216	104
543.43	90
543.644	108
543.857	95
544.071	84
544.285	84
544.498	102
544.712	97
544.925	101
545.139	97
545.352	94
545.566	95
545.779	112
545.993	80
546.206	93
546.42	113
546.633	120
546.847	131
547.06	128
547.274	132
547.487	126
547.7	169
547.914	150
548.127	148
548.34	158
548.554	151
548.767	161
548.98	176
549.193	154
549.407	166
549.62	160
549.833	174
550.046	200
550.259	202
550.473	198
550.686	201
550.899	219
551.112	242
551.325	238
551.538	239
551.751	228
551.964	202
552.177	202
552.39	214
552.603	211
552.816	219
553.029	211
553.242	194
553.455	220
553.667	231
553.88	217
554.093	205
554.306	222
554.519	205
554.732	209
554.944	216
555.157	207
555.37	208
555.583	206
555.795	191
556.008	167
556.221	167
556.433	149
556.646	167
556.859	148
557.071	146
557.284	133
557.496	150
557.709	136
557.921	114
558.134	135
558.346	180
558.559	160
558.771	170
558.984	266
559.196	322
559.409	182
559.621	250
559.833	200
560.046	243
560.258	198
560.47	206
560.683	148
560.895	105
561.107	112
561.32	122
561.532	105
561.744	80
561.956	109
562.168	89
562.381	96
562.593	112
562.805	102
563.017	92
563.229	87
563.441	111
563.653	105
563.865	98
564.077	95
564.289	104
564.501	97
564.713	92
564.925	86
565.137	86
565.349	85
565.561	99
565.773	94
565.985	96
566.197	103
566.408	94
566.62	104
566.832	95
567.044	94
567.255	92
567.467	97
567.679	93
567.891	96
568.102	82
568.314	82
568.526	93
568.737	107
568.949	88
569.161	87
569.372	81
569.584	92
569.795	96
570.007	97
570.218	101
570.43	99
570.641	97
570.853	92
571.064	79
571.276	100
571.487	86
571.698	98
571.91	95
572.121	103
572.333	97
572.544	103
572.755	95
572.966	93
573.178	92
573.389	86
573.6	89
573.811	89
574.023	98
574.234	87
574.445	102
574.656	80
574.867	100
575.078	84
575.289	89
575.501	92
575.712	90
575.923	82
576.134	92
576.345	90
576.556	89
576.767	72
576.978	76
577.188	88
577.399	98
577.61	74
577.821	92
578.032	107
578.243	92
578.454	91
578.665	94
578.875	88
579.086	86
579.297	92
579.508	97
579.718	80
579.929	102
580.14	92
580.35	84
580.561	90
580.772	88
580.982	95
581.193	84
581.403	79
581.614	91
581.825	94
582.035	81
582.246	101
582.456	93
582.667	89
582.877	91
583.087	80
583.298	83
583.508	92
583.719	94
583.929	79
584.139	88
584.35	93
584.56	83
584.77	95
584.981	98
585.191	89
585.401	98
585.611	108
585.821	146
586.032	207
586.242	112
586.452	94
586.662	84
586.872	76
587.082	80
