Data from CBS_1_HRD10591_00001.txt Node
Date: Mon Jan 19 14:03:49 EST 2026
User: Yrep
Spectrometer: HR+D1059
Trigger mode: 1
Integration Time (sec): 1.000000E-1
Scans to average: 1
Electric dark correction enabled: true
Nonlinearity correction enabled: false
Boxcar width: 0
XAxis mode: Wavelengths
Number of Pixels in Spectrum: 2048
>>>>>Begin Spectral Data<<<<<
223.165	-27.75
223.4	-27.75
223.635	-27.75
223.869	-31.75
224.104	-13.75
224.338	-25.75
224.573	4.25
224.808	-19.75
225.042	-19.75
225.277	-7.75
225.511	-1.75
225.746	4.25
225.98	8.25
226.215	19.25
226.449	30.25
226.683	18.25
226.918	24.25
227.152	39.25
227.387	33.25
227.621	26.25
227.856	51.25
228.09	45.25
228.324	43.25
228.559	59.25
228.793	62.25
229.027	62.25
229.262	60.25
229.496	63.25
229.73	69.25
229.964	69.25
230.199	68.25
230.433	79.25
230.667	72.25
230.901	74.25
231.136	92.25
231.37	86.25
231.604	87.25
231.838	86.25
232.072	78.25
232.306	90.25
232.541	85.25
232.775	76.25
233.009	89.25
233.243	82.25
233.477	71.25
233.711	92.25
233.945	85.25
234.179	86.25
234.413	93.25
234.647	80.25
234.881	68.25
235.115	89.25
235.349	73.25
235.583	78.25
235.817	71.25
236.051	82.25
236.285	99.25
236.519	84.25
236.753	72.25
236.987	76.25
237.221	73.25
237.455	86.25
237.689	91.25
237.922	74.25
238.156	61.25
238.39	60.25
238.624	87.25
238.858	77.25
239.091	79.25
239.325	82.25
239.559	89.25
239.793	93.25
240.027	84.25
240.26	86.25
240.494	93.25
240.728	90.25
240.961	82.25
241.195	77.25
241.429	86.25
241.662	66.25
241.896	78.25
242.13	74.25
242.363	74.25
242.597	73.25
242.83	70.25
243.064	84.25
243.298	80.25
243.531	82.25
243.765	83.25
243.998	73.25
244.232	88.25
244.465	74.25
244.699	77.25
244.932	82.25
245.166	93.25
245.399	75.25
245.633	80.25
245.866	84.25
246.099	90.25
246.333	75.25
246.566	68.25
246.8	77.25
247.033	96.25
247.266	76.25
247.5	78.25
247.733	90.25
247.966	77.25
248.2	69.25
248.433	80.25
248.666	78.25
248.899	75.25
249.133	102.25
249.366	82.25
249.599	74.25
249.832	77.25
250.066	81.25
250.299	87.25
250.532	84.25
250.765	85.25
250.998	77.25
251.231	78.25
251.465	79.25
251.698	91.25
251.931	97.25
252.164	73.25
252.397	72.25
252.63	79.25
252.863	92.25
253.096	74.25
253.329	78.25
253.562	84.25
253.795	87.25
254.028	93.25
254.261	81.25
254.494	73.25
254.727	89.25
254.96	79.25
255.193	84.25
255.426	75.25
255.659	76.25
255.892	90.25
256.124	80.25
256.357	78.25
256.59	77.25
256.823	67.25
257.056	75.25
257.289	84.25
257.521	85.25
257.754	86.25
257.987	83.25
258.22	96.25
258.452	82.25
258.685	75.25
258.918	79.25
259.151	66.25
259.383	89.25
259.616	84.25
259.849	92.25
260.081	88.25
260.314	78.25
260.547	70.25
260.779	82.25
261.012	92.25
261.244	84.25
261.477	81.25
261.71	86.25
261.942	87.25
262.175	66.25
262.407	78.25
262.64	82.25
262.872	71.25
263.105	81.25
263.337	92.25
263.57	87.25
263.802	84.25
264.035	79.25
264.267	85.25
264.499	82.25
264.732	83.25
264.964	84.25
265.197	86.25
265.429	90.25
265.661	92.25
265.894	88.25
266.126	90.25
266.358	91.25
266.591	74.25
266.823	92.25
267.055	88.25
267.287	85.25
267.52	67.25
267.752	92.25
267.984	84.25
268.216	81.25
268.448	76.25
268.681	98.25
268.913	85.25
269.145	91.25
269.377	98.25
269.609	84.25
269.841	92.25
270.073	89.25
270.306	86.25
270.538	86.25
270.77	85.25
271.002	76.25
271.234	89.25
271.466	92.25
271.698	96.25
271.93	106.25
272.162	85.25
272.394	78.25
272.626	77.25
272.858	84.25
273.09	96.25
273.322	68.25
273.553	89.25
273.785	80.25
274.017	69.25
274.249	90.25
274.481	91.25
274.713	74.25
274.945	96.25
275.176	86.25
275.408	91.25
275.64	84.25
275.872	91.25
276.104	76.25
276.335	82.25
276.567	96.25
276.799	76.25
277.031	84.25
277.262	93.25
277.494	89.25
277.726	84.25
277.957	75.25
278.189	84.25
278.421	83.25
278.652	85.25
278.884	93.25
279.115	91.25
279.347	93.25
279.579	94.25
279.81	86.25
280.042	93.25
280.273	82.25
280.505	76.25
280.736	77.25
280.968	88.25
281.199	90.25
281.431	80.25
281.662	99.25
281.894	69.25
282.125	92.25
282.356	72.25
282.588	86.25
282.819	82.25
283.051	88.25
283.282	78.25
283.513	98.25
283.745	101.25
283.976	86.25
284.207	82.25
284.439	94.25
284.67	82.25
284.901	91.25
285.132	109.25
285.364	96.25
285.595	98.25
285.826	94.25
286.057	98.25
286.288	98.25
286.52	85.25
286.751	85.25
286.982	87.25
287.213	82.25
287.444	90.25
287.675	101.25
287.906	92.25
288.138	89.25
288.369	90.25
288.6	89.25
288.831	88.25
289.062	91.25
289.293	104.25
289.524	88.25
289.755	80.25
289.986	78.25
290.217	99.25
290.448	88.25
290.679	86.25
290.91	93.25
291.141	90.25
291.371	80.25
291.602	88.25
291.833	91.25
292.064	100.25
292.295	100.25
292.526	104.25
292.757	96.25
292.987	94.25
293.218	99.25
293.449	84.25
293.68	82.25
293.91	90.25
294.141	100.25
294.372	97.25
294.603	104.25
294.833	87.25
295.064	89.25
295.295	90.25
295.525	81.25
295.756	88.25
295.987	96.25
296.217	86.25
296.448	98.25
296.679	88.25
296.909	116.25
297.14	90.25
297.37	93.25
297.601	89.25
297.831	95.25
298.062	90.25
298.292	92.25
298.523	105.25
298.753	89.25
298.984	98.25
299.214	92.25
299.445	84.25
299.675	106.25
299.905	101.25
300.136	102.25
300.366	105.25
300.597	98.25
300.827	113.25
301.057	100.25
301.288	96.25
301.518	80.25
301.748	102.25
301.979	105.25
302.209	86.25
302.439	96.25
302.669	80.25
302.9	94.25
303.13	89.25
303.36	86.25
303.59	96.25
303.82	98.25
304.051	102.25
304.281	105.25
304.511	86.25
304.741	90.25
304.971	101.25
305.201	94.25
305.431	88.25
305.661	96.25
305.891	86.25
306.121	91.25
306.352	101.25
306.582	87.25
306.812	96.25
307.042	102.25
307.272	94.25
307.502	95.25
307.731	95.25
307.961	104.25
308.191	114.25
308.421	118.25
308.651	101.25
308.881	90.25
309.111	100.25
309.341	125.25
309.571	110.25
309.8	103.25
310.03	103.25
310.26	105.25
310.49	104.25
310.72	102.25
310.949	99.25
311.179	101.25
311.409	88.25
311.639	94.25
311.868	85.25
312.098	76.25
312.328	74.25
312.557	96.25
312.787	89.25
313.017	91.25
313.246	105.25
313.476	101.25
313.706	104.25
313.935	86.25
314.165	96.25
314.394	96.25
314.624	96.25
314.853	78.25
315.083	100.25
315.312	94.25
315.542	97.25
315.771	107.25
316.001	130.25
316.23	120.25
316.46	105.25
316.689	82.25
316.919	94.25
317.148	89.25
317.377	108.25
317.607	107.25
317.836	101.25
318.065	138.25
318.295	118.25
318.524	97.25
318.753	93.25
318.983	99.25
319.212	102.25
319.441	94.25
319.67	84.25
319.9	92.25
320.129	81.25
320.358	86.25
320.587	113.25
320.816	106.25
321.046	100.25
321.275	112.25
321.504	99.25
321.733	98.25
321.962	98.25
322.191	105.25
322.42	121.25
322.649	102.25
322.878	98.25
323.108	97.25
323.337	103.25
323.566	83.25
323.795	95.25
324.024	113.25
324.253	96.25
324.482	109.25
324.71	114.25
324.939	109.25
325.168	96.25
325.397	91.25
325.626	95.25
325.855	108.25
326.084	91.25
326.313	99.25
326.542	82.25
326.77	84.25
326.999	81.25
327.228	91.25
327.457	102.25
327.686	104.25
327.914	94.25
328.143	88.25
328.372	94.25
328.6	86.25
328.829	103.25
329.058	100.25
329.287	97.25
329.515	90.25
329.744	84.25
329.972	93.25
330.201	84.25
330.43	120.25
330.658	79.25
330.887	103.25
331.115	95.25
331.344	82.25
331.572	96.25
331.801	93.25
332.03	87.25
332.258	101.25
332.486	92.25
332.715	81.25
332.943	96.25
333.172	82.25
333.4	106.25
333.629	104.25
333.857	112.25
334.085	109.25
334.314	101.25
334.542	121.25
334.771	118.25
334.999	133.25
335.227	126.25
335.455	113.25
335.684	123.25
335.912	128.25
336.14	152.25
336.369	129.25
336.597	128.25
336.825	108.25
337.053	98.25
337.281	100.25
337.51	100.25
337.738	118.25
337.966	92.25
338.194	92.25
338.422	93.25
338.65	89.25
338.878	86.25
339.106	97.25
339.334	100.25
339.562	99.25
339.79	102.25
340.018	86.25
340.246	112.25
340.474	96.25
340.702	85.25
340.93	83.25
341.158	99.25
341.386	89.25
341.614	94.25
341.842	95.25
342.07	96.25
342.298	100.25
342.526	99.25
342.754	102.25
342.981	87.25
343.209	84.25
343.437	103.25
343.665	85.25
343.893	103.25
344.12	89.25
344.348	94.25
344.576	98.25
344.804	83.25
345.031	99.25
345.259	103.25
345.487	79.25
345.714	93.25
345.942	96.25
346.17	99.25
346.397	96.25
346.625	94.25
346.853	101.25
347.08	113.25
347.308	84.25
347.535	93.25
347.763	107.25
347.99	102.25
348.218	110.25
348.445	98.25
348.673	105.25
348.9	109.25
349.128	101.25
349.355	93.25
349.583	109.25
349.81	97.25
350.037	95.25
350.265	101.25
350.492	107.25
350.72	104.25
350.947	98.25
351.174	103.25
351.402	103.25
351.629	83.25
351.856	98.25
352.083	88.25
352.311	92.25
352.538	93.25
352.765	93.25
352.992	90.25
353.22	87.25
353.447	100.25
353.674	102.25
353.901	94.25
354.128	90.25
354.355	94.25
354.583	90.25
354.81	98.25
355.037	99.25
355.264	105.25
355.491	103.25
355.718	88.25
355.945	113.25
356.172	77.25
356.399	91.25
356.626	96.25
356.853	92.25
357.08	100.25
357.307	103.25
357.534	96.25
357.761	100.25
357.988	122.25
358.215	116.25
358.441	101.25
358.668	100.25
358.895	114.25
359.122	94.25
359.349	96.25
359.576	112.25
359.802	100.25
360.029	102.25
360.256	122.25
360.483	91.25
360.709	102.25
360.936	122.25
361.163	106.25
361.39	106.25
361.616	113.25
361.843	123.25
362.07	155.25
362.296	159.25
362.523	189.25
362.749	202.25
362.976	243.25
363.203	252.25
363.429	172.25
363.656	150.25
363.882	173.25
364.109	225.25
364.335	326.25
364.562	324.25
364.788	215.25
365.015	149.25
365.241	114.25
365.468	114.25
365.694	106.25
365.92	115.25
366.147	104.25
366.373	104.25
366.599	109.25
366.826	112.25
367.052	100.25
367.278	101.25
367.505	94.25
367.731	107.25
367.957	100.25
368.184	113.25
368.41	98.25
368.636	108.25
368.862	100.25
369.089	93.25
369.315	87.25
369.541	102.25
369.767	117.25
369.993	88.25
370.219	124.25
370.445	94.25
370.672	130.25
370.898	114.25
371.124	100.25
371.35	92.25
371.576	94.25
371.802	117.25
372.028	94.25
372.254	116.25
372.48	102.25
372.706	115.25
372.932	112.25
373.158	114.25
373.384	130.25
373.61	143.25
373.835	136.25
374.061	113.25
374.287	113.25
374.513	100.25
374.739	126.25
374.965	114.25
375.191	117.25
375.416	107.25
375.642	116.25
375.868	125.25
376.094	119.25
376.319	103.25
376.545	98.25
376.771	101.25
376.997	109.25
377.222	114.25
377.448	112.25
377.674	103.25
377.899	98.25
378.125	101.25
378.35	111.25
378.576	98.25
378.802	106.25
379.027	99.25
379.253	111.25
379.478	104.25
379.704	91.25
379.929	90.25
380.155	106.25
380.38	103.25
380.606	116.25
380.831	109.25
381.057	116.25
381.282	114.25
381.507	104.25
381.733	129.25
381.958	124.25
382.184	125.25
382.409	106.25
382.634	110.25
382.86	116.25
383.085	124.25
383.31	117.25
383.535	112.25
383.761	132.25
383.986	132.25
384.211	125.25
384.436	107.25
384.662	110.25
384.887	129.25
385.112	128.25
385.337	129.25
385.562	125.25
385.787	119.25
386.013	121.25
386.238	109.25
386.463	108.25
386.688	122.25
386.913	125.25
387.138	132.25
387.363	122.25
387.588	123.25
387.813	134.25
388.038	123.25
388.263	120.25
388.488	123.25
388.713	125.25
388.938	128.25
389.163	109.25
389.387	102.25
389.612	99.25
389.837	117.25
390.062	114.25
390.287	102.25
390.512	112.25
390.736	114.25
390.961	122.25
391.186	123.25
391.411	114.25
391.636	124.25
391.86	141.25
392.085	144.25
392.31	154.25
392.534	191.25
392.759	242.25
392.984	397.25
393.208	698.25
393.433	920.25
393.658	706.25
393.882	338.25
394.107	208.25
394.331	201.25
394.556	184.25
394.78	166.25
395.005	138.25
395.229	137.25
395.454	152.25
395.678	197.25
395.903	243.25
396.127	276.25
396.352	328.25
396.576	427.25
396.801	657.25
397.025	761.25
397.249	419.25
397.474	280.25
397.698	198.25
397.922	160.25
398.147	126.25
398.371	126.25
398.595	117.25
398.82	118.25
399.044	109.25
399.268	104.25
399.492	112.25
399.717	117.25
399.941	110.25
400.165	107.25
400.389	104.25
400.613	106.25
400.837	113.25
401.062	117.25
401.286	117.25
401.51	96.25
401.734	106.25
401.958	109.25
402.182	102.25
402.406	102.25
402.63	117.25
402.854	103.25
403.078	117.25
403.302	114.25
403.526	115.25
403.75	116.25
403.974	115.25
404.198	138.25
404.422	180.25
404.645	212.25
404.869	148.25
405.093	118.25
405.317	106.25
405.541	99.25
405.765	100.25
405.988	100.25
406.212	116.25
406.436	108.25
406.66	108.25
406.883	108.25
407.107	113.25
407.331	120.25
407.555	122.25
407.778	169.25
408.002	180.25
408.226	116.25
408.449	107.25
408.673	109.25
408.896	105.25
409.12	125.25
409.344	158.25
409.567	182.25
409.791	185.25
410.014	176.25
410.238	187.25
410.461	140.25
410.685	132.25
410.908	116.25
411.132	114.25
411.355	120.25
411.578	118.25
411.802	114.25
412.025	118.25
412.249	93.25
412.472	102.25
412.695	89.25
412.919	99.25
413.142	106.25
413.365	102.25
413.589	109.25
413.812	109.25
414.035	106.25
414.258	109.25
414.482	107.25
414.705	102.25
414.928	126.25
415.151	98.25
415.374	100.25
415.597	107.25
415.821	109.25
416.044	87.25
416.267	104.25
416.49	110.25
416.713	112.25
416.936	102.25
417.159	107.25
417.382	105.25
417.605	121.25
417.828	100.25
418.051	108.25
418.274	108.25
418.497	121.25
418.72	114.25
418.943	112.25
419.166	102.25
419.389	114.25
419.611	114.25
419.834	117.25
420.057	130.25
420.28	124.25
420.503	135.25
420.726	140.25
420.948	142.25
421.171	163.25
421.394	187.25
421.617	254.25
421.839	288.25
422.062	351.25
422.285	519.25
422.507	811.25
422.73	1018.25
422.953	964.25
423.175	672.25
423.398	406.25
423.621	286.25
423.843	232.25
424.066	194.25
424.288	176.25
424.511	153.25
424.733	150.25
424.956	126.25
425.178	132.25
425.401	119.25
425.623	119.25
425.846	115.25
426.068	113.25
426.291	103.25
426.513	110.25
426.735	108.25
426.958	98.25
427.18	122.25
427.402	116.25
427.625	131.25
427.847	121.25
428.069	162.25
428.292	275.25
428.514	332.25
428.736	224.25
428.958	307.25
429.181	301.25
429.403	165.25
429.625	184.25
429.847	276.25
430.069	424.25
430.292	501.25
430.514	479.25
430.736	322.25
430.958	340.25
431.18	180.25
431.402	125.25
431.624	169.25
431.846	278.25
432.068	343.25
432.29	155.25
432.512	119.25
432.734	89.25
432.956	99.25
433.178	97.25
433.4	97.25
433.622	102.25
433.844	114.25
434.066	89.25
434.287	97.25
434.509	102.25
434.731	98.25
434.953	93.25
435.175	100.25
435.397	122.25
435.618	154.25
435.84	157.25
436.062	118.25
436.284	116.25
436.505	116.25
436.727	99.25
436.949	101.25
437.17	105.25
437.392	93.25
437.614	117.25
437.835	89.25
438.057	98.25
438.278	108.25
438.5	112.25
438.721	96.25
438.943	96.25
439.165	94.25
439.386	93.25
439.608	98.25
439.829	92.25
440.05	101.25
440.272	102.25
440.493	114.25
440.715	100.25
440.936	87.25
441.158	110.25
441.379	117.25
441.6	108.25
441.822	116.25
442.043	135.25
442.264	183.25
442.486	345.25
442.707	504.25
442.928	300.25
443.149	250.25
443.371	420.25
443.592	762.25
443.813	608.25
444.034	235.25
444.255	148.25
444.476	146.25
444.698	141.25
444.919	174.25
445.14	326.25
445.361	531.25
445.582	934.25
445.803	819.25
446.024	310.25
446.245	179.25
446.466	139.25
446.687	116.25
446.908	113.25
447.129	114.25
447.35	109.25
447.571	101.25
447.792	93.25
448.013	94.25
448.234	84.25
448.455	100.25
448.675	104.25
448.896	98.25
449.117	103.25
449.338	91.25
449.559	91.25
449.779	92.25
450	103.25
450.221	116.25
450.442	94.25
450.662	99.25
450.883	106.25
451.104	108.25
451.324	104.25
451.545	112.25
451.766	100.25
451.986	112.25
452.207	98.25
452.428	98.25
452.648	140.25
452.869	164.25
453.089	162.25
453.31	107.25
453.53	124.25
453.751	114.25
453.971	94.25
454.192	99.25
454.412	108.25
454.633	99.25
454.853	90.25
455.073	91.25
455.294	82.25
455.514	105.25
455.734	107.25
455.955	116.25
456.175	109.25
456.395	107.25
456.616	105.25
456.836	113.25
457.056	104.25
457.276	112.25
457.497	104.25
457.717	148.25
457.937	230.25
458.157	303.25
458.377	374.25
458.598	324.25
458.818	365.25
459.038	204.25
459.258	114.25
459.478	108.25
459.698	91.25
459.918	91.25
460.138	104.25
460.358	105.25
460.578	132.25
460.798	193.25
461.018	178.25
461.238	109.25
461.458	96.25
461.678	102.25
461.898	94.25
462.118	91.25
462.338	109.25
462.558	96.25
462.777	84.25
462.997	98.25
463.217	82.25
463.437	100.25
463.657	82.25
463.876	93.25
464.096	90.25
464.316	95.25
464.536	93.25
464.755	100.25
464.975	96.25
465.195	101.25
465.414	94.25
465.634	91.25
465.854	99.25
466.073	101.25
466.293	107.25
466.512	91.25
466.732	104.25
466.951	92.25
467.171	106.25
467.391	90.25
467.61	93.25
467.829	101.25
468.049	94.25
468.268	103.25
468.488	106.25
468.707	108.25
468.927	103.25
469.146	93.25
469.365	102.25
469.585	94.25
469.804	90.25
470.023	98.25
470.243	94.25
470.462	98.25
470.681	99.25
470.901	93.25
471.12	99.25
471.339	98.25
471.558	87.25
471.777	93.25
471.997	84.25
472.216	110.25
472.435	91.25
472.654	99.25
472.873	104.25
473.092	104.25
473.311	103.25
473.53	95.25
473.749	103.25
473.968	101.25
474.187	107.25
474.406	99.25
474.625	102.25
474.844	99.25
475.063	104.25
475.282	95.25
475.501	106.25
475.72	102.25
475.939	100.25
476.158	91.25
476.377	97.25
476.596	104.25
476.814	89.25
477.033	100.25
477.252	106.25
477.471	90.25
477.69	95.25
477.908	89.25
478.127	97.25
478.346	98.25
478.564	103.25
478.783	93.25
479.002	100.25
479.22	107.25
479.439	103.25
479.658	98.25
479.876	100.25
480.095	87.25
480.313	91.25
480.532	104.25
480.751	111.25
480.969	105.25
481.188	90.25
481.406	97.25
481.624	96.25
481.843	100.25
482.061	106.25
482.28	118.25
482.498	120.25
482.717	124.25
482.935	102.25
483.153	124.25
483.372	104.25
483.59	107.25
483.808	115.25
484.027	122.25
484.245	107.25
484.463	111.25
484.681	128.25
484.9	113.25
485.118	98.25
485.336	104.25
485.554	112.25
485.772	107.25
485.99	102.25
486.209	116.25
486.427	107.25
486.645	116.25
486.863	109.25
487.081	121.25
487.299	128.25
487.517	149.25
487.735	258.25
487.953	572.25
488.171	483.25
488.389	192.25
488.607	130.25
488.825	112.25
489.043	109.25
489.261	100.25
489.479	104.25
489.696	97.25
489.914	121.25
490.132	107.25
490.35	96.25
490.568	92.25
490.786	107.25
491.003	92.25
491.221	104.25
491.439	92.25
491.657	95.25
491.874	92.25
492.092	100.25
492.31	102.25
492.527	94.25
492.745	101.25
492.963	104.25
493.18	103.25
493.398	92.25
493.615	108.25
493.833	108.25
494.05	91.25
494.268	98.25
494.485	94.25
494.703	85.25
494.92	90.25
495.138	92.25
495.355	99.25
495.573	102.25
495.79	104.25
496.008	87.25
496.225	110.25
496.442	132.25
496.66	99.25
496.877	108.25
497.094	106.25
497.312	94.25
497.529	106.25
497.746	98.25
497.963	104.25
498.181	101.25
498.398	108.25
498.615	90.25
498.832	106.25
499.049	103.25
499.267	119.25
499.484	90.25
499.701	91.25
499.918	104.25
500.135	109.25
500.352	90.25
500.569	98.25
500.786	102.25
501.003	97.25
501.22	107.25
501.437	121.25
501.654	106.25
501.871	110.25
502.088	98.25
502.305	100.25
502.522	115.25
502.739	109.25
502.956	105.25
503.172	120.25
503.389	102.25
503.606	134.25
503.823	126.25
504.04	180.25
504.256	346.25
504.473	378.25
504.69	190.25
504.907	125.25
505.123	116.25
505.34	114.25
505.557	106.25
505.773	115.25
505.99	99.25
506.207	86.25
506.423	101.25
506.64	101.25
506.856	83.25
507.073	97.25
507.289	91.25
507.506	84.25
507.722	85.25
507.939	92.25
508.155	88.25
508.372	100.25
508.588	84.25
508.805	113.25
509.021	100.25
509.238	105.25
509.454	101.25
509.67	104.25
509.887	95.25
510.103	108.25
510.319	118.25
510.536	96.25
510.752	98.25
510.968	90.25
