Data from CBS_1_HRD10591_00002.txt Node
Date: Mon Jan 19 14:03:49 EST 2026
User: Yrep
Spectrometer: HR+D1059
Trigger mode: 1
Integration Time (sec): 1.000000E-1
Scans to average: 1
Electric dark correction enabled: true
Nonlinearity correction enabled: false
Boxcar width: 0
XAxis mode: Wavelengths
Number of Pixels in Spectrum: 2048
>>>>>Begin Spectral Data<<<<<
223.165	-29.06
223.4	-29.06
223.635	-29.06
223.869	-13.06
224.104	-27.06
224.338	-13.06
224.573	-25.06
224.808	-17.06
225.042	-2.06
225.277	-13.06
225.511	1.94
225.746	19.94
225.98	7.94
226.215	16.94
226.449	18.94
226.683	14.94
226.918	27.94
227.152	30.94
227.387	29.94
227.621	37.94
227.856	35.94
228.09	39.94
228.324	46.94
228.559	54.94
228.793	55.94
229.027	56.94
229.262	58.94
229.496	59.94
229.73	73.94
229.964	82.94
230.199	51.94
230.433	78.94
230.667	72.94
230.901	79.94
231.136	81.94
231.37	85.94
231.604	65.94
231.838	73.94
232.072	77.94
232.306	71.94
232.541	88.94
232.775	67.94
233.009	70.94
233.243	64.94
233.477	80.94
233.711	75.94
233.945	75.94
234.179	62.94
234.413	62.94
234.647	75.94
234.881	90.94
235.115	70.94
235.349	64.94
235.583	76.94
235.817	75.94
236.051	77.94
236.285	76.94
236.519	81.94
236.753	75.94
236.987	92.94
237.221	71.94
237.455	71.94
237.689	71.94
237.922	71.94
238.156	86.94
238.39	69.94
238.624	52.94
238.858	76.94
239.091	56.94
239.325	86.94
239.559	62.94
239.793	88.94
240.027	78.94
240.26	77.94
240.494	64.94
240.728	80.94
240.961	59.94
241.195	59.94
241.429	76.94
241.662	73.94
241.896	61.94
242.13	69.94
242.363	69.94
242.597	61.94
242.83	79.94
243.064	72.94
243.298	60.94
243.531	76.94
243.765	84.94
243.998	69.94
244.232	81.94
244.465	80.94
244.699	77.94
244.932	65.94
245.166	68.94
245.399	76.94
245.633	67.94
245.866	90.94
246.099	76.94
246.333	71.94
246.566	71.94
246.8	71.94
247.033	76.94
247.266	60.94
247.5	86.94
247.733	83.94
247.966	66.94
248.2	72.94
248.433	69.94
248.666	70.94
248.899	87.94
249.133	70.94
249.366	87.94
249.599	78.94
249.832	81.94
250.066	91.94
250.299	68.94
250.532	79.94
250.765	82.94
250.998	77.94
251.231	72.94
251.465	72.94
251.698	64.94
251.931	85.94
252.164	88.94
252.397	86.94
252.63	79.94
252.863	73.94
253.096	77.94
253.329	79.94
253.562	80.94
253.795	76.94
254.028	83.94
254.261	71.94
254.494	86.94
254.727	83.94
254.96	71.94
255.193	59.94
255.426	63.94
255.659	83.94
255.892	78.94
256.124	81.94
256.357	87.94
256.59	67.94
256.823	82.94
257.056	71.94
257.289	73.94
257.521	72.94
257.754	76.94
257.987	77.94
258.22	82.94
258.452	62.94
258.685	74.94
258.918	75.94
259.151	77.94
259.383	81.94
259.616	78.94
259.849	73.94
260.081	71.94
260.314	70.94
260.547	70.94
260.779	72.94
261.012	71.94
261.244	78.94
261.477	73.94
261.71	72.94
261.942	72.94
262.175	72.94
262.407	97.94
262.64	78.94
262.872	82.94
263.105	78.94
263.337	88.94
263.57	79.94
263.802	83.94
264.035	72.94
264.267	75.94
264.499	101.94
264.732	85.94
264.964	83.94
265.197	92.94
265.429	73.94
265.661	87.94
265.894	75.94
266.126	82.94
266.358	78.94
266.591	83.94
266.823	75.94
267.055	78.94
267.287	71.94
267.52	82.94
267.752	72.94
267.984	79.94
268.216	58.94
268.448	66.94
268.681	85.94
268.913	80.94
269.145	73.94
269.377	86.94
269.609	60.94
269.841	88.94
270.073	82.94
270.306	83.94
270.538	58.94
270.77	73.94
271.002	79.94
271.234	90.94
271.466	84.94
271.698	86.94
271.93	72.94
272.162	100.94
272.394	78.94
272.626	73.94
272.858	86.94
273.09	86.94
273.322	70.94
273.553	85.94
273.785	81.94
274.017	79.94
274.249	67.94
274.481	78.94
274.713	88.94
274.945	90.94
275.176	71.94
275.408	83.94
275.64	92.94
275.872	90.94
276.104	82.94
276.335	90.94
276.567	78.94
276.799	77.94
277.031	76.94
277.262	79.94
277.494	80.94
277.726	92.94
277.957	80.94
278.189	72.94
278.421	87.94
278.652	82.94
278.884	80.94
279.115	83.94
279.347	79.94
279.579	95.94
279.81	93.94
280.042	87.94
280.273	73.94
280.505	76.94
280.736	75.94
280.968	81.94
281.199	73.94
281.431	76.94
281.662	82.94
281.894	86.94
282.125	80.94
282.356	79.94
282.588	86.94
282.819	98.94
283.051	79.94
283.282	85.94
283.513	86.94
283.745	89.94
283.976	86.94
284.207	81.94
284.439	87.94
284.67	68.94
284.901	84.94
285.132	85.94
285.364	95.94
285.595	80.94
285.826	73.94
286.057	74.94
286.288	77.94
286.52	87.94
286.751	76.94
286.982	71.94
287.213	76.94
287.444	88.94
287.675	65.94
287.906	82.94
288.138	82.94
288.369	109.94
288.6	78.94
288.831	63.94
289.062	83.94
289.293	86.94
289.524	79.94
289.755	80.94
289.986	77.94
290.217	74.94
290.448	77.94
290.679	75.94
290.91	87.94
291.141	92.94
291.371	87.94
291.602	78.94
291.833	65.94
292.064	88.94
292.295	77.94
292.526	86.94
292.757	80.94
292.987	81.94
293.218	95.94
293.449	76.94
293.68	76.94
293.91	77.94
294.141	100.94
294.372	76.94
294.603	84.94
294.833	86.94
295.064	95.94
295.295	77.94
295.525	82.94
295.756	93.94
295.987	87.94
296.217	87.94
296.448	93.94
296.679	95.94
296.909	88.94
297.14	94.94
297.37	78.94
297.601	86.94
297.831	87.94
298.062	84.94
298.292	78.94
298.523	73.94
298.753	86.94
298.984	87.94
299.214	71.94
299.445	71.94
299.675	88.94
299.905	86.94
300.136	106.94
300.366	92.94
300.597	90.94
300.827	104.94
301.057	97.94
301.288	83.94
301.518	75.94
301.748	84.94
301.979	99.94
302.209	87.94
302.439	90.94
302.669	82.94
302.9	74.94
303.13	83.94
303.36	69.94
303.59	86.94
303.82	84.94
304.051	86.94
304.281	83.94
304.511	91.94
304.741	80.94
304.971	83.94
305.201	92.94
305.431	99.94
305.661	80.94
305.891	80.94
306.121	81.94
306.352	71.94
306.582	78.94
306.812	68.94
307.042	87.94
307.272	82.94
307.502	90.94
307.731	90.94
307.961	88.94
308.191	96.94
308.421	99.94
308.651	93.94
308.881	94.94
309.111	106.94
309.341	120.94
309.571	103.94
309.8	82.94
310.03	82.94
310.26	69.94
310.49	86.94
310.72	75.94
310.949	75.94
311.179	87.94
311.409	90.94
311.639	94.94
311.868	88.94
312.098	79.94
312.328	73.94
312.557	87.94
312.787	92.94
313.017	96.94
313.246	97.94
313.476	90.94
313.706	78.94
313.935	92.94
314.165	101.94
314.394	94.94
314.624	85.94
314.853	87.94
315.083	84.94
315.312	94.94
315.542	93.94
315.771	100.94
316.001	114.94
316.23	104.94
316.46	108.94
316.689	77.94
316.919	95.94
317.148	88.94
317.377	80.94
317.607	98.94
317.836	100.94
318.065	113.94
318.295	112.94
318.524	80.94
318.753	82.94
318.983	78.94
319.212	89.94
319.441	72.94
319.67	83.94
319.9	90.94
320.129	85.94
320.358	92.94
320.587	90.94
320.816	94.94
321.046	80.94
321.275	97.94
321.504	95.94
321.733	95.94
321.962	101.94
322.191	100.94
322.42	98.94
322.649	106.94
322.878	97.94
323.108	95.94
323.337	84.94
323.566	90.94
323.795	84.94
324.024	77.94
324.253	89.94
324.482	89.94
324.71	93.94
324.939	94.94
325.168	81.94
325.397	77.94
325.626	75.94
325.855	91.94
326.084	85.94
326.313	99.94
326.542	86.94
326.77	90.94
326.999	88.94
327.228	92.94
327.457	76.94
327.686	86.94
327.914	96.94
328.143	91.94
328.372	75.94
328.6	89.94
328.829	91.94
329.058	91.94
329.287	93.94
329.515	93.94
329.744	85.94
329.972	81.94
330.201	93.94
330.43	90.94
330.658	75.94
330.887	88.94
331.115	95.94
331.344	98.94
331.572	80.94
331.801	87.94
332.03	91.94
332.258	85.94
332.486	73.94
332.715	85.94
332.943	80.94
333.172	100.94
333.4	78.94
333.629	76.94
333.857	98.94
334.085	95.94
334.314	102.94
334.542	107.94
334.771	100.94
334.999	100.94
335.227	101.94
335.455	110.94
335.684	109.94
335.912	95.94
336.14	109.94
336.369	114.94
336.597	100.94
336.825	99.94
337.053	86.94
337.281	92.94
337.51	100.94
337.738	87.94
337.966	80.94
338.194	80.94
338.422	101.94
338.65	93.94
338.878	84.94
339.106	99.94
339.334	81.94
339.562	75.94
339.79	73.94
340.018	82.94
340.246	86.94
340.474	93.94
340.702	90.94
340.93	98.94
341.158	87.94
341.386	83.94
341.614	75.94
341.842	81.94
342.07	88.94
342.298	88.94
342.526	88.94
342.754	104.94
342.981	101.94
343.209	93.94
343.437	100.94
343.665	82.94
343.893	96.94
344.12	98.94
344.348	87.94
344.576	87.94
344.804	102.94
345.031	81.94
345.259	98.94
345.487	87.94
345.714	73.94
345.942	78.94
346.17	80.94
346.397	87.94
346.625	80.94
346.853	99.94
347.08	95.94
347.308	93.94
347.535	97.94
347.763	97.94
347.99	96.94
348.218	79.94
348.445	91.94
348.673	88.94
348.9	101.94
349.128	101.94
349.355	93.94
349.583	83.94
349.81	84.94
350.037	79.94
350.265	87.94
350.492	99.94
350.72	88.94
350.947	94.94
351.174	89.94
351.402	83.94
351.629	88.94
351.856	90.94
352.083	99.94
352.311	91.94
352.538	96.94
352.765	91.94
352.992	96.94
353.22	84.94
353.447	91.94
353.674	92.94
353.901	93.94
354.128	87.94
354.355	96.94
354.583	88.94
354.81	86.94
355.037	91.94
355.264	90.94
355.491	91.94
355.718	93.94
355.945	82.94
356.172	91.94
356.399	89.94
356.626	71.94
356.853	79.94
357.08	80.94
357.307	95.94
357.534	86.94
357.761	84.94
357.988	101.94
358.215	118.94
358.441	106.94
358.668	86.94
358.895	78.94
359.122	79.94
359.349	101.94
359.576	84.94
359.802	85.94
360.029	98.94
360.256	85.94
360.483	91.94
360.709	99.94
360.936	92.94
361.163	96.94
361.39	84.94
361.616	99.94
361.843	97.94
362.07	117.94
362.296	130.94
362.523	148.94
362.749	168.94
362.976	171.94
363.203	196.94
363.429	145.94
363.656	122.94
363.882	126.94
364.109	151.94
364.335	206.94
364.562	226.94
364.788	165.94
365.015	110.94
365.241	88.94
365.468	91.94
365.694	97.94
365.92	100.94
366.147	91.94
366.373	77.94
366.599	80.94
366.826	88.94
367.052	89.94
367.278	87.94
367.505	87.94
367.731	90.94
367.957	109.94
368.184	84.94
368.41	70.94
368.636	76.94
368.862	74.94
369.089	79.94
369.315	89.94
369.541	87.94
369.767	80.94
369.993	86.94
370.219	77.94
370.445	97.94
370.672	100.94
370.898	101.94
371.124	86.94
371.35	84.94
371.576	88.94
371.802	82.94
372.028	101.94
372.254	98.94
372.48	80.94
372.706	85.94
372.932	68.94
373.158	98.94
373.384	122.94
373.61	142.94
373.835	148.94
374.061	118.94
374.287	106.94
374.513	106.94
374.739	84.94
374.965	103.94
375.191	94.94
375.416	112.94
375.642	102.94
375.868	107.94
376.094	98.94
376.319	100.94
376.545	93.94
376.771	86.94
376.997	98.94
377.222	80.94
377.448	98.94
377.674	86.94
377.899	91.94
378.125	96.94
378.35	90.94
378.576	81.94
378.802	84.94
379.027	89.94
379.253	100.94
379.478	95.94
379.704	85.94
379.929	83.94
380.155	106.94
380.38	100.94
380.606	106.94
380.831	86.94
381.057	101.94
381.282	87.94
381.507	93.94
381.733	86.94
381.958	98.94
382.184	101.94
382.409	110.94
382.634	93.94
382.86	90.94
383.085	95.94
383.31	102.94
383.535	109.94
383.761	103.94
383.986	103.94
384.211	101.94
384.436	104.94
384.662	103.94
384.887	98.94
385.112	110.94
385.337	82.94
385.562	99.94
385.787	105.94
386.013	108.94
386.238	102.94
386.463	99.94
386.688	107.94
386.913	104.94
387.138	82.94
387.363	109.94
387.588	106.94
387.813	106.94
388.038	111.94
388.263	95.94
388.488	101.94
388.713	107.94
388.938	104.94
389.163	112.94
389.387	83.94
389.612	94.94
389.837	87.94
390.062	100.94
390.287	96.94
390.512	122.94
390.736	109.94
390.961	106.94
391.186	95.94
391.411	107.94
391.636	102.94
391.86	117.94
392.085	123.94
392.31	131.94
392.534	158.94
392.759	194.94
392.984	299.94
393.208	528.94
393.433	741.94
393.658	558.94
393.882	282.94
394.107	170.94
394.331	158.94
394.556	170.94
394.78	138.94
395.005	118.94
395.229	128.94
395.454	144.94
395.678	160.94
395.903	196.94
396.127	201.94
396.352	272.94
396.576	318.94
396.801	500.94
397.025	592.94
397.249	336.94
397.474	222.94
397.698	164.94
397.922	123.94
398.147	104.94
398.371	93.94
398.595	80.94
398.82	87.94
399.044	119.94
399.268	99.94
399.492	90.94
399.717	96.94
399.941	98.94
400.165	86.94
400.389	103.94
400.613	95.94
400.837	99.94
401.062	85.94
401.286	84.94
401.51	91.94
401.734	86.94
401.958	91.94
402.182	78.94
402.406	95.94
402.63	95.94
402.854	92.94
403.078	101.94
403.302	101.94
403.526	114.94
403.75	85.94
403.974	91.94
404.198	88.94
404.422	91.94
404.645	102.94
404.869	96.94
405.093	74.94
405.317	105.94
405.541	96.94
405.765	87.94
405.988	84.94
406.212	92.94
406.436	86.94
406.66	115.94
406.883	98.94
407.107	75.94
407.331	108.94
407.555	123.94
407.778	132.94
408.002	136.94
408.226	101.94
408.449	83.94
408.673	107.94
408.896	86.94
409.12	95.94
409.344	123.94
409.567	156.94
409.791	162.94
410.014	141.94
410.238	122.94
410.461	104.94
410.685	113.94
410.908	107.94
411.132	100.94
411.355	118.94
411.578	100.94
411.802	87.94
412.025	91.94
412.249	82.94
412.472	102.94
412.695	90.94
412.919	87.94
413.142	93.94
413.365	84.94
413.589	92.94
413.812	80.94
414.035	92.94
414.258	102.94
414.482	99.94
414.705	91.94
414.928	81.94
415.151	89.94
415.374	88.94
415.597	84.94
415.821	82.94
416.044	86.94
416.267	81.94
416.49	79.94
416.713	87.94
416.936	94.94
417.159	91.94
417.382	101.94
417.605	98.94
417.828	102.94
418.051	99.94
418.274	92.94
418.497	95.94
418.72	79.94
418.943	96.94
419.166	91.94
419.389	94.94
419.611	84.94
419.834	101.94
420.057	110.94
420.28	86.94
420.503	102.94
420.726	100.94
420.948	99.94
421.171	109.94
421.394	146.94
421.617	175.94
421.839	188.94
422.062	214.94
422.285	300.94
422.507	484.94
422.73	670.94
422.953	610.94
423.175	376.94
423.398	245.94
423.621	172.94
423.843	163.94
424.066	119.94
424.288	122.94
424.511	114.94
424.733	118.94
424.956	112.94
425.178	89.94
425.401	108.94
425.623	94.94
425.846	102.94
426.068	94.94
426.291	87.94
426.513	86.94
426.735	99.94
426.958	86.94
427.18	95.94
427.402	107.94
427.625	86.94
427.847	86.94
428.069	133.94
428.292	192.94
428.514	214.94
428.736	149.94
428.958	192.94
429.181	210.94
429.403	135.94
429.625	128.94
429.847	190.94
430.069	284.94
430.292	318.94
430.514	303.94
430.736	218.94
430.958	238.94
431.18	141.94
431.402	124.94
431.624	104.94
431.846	206.94
432.068	236.94
432.29	125.94
432.512	97.94
432.734	100.94
432.956	107.94
433.178	89.94
433.4	96.94
433.622	98.94
433.844	90.94
434.066	95.94
434.287	89.94
434.509	85.94
434.731	92.94
434.953	83.94
435.175	83.94
435.397	109.94
435.618	112.94
435.84	108.94
436.062	97.94
436.284	99.94
436.505	86.94
436.727	82.94
436.949	82.94
437.17	88.94
437.392	85.94
437.614	94.94
437.835	73.94
438.057	87.94
438.278	91.94
438.5	79.94
438.721	83.94
438.943	84.94
439.165	81.94
439.386	100.94
439.608	77.94
439.829	88.94
440.05	84.94
440.272	85.94
440.493	104.94
440.715	86.94
440.936	95.94
441.158	92.94
441.379	88.94
441.6	102.94
441.822	94.94
442.043	108.94
442.264	124.94
442.486	229.94
442.707	350.94
442.928	210.94
443.149	158.94
443.371	281.94
443.592	522.94
443.813	432.94
444.034	179.94
444.255	127.94
444.476	107.94
444.698	110.94
444.919	114.94
445.14	221.94
445.361	351.94
445.582	646.94
445.803	538.94
446.024	212.94
446.245	122.94
446.466	102.94
446.687	108.94
446.908	88.94
447.129	87.94
447.35	85.94
447.571	98.94
447.792	69.94
448.013	96.94
448.234	84.94
448.455	86.94
448.675	87.94
448.896	94.94
449.117	87.94
449.338	74.94
449.559	91.94
449.779	71.94
450	90.94
450.221	89.94
450.442	72.94
450.662	94.94
450.883	108.94
451.104	88.94
451.324	82.94
451.545	99.94
451.766	86.94
451.986	89.94
452.207	93.94
452.428	101.94
452.648	113.94
452.869	140.94
453.089	118.94
453.31	110.94
453.53	102.94
453.751	97.94
453.971	88.94
454.192	98.94
454.412	89.94
454.633	83.94
454.853	92.94
455.073	96.94
455.294	80.94
455.514	100.94
455.734	93.94
455.955	87.94
456.175	92.94
456.395	80.94
456.616	83.94
456.836	82.94
457.056	91.94
457.276	96.94
457.497	94.94
457.717	129.94
457.937	167.94
458.157	238.94
458.377	251.94
458.598	226.94
458.818	263.94
459.038	141.94
459.258	103.94
459.478	96.94
459.698	95.94
459.918	99.94
460.138	100.94
460.358	99.94
460.578	109.94
460.798	144.94
461.018	133.94
461.238	102.94
461.458	86.94
461.678	84.94
461.898	91.94
462.118	84.94
462.338	94.94
462.558	93.94
462.777	76.94
462.997	82.94
463.217	86.94
463.437	79.94
463.657	96.94
463.876	93.94
464.096	88.94
464.316	84.94
464.536	81.94
464.755	84.94
464.975	83.94
465.195	88.94
465.414	82.94
465.634	86.94
465.854	81.94
466.073	86.94
466.293	78.94
466.512	84.94
466.732	92.94
466.951	89.94
467.171	73.94
467.391	88.94
467.61	82.94
467.829	82.94
468.049	104.94
468.268	95.94
468.488	90.94
468.707	95.94
468.927	89.94
469.146	95.94
469.365	87.94
469.585	84.94
469.804	92.94
470.023	92.94
470.243	86.94
470.462	93.94
470.681	96.94
470.901	90.94
471.12	90.94
471.339	86.94
471.558	86.94
471.777	94.94
471.997	79.94
472.216	87.94
472.435	83.94
472.654	92.94
472.873	85.94
473.092	84.94
473.311	86.94
473.53	96.94
473.749	78.94
473.968	94.94
474.187	110.94
474.406	88.94
474.625	86.94
474.844	86.94
475.063	86.94
475.282	95.94
475.501	93.94
475.72	97.94
475.939	83.94
476.158	83.94
476.377	79.94
476.596	82.94
476.814	95.94
477.033	80.94
477.252	86.94
477.471	71.94
477.69	103.94
477.908	98.94
478.127	96.94
478.346	91.94
478.564	87.94
478.783	96.94
479.002	79.94
479.22	95.94
479.439	87.94
479.658	93.94
479.876	88.94
480.095	95.94
480.313	84.94
480.532	78.94
480.751	85.94
480.969	86.94
481.188	102.94
481.406	113.94
481.624	86.94
481.843	108.94
482.061	90.94
482.28	82.94
482.498	95.94
482.717	92.94
482.935	96.94
483.153	84.94
483.372	103.94
483.59	112.94
483.808	93.94
484.027	91.94
484.245	95.94
484.463	75.94
484.681	107.94
484.9	104.94
485.118	98.94
485.336	98.94
485.554	86.94
485.772	102.94
485.99	90.94
486.209	92.94
486.427	93.94
486.645	90.94
486.863	92.94
487.081	97.94
487.299	117.94
487.517	117.94
487.735	186.94
487.953	406.94
488.171	314.94
488.389	134.94
488.607	103.94
488.825	101.94
489.043	97.94
489.261	96.94
489.479	91.94
489.696	92.94
489.914	93.94
490.132	100.94
490.35	91.94
490.568	93.94
490.786	91.94
491.003	92.94
491.221	92.94
491.439	91.94
491.657	92.94
491.874	89.94
492.092	94.94
492.31	100.94
492.527	101.94
492.745	81.94
492.963	92.94
493.18	97.94
493.398	86.94
493.615	94.94
493.833	99.94
494.05	85.94
494.268	76.94
494.485	96.94
494.703	98.94
494.92	91.94
495.138	79.94
495.355	89.94
495.573	82.94
495.79	84.94
496.008	101.94
496.225	95.94
496.442	103.94
496.66	95.94
496.877	77.94
497.094	95.94
497.312	83.94
497.529	82.94
497.746	83.94
497.963	77.94
498.181	101.94
498.398	95.94
498.615	102.94
498.832	85.94
499.049	78.94
499.267	106.94
499.484	95.94
499.701	80.94
499.918	96.94
500.135	91.94
500.352	84.94
500.569	88.94
500.786	87.94
501.003	100.94
501.22	104.94
501.437	102.94
501.654	92.94
501.871	90.94
502.088	91.94
502.305	92.94
502.522	86.94
502.739	95.94
502.956	87.94
503.172	110.94
503.389	90.94
503.606	102.94
503.823	104.94
504.04	142.94
504.256	275.94
504.473	292.94
504.69	142.94
504.907	86.94
505.123	97.94
505.34	91.94
505.557	92.94
505.773	88.94
505.99	94.94
506.207	89.94
506.423	99.94
506.64	75.94
506.856	101.94
507.073	99.94
507.289	101.94
507.506	72.94
507.722	88.94
507.939	96.94
508.155	79.94
508.372	78.94
508.588	91.94
508.805	100.94
509.021	98.94
509.238	104.94
509.454	91.94
509.67	89.94
509.887	87.94
510.103	82.94
510.319	100.94
510.536	79.94
510.752	86.94
510.968	78.94
511.184	86.94
511.401	81.94
511.617	98.94
511.833	86.94
512.049	102.94
512.265	96.94
512.481	101.94
512.698	85.94
512.914	107.94
513.13	101.94
513.346	98.94
513.562	98.94
513.778	90.94
513.994	98.94
514.21	110.94
514.426	97.94
514.642	78.94
514.858	90.94
515.074	98.94
515.29	96.94
515.506	95.94
515.721	114.94
515.937	108.94
