Data from CBS_1_HRD10591_00008.txt Node
Date: Mon Jan 19 14:03:52 EST 2026
User: Yrep
Spectrometer: HR+D1059
Trigger mode: 1
Integration Time (sec): 1.000000E-1
Scans to average: 1
Electric dark correction enabled: true
Nonlinearity correction enabled: false
Boxcar width: 0
XAxis mode: Wavelengths
Number of Pixels in Spectrum: 2048
>>>>>Begin Spectral Data<<<<<
223.165	-11
223.4	-11
223.635	-11
223.869	-3
224.104	-15
224.338	-15
224.573	-29
224.808	-7
225.042	-6
225.277	-21
225.511	-3
225.746	-1
225.98	16
226.215	22
226.449	8
226.683	13
226.918	16
227.152	36
227.387	29
227.621	35
227.856	45
228.09	44
228.324	58
228.559	49
228.793	65
229.027	55
229.262	62
229.496	61
229.73	73
229.964	75
230.199	83
230.433	74
230.667	88
230.901	83
231.136	76
231.37	81
231.604	67
231.838	79
232.072	76
232.306	80
232.541	79
232.775	75
233.009	80
233.243	73
233.477	71
233.711	69
233.945	80
234.179	71
234.413	94
234.647	73
234.881	74
235.115	73
235.349	77
235.583	69
235.817	81
236.051	83
236.285	86
236.519	77
236.753	77
236.987	78
237.221	64
237.455	72
237.689	60
237.922	70
238.156	70
238.39	75
238.624	66
238.858	82
239.091	85
239.325	72
239.559	75
239.793	89
240.027	70
240.26	79
240.494	81
240.728	83
240.961	63
241.195	76
241.429	75
241.662	82
241.896	72
242.13	79
242.363	74
242.597	77
242.83	70
243.064	67
243.298	79
243.531	77
243.765	65
243.998	61
244.232	66
244.465	78
244.699	77
244.932	69
245.166	71
245.399	69
245.633	85
245.866	83
246.099	76
246.333	63
246.566	71
246.8	73
247.033	79
247.266	80
247.5	83
247.733	69
247.966	89
248.2	73
248.433	65
248.666	89
248.899	80
249.133	83
249.366	82
249.599	77
249.832	79
250.066	78
250.299	79
250.532	74
250.765	81
250.998	77
251.231	65
251.465	83
251.698	80
251.931	74
252.164	82
252.397	87
252.63	84
252.863	82
253.096	79
253.329	81
253.562	94
253.795	74
254.028	81
254.261	83
254.494	83
254.727	89
254.96	73
255.193	72
255.426	81
255.659	88
255.892	83
256.124	78
256.357	77
256.59	89
256.823	87
257.056	68
257.289	95
257.521	81
257.754	93
257.987	75
258.22	88
258.452	91
258.685	98
258.918	81
259.151	81
259.383	84
259.616	72
259.849	89
260.081	81
260.314	74
260.547	94
260.779	94
261.012	78
261.244	73
261.477	77
261.71	79
261.942	84
262.175	91
262.407	85
262.64	82
262.872	80
263.105	83
263.337	77
263.57	95
263.802	88
264.035	83
264.267	82
264.499	89
264.732	80
264.964	69
265.197	96
265.429	76
265.661	88
265.894	81
266.126	85
266.358	78
266.591	74
266.823	79
267.055	81
267.287	83
267.52	79
267.752	82
267.984	80
268.216	68
268.448	73
268.681	81
268.913	97
269.145	91
269.377	74
269.609	76
269.841	80
270.073	75
270.306	83
270.538	67
270.77	83
271.002	82
271.234	74
271.466	79
271.698	84
271.93	74
272.162	70
272.394	89
272.626	87
272.858	82
273.09	86
273.322	99
273.553	88
273.785	75
274.017	86
274.249	89
274.481	64
274.713	79
274.945	77
275.176	83
275.408	80
275.64	86
275.872	93
276.104	89
276.335	75
276.567	81
276.799	96
277.031	91
277.262	77
277.494	70
277.726	90
277.957	90
278.189	71
278.421	74
278.652	80
278.884	75
279.115	87
279.347	83
279.579	105
279.81	75
280.042	92
280.273	89
280.505	80
280.736	94
280.968	86
281.199	94
281.431	86
281.662	69
281.894	107
282.125	78
282.356	83
282.588	81
282.819	89
283.051	94
283.282	89
283.513	95
283.745	85
283.976	83
284.207	71
284.439	71
284.67	79
284.901	77
285.132	75
285.364	85
285.595	91
285.826	81
286.057	83
286.288	74
286.52	71
286.751	79
286.982	73
287.213	79
287.444	91
287.675	95
287.906	84
288.138	85
288.369	90
288.6	87
288.831	88
289.062	82
289.293	81
289.524	89
289.755	81
289.986	79
290.217	77
290.448	102
290.679	75
290.91	71
291.141	87
291.371	80
291.602	74
291.833	86
292.064	93
292.295	92
292.526	92
292.757	79
292.987	77
293.218	80
293.449	82
293.68	98
293.91	81
294.141	89
294.372	91
294.603	89
294.833	73
295.064	82
295.295	80
295.525	87
295.756	77
295.987	72
296.217	73
296.448	88
296.679	77
296.909	85
297.14	91
297.37	78
297.601	78
297.831	76
298.062	90
298.292	87
298.523	93
298.753	79
298.984	88
299.214	79
299.445	87
299.675	81
299.905	81
300.136	84
300.366	83
300.597	97
300.827	87
301.057	80
301.288	95
301.518	85
301.748	69
301.979	97
302.209	89
302.439	83
302.669	97
302.9	94
303.13	83
303.36	85
303.59	71
303.82	73
304.051	93
304.281	91
304.511	80
304.741	77
304.971	95
305.201	95
305.431	74
305.661	77
305.891	82
306.121	90
306.352	79
306.582	101
306.812	89
307.042	82
307.272	84
307.502	82
307.731	77
307.961	80
308.191	92
308.421	95
308.651	84
308.881	90
309.111	87
309.341	90
309.571	89
309.8	80
310.03	70
310.26	76
310.49	96
310.72	82
310.949	104
311.179	95
311.409	83
311.639	86
311.868	94
312.098	77
312.328	85
312.557	71
312.787	72
313.017	91
313.246	89
313.476	78
313.706	79
313.935	74
314.165	89
314.394	87
314.624	91
314.853	86
315.083	103
315.312	91
315.542	90
315.771	93
316.001	86
316.23	85
316.46	82
316.689	88
316.919	73
317.148	106
317.377	102
317.607	88
317.836	82
318.065	89
318.295	79
318.524	80
318.753	93
318.983	103
319.212	78
319.441	73
319.67	86
319.9	75
320.129	87
320.358	90
320.587	83
320.816	98
321.046	98
321.275	74
321.504	81
321.733	75
321.962	80
322.191	71
322.42	88
322.649	96
322.878	88
323.108	85
323.337	94
323.566	87
323.795	77
324.024	88
324.253	86
324.482	81
324.71	94
324.939	74
325.168	89
325.397	89
325.626	99
325.855	85
326.084	75
326.313	68
326.542	71
326.77	93
326.999	93
327.228	83
327.457	100
327.686	87
327.914	90
328.143	92
328.372	70
328.6	90
328.829	93
329.058	89
329.287	82
329.515	82
329.744	84
329.972	91
330.201	90
330.43	76
330.658	84
330.887	97
331.115	87
331.344	98
331.572	77
331.801	85
332.03	95
332.258	81
332.486	76
332.715	87
332.943	85
333.172	78
333.4	85
333.629	93
333.857	71
334.085	86
334.314	81
334.542	82
334.771	84
334.999	92
335.227	91
335.455	81
335.684	99
335.912	101
336.14	90
336.369	98
336.597	87
336.825	78
337.053	81
337.281	76
337.51	74
337.738	88
337.966	97
338.194	81
338.422	73
338.65	79
338.878	85
339.106	84
339.334	87
339.562	81
339.79	99
340.018	74
340.246	94
340.474	87
340.702	78
340.93	97
341.158	90
341.386	94
341.614	79
341.842	91
342.07	97
342.298	96
342.526	85
342.754	84
342.981	87
343.209	85
343.437	91
343.665	86
343.893	87
344.12	89
344.348	75
344.576	97
344.804	96
345.031	89
345.259	96
345.487	100
345.714	88
345.942	86
346.17	80
346.397	100
346.625	78
346.853	73
347.08	91
347.308	93
347.535	97
347.763	97
347.99	93
348.218	89
348.445	89
348.673	90
348.9	112
349.128	92
349.355	82
349.583	90
349.81	96
350.037	82
350.265	84
350.492	97
350.72	90
350.947	85
351.174	91
351.402	82
351.629	87
351.856	105
352.083	89
352.311	98
352.538	78
352.765	79
352.992	92
353.22	86
353.447	73
353.674	82
353.901	81
354.128	86
354.355	92
354.583	83
354.81	81
355.037	81
355.264	76
355.491	84
355.718	81
355.945	98
356.172	73
356.399	99
356.626	89
356.853	83
357.08	89
357.307	84
357.534	79
357.761	73
357.988	89
358.215	86
358.441	79
358.668	82
358.895	98
359.122	91
359.349	92
359.576	83
359.802	73
360.029	89
360.256	91
360.483	94
360.709	89
360.936	85
361.163	101
361.39	90
361.616	71
361.843	83
362.07	90
362.296	111
362.523	102
362.749	102
362.976	111
363.203	119
363.429	111
363.656	91
363.882	106
364.109	115
364.335	121
364.562	142
364.788	107
365.015	100
365.241	86
365.468	91
365.694	105
365.92	92
366.147	88
366.373	89
366.599	96
366.826	94
367.052	83
367.278	82
367.505	79
367.731	91
367.957	95
368.184	84
368.41	95
368.636	97
368.862	98
369.089	81
369.315	83
369.541	86
369.767	81
369.993	71
370.219	81
370.445	71
370.672	103
370.898	85
371.124	81
371.35	98
371.576	98
371.802	94
372.028	84
372.254	87
372.48	90
372.706	95
372.932	87
373.158	94
373.384	89
373.61	99
373.835	86
374.061	86
374.287	95
374.513	90
374.739	79
374.965	98
375.191	86
375.416	86
375.642	104
375.868	80
376.094	89
376.319	80
376.545	91
376.771	77
376.997	81
377.222	97
377.448	89
377.674	83
377.899	84
378.125	82
378.35	96
378.576	73
378.802	81
379.027	81
379.253	99
379.478	95
379.704	83
379.929	84
380.155	96
380.38	92
380.606	84
380.831	97
381.057	105
381.282	96
381.507	95
381.733	88
381.958	82
382.184	82
382.409	81
382.634	87
382.86	95
383.085	76
383.31	90
383.535	91
383.761	94
383.986	83
384.211	87
384.436	82
384.662	91
384.887	95
385.112	87
385.337	84
385.562	73
385.787	89
386.013	98
386.238	87
386.463	79
386.688	94
386.913	78
387.138	80
387.363	106
387.588	89
387.813	87
388.038	101
388.263	95
388.488	84
388.713	83
388.938	90
389.163	97
389.387	84
389.612	102
389.837	81
390.062	73
390.287	90
390.512	92
390.736	93
390.961	93
391.186	96
391.411	89
391.636	93
391.86	95
392.085	103
392.31	99
392.534	89
392.759	119
392.984	134
393.208	182
393.433	239
393.658	203
393.882	127
394.107	114
394.331	118
394.556	103
394.78	99
395.005	89
395.229	87
395.454	94
395.678	99
395.903	105
396.127	121
396.352	123
396.576	135
396.801	186
397.025	203
397.249	139
397.474	124
397.698	118
397.922	103
398.147	98
398.371	86
398.595	89
398.82	82
399.044	80
399.268	84
399.492	84
399.717	91
399.941	95
400.165	101
400.389	89
400.613	67
400.837	73
401.062	81
401.286	71
401.51	93
401.734	95
401.958	101
402.182	76
402.406	85
402.63	76
402.854	91
403.078	89
403.302	98
403.526	89
403.75	81
403.974	90
404.198	93
404.422	99
404.645	101
404.869	91
405.093	88
405.317	87
405.541	95
405.765	98
405.988	97
406.212	81
406.436	79
406.66	96
406.883	90
407.107	90
407.331	85
407.555	98
407.778	93
408.002	110
408.226	89
408.449	87
408.673	77
408.896	79
409.12	78
409.344	107
409.567	113
409.791	114
410.014	109
410.238	103
410.461	96
410.685	89
410.908	77
411.132	106
411.355	89
411.578	86
411.802	91
412.025	83
412.249	87
412.472	85
412.695	74
412.919	93
413.142	93
413.365	90
413.589	86
413.812	74
414.035	80
414.258	90
414.482	93
414.705	89
414.928	85
415.151	86
415.374	89
415.597	93
415.821	96
416.044	94
416.267	78
416.49	79
416.713	98
416.936	73
417.159	69
417.382	92
417.605	88
417.828	90
418.051	81
418.274	95
418.497	86
418.72	94
418.943	107
419.166	89
419.389	88
419.611	99
419.834	100
420.057	97
420.28	83
420.503	97
420.726	99
420.948	95
421.171	98
421.394	117
421.617	121
421.839	139
422.062	149
422.285	176
422.507	224
422.73	256
422.953	252
423.175	201
423.398	163
423.621	123
423.843	101
424.066	109
424.288	102
424.511	89
424.733	87
424.956	85
425.178	83
425.401	81
425.623	95
425.846	91
426.068	87
426.291	80
426.513	91
426.735	85
426.958	85
427.18	83
427.402	80
427.625	78
427.847	81
428.069	100
428.292	118
428.514	121
428.736	97
428.958	133
429.181	140
429.403	107
429.625	99
429.847	118
430.069	158
430.292	166
430.514	171
430.736	131
430.958	134
431.18	89
431.402	83
431.624	85
431.846	115
432.068	133
432.29	86
432.512	84
432.734	90
432.956	91
433.178	85
433.4	86
433.622	89
433.844	82
434.066	81
434.287	76
434.509	65
434.731	93
434.953	92
435.175	92
435.397	84
435.618	96
435.84	105
436.062	87
436.284	76
436.505	82
436.727	90
436.949	83
437.17	96
437.392	78
437.614	85
437.835	89
438.057	93
438.278	87
438.5	79
438.721	94
438.943	69
439.165	73
439.386	87
439.608	91
439.829	84
440.05	81
440.272	94
440.493	83
440.715	97
440.936	98
441.158	92
441.379	76
441.6	80
441.822	87
442.043	91
442.264	111
442.486	139
442.707	163
442.928	123
443.149	116
443.371	150
443.592	220
443.813	209
444.034	129
444.255	104
444.476	81
444.698	90
444.919	107
445.14	200
445.361	205
445.582	251
445.803	219
446.024	138
446.245	89
446.466	104
446.687	89
446.908	88
447.129	85
447.35	88
447.571	87
447.792	90
448.013	71
448.234	96
448.455	89
448.675	82
448.896	93
449.117	85
449.338	78
449.559	73
449.779	66
450	83
450.221	88
450.442	101
450.662	84
450.883	78
451.104	71
451.324	88
451.545	82
451.766	88
451.986	82
452.207	79
452.428	86
452.648	109
452.869	99
453.089	93
453.31	97
453.53	81
453.751	99
453.971	84
454.192	74
454.412	89
454.633	81
454.853	82
455.073	79
455.294	86
455.514	93
455.734	89
455.955	100
456.175	91
456.395	89
456.616	95
456.836	100
457.056	90
457.276	94
457.497	78
457.717	95
457.937	117
458.157	148
458.377	147
458.598	135
458.818	147
459.038	99
459.258	79
459.478	88
459.698	84
459.918	90
460.138	88
460.358	79
460.578	100
460.798	117
461.018	98
461.238	83
461.458	84
461.678	73
461.898	89
462.118	93
462.338	78
462.558	101
462.777	84
462.997	79
463.217	86
463.437	70
463.657	85
463.876	81
464.096	92
464.316	83
464.536	79
464.755	80
464.975	90
465.195	93
465.414	71
465.634	93
465.854	88
466.073	79
466.293	85
466.512	98
466.732	81
466.951	71
467.171	87
467.391	94
467.61	78
467.829	88
468.049	85
468.268	86
468.488	99
468.707	95
468.927	102
469.146	94
469.365	86
469.585	88
469.804	91
470.023	72
470.243	86
470.462	96
470.681	88
470.901	85
471.12	80
471.339	83
471.558	97
471.777	104
471.997	88
472.216	94
472.435	80
472.654	86
472.873	88
473.092	95
473.311	93
473.53	79
473.749	72
473.968	77
474.187	77
474.406	84
474.625	86
474.844	96
475.063	81
475.282	90
475.501	83
475.72	95
475.939	87
476.158	96
476.377	69
476.596	89
476.814	86
477.033	101
477.252	92
477.471	72
477.69	71
477.908	85
478.127	87
478.346	84
478.564	78
478.783	87
479.002	80
479.22	89
479.439	110
479.658	85
479.876	90
480.095	84
480.313	89
480.532	81
480.751	83
480.969	89
481.188	97
481.406	74
481.624	87
481.843	83
482.061	81
482.28	81
482.498	81
482.717	90
482.935	87
483.153	97
483.372	97
483.59	87
483.808	84
484.027	88
484.245	88
484.463	86
484.681	109
484.9	81
485.118	92
485.336	80
485.554	93
485.772	94
485.99	87
486.209	86
486.427	92
486.645	93
486.863	90
487.081	88
487.299	92
487.517	95
487.735	124
487.953	201
488.171	169
488.389	100
488.607	95
488.825	93
489.043	88
489.261	93
489.479	87
489.696	81
489.914	105
490.132	87
490.35	86
490.568	90
490.786	84
491.003	81
491.221	88
491.439	85
491.657	87
491.874	95
492.092	90
492.31	96
492.527	85
492.745	79
492.963	98
493.18	95
493.398	85
493.615	91
493.833	85
494.05	88
494.268	97
494.485	93
494.703	81
494.92	81
495.138	86
495.355	82
495.573	82
495.79	72
496.008	88
496.225	93
496.442	87
496.66	89
496.877	84
497.094	98
497.312	84
497.529	86
497.746	93
497.963	82
498.181	101
498.398	104
498.615	96
498.832	85
499.049	89
499.267	84
499.484	91
499.701	90
499.918	106
500.135	90
500.352	87
500.569	85
500.786	88
501.003	77
501.22	96
501.437	103
501.654	87
501.871	88
502.088	91
502.305	93
502.522	87
502.739	94
502.956	78
503.172	83
503.389	81
503.606	84
503.823	91
504.04	103
504.256	146
504.473	159
504.69	106
504.907	95
505.123	89
505.34	84
505.557	86
505.773	91
505.99	91
506.207	89
506.423	84
506.64	84
506.856	82
507.073	71
507.289	84
507.506	89
507.722	106
507.939	90
508.155	89
508.372	83
508.588	81
508.805	86
509.021	93
509.238	90
509.454	79
509.67	87
509.887	94
510.103	105
510.319	106
510.536	77
510.752	87
510.968	84
511.184	89
511.401	82
511.617	87
511.833	91
512.049	89
512.265	79
512.481	102
512.698	85
512.914	96
513.13	103
513.346	76
513.562	93
513.778	93
513.994	74
514.21	82
514.426	91
514.642	94
514.858	81
515.074	97
515.29	97
515.506	89
515.721	71
515.937	73
516.153	83
516.369	96
516.585	92
516.801	105
517.016	95
517.232	87
517.448	93
517.664	97
517.879	95
518.095	108
518.311	100
518.527	106
518.742	123
518.958	185
519.173	201
519.389	121
519.605	96
519.82	97
520.036	102
520.251	81
520.467	90
520.682	81
520.898	87
521.113	98
521.329	102
521.544	95
521.76	86
521.975	99
522.19	99
522.406	83
522.621	85
522.836	112
523.052	84
523.267	102
523.482	78
523.698	83
523.913	93
524.128	104
524.343	96
524.559	100
524.774	90
524.989	83
525.204	95
525.419	79
525.634	95
525.849	97
526.064	122
526.28	228
526.495	365
526.71	362
526.925	234
527.14	266
527.355	267
527.57	118
527.785	82
527.999	101
528.214	91
528.429	103
528.644	86
528.859	94
529.074	90
529.289	113
529.503	90
529.718	93
529.933	100
530.148	86
530.363	80
530.577	99
530.792	102
531.007	102
531.221	97
531.436	93
531.651	90
531.865	104
532.08	93
532.295	87
532.509	104
532.724	81
532.938	113
533.153	112
533.367	89
533.582	100
533.796	92
534.011	116
534.225	113
534.44	104
534.654	99
534.868	117
535.083	182
535.297	169
535.511	127
535.726	96
535.94	101
536.154	102
536.369	122
536.583	98
536.797	85
537.011	100
537.225	106
537.44	94
537.654	101
537.868	95
538.082	116
538.296	100
538.51	103
538.724	105
538.938	109
539.153	106
539.367	102
539.581	119
539.795	95
540.009	96
540.222	110
540.436	111
540.65	93
540.864	97
541.078	105
541.292	99
541.506	102
541.72	111
541.934	90
542.147	109
542.361	98
542.575	98
542.789	86
543.002	113
543.216	111
543.43	104
543.644	107
543.857	98
544.071	97
544.285	119
544.498	112
544.712	113
544.925	101
545.139	98
545.352	115
545.566	121
545.779	114
545.993	119
546.206	117
546.42	115
546.633	129
546.847	147
547.06	132
547.274	136
547.487	179
547.7	212
547.914	207
548.127	202
548.34	199
548.554	213
548.767	213
548.98	228
549.193	219
549.407	193
549.62	219
549.833	239
550.046	247
550.259	270
550.473	249
550.686	263
550.899	290
551.112	305
551.325	333
551.538	330
551.751	291
551.964	291
552.177	276
552.39	248
552.603	275
552.816	264
553.029	274
553.242	278
553.455	270
553.667	286
553.88	287
554.093	287
554.306	288
554.519	278
554.732	287
554.944	274
555.157	273
555.37	257
555.583	247
555.795	243
556.008	243
556.221	215
556.433	217
556.646	213
556.859	185
557.071	192
557.284	192
557.496	179
557.709	155
557.921	158
558.134	177
558.346	241
558.559	195
558.771	162
558.984	288
559.196	366
559.409	230
559.621	296
559.833	230
560.046	288
560.258	258
560.47	251
560.683	178
560.895	129
561.107	122
561.32	127
561.532	116
561.744	111
561.956	109
562.168	110
562.381	98
562.593	113
562.805	105
563.017	104
563.229	102
563.441	112
563.653	102
563.865	107
564.077	106
564.289	113
564.501	100
564.713	104
564.925	95
565.137	111
565.349	104
565.561	102
565.773	97
565.985	104
566.197	110
566.408	101
566.62	100
566.832	111
567.044	100
567.255	107
567.467	97
567.679	117
567.891	111
568.102	102
568.314	100
568.526	98
568.737	97
568.949	103
569.161	112
569.372	113
569.584	97
569.795	95
570.007	104
570.218	106
570.43	110
570.641	100
570.853	112
571.064	113
571.276	116
571.487	85
571.698	96
571.91	93
572.121	110
572.333	100
572.544	98
572.755	100
572.966	101
573.178	95
573.389	102
573.6	106
573.811	100
574.023	105
574.234	106
574.445	112
574.656	96
574.867	102
575.078	106
575.289	87
575.501	95
575.712	102
575.923	86
576.134	92
576.345	101
576.556	97
576.767	110
576.978	101
577.188	103
577.399	101
577.61	106
577.821	99
578.032	94
578.243	95
578.454	96
578.665	100
578.875	90
579.086	86
579.297	113
579.508	101
579.718	103
579.929	87
580.14	104
580.35	95
580.561	98
580.772	91
580.982	109
581.193	96
581.403	95
581.614	102
581.825	97
582.035	104
582.246	98
582.456	104
582.667	97
582.877	99
583.087	97
583.298	95
583.508	106
583.719	119
583.929	107
584.139	98
584.35	92
584.56	106
584.77	101
