Data from CBS_1_HRD10591_00046.txt Node
Date: Mon Jan 19 14:04:11 EST 2026
User: Yrep
Spectrometer: HR+D1059
Trigger mode: 1
Integration Time (sec): 1.000000E-1
Scans to average: 1
Electric dark correction enabled: true
Nonlinearity correction enabled: false
Boxcar width: 0
XAxis mode: Wavelengths
Number of Pixels in Spectrum: 2048
>>>>>Begin Spectral Data<<<<<
223.165	-28.5
223.4	-28.5
223.635	-28.5
223.869	-29.5
224.104	-27.5
224.338	-8.5
224.573	-21.5
224.808	-3.5
225.042	-2.5
225.277	-8.5
225.511	2.5
225.746	8.5
225.98	7.5
226.215	3.5
226.449	26.5
226.683	21.5
226.918	28.5
227.152	31.5
227.387	29.5
227.621	40.5
227.856	49.5
228.09	50.5
228.324	54.5
228.559	58.5
228.793	50.5
229.027	63.5
229.262	58.5
229.496	68.5
229.73	62.5
229.964	70.5
230.199	67.5
230.433	66.5
230.667	75.5
230.901	62.5
231.136	85.5
231.37	72.5
231.604	87.5
231.838	84.5
232.072	72.5
232.306	77.5
232.541	66.5
232.775	95.5
233.009	76.5
233.243	80.5
233.477	95.5
233.711	90.5
233.945	85.5
234.179	75.5
234.413	86.5
234.647	89.5
234.881	80.5
235.115	85.5
235.349	90.5
235.583	77.5
235.817	68.5
236.051	82.5
236.285	87.5
236.519	74.5
236.753	82.5
236.987	69.5
237.221	80.5
237.455	80.5
237.689	73.5
237.922	80.5
238.156	84.5
238.39	61.5
238.624	70.5
238.858	73.5
239.091	67.5
239.325	86.5
239.559	86.5
239.793	80.5
240.027	86.5
240.26	70.5
240.494	66.5
240.728	67.5
240.961	70.5
241.195	69.5
241.429	73.5
241.662	81.5
241.896	75.5
242.13	73.5
242.363	75.5
242.597	86.5
242.83	78.5
243.064	71.5
243.298	84.5
243.531	68.5
243.765	71.5
243.998	95.5
244.232	84.5
244.465	76.5
244.699	74.5
244.932	91.5
245.166	73.5
245.399	70.5
245.633	72.5
245.866	82.5
246.099	67.5
246.333	72.5
246.566	77.5
246.8	76.5
247.033	93.5
247.266	81.5
247.5	87.5
247.733	63.5
247.966	64.5
248.2	86.5
248.433	80.5
248.666	72.5
248.899	64.5
249.133	74.5
249.366	85.5
249.599	74.5
249.832	74.5
250.066	77.5
250.299	82.5
250.532	93.5
250.765	76.5
250.998	80.5
251.231	71.5
251.465	97.5
251.698	92.5
251.931	90.5
252.164	82.5
252.397	73.5
252.63	57.5
252.863	85.5
253.096	72.5
253.329	75.5
253.562	80.5
253.795	94.5
254.028	73.5
254.261	76.5
254.494	72.5
254.727	84.5
254.96	84.5
255.193	82.5
255.426	86.5
255.659	84.5
255.892	81.5
256.124	87.5
256.357	71.5
256.59	77.5
256.823	79.5
257.056	91.5
257.289	84.5
257.521	86.5
257.754	95.5
257.987	78.5
258.22	68.5
258.452	76.5
258.685	75.5
258.918	71.5
259.151	79.5
259.383	74.5
259.616	85.5
259.849	78.5
260.081	86.5
260.314	81.5
260.547	84.5
260.779	82.5
261.012	89.5
261.244	88.5
261.477	84.5
261.71	72.5
261.942	91.5
262.175	67.5
262.407	76.5
262.64	76.5
262.872	91.5
263.105	87.5
263.337	80.5
263.57	88.5
263.802	97.5
264.035	84.5
264.267	85.5
264.499	79.5
264.732	77.5
264.964	84.5
265.197	72.5
265.429	95.5
265.661	86.5
265.894	96.5
266.126	78.5
266.358	73.5
266.591	66.5
266.823	81.5
267.055	74.5
267.287	79.5
267.52	92.5
267.752	83.5
267.984	88.5
268.216	76.5
268.448	84.5
268.681	81.5
268.913	75.5
269.145	82.5
269.377	82.5
269.609	69.5
269.841	82.5
270.073	95.5
270.306	88.5
270.538	89.5
270.77	83.5
271.002	98.5
271.234	82.5
271.466	71.5
271.698	82.5
271.93	80.5
272.162	84.5
272.394	75.5
272.626	80.5
272.858	74.5
273.09	89.5
273.322	86.5
273.553	82.5
273.785	90.5
274.017	77.5
274.249	67.5
274.481	81.5
274.713	70.5
274.945	76.5
275.176	85.5
275.408	81.5
275.64	81.5
275.872	95.5
276.104	70.5
276.335	87.5
276.567	80.5
276.799	81.5
277.031	72.5
277.262	76.5
277.494	72.5
277.726	79.5
277.957	85.5
278.189	82.5
278.421	62.5
278.652	94.5
278.884	66.5
279.115	73.5
279.347	87.5
279.579	80.5
279.81	65.5
280.042	76.5
280.273	68.5
280.505	70.5
280.736	88.5
280.968	84.5
281.199	74.5
281.431	85.5
281.662	77.5
281.894	72.5
282.125	78.5
282.356	82.5
282.588	85.5
282.819	91.5
283.051	91.5
283.282	83.5
283.513	85.5
283.745	84.5
283.976	92.5
284.207	74.5
284.439	77.5
284.67	88.5
284.901	78.5
285.132	78.5
285.364	94.5
285.595	75.5
285.826	71.5
286.057	76.5
286.288	74.5
286.52	75.5
286.751	87.5
286.982	88.5
287.213	81.5
287.444	80.5
287.675	84.5
287.906	79.5
288.138	80.5
288.369	57.5
288.6	72.5
288.831	94.5
289.062	84.5
289.293	88.5
289.524	74.5
289.755	82.5
289.986	82.5
290.217	75.5
290.448	84.5
290.679	96.5
290.91	87.5
291.141	93.5
291.371	90.5
291.602	85.5
291.833	87.5
292.064	88.5
292.295	81.5
292.526	77.5
292.757	85.5
292.987	78.5
293.218	69.5
293.449	97.5
293.68	88.5
293.91	70.5
294.141	85.5
294.372	84.5
294.603	88.5
294.833	86.5
295.064	97.5
295.295	82.5
295.525	88.5
295.756	86.5
295.987	84.5
296.217	90.5
296.448	76.5
296.679	97.5
296.909	95.5
297.14	87.5
297.37	77.5
297.601	78.5
297.831	85.5
298.062	84.5
298.292	79.5
298.523	90.5
298.753	89.5
298.984	77.5
299.214	84.5
299.445	85.5
299.675	96.5
299.905	86.5
300.136	76.5
300.366	85.5
300.597	98.5
300.827	79.5
301.057	73.5
301.288	78.5
301.518	84.5
301.748	76.5
301.979	91.5
302.209	86.5
302.439	72.5
302.669	84.5
302.9	89.5
303.13	79.5
303.36	93.5
303.59	84.5
303.82	84.5
304.051	71.5
304.281	94.5
304.511	86.5
304.741	84.5
304.971	74.5
305.201	92.5
305.431	80.5
305.661	81.5
305.891	80.5
306.121	83.5
306.352	94.5
306.582	80.5
306.812	93.5
307.042	78.5
307.272	104.5
307.502	88.5
307.731	80.5
307.961	93.5
308.191	91.5
308.421	89.5
308.651	87.5
308.881	80.5
309.111	86.5
309.341	68.5
309.571	71.5
309.8	74.5
310.03	89.5
310.26	72.5
310.49	83.5
310.72	89.5
310.949	83.5
311.179	69.5
311.409	82.5
311.639	74.5
311.868	89.5
312.098	87.5
312.328	92.5
312.557	80.5
312.787	82.5
313.017	87.5
313.246	80.5
313.476	88.5
313.706	73.5
313.935	84.5
314.165	81.5
314.394	84.5
314.624	81.5
314.853	86.5
315.083	76.5
315.312	93.5
315.542	78.5
315.771	89.5
316.001	77.5
316.23	78.5
316.46	91.5
316.689	92.5
316.919	90.5
317.148	78.5
317.377	90.5
317.607	102.5
317.836	78.5
318.065	85.5
318.295	95.5
318.524	88.5
318.753	81.5
318.983	80.5
319.212	89.5
319.441	73.5
319.67	80.5
319.9	81.5
320.129	84.5
320.358	88.5
320.587	94.5
320.816	76.5
321.046	81.5
321.275	89.5
321.504	79.5
321.733	86.5
321.962	81.5
322.191	96.5
322.42	88.5
322.649	82.5
322.878	93.5
323.108	93.5
323.337	71.5
323.566	90.5
323.795	76.5
324.024	91.5
324.253	84.5
324.482	87.5
324.71	100.5
324.939	68.5
325.168	94.5
325.397	84.5
325.626	77.5
325.855	89.5
326.084	84.5
326.313	86.5
326.542	96.5
326.77	82.5
326.999	78.5
327.228	81.5
327.457	70.5
327.686	93.5
327.914	94.5
328.143	79.5
328.372	70.5
328.6	84.5
328.829	78.5
329.058	89.5
329.287	93.5
329.515	96.5
329.744	74.5
329.972	78.5
330.201	90.5
330.43	73.5
330.658	80.5
330.887	76.5
331.115	80.5
331.344	88.5
331.572	96.5
331.801	83.5
332.03	97.5
332.258	76.5
332.486	90.5
332.715	78.5
332.943	82.5
333.172	74.5
333.4	82.5
333.629	84.5
333.857	66.5
334.085	66.5
334.314	78.5
334.542	85.5
334.771	80.5
334.999	68.5
335.227	91.5
335.455	83.5
335.684	92.5
335.912	85.5
336.14	90.5
336.369	82.5
336.597	89.5
336.825	92.5
337.053	82.5
337.281	73.5
337.51	85.5
337.738	78.5
337.966	84.5
338.194	79.5
338.422	71.5
338.65	76.5
338.878	80.5
339.106	96.5
339.334	83.5
339.562	68.5
339.79	78.5
340.018	79.5
340.246	85.5
340.474	78.5
340.702	77.5
340.93	87.5
341.158	88.5
341.386	99.5
341.614	84.5
341.842	86.5
342.07	84.5
342.298	88.5
342.526	83.5
342.754	89.5
342.981	74.5
343.209	81.5
343.437	78.5
343.665	87.5
343.893	90.5
344.12	89.5
344.348	89.5
344.576	89.5
344.804	83.5
345.031	80.5
345.259	80.5
345.487	81.5
345.714	84.5
345.942	74.5
346.17	79.5
346.397	84.5
346.625	82.5
346.853	82.5
347.08	84.5
347.308	86.5
347.535	78.5
347.763	84.5
347.99	89.5
348.218	98.5
348.445	80.5
348.673	79.5
348.9	77.5
349.128	105.5
349.355	94.5
349.583	94.5
349.81	76.5
350.037	81.5
350.265	81.5
350.492	80.5
350.72	84.5
350.947	79.5
351.174	85.5
351.402	79.5
351.629	98.5
351.856	75.5
352.083	81.5
352.311	80.5
352.538	72.5
352.765	69.5
352.992	88.5
353.22	78.5
353.447	85.5
353.674	85.5
353.901	82.5
354.128	82.5
354.355	89.5
354.583	84.5
354.81	87.5
355.037	70.5
355.264	77.5
355.491	86.5
355.718	82.5
355.945	83.5
356.172	87.5
356.399	82.5
356.626	80.5
356.853	84.5
357.08	83.5
357.307	85.5
357.534	81.5
357.761	80.5
357.988	83.5
358.215	100.5
358.441	89.5
358.668	88.5
358.895	73.5
359.122	81.5
359.349	87.5
359.576	82.5
359.802	94.5
360.029	102.5
360.256	109.5
360.483	80.5
360.709	83.5
360.936	86.5
361.163	96.5
361.39	82.5
361.616	80.5
361.843	70.5
362.07	76.5
362.296	66.5
362.523	84.5
362.749	100.5
362.976	80.5
363.203	101.5
363.429	86.5
363.656	90.5
363.882	80.5
364.109	88.5
364.335	85.5
364.562	90.5
364.788	92.5
365.015	72.5
365.241	79.5
365.468	82.5
365.694	85.5
365.92	89.5
366.147	81.5
366.373	85.5
366.599	76.5
366.826	77.5
367.052	84.5
367.278	83.5
367.505	94.5
367.731	85.5
367.957	75.5
368.184	84.5
368.41	82.5
368.636	80.5
368.862	74.5
369.089	78.5
369.315	84.5
369.541	76.5
369.767	81.5
369.993	76.5
370.219	83.5
370.445	68.5
370.672	84.5
370.898	84.5
371.124	88.5
371.35	78.5
371.576	72.5
371.802	66.5
372.028	76.5
372.254	71.5
372.48	75.5
372.706	89.5
372.932	86.5
373.158	73.5
373.384	78.5
373.61	78.5
373.835	73.5
374.061	82.5
374.287	79.5
374.513	81.5
374.739	86.5
374.965	90.5
375.191	81.5
375.416	71.5
375.642	89.5
375.868	73.5
376.094	87.5
376.319	84.5
376.545	80.5
376.771	81.5
376.997	67.5
377.222	85.5
377.448	95.5
377.674	70.5
377.899	84.5
378.125	77.5
378.35	86.5
378.576	88.5
378.802	70.5
379.027	92.5
379.253	83.5
379.478	80.5
379.704	74.5
379.929	84.5
380.155	76.5
380.38	88.5
380.606	75.5
380.831	91.5
381.057	85.5
381.282	82.5
381.507	81.5
381.733	87.5
381.958	89.5
382.184	66.5
382.409	99.5
382.634	78.5
382.86	82.5
383.085	90.5
383.31	60.5
383.535	79.5
383.761	78.5
383.986	84.5
384.211	78.5
384.436	69.5
384.662	71.5
384.887	72.5
385.112	84.5
385.337	84.5
385.562	66.5
385.787	86.5
386.013	74.5
386.238	88.5
386.463	81.5
386.688	82.5
386.913	88.5
387.138	80.5
387.363	88.5
387.588	90.5
387.813	84.5
388.038	89.5
388.263	70.5
388.488	82.5
388.713	66.5
388.938	83.5
389.163	86.5
389.387	73.5
389.612	82.5
389.837	78.5
390.062	103.5
390.287	90.5
390.512	82.5
390.736	100.5
390.961	74.5
391.186	73.5
391.411	75.5
391.636	88.5
391.86	81.5
392.085	88.5
392.31	74.5
392.534	85.5
392.759	85.5
392.984	96.5
393.208	98.5
393.433	126.5
393.658	110.5
393.882	79.5
394.107	76.5
394.331	86.5
394.556	92.5
394.78	88.5
395.005	90.5
395.229	71.5
395.454	63.5
395.678	83.5
395.903	97.5
396.127	92.5
396.352	82.5
396.576	86.5
396.801	109.5
397.025	123.5
397.249	100.5
397.474	89.5
397.698	76.5
397.922	79.5
398.147	83.5
398.371	81.5
398.595	95.5
398.82	94.5
399.044	80.5
399.268	96.5
399.492	84.5
399.717	85.5
399.941	75.5
400.165	83.5
400.389	77.5
400.613	77.5
400.837	97.5
401.062	82.5
401.286	93.5
401.51	80.5
401.734	78.5
401.958	85.5
402.182	96.5
402.406	76.5
402.63	88.5
402.854	88.5
403.078	93.5
403.302	78.5
403.526	85.5
403.75	83.5
403.974	82.5
404.198	82.5
404.422	83.5
404.645	66.5
404.869	86.5
405.093	95.5
405.317	78.5
405.541	75.5
405.765	82.5
405.988	87.5
406.212	83.5
406.436	74.5
406.66	82.5
406.883	76.5
407.107	73.5
407.331	82.5
407.555	82.5
407.778	78.5
408.002	75.5
408.226	74.5
408.449	74.5
408.673	72.5
408.896	74.5
409.12	93.5
409.344	85.5
409.567	88.5
409.791	68.5
410.014	82.5
410.238	89.5
410.461	88.5
410.685	78.5
410.908	89.5
411.132	91.5
411.355	89.5
411.578	89.5
411.802	78.5
412.025	73.5
412.249	84.5
412.472	94.5
412.695	83.5
412.919	82.5
413.142	80.5
413.365	80.5
413.589	78.5
413.812	87.5
414.035	88.5
414.258	79.5
414.482	58.5
414.705	74.5
414.928	83.5
415.151	76.5
415.374	78.5
415.597	78.5
415.821	80.5
416.044	74.5
416.267	84.5
416.49	76.5
416.713	78.5
416.936	87.5
417.159	74.5
417.382	73.5
417.605	86.5
417.828	72.5
418.051	87.5
418.274	81.5
418.497	66.5
418.72	75.5
418.943	86.5
419.166	71.5
419.389	79.5
419.611	83.5
419.834	83.5
420.057	90.5
420.28	79.5
420.503	82.5
420.726	90.5
420.948	65.5
421.171	93.5
421.394	78.5
421.617	100.5
421.839	78.5
422.062	84.5
422.285	110.5
422.507	100.5
422.73	126.5
422.953	121.5
423.175	97.5
423.398	72.5
423.621	90.5
423.843	69.5
424.066	92.5
424.288	88.5
424.511	65.5
424.733	78.5
424.956	97.5
425.178	66.5
425.401	79.5
425.623	80.5
425.846	88.5
426.068	92.5
426.291	82.5
426.513	86.5
426.735	81.5
426.958	92.5
427.18	76.5
427.402	85.5
427.625	88.5
427.847	87.5
428.069	85.5
428.292	80.5
428.514	90.5
428.736	94.5
428.958	98.5
429.181	101.5
429.403	78.5
429.625	87.5
429.847	84.5
430.069	100.5
430.292	98.5
430.514	76.5
430.736	92.5
430.958	83.5
431.18	98.5
431.402	93.5
431.624	73.5
431.846	72.5
432.068	100.5
432.29	91.5
432.512	86.5
432.734	80.5
432.956	80.5
433.178	74.5
433.4	74.5
433.622	76.5
433.844	78.5
434.066	98.5
434.287	77.5
434.509	78.5
434.731	83.5
434.953	85.5
435.175	87.5
435.397	85.5
435.618	81.5
435.84	70.5
436.062	64.5
436.284	83.5
436.505	65.5
436.727	88.5
436.949	75.5
437.17	70.5
437.392	78.5
437.614	80.5
437.835	84.5
438.057	86.5
438.278	86.5
438.5	83.5
438.721	80.5
438.943	73.5
439.165	80.5
439.386	86.5
439.608	94.5
439.829	83.5
440.05	99.5
440.272	97.5
440.493	80.5
440.715	64.5
440.936	92.5
441.158	77.5
441.379	76.5
441.6	74.5
441.822	79.5
442.043	70.5
442.264	89.5
442.486	87.5
442.707	87.5
442.928	82.5
443.149	77.5
443.371	95.5
443.592	96.5
443.813	86.5
444.034	85.5
444.255	85.5
444.476	78.5
444.698	73.5
444.919	82.5
445.14	166.5
445.361	133.5
445.582	113.5
445.803	95.5
446.024	78.5
446.245	76.5
446.466	85.5
446.687	84.5
446.908	94.5
447.129	90.5
447.35	83.5
447.571	73.5
447.792	73.5
448.013	88.5
448.234	88.5
448.455	69.5
448.675	98.5
448.896	78.5
449.117	86.5
449.338	87.5
449.559	81.5
449.779	88.5
450	90.5
450.221	64.5
450.442	80.5
450.662	93.5
450.883	80.5
451.104	88.5
451.324	71.5
451.545	75.5
451.766	64.5
451.986	91.5
452.207	74.5
452.428	86.5
452.648	92.5
452.869	68.5
453.089	86.5
453.31	79.5
453.53	82.5
453.751	73.5
453.971	72.5
454.192	81.5
454.412	82.5
454.633	83.5
454.853	84.5
455.073	89.5
455.294	93.5
455.514	71.5
455.734	82.5
455.955	78.5
456.175	81.5
456.395	82.5
456.616	70.5
456.836	81.5
457.056	66.5
457.276	83.5
457.497	79.5
457.717	81.5
457.937	88.5
458.157	84.5
458.377	97.5
458.598	84.5
458.818	89.5
459.038	71.5
459.258	86.5
459.478	62.5
459.698	84.5
459.918	80.5
460.138	82.5
460.358	76.5
460.578	87.5
460.798	76.5
461.018	90.5
461.238	78.5
461.458	72.5
461.678	83.5
461.898	75.5
462.118	94.5
462.338	85.5
462.558	89.5
462.777	83.5
462.997	96.5
463.217	84.5
463.437	74.5
463.657	70.5
463.876	82.5
464.096	77.5
464.316	81.5
464.536	93.5
464.755	86.5
464.975	90.5
465.195	64.5
465.414	94.5
465.634	94.5
465.854	78.5
466.073	84.5
466.293	92.5
466.512	79.5
466.732	79.5
466.951	85.5
467.171	88.5
467.391	93.5
467.61	74.5
467.829	80.5
468.049	78.5
468.268	89.5
468.488	74.5
468.707	76.5
468.927	86.5
469.146	76.5
469.365	87.5
469.585	89.5
469.804	81.5
470.023	81.5
470.243	88.5
470.462	82.5
470.681	78.5
470.901	73.5
471.12	79.5
471.339	72.5
471.558	80.5
471.777	92.5
471.997	88.5
472.216	80.5
472.435	77.5
472.654	66.5
472.873	88.5
473.092	83.5
473.311	94.5
473.53	74.5
473.749	91.5
473.968	78.5
474.187	93.5
474.406	76.5
474.625	80.5
474.844	78.5
475.063	62.5
475.282	84.5
475.501	88.5
475.72	80.5
475.939	85.5
476.158	78.5
476.377	73.5
476.596	82.5
476.814	80.5
477.033	81.5
477.252	76.5
477.471	75.5
477.69	81.5
477.908	95.5
478.127	86.5
478.346	78.5
478.564	67.5
478.783	75.5
479.002	80.5
479.22	70.5
479.439	80.5
479.658	74.5
479.876	78.5
480.095	80.5
480.313	86.5
480.532	81.5
480.751	72.5
480.969	77.5
481.188	86.5
481.406	79.5
481.624	91.5
481.843	74.5
482.061	74.5
482.28	90.5
482.498	74.5
482.717	83.5
482.935	74.5
483.153	78.5
483.372	90.5
483.59	88.5
483.808	74.5
484.027	96.5
484.245	80.5
484.463	95.5
484.681	70.5
484.9	88.5
485.118	80.5
485.336	86.5
485.554	75.5
485.772	76.5
485.99	85.5
486.209	73.5
486.427	68.5
486.645	75.5
486.863	74.5
487.081	91.5
487.299	85.5
487.517	82.5
487.735	84.5
487.953	89.5
488.171	84.5
488.389	85.5
488.607	88.5
488.825	83.5
489.043	79.5
489.261	79.5
489.479	78.5
489.696	95.5
489.914	96.5
490.132	89.5
490.35	80.5
490.568	80.5
490.786	81.5
491.003	80.5
491.221	68.5
491.439	90.5
491.657	85.5
491.874	82.5
492.092	85.5
492.31	83.5
492.527	81.5
492.745	70.5
492.963	88.5
493.18	82.5
493.398	90.5
493.615	81.5
493.833	78.5
494.05	86.5
494.268	74.5
494.485	75.5
494.703	74.5
494.92	80.5
495.138	76.5
495.355	79.5
495.573	92.5
495.79	83.5
496.008	77.5
496.225	84.5
496.442	77.5
496.66	85.5
496.877	77.5
497.094	96.5
497.312	88.5
497.529	78.5
497.746	96.5
497.963	84.5
498.181	74.5
498.398	86.5
498.615	66.5
498.832	99.5
499.049	86.5
499.267	88.5
499.484	85.5
499.701	91.5
499.918	89.5
500.135	83.5
500.352	68.5
500.569	66.5
500.786	86.5
501.003	76.5
501.22	88.5
501.437	88.5
501.654	80.5
501.871	92.5
502.088	94.5
502.305	76.5
502.522	72.5
502.739	88.5
502.956	88.5
503.172	73.5
503.389	97.5
503.606	84.5
503.823	98.5
504.04	80.5
504.256	90.5
504.473	89.5
504.69	81.5
504.907	87.5
505.123	79.5
505.34	75.5
505.557	87.5
505.773	81.5
505.99	88.5
506.207	73.5
506.423	86.5
506.64	77.5
506.856	80.5
507.073	76.5
507.289	82.5
507.506	86.5
507.722	98.5
507.939	86.5
508.155	89.5
508.372	80.5
508.588	88.5
508.805	85.5
509.021	83.5
509.238	75.5
509.454	76.5
509.67	84.5
509.887	80.5
510.103	82.5
510.319	75.5
510.536	87.5
510.752	83.5
510.968	76.5
511.184	74.5
511.401	85.5
511.617	85.5
511.833	81.5
512.049	80.5
512.265	79.5
512.481	86.5
512.698	88.5
512.914	88.5
513.13	82.5
513.346	94.5
513.562	70.5
513.778	90.5
513.994	80.5
514.21	88.5
514.426	87.5
514.642	76.5
514.858	87.5
515.074	76.5
515.29	95.5
515.506	94.5
515.721	82.5
515.937	84.5
516.153	75.5
516.369	93.5
516.585	84.5
516.801	77.5
517.016	92.5
517.232	85.5
517.448	84.5
517.664	67.5
517.879	81.5
518.095	81.5
518.311	96.5
518.527	86.5
518.742	71.5
518.958	80.5
519.173	85.5
519.389	79.5
519.605	84.5
519.82	85.5
520.036	66.5
520.251	92.5
520.467	56.5
520.682	94.5
520.898	78.5
521.113	71.5
521.329	73.5
521.544	77.5
521.76	74.5
521.975	78.5
522.19	89.5
522.406	86.5
522.621	87.5
522.836	89.5
523.052	77.5
523.267	97.5
523.482	81.5
523.698	92.5
523.913	100.5
524.128	89.5
524.343	97.5
524.559	80.5
524.774	74.5
524.989	72.5
525.204	85.5
525.419	84.5
525.634	75.5
525.849	85.5
526.064	101.5
526.28	96.5
526.495	115.5
526.71	112.5
526.925	100.5
527.14	127.5
527.355	112.5
527.57	90.5
527.785	94.5
527.999	97.5
528.214	89.5
528.429	83.5
528.644	102.5
528.859	71.5
529.074	95.5
529.289	102.5
529.503	100.5
529.718	81.5
529.933	74.5
530.148	73.5
530.363	77.5
530.577	74.5
530.792	77.5
531.007	80.5
531.221	87.5
531.436	80.5
531.651	90.5
531.865	86.5
532.08	86.5
532.295	97.5
532.509	90.5
532.724	84.5
532.938	90.5
533.153	86.5
533.367	81.5
533.582	84.5
533.796	100.5
534.011	86.5
534.225	80.5
534.44	82.5
534.654	75.5
534.868	80.5
535.083	101.5
535.297	103.5
535.511	90.5
535.726	92.5
535.94	90.5
536.154	94.5
536.369	75.5
536.583	75.5
536.797	87.5
537.011	83.5
537.225	91.5
537.44	86.5
537.654	89.5
537.868	87.5
538.082	84.5
538.296	83.5
538.51	80.5
538.724	78.5
538.938	83.5
539.153	92.5
539.367	94.5
539.581	79.5
539.795	80.5
540.009	85.5
540.222	71.5
