Data from CBS_1_HRD10591_00050.txt Node
Date: Mon Jan 19 14:04:13 EST 2026
User: Yrep
Spectrometer: HR+D1059
Trigger mode: 1
Integration Time (sec): 1.000000E-1
Scans to average: 1
Electric dark correction enabled: true
Nonlinearity correction enabled: false
Boxcar width: 0
XAxis mode: Wavelengths
Number of Pixels in Spectrum: 2048
>>>>>Begin Spectral Data<<<<<
223.165	-24.69
223.4	-24.69
223.635	-24.69
223.869	-23.69
224.104	-19.69
224.338	-21.69
224.573	-24.69
224.808	-10.69
225.042	-0.69
225.277	10.31
225.511	-4.69
225.746	-2.69
225.98	12.31
226.215	6.31
226.449	16.31
226.683	21.31
226.918	17.31
227.152	49.31
227.387	35.31
227.621	21.31
227.856	42.31
228.09	51.31
228.324	53.31
228.559	51.31
228.793	62.31
229.027	78.31
229.262	50.31
229.496	64.31
229.73	68.31
229.964	60.31
230.199	82.31
230.433	79.31
230.667	65.31
230.901	75.31
231.136	85.31
231.37	80.31
231.604	83.31
231.838	89.31
232.072	79.31
232.306	68.31
232.541	78.31
232.775	86.31
233.009	83.31
233.243	79.31
233.477	56.31
233.711	85.31
233.945	82.31
234.179	90.31
234.413	88.31
234.647	73.31
234.881	84.31
235.115	98.31
235.349	83.31
235.583	70.31
235.817	87.31
236.051	98.31
236.285	88.31
236.519	66.31
236.753	77.31
236.987	80.31
237.221	80.31
237.455	83.31
237.689	62.31
237.922	83.31
238.156	70.31
238.39	59.31
238.624	63.31
238.858	74.31
239.091	63.31
239.325	80.31
239.559	74.31
239.793	88.31
240.027	75.31
240.26	71.31
240.494	85.31
240.728	73.31
240.961	75.31
241.195	61.31
241.429	79.31
241.662	78.31
241.896	73.31
242.13	67.31
242.363	77.31
242.597	78.31
242.83	69.31
243.064	81.31
243.298	87.31
243.531	83.31
243.765	68.31
243.998	86.31
244.232	87.31
244.465	84.31
244.699	74.31
244.932	74.31
245.166	83.31
245.399	81.31
245.633	88.31
245.866	86.31
246.099	83.31
246.333	76.31
246.566	65.31
246.8	79.31
247.033	86.31
247.266	89.31
247.5	82.31
247.733	90.31
247.966	78.31
248.2	89.31
248.433	76.31
248.666	79.31
248.899	82.31
249.133	89.31
249.366	86.31
249.599	82.31
249.832	90.31
250.066	81.31
250.299	73.31
250.532	68.31
250.765	69.31
250.998	79.31
251.231	94.31
251.465	68.31
251.698	66.31
251.931	87.31
252.164	89.31
252.397	83.31
252.63	95.31
252.863	91.31
253.096	82.31
253.329	78.31
253.562	86.31
253.795	81.31
254.028	87.31
254.261	66.31
254.494	83.31
254.727	94.31
254.96	99.31
255.193	75.31
255.426	80.31
255.659	86.31
255.892	83.31
256.124	72.31
256.357	87.31
256.59	85.31
256.823	75.31
257.056	80.31
257.289	85.31
257.521	95.31
257.754	81.31
257.987	84.31
258.22	82.31
258.452	97.31
258.685	91.31
258.918	79.31
259.151	83.31
259.383	82.31
259.616	91.31
259.849	82.31
260.081	83.31
260.314	82.31
260.547	80.31
260.779	78.31
261.012	80.31
261.244	90.31
261.477	88.31
261.71	81.31
261.942	78.31
262.175	80.31
262.407	70.31
262.64	80.31
262.872	75.31
263.105	88.31
263.337	89.31
263.57	79.31
263.802	76.31
264.035	83.31
264.267	60.31
264.499	83.31
264.732	94.31
264.964	83.31
265.197	73.31
265.429	84.31
265.661	74.31
265.894	73.31
266.126	78.31
266.358	84.31
266.591	85.31
266.823	69.31
267.055	87.31
267.287	95.31
267.52	84.31
267.752	85.31
267.984	68.31
268.216	88.31
268.448	81.31
268.681	68.31
268.913	92.31
269.145	89.31
269.377	83.31
269.609	78.31
269.841	104.31
270.073	77.31
270.306	75.31
270.538	92.31
270.77	99.31
271.002	87.31
271.234	98.31
271.466	85.31
271.698	85.31
271.93	76.31
272.162	85.31
272.394	81.31
272.626	93.31
272.858	78.31
273.09	84.31
273.322	77.31
273.553	84.31
273.785	73.31
274.017	77.31
274.249	107.31
274.481	85.31
274.713	90.31
274.945	100.31
275.176	79.31
275.408	87.31
275.64	89.31
275.872	87.31
276.104	86.31
276.335	68.31
276.567	81.31
276.799	81.31
277.031	71.31
277.262	79.31
277.494	82.31
277.726	90.31
277.957	69.31
278.189	84.31
278.421	86.31
278.652	83.31
278.884	87.31
279.115	89.31
279.347	91.31
279.579	99.31
279.81	77.31
280.042	87.31
280.273	88.31
280.505	90.31
280.736	81.31
280.968	84.31
281.199	76.31
281.431	89.31
281.662	85.31
281.894	86.31
282.125	75.31
282.356	62.31
282.588	87.31
282.819	78.31
283.051	84.31
283.282	85.31
283.513	99.31
283.745	85.31
283.976	85.31
284.207	85.31
284.439	87.31
284.67	87.31
284.901	82.31
285.132	83.31
285.364	86.31
285.595	98.31
285.826	88.31
286.057	77.31
286.288	89.31
286.52	96.31
286.751	87.31
286.982	76.31
287.213	77.31
287.444	93.31
287.675	86.31
287.906	83.31
288.138	98.31
288.369	87.31
288.6	83.31
288.831	87.31
289.062	80.31
289.293	99.31
289.524	83.31
289.755	91.31
289.986	89.31
290.217	81.31
290.448	83.31
290.679	88.31
290.91	85.31
291.141	79.31
291.371	91.31
291.602	86.31
291.833	84.31
292.064	83.31
292.295	92.31
292.526	86.31
292.757	81.31
292.987	88.31
293.218	75.31
293.449	91.31
293.68	93.31
293.91	93.31
294.141	91.31
294.372	100.31
294.603	93.31
294.833	79.31
295.064	85.31
295.295	76.31
295.525	86.31
295.756	83.31
295.987	78.31
296.217	87.31
296.448	94.31
296.679	83.31
296.909	82.31
297.14	82.31
297.37	101.31
297.601	79.31
297.831	75.31
298.062	89.31
298.292	89.31
298.523	76.31
298.753	88.31
298.984	87.31
299.214	85.31
299.445	80.31
299.675	97.31
299.905	71.31
300.136	95.31
300.366	85.31
300.597	84.31
300.827	95.31
301.057	86.31
301.288	83.31
301.518	81.31
301.748	90.31
301.979	93.31
302.209	85.31
302.439	87.31
302.669	88.31
302.9	79.31
303.13	81.31
303.36	89.31
303.59	81.31
303.82	82.31
304.051	86.31
304.281	83.31
304.511	79.31
304.741	91.31
304.971	81.31
305.201	98.31
305.431	90.31
305.661	85.31
305.891	99.31
306.121	84.31
306.352	85.31
306.582	99.31
306.812	74.31
307.042	83.31
307.272	90.31
307.502	89.31
307.731	84.31
307.961	92.31
308.191	86.31
308.421	99.31
308.651	88.31
308.881	81.31
309.111	95.31
309.341	82.31
309.571	79.31
309.8	76.31
310.03	75.31
310.26	83.31
310.49	67.31
310.72	83.31
310.949	84.31
311.179	90.31
311.409	71.31
311.639	92.31
311.868	99.31
312.098	83.31
312.328	84.31
312.557	83.31
312.787	81.31
313.017	85.31
313.246	83.31
313.476	93.31
313.706	82.31
313.935	95.31
314.165	83.31
314.394	88.31
314.624	100.31
314.853	85.31
315.083	86.31
315.312	95.31
315.542	90.31
315.771	89.31
316.001	85.31
316.23	94.31
316.46	104.31
316.689	97.31
316.919	85.31
317.148	79.31
317.377	93.31
317.607	101.31
317.836	87.31
318.065	83.31
318.295	87.31
318.524	99.31
318.753	74.31
318.983	74.31
319.212	93.31
319.441	86.31
319.67	87.31
319.9	86.31
320.129	71.31
320.358	83.31
320.587	92.31
320.816	87.31
321.046	92.31
321.275	80.31
321.504	89.31
321.733	91.31
321.962	68.31
322.191	83.31
322.42	94.31
322.649	82.31
322.878	80.31
323.108	106.31
323.337	82.31
323.566	85.31
323.795	96.31
324.024	77.31
324.253	79.31
324.482	75.31
324.71	95.31
324.939	84.31
325.168	92.31
325.397	102.31
325.626	104.31
325.855	91.31
326.084	97.31
326.313	83.31
326.542	93.31
326.77	78.31
326.999	83.31
327.228	91.31
327.457	83.31
327.686	88.31
327.914	88.31
328.143	93.31
328.372	89.31
328.6	83.31
328.829	88.31
329.058	65.31
329.287	78.31
329.515	87.31
329.744	106.31
329.972	97.31
330.201	83.31
330.43	89.31
330.658	78.31
330.887	90.31
331.115	84.31
331.344	93.31
331.572	94.31
331.801	95.31
332.03	81.31
332.258	88.31
332.486	81.31
332.715	85.31
332.943	83.31
333.172	92.31
333.4	89.31
333.629	100.31
333.857	87.31
334.085	95.31
334.314	100.31
334.542	99.31
334.771	81.31
334.999	89.31
335.227	93.31
335.455	98.31
335.684	88.31
335.912	76.31
336.14	89.31
336.369	93.31
336.597	87.31
336.825	90.31
337.053	84.31
337.281	92.31
337.51	84.31
337.738	88.31
337.966	97.31
338.194	85.31
338.422	86.31
338.65	91.31
338.878	83.31
339.106	92.31
339.334	85.31
339.562	89.31
339.79	74.31
340.018	86.31
340.246	79.31
340.474	78.31
340.702	88.31
340.93	76.31
341.158	89.31
341.386	82.31
341.614	91.31
341.842	90.31
342.07	90.31
342.298	72.31
342.526	89.31
342.754	80.31
342.981	73.31
343.209	99.31
343.437	88.31
343.665	80.31
343.893	94.31
344.12	87.31
344.348	92.31
344.576	80.31
344.804	81.31
345.031	69.31
345.259	89.31
345.487	85.31
345.714	88.31
345.942	100.31
346.17	85.31
346.397	79.31
346.625	75.31
346.853	98.31
347.08	91.31
347.308	91.31
347.535	103.31
347.763	93.31
347.99	79.31
348.218	104.31
348.445	103.31
348.673	75.31
348.9	88.31
349.128	81.31
349.355	85.31
349.583	94.31
349.81	85.31
350.037	87.31
350.265	102.31
350.492	74.31
350.72	72.31
350.947	84.31
351.174	90.31
351.402	98.31
351.629	96.31
351.856	97.31
352.083	91.31
352.311	82.31
352.538	88.31
352.765	83.31
352.992	95.31
353.22	68.31
353.447	85.31
353.674	80.31
353.901	79.31
354.128	85.31
354.355	77.31
354.583	80.31
354.81	93.31
355.037	76.31
355.264	97.31
355.491	90.31
355.718	89.31
355.945	93.31
356.172	102.31
356.399	83.31
356.626	95.31
356.853	101.31
357.08	86.31
357.307	80.31
357.534	88.31
357.761	77.31
357.988	83.31
358.215	88.31
358.441	77.31
358.668	87.31
358.895	75.31
359.122	87.31
359.349	83.31
359.576	90.31
359.802	79.31
360.029	89.31
360.256	94.31
360.483	92.31
360.709	99.31
360.936	91.31
361.163	93.31
361.39	71.31
361.616	63.31
361.843	82.31
362.07	92.31
362.296	100.31
362.523	98.31
362.749	103.31
362.976	115.31
363.203	117.31
363.429	89.31
363.656	104.31
363.882	103.31
364.109	111.31
364.335	103.31
364.562	127.31
364.788	108.31
365.015	101.31
365.241	73.31
365.468	74.31
365.694	87.31
365.92	82.31
366.147	71.31
366.373	85.31
366.599	91.31
366.826	86.31
367.052	90.31
367.278	92.31
367.505	77.31
367.731	93.31
367.957	88.31
368.184	76.31
368.41	84.31
368.636	95.31
368.862	83.31
369.089	87.31
369.315	83.31
369.541	87.31
369.767	88.31
369.993	94.31
370.219	95.31
370.445	93.31
370.672	102.31
370.898	83.31
371.124	92.31
371.35	81.31
371.576	83.31
371.802	90.31
372.028	92.31
372.254	86.31
372.48	94.31
372.706	82.31
372.932	99.31
373.158	90.31
373.384	91.31
373.61	89.31
373.835	96.31
374.061	89.31
374.287	91.31
374.513	86.31
374.739	92.31
374.965	88.31
375.191	85.31
375.416	88.31
375.642	99.31
375.868	96.31
376.094	75.31
376.319	77.31
376.545	90.31
376.771	83.31
376.997	81.31
377.222	80.31
377.448	85.31
377.674	94.31
377.899	86.31
378.125	92.31
378.35	95.31
378.576	71.31
378.802	72.31
379.027	94.31
379.253	98.31
379.478	102.31
379.704	101.31
379.929	95.31
380.155	67.31
380.38	85.31
380.606	83.31
380.831	82.31
381.057	92.31
381.282	85.31
381.507	85.31
381.733	87.31
381.958	81.31
382.184	95.31
382.409	84.31
382.634	92.31
382.86	88.31
383.085	90.31
383.31	104.31
383.535	71.31
383.761	92.31
383.986	91.31
384.211	80.31
384.436	94.31
384.662	93.31
384.887	98.31
385.112	83.31
385.337	78.31
385.562	81.31
385.787	90.31
386.013	110.31
386.238	89.31
386.463	95.31
386.688	85.31
386.913	83.31
387.138	103.31
387.363	106.31
387.588	95.31
387.813	87.31
388.038	82.31
388.263	88.31
388.488	81.31
388.713	91.31
388.938	91.31
389.163	74.31
389.387	84.31
389.612	90.31
389.837	89.31
390.062	100.31
390.287	84.31
390.512	83.31
390.736	85.31
390.961	86.31
391.186	88.31
391.411	85.31
391.636	96.31
391.86	85.31
392.085	101.31
392.31	85.31
392.534	101.31
392.759	107.31
392.984	148.31
393.208	175.31
393.433	231.31
393.658	184.31
393.882	115.31
394.107	108.31
394.331	101.31
394.556	98.31
394.78	91.31
395.005	93.31
395.229	95.31
395.454	84.31
395.678	93.31
395.903	106.31
396.127	119.31
396.352	115.31
396.576	138.31
396.801	170.31
397.025	203.31
397.249	131.31
397.474	113.31
397.698	90.31
397.922	93.31
398.147	88.31
398.371	75.31
398.595	93.31
398.82	87.31
399.044	91.31
399.268	79.31
399.492	78.31
399.717	90.31
399.941	96.31
400.165	89.31
400.389	79.31
400.613	89.31
400.837	88.31
401.062	85.31
401.286	74.31
401.51	83.31
401.734	81.31
401.958	80.31
402.182	69.31
402.406	78.31
402.63	89.31
402.854	74.31
403.078	78.31
403.302	81.31
403.526	87.31
403.75	96.31
403.974	75.31
404.198	88.31
404.422	86.31
404.645	85.31
404.869	87.31
405.093	91.31
405.317	87.31
405.541	104.31
405.765	92.31
405.988	86.31
406.212	106.31
406.436	89.31
406.66	91.31
406.883	84.31
407.107	81.31
407.331	75.31
407.555	84.31
407.778	83.31
408.002	91.31
408.226	99.31
408.449	76.31
408.673	85.31
408.896	89.31
409.12	76.31
409.344	91.31
409.567	91.31
409.791	93.31
410.014	96.31
410.238	99.31
410.461	81.31
410.685	95.31
410.908	77.31
411.132	101.31
411.355	75.31
411.578	81.31
411.802	85.31
412.025	87.31
412.249	93.31
412.472	87.31
412.695	95.31
412.919	83.31
413.142	80.31
413.365	91.31
413.589	83.31
413.812	74.31
414.035	87.31
414.258	79.31
414.482	79.31
414.705	88.31
414.928	81.31
415.151	90.31
415.374	83.31
415.597	88.31
415.821	87.31
416.044	78.31
416.267	98.31
416.49	79.31
416.713	89.31
416.936	86.31
417.159	91.31
417.382	82.31
417.605	75.31
417.828	96.31
418.051	79.31
418.274	103.31
418.497	93.31
418.72	85.31
418.943	90.31
419.166	88.31
419.389	81.31
419.611	83.31
419.834	90.31
420.057	83.31
420.28	84.31
420.503	103.31
420.726	96.31
420.948	88.31
421.171	100.31
421.394	117.31
421.617	102.31
421.839	113.31
422.062	124.31
422.285	151.31
422.507	202.31
422.73	289.31
422.953	261.31
423.175	181.31
423.398	137.31
423.621	93.31
423.843	101.31
424.066	92.31
424.288	100.31
424.511	94.31
424.733	95.31
424.956	103.31
425.178	89.31
425.401	86.31
425.623	90.31
425.846	83.31
426.068	82.31
426.291	87.31
426.513	91.31
426.735	85.31
426.958	84.31
427.18	78.31
427.402	84.31
427.625	88.31
427.847	101.31
428.069	103.31
428.292	120.31
428.514	128.31
428.736	99.31
428.958	113.31
429.181	119.31
429.403	99.31
429.625	108.31
429.847	110.31
430.069	140.31
430.292	152.31
430.514	133.31
430.736	127.31
430.958	130.31
431.18	104.31
431.402	71.31
431.624	77.31
431.846	128.31
432.068	145.31
432.29	91.31
432.512	95.31
432.734	73.31
432.956	77.31
433.178	72.31
433.4	87.31
433.622	90.31
433.844	76.31
434.066	86.31
434.287	89.31
434.509	89.31
434.731	85.31
434.953	83.31
435.175	87.31
435.397	90.31
435.618	86.31
435.84	95.31
436.062	82.31
436.284	84.31
436.505	91.31
436.727	77.31
436.949	85.31
437.17	78.31
437.392	85.31
437.614	76.31
437.835	80.31
438.057	104.31
438.278	87.31
438.5	92.31
438.721	92.31
438.943	91.31
439.165	90.31
439.386	80.31
439.608	85.31
439.829	86.31
440.05	89.31
440.272	91.31
440.493	96.31
440.715	87.31
440.936	86.31
441.158	76.31
441.379	77.31
441.6	88.31
441.822	79.31
442.043	83.31
442.264	93.31
442.486	116.31
442.707	160.31
442.928	119.31
443.149	121.31
443.371	134.31
443.592	210.31
443.813	189.31
444.034	116.31
444.255	87.31
444.476	81.31
444.698	92.31
444.919	101.31
445.14	171.31
445.361	165.31
445.582	243.31
445.803	194.31
446.024	108.31
446.245	75.31
446.466	106.31
446.687	81.31
446.908	81.31
447.129	80.31
447.35	82.31
447.571	93.31
447.792	89.31
448.013	88.31
448.234	99.31
448.455	91.31
448.675	71.31
448.896	86.31
449.117	95.31
449.338	75.31
449.559	79.31
449.779	82.31
450	87.31
450.221	86.31
450.442	85.31
450.662	83.31
450.883	81.31
451.104	98.31
451.324	84.31
451.545	84.31
451.766	90.31
451.986	87.31
452.207	103.31
452.428	96.31
452.648	95.31
452.869	105.31
453.089	101.31
453.31	85.31
453.53	90.31
453.751	83.31
453.971	97.31
454.192	87.31
454.412	93.31
454.633	84.31
454.853	86.31
455.073	90.31
455.294	92.31
455.514	91.31
455.734	86.31
455.955	82.31
456.175	85.31
456.395	89.31
456.616	76.31
456.836	92.31
457.056	89.31
457.276	75.31
457.497	87.31
457.717	105.31
457.937	103.31
458.157	116.31
458.377	100.31
458.598	107.31
458.818	136.31
459.038	99.31
459.258	96.31
459.478	88.31
459.698	79.31
459.918	91.31
460.138	88.31
460.358	82.31
460.578	92.31
460.798	88.31
461.018	96.31
461.238	85.31
461.458	71.31
461.678	69.31
461.898	93.31
462.118	83.31
462.338	71.31
462.558	81.31
462.777	76.31
462.997	81.31
463.217	75.31
463.437	75.31
463.657	75.31
463.876	71.31
464.096	94.31
464.316	75.31
464.536	92.31
464.755	95.31
464.975	87.31
465.195	86.31
465.414	91.31
465.634	90.31
465.854	91.31
466.073	90.31
466.293	84.31
466.512	83.31
466.732	83.31
466.951	72.31
467.171	86.31
467.391	78.31
467.61	73.31
467.829	82.31
468.049	79.31
468.268	86.31
468.488	92.31
468.707	91.31
468.927	82.31
469.146	85.31
469.365	89.31
469.585	82.31
469.804	88.31
470.023	67.31
470.243	83.31
470.462	83.31
470.681	87.31
470.901	82.31
471.12	84.31
471.339	90.31
471.558	81.31
471.777	76.31
471.997	71.31
472.216	87.31
472.435	102.31
472.654	97.31
472.873	76.31
473.092	96.31
473.311	93.31
473.53	83.31
473.749	89.31
473.968	86.31
474.187	98.31
474.406	91.31
474.625	85.31
474.844	73.31
475.063	88.31
475.282	94.31
475.501	92.31
475.72	77.31
475.939	80.31
476.158	85.31
476.377	78.31
476.596	79.31
476.814	84.31
477.033	79.31
477.252	74.31
477.471	74.31
477.69	80.31
477.908	102.31
478.127	81.31
478.346	72.31
478.564	83.31
478.783	81.31
479.002	92.31
479.22	84.31
479.439	73.31
479.658	86.31
479.876	93.31
480.095	88.31
480.313	83.31
480.532	82.31
480.751	85.31
480.969	102.31
481.188	79.31
481.406	90.31
481.624	93.31
481.843	92.31
482.061	87.31
482.28	75.31
482.498	98.31
482.717	87.31
482.935	83.31
483.153	87.31
483.372	81.31
483.59	93.31
483.808	88.31
484.027	91.31
484.245	105.31
484.463	82.31
484.681	103.31
484.9	88.31
485.118	97.31
485.336	97.31
485.554	91.31
485.772	75.31
485.99	91.31
486.209	103.31
486.427	91.31
486.645	95.31
486.863	87.31
487.081	78.31
487.299	80.31
487.517	97.31
487.735	116.31
487.953	167.31
488.171	147.31
488.389	98.31
488.607	83.31
488.825	98.31
489.043	89.31
489.261	93.31
489.479	100.31
489.696	83.31
489.914	89.31
490.132	101.31
490.35	95.31
490.568	96.31
490.786	100.31
491.003	80.31
491.221	89.31
491.439	85.31
491.657	93.31
491.874	97.31
492.092	88.31
492.31	84.31
492.527	93.31
492.745	69.31
492.963	99.31
493.18	105.31
493.398	91.31
493.615	65.31
493.833	87.31
494.05	74.31
494.268	99.31
494.485	73.31
494.703	97.31
494.92	90.31
495.138	83.31
495.355	96.31
495.573	77.31
495.79	91.31
496.008	89.31
496.225	89.31
496.442	86.31
496.66	90.31
496.877	81.31
497.094	89.31
497.312	101.31
497.529	79.31
497.746	87.31
497.963	87.31
498.181	100.31
498.398	94.31
498.615	84.31
498.832	76.31
499.049	94.31
499.267	79.31
499.484	95.31
499.701	89.31
499.918	100.31
500.135	83.31
500.352	87.31
500.569	92.31
500.786	101.31
501.003	95.31
501.22	85.31
501.437	85.31
501.654	89.31
501.871	88.31
502.088	93.31
502.305	77.31
502.522	91.31
502.739	83.31
502.956	83.31
503.172	85.31
503.389	75.31
503.606	86.31
503.823	91.31
504.04	97.31
504.256	134.31
504.473	147.31
504.69	91.31
504.907	101.31
505.123	92.31
505.34	79.31
505.557	90.31
505.773	85.31
505.99	92.31
506.207	97.31
506.423	84.31
506.64	85.31
506.856	83.31
507.073	81.31
507.289	73.31
507.506	99.31
507.722	89.31
507.939	93.31
508.155	91.31
508.372	82.31
508.588	91.31
508.805	92.31
509.021	81.31
509.238	72.31
509.454	78.31
509.67	83.31
509.887	90.31
510.103	82.31
510.319	77.31
510.536	93.31
510.752	83.31
510.968	85.31
511.184	82.31
511.401	75.31
511.617	93.31
511.833	93.31
512.049	83.31
512.265	84.31
512.481	83.31
512.698	91.31
512.914	90.31
513.13	90.31
513.346	81.31
513.562	85.31
513.778	72.31
513.994	87.31
514.21	91.31
514.426	82.31
514.642	89.31
514.858	89.31
515.074	89.31
515.29	89.31
515.506	87.31
515.721	90.31
515.937	84.31
516.153	82.31
516.369	82.31
516.585	84.31
516.801	95.31
517.016	73.31
517.232	87.31
517.448	81.31
517.664	88.31
517.879	67.31
518.095	91.31
518.311	79.31
