Data from CBS_1_HRD10591_00021.txt Node
Date: Mon Jan 19 14:03:59 EST 2026
User: Yrep
Spectrometer: HR+D1059
Trigger mode: 1
Integration Time (sec): 1.000000E-1
Scans to average: 1
Electric dark correction enabled: true
Nonlinearity correction enabled: false
Boxcar width: 0
XAxis mode: Wavelengths
Number of Pixels in Spectrum: 2048
>>>>>Begin Spectral Data<<<<<
223.165	-17.75
223.4	-17.75
223.635	-17.75
223.869	-18.75
224.104	-19.75
224.338	-17.75
224.573	-19.75
224.808	-11.75
225.042	-2.75
225.277	-11.75
225.511	10.25
225.746	2.25
225.98	1.25
226.215	12.25
226.449	28.25
226.683	24.25
226.918	25.25
227.152	16.25
227.387	33.25
227.621	28.25
227.856	47.25
228.09	47.25
228.324	55.25
228.559	48.25
228.793	61.25
229.027	73.25
229.262	69.25
229.496	58.25
229.73	63.25
229.964	80.25
230.199	63.25
230.433	77.25
230.667	76.25
230.901	76.25
231.136	61.25
231.37	72.25
231.604	89.25
231.838	76.25
232.072	72.25
232.306	73.25
232.541	85.25
232.775	74.25
233.009	93.25
233.243	85.25
233.477	95.25
233.711	86.25
233.945	69.25
234.179	84.25
234.413	73.25
234.647	72.25
234.881	79.25
235.115	96.25
235.349	86.25
235.583	84.25
235.817	69.25
236.051	70.25
236.285	66.25
236.519	78.25
236.753	81.25
236.987	72.25
237.221	74.25
237.455	92.25
237.689	81.25
237.922	94.25
238.156	78.25
238.39	67.25
238.624	62.25
238.858	87.25
239.091	69.25
239.325	68.25
239.559	70.25
239.793	80.25
240.027	88.25
240.26	78.25
240.494	90.25
240.728	84.25
240.961	69.25
241.195	74.25
241.429	78.25
241.662	72.25
241.896	76.25
242.13	99.25
242.363	77.25
242.597	73.25
242.83	81.25
243.064	86.25
243.298	78.25
243.531	80.25
243.765	80.25
243.998	73.25
244.232	58.25
244.465	72.25
244.699	79.25
244.932	63.25
245.166	94.25
245.399	82.25
245.633	78.25
245.866	74.25
246.099	87.25
246.333	74.25
246.566	84.25
246.8	86.25
247.033	68.25
247.266	72.25
247.5	77.25
247.733	70.25
247.966	89.25
248.2	78.25
248.433	78.25
248.666	83.25
248.899	66.25
249.133	80.25
249.366	76.25
249.599	58.25
249.832	81.25
250.066	80.25
250.299	80.25
250.532	82.25
250.765	74.25
250.998	75.25
251.231	86.25
251.465	87.25
251.698	73.25
251.931	85.25
252.164	77.25
252.397	85.25
252.63	74.25
252.863	76.25
253.096	101.25
253.329	72.25
253.562	78.25
253.795	73.25
254.028	87.25
254.261	85.25
254.494	89.25
254.727	73.25
254.96	88.25
255.193	65.25
255.426	89.25
255.659	84.25
255.892	94.25
256.124	77.25
256.357	85.25
256.59	69.25
256.823	72.25
257.056	69.25
257.289	81.25
257.521	73.25
257.754	80.25
257.987	82.25
258.22	100.25
258.452	71.25
258.685	81.25
258.918	98.25
259.151	84.25
259.383	70.25
259.616	86.25
259.849	90.25
260.081	85.25
260.314	84.25
260.547	88.25
260.779	74.25
261.012	92.25
261.244	75.25
261.477	80.25
261.71	80.25
261.942	88.25
262.175	86.25
262.407	88.25
262.64	87.25
262.872	80.25
263.105	72.25
263.337	77.25
263.57	76.25
263.802	86.25
264.035	72.25
264.267	75.25
264.499	80.25
264.732	92.25
264.964	72.25
265.197	77.25
265.429	84.25
265.661	74.25
265.894	91.25
266.126	90.25
266.358	61.25
266.591	88.25
266.823	76.25
267.055	87.25
267.287	81.25
267.52	85.25
267.752	88.25
267.984	96.25
268.216	81.25
268.448	70.25
268.681	78.25
268.913	67.25
269.145	78.25
269.377	88.25
269.609	62.25
269.841	81.25
270.073	78.25
270.306	81.25
270.538	80.25
270.77	74.25
271.002	65.25
271.234	88.25
271.466	95.25
271.698	78.25
271.93	72.25
272.162	83.25
272.394	79.25
272.626	81.25
272.858	65.25
273.09	84.25
273.322	76.25
273.553	80.25
273.785	89.25
274.017	81.25
274.249	77.25
274.481	80.25
274.713	83.25
274.945	80.25
275.176	96.25
275.408	94.25
275.64	99.25
275.872	62.25
276.104	90.25
276.335	94.25
276.567	84.25
276.799	92.25
277.031	88.25
277.262	81.25
277.494	74.25
277.726	94.25
277.957	88.25
278.189	90.25
278.421	91.25
278.652	72.25
278.884	82.25
279.115	80.25
279.347	82.25
279.579	86.25
279.81	81.25
280.042	88.25
280.273	82.25
280.505	79.25
280.736	85.25
280.968	86.25
281.199	78.25
281.431	83.25
281.662	84.25
281.894	99.25
282.125	77.25
282.356	84.25
282.588	104.25
282.819	75.25
283.051	78.25
283.282	73.25
283.513	84.25
283.745	78.25
283.976	88.25
284.207	80.25
284.439	72.25
284.67	87.25
284.901	78.25
285.132	78.25
285.364	79.25
285.595	100.25
285.826	78.25
286.057	81.25
286.288	79.25
286.52	82.25
286.751	80.25
286.982	87.25
287.213	78.25
287.444	97.25
287.675	68.25
287.906	87.25
288.138	93.25
288.369	72.25
288.6	80.25
288.831	81.25
289.062	98.25
289.293	86.25
289.524	77.25
289.755	89.25
289.986	93.25
290.217	97.25
290.448	68.25
290.679	80.25
290.91	94.25
291.141	96.25
291.371	88.25
291.602	79.25
291.833	82.25
292.064	87.25
292.295	92.25
292.526	74.25
292.757	80.25
292.987	78.25
293.218	79.25
293.449	88.25
293.68	104.25
293.91	80.25
294.141	101.25
294.372	96.25
294.603	93.25
294.833	85.25
295.064	86.25
295.295	87.25
295.525	82.25
295.756	95.25
295.987	76.25
296.217	88.25
296.448	64.25
296.679	83.25
296.909	81.25
297.14	83.25
297.37	80.25
297.601	79.25
297.831	82.25
298.062	84.25
298.292	90.25
298.523	84.25
298.753	95.25
298.984	83.25
299.214	91.25
299.445	78.25
299.675	71.25
299.905	83.25
300.136	91.25
300.366	96.25
300.597	85.25
300.827	80.25
301.057	80.25
301.288	101.25
301.518	80.25
301.748	88.25
301.979	95.25
302.209	87.25
302.439	82.25
302.669	85.25
302.9	80.25
303.13	96.25
303.36	84.25
303.59	81.25
303.82	92.25
304.051	84.25
304.281	84.25
304.511	88.25
304.741	94.25
304.971	85.25
305.201	81.25
305.431	80.25
305.661	86.25
305.891	90.25
306.121	84.25
306.352	85.25
306.582	69.25
306.812	94.25
307.042	94.25
307.272	91.25
307.502	69.25
307.731	85.25
307.961	101.25
308.191	98.25
308.421	101.25
308.651	82.25
308.881	97.25
309.111	81.25
309.341	80.25
309.571	74.25
309.8	79.25
310.03	75.25
310.26	83.25
310.49	81.25
310.72	89.25
310.949	86.25
311.179	80.25
311.409	91.25
311.639	75.25
311.868	84.25
312.098	97.25
312.328	86.25
312.557	86.25
312.787	77.25
313.017	88.25
313.246	84.25
313.476	93.25
313.706	75.25
313.935	97.25
314.165	79.25
314.394	88.25
314.624	83.25
314.853	83.25
315.083	78.25
315.312	75.25
315.542	74.25
315.771	98.25
316.001	89.25
316.23	98.25
316.46	94.25
316.689	84.25
316.919	78.25
317.148	97.25
317.377	90.25
317.607	83.25
317.836	88.25
318.065	74.25
318.295	78.25
318.524	80.25
318.753	93.25
318.983	79.25
319.212	80.25
319.441	96.25
319.67	101.25
319.9	85.25
320.129	91.25
320.358	92.25
320.587	103.25
320.816	90.25
321.046	87.25
321.275	82.25
321.504	85.25
321.733	90.25
321.962	84.25
322.191	94.25
322.42	85.25
322.649	87.25
322.878	93.25
323.108	83.25
323.337	77.25
323.566	82.25
323.795	74.25
324.024	82.25
324.253	94.25
324.482	76.25
324.71	85.25
324.939	92.25
325.168	91.25
325.397	83.25
325.626	95.25
325.855	96.25
326.084	93.25
326.313	87.25
326.542	92.25
326.77	82.25
326.999	91.25
327.228	83.25
327.457	88.25
327.686	114.25
327.914	93.25
328.143	83.25
328.372	89.25
328.6	92.25
328.829	80.25
329.058	82.25
329.287	79.25
329.515	79.25
329.744	82.25
329.972	92.25
330.201	84.25
330.43	90.25
330.658	90.25
330.887	79.25
331.115	72.25
331.344	76.25
331.572	85.25
331.801	81.25
332.03	88.25
332.258	82.25
332.486	79.25
332.715	78.25
332.943	88.25
333.172	95.25
333.4	86.25
333.629	72.25
333.857	81.25
334.085	96.25
334.314	90.25
334.542	97.25
334.771	87.25
334.999	88.25
335.227	101.25
335.455	86.25
335.684	82.25
335.912	89.25
336.14	94.25
336.369	98.25
336.597	77.25
336.825	78.25
337.053	81.25
337.281	94.25
337.51	95.25
337.738	93.25
337.966	91.25
338.194	94.25
338.422	89.25
338.65	76.25
338.878	95.25
339.106	103.25
339.334	78.25
339.562	76.25
339.79	92.25
340.018	82.25
340.246	74.25
340.474	81.25
340.702	92.25
340.93	85.25
341.158	83.25
341.386	98.25
341.614	94.25
341.842	77.25
342.07	89.25
342.298	82.25
342.526	89.25
342.754	77.25
342.981	74.25
343.209	84.25
343.437	99.25
343.665	84.25
343.893	92.25
344.12	76.25
344.348	77.25
344.576	82.25
344.804	69.25
345.031	96.25
345.259	82.25
345.487	90.25
345.714	85.25
345.942	85.25
346.17	83.25
346.397	95.25
346.625	98.25
346.853	89.25
347.08	91.25
347.308	92.25
347.535	96.25
347.763	92.25
347.99	100.25
348.218	89.25
348.445	81.25
348.673	87.25
348.9	89.25
349.128	96.25
349.355	86.25
349.583	92.25
349.81	80.25
350.037	83.25
350.265	92.25
350.492	92.25
350.72	87.25
350.947	98.25
351.174	81.25
351.402	81.25
351.629	88.25
351.856	87.25
352.083	84.25
352.311	74.25
352.538	71.25
352.765	84.25
352.992	92.25
353.22	80.25
353.447	79.25
353.674	92.25
353.901	78.25
354.128	84.25
354.355	93.25
354.583	90.25
354.81	84.25
355.037	93.25
355.264	83.25
355.491	99.25
355.718	80.25
355.945	88.25
356.172	81.25
356.399	72.25
356.626	92.25
356.853	78.25
357.08	96.25
357.307	99.25
357.534	88.25
357.761	112.25
357.988	85.25
358.215	86.25
358.441	92.25
358.668	98.25
358.895	93.25
359.122	87.25
359.349	92.25
359.576	96.25
359.802	89.25
360.029	80.25
360.256	82.25
360.483	85.25
360.709	94.25
360.936	86.25
361.163	77.25
361.39	85.25
361.616	83.25
361.843	80.25
362.07	88.25
362.296	92.25
362.523	104.25
362.749	123.25
362.976	112.25
363.203	133.25
363.429	108.25
363.656	105.25
363.882	97.25
364.109	110.25
364.335	131.25
364.562	123.25
364.788	111.25
365.015	102.25
365.241	96.25
365.468	89.25
365.694	101.25
365.92	89.25
366.147	76.25
366.373	78.25
366.599	87.25
366.826	109.25
367.052	92.25
367.278	78.25
367.505	82.25
367.731	90.25
367.957	85.25
368.184	84.25
368.41	97.25
368.636	100.25
368.862	97.25
369.089	76.25
369.315	75.25
369.541	95.25
369.767	86.25
369.993	82.25
370.219	90.25
370.445	100.25
370.672	80.25
370.898	94.25
371.124	98.25
371.35	74.25
371.576	98.25
371.802	89.25
372.028	94.25
372.254	97.25
372.48	85.25
372.706	93.25
372.932	95.25
373.158	96.25
373.384	102.25
373.61	112.25
373.835	95.25
374.061	96.25
374.287	83.25
374.513	96.25
374.739	94.25
374.965	104.25
375.191	96.25
375.416	92.25
375.642	91.25
375.868	87.25
376.094	92.25
376.319	89.25
376.545	92.25
376.771	84.25
376.997	92.25
377.222	85.25
377.448	79.25
377.674	78.25
377.899	98.25
378.125	84.25
378.35	95.25
378.576	81.25
378.802	85.25
379.027	94.25
379.253	71.25
379.478	78.25
379.704	74.25
379.929	84.25
380.155	87.25
380.38	80.25
380.606	93.25
380.831	89.25
381.057	90.25
381.282	72.25
381.507	78.25
381.733	90.25
381.958	95.25
382.184	86.25
382.409	84.25
382.634	87.25
382.86	99.25
383.085	86.25
383.31	79.25
383.535	85.25
383.761	82.25
383.986	104.25
384.211	91.25
384.436	94.25
384.662	76.25
384.887	86.25
385.112	94.25
385.337	82.25
385.562	98.25
385.787	87.25
386.013	94.25
386.238	80.25
386.463	98.25
386.688	104.25
386.913	87.25
387.138	100.25
387.363	82.25
387.588	101.25
387.813	92.25
388.038	94.25
388.263	101.25
388.488	98.25
388.713	77.25
388.938	74.25
389.163	81.25
389.387	89.25
389.612	88.25
389.837	99.25
390.062	94.25
390.287	93.25
390.512	103.25
390.736	83.25
390.961	97.25
391.186	90.25
391.411	83.25
391.636	87.25
391.86	87.25
392.085	88.25
392.31	87.25
392.534	103.25
392.759	113.25
392.984	143.25
393.208	216.25
393.433	269.25
393.658	232.25
393.882	132.25
394.107	98.25
394.331	89.25
394.556	118.25
394.78	101.25
395.005	100.25
395.229	112.25
395.454	102.25
395.678	94.25
395.903	115.25
396.127	116.25
396.352	136.25
396.576	145.25
396.801	211.25
397.025	236.25
397.249	161.25
397.474	123.25
397.698	103.25
397.922	87.25
398.147	84.25
398.371	73.25
398.595	79.25
398.82	85.25
399.044	87.25
399.268	94.25
399.492	88.25
399.717	75.25
399.941	86.25
400.165	91.25
400.389	84.25
400.613	103.25
400.837	94.25
401.062	85.25
401.286	83.25
401.51	90.25
401.734	98.25
401.958	86.25
402.182	83.25
402.406	81.25
402.63	82.25
402.854	76.25
403.078	83.25
403.302	64.25
403.526	100.25
403.75	89.25
403.974	90.25
404.198	84.25
404.422	92.25
404.645	89.25
404.869	77.25
405.093	74.25
405.317	93.25
405.541	95.25
405.765	96.25
405.988	83.25
406.212	88.25
406.436	88.25
406.66	74.25
406.883	89.25
407.107	77.25
407.331	84.25
407.555	102.25
407.778	100.25
408.002	106.25
408.226	101.25
408.449	85.25
408.673	83.25
408.896	93.25
409.12	82.25
409.344	102.25
409.567	98.25
409.791	108.25
410.014	118.25
410.238	97.25
410.461	94.25
410.685	91.25
410.908	95.25
411.132	90.25
411.355	81.25
411.578	96.25
411.802	93.25
412.025	75.25
412.249	72.25
412.472	82.25
412.695	79.25
412.919	102.25
413.142	88.25
413.365	86.25
413.589	80.25
413.812	77.25
414.035	99.25
414.258	93.25
414.482	85.25
414.705	81.25
414.928	104.25
415.151	86.25
415.374	96.25
415.597	84.25
415.821	76.25
416.044	102.25
416.267	85.25
416.49	94.25
416.713	88.25
416.936	87.25
417.159	88.25
417.382	77.25
417.605	78.25
417.828	84.25
418.051	94.25
418.274	83.25
418.497	84.25
418.72	96.25
418.943	88.25
419.166	92.25
419.389	88.25
419.611	94.25
419.834	99.25
420.057	97.25
420.28	98.25
420.503	86.25
420.726	92.25
420.948	100.25
421.171	96.25
421.394	113.25
421.617	113.25
421.839	111.25
422.062	136.25
422.285	180.25
422.507	242.25
422.73	308.25
422.953	274.25
423.175	203.25
423.398	163.25
423.621	113.25
423.843	103.25
424.066	101.25
424.288	103.25
424.511	99.25
424.733	92.25
424.956	97.25
425.178	89.25
425.401	88.25
425.623	90.25
425.846	84.25
426.068	102.25
426.291	92.25
426.513	88.25
426.735	96.25
426.958	90.25
427.18	87.25
427.402	94.25
427.625	92.25
427.847	82.25
428.069	94.25
428.292	123.25
428.514	136.25
428.736	116.25
428.958	120.25
429.181	116.25
429.403	99.25
429.625	108.25
429.847	116.25
430.069	148.25
430.292	175.25
430.514	167.25
430.736	124.25
430.958	135.25
431.18	98.25
431.402	83.25
431.624	92.25
431.846	103.25
432.068	131.25
432.29	89.25
432.512	90.25
432.734	78.25
432.956	88.25
433.178	78.25
433.4	88.25
433.622	88.25
433.844	88.25
434.066	79.25
434.287	74.25
434.509	84.25
434.731	76.25
434.953	90.25
435.175	84.25
435.397	94.25
435.618	90.25
435.84	86.25
436.062	76.25
436.284	88.25
436.505	82.25
436.727	87.25
436.949	77.25
437.17	74.25
437.392	76.25
437.614	80.25
437.835	80.25
438.057	74.25
438.278	76.25
438.5	90.25
438.721	67.25
438.943	94.25
439.165	83.25
439.386	92.25
439.608	87.25
439.829	75.25
440.05	80.25
440.272	84.25
440.493	92.25
440.715	77.25
440.936	89.25
441.158	88.25
441.379	81.25
441.6	98.25
441.822	96.25
442.043	82.25
442.264	93.25
442.486	130.25
442.707	174.25
442.928	135.25
443.149	100.25
443.371	155.25
443.592	249.25
443.813	204.25
444.034	124.25
444.255	103.25
444.476	96.25
444.698	90.25
444.919	98.25
445.14	200.25
445.361	201.25
445.582	264.25
445.803	244.25
446.024	122.25
446.245	87.25
446.466	89.25
446.687	90.25
446.908	77.25
447.129	81.25
447.35	84.25
447.571	88.25
447.792	93.25
448.013	82.25
448.234	82.25
448.455	88.25
448.675	80.25
448.896	92.25
449.117	86.25
449.338	86.25
449.559	77.25
449.779	84.25
450	68.25
450.221	88.25
450.442	94.25
450.662	90.25
450.883	83.25
451.104	96.25
451.324	80.25
451.545	93.25
451.766	89.25
451.986	77.25
452.207	84.25
452.428	85.25
452.648	82.25
452.869	108.25
453.089	87.25
453.31	75.25
453.53	102.25
453.751	96.25
453.971	58.25
454.192	86.25
454.412	78.25
454.633	86.25
454.853	92.25
455.073	80.25
455.294	71.25
455.514	82.25
455.734	89.25
455.955	98.25
456.175	91.25
456.395	80.25
456.616	86.25
456.836	81.25
457.056	89.25
457.276	92.25
457.497	78.25
457.717	94.25
457.937	101.25
458.157	147.25
458.377	131.25
458.598	121.25
458.818	136.25
459.038	112.25
459.258	88.25
459.478	77.25
459.698	80.25
459.918	82.25
460.138	73.25
460.358	86.25
460.578	101.25
460.798	108.25
461.018	106.25
461.238	83.25
461.458	83.25
461.678	86.25
461.898	91.25
462.118	88.25
462.338	82.25
462.558	83.25
462.777	80.25
462.997	80.25
463.217	78.25
463.437	88.25
463.657	79.25
463.876	77.25
464.096	68.25
464.316	84.25
464.536	88.25
464.755	101.25
464.975	86.25
465.195	96.25
465.414	80.25
465.634	78.25
465.854	84.25
466.073	75.25
466.293	73.25
466.512	72.25
466.732	89.25
466.951	75.25
467.171	78.25
467.391	78.25
467.61	82.25
467.829	85.25
468.049	90.25
468.268	91.25
468.488	94.25
468.707	92.25
468.927	85.25
469.146	80.25
469.365	86.25
469.585	84.25
469.804	101.25
470.023	74.25
470.243	84.25
470.462	90.25
470.681	107.25
470.901	83.25
471.12	73.25
471.339	78.25
471.558	83.25
471.777	92.25
471.997	91.25
472.216	80.25
472.435	83.25
472.654	88.25
472.873	80.25
473.092	93.25
473.311	98.25
473.53	73.25
473.749	86.25
473.968	95.25
474.187	74.25
474.406	77.25
474.625	85.25
474.844	65.25
475.063	90.25
475.282	88.25
475.501	82.25
475.72	89.25
475.939	85.25
476.158	75.25
476.377	91.25
476.596	95.25
476.814	90.25
477.033	92.25
477.252	76.25
477.471	80.25
477.69	83.25
477.908	89.25
478.127	74.25
478.346	91.25
478.564	82.25
478.783	80.25
479.002	64.25
479.22	86.25
479.439	81.25
479.658	88.25
479.876	90.25
480.095	92.25
480.313	82.25
480.532	81.25
480.751	83.25
480.969	98.25
481.188	103.25
481.406	83.25
481.624	68.25
481.843	70.25
482.061	74.25
482.28	93.25
482.498	86.25
482.717	80.25
482.935	97.25
483.153	75.25
483.372	91.25
483.59	96.25
483.808	80.25
484.027	102.25
484.245	92.25
484.463	84.25
484.681	85.25
484.9	80.25
485.118	98.25
485.336	79.25
485.554	94.25
485.772	78.25
485.99	83.25
486.209	85.25
486.427	80.25
486.645	96.25
486.863	87.25
487.081	99.25
487.299	97.25
487.517	92.25
487.735	113.25
487.953	203.25
488.171	168.25
488.389	100.25
488.607	96.25
488.825	81.25
489.043	102.25
489.261	82.25
489.479	84.25
489.696	82.25
489.914	97.25
490.132	72.25
490.35	94.25
490.568	82.25
490.786	84.25
491.003	86.25
491.221	86.25
491.439	91.25
491.657	88.25
491.874	89.25
492.092	88.25
492.31	74.25
492.527	64.25
492.745	84.25
492.963	83.25
493.18	91.25
493.398	86.25
493.615	92.25
493.833	95.25
494.05	85.25
494.268	98.25
494.485	98.25
494.703	92.25
494.92	109.25
495.138	88.25
495.355	80.25
495.573	88.25
495.79	77.25
496.008	76.25
496.225	85.25
496.442	93.25
496.66	85.25
496.877	84.25
497.094	102.25
497.312	96.25
497.529	90.25
497.746	65.25
497.963	84.25
498.181	84.25
498.398	85.25
498.615	83.25
498.832	89.25
499.049	100.25
499.267	88.25
499.484	86.25
499.701	84.25
499.918	79.25
500.135	91.25
500.352	82.25
500.569	90.25
500.786	88.25
501.003	79.25
501.22	101.25
501.437	89.25
501.654	73.25
501.871	88.25
502.088	73.25
502.305	86.25
502.522	95.25
502.739	114.25
502.956	108.25
503.172	82.25
503.389	88.25
503.606	104.25
503.823	83.25
504.04	110.25
504.256	166.25
504.473	162.25
504.69	89.25
504.907	76.25
505.123	76.25
505.34	76.25
505.557	87.25
505.773	89.25
505.99	90.25
506.207	72.25
506.423	88.25
506.64	89.25
506.856	95.25
507.073	77.25
507.289	81.25
507.506	84.25
507.722	80.25
507.939	85.25
508.155	83.25
508.372	94.25
508.588	98.25
508.805	74.25
509.021	95.25
509.238	89.25
509.454	84.25
509.67	81.25
509.887	96.25
510.103	89.25
510.319	87.25
510.536	98.25
510.752	86.25
510.968	70.25
511.184	90.25
511.401	90.25
511.617	97.25
511.833	80.25
512.049	80.25
512.265	88.25
512.481	78.25
512.698	92.25
512.914	95.25
513.13	99.25
513.346	89.25
513.562	92.25
513.778	84.25
513.994	88.25
514.21	90.25
514.426	79.25
514.642	88.25
514.858	88.25
515.074	86.25
515.29	83.25
515.506	89.25
515.721	93.25
515.937	93.25
516.153	99.25
516.369	65.25
516.585	88.25
516.801	72.25
517.016	92.25
517.232	72.25
517.448	96.25
517.664	94.25
517.879	82.25
518.095	88.25
