Data from CBS_1_HRD10591_00041.txt Node
Date: Mon Jan 19 14:04:09 EST 2026
User: Yrep
Spectrometer: HR+D1059
Trigger mode: 1
Integration Time (sec): 1.000000E-1
Scans to average: 1
Electric dark correction enabled: true
Nonlinearity correction enabled: false
Boxcar width: 0
XAxis mode: Wavelengths
Number of Pixels in Spectrum: 2048
>>>>>Begin Spectral Data<<<<<
223.165	-15.19
223.4	-15.19
223.635	-15.19
223.869	-13.19
224.104	-26.19
224.338	-18.19
224.573	-29.19
224.808	-9.19
225.042	-17.19
225.277	-16.19
225.511	-8.19
225.746	-3.19
225.98	8.81
226.215	14.81
226.449	23.81
226.683	32.81
226.918	37.81
227.152	37.81
227.387	41.81
227.621	38.81
227.856	34.81
228.09	48.81
228.324	63.81
228.559	57.81
228.793	70.81
229.027	65.81
229.262	61.81
229.496	71.81
229.73	70.81
229.964	81.81
230.199	66.81
230.433	79.81
230.667	68.81
230.901	76.81
231.136	81.81
231.37	83.81
231.604	84.81
231.838	80.81
232.072	86.81
232.306	65.81
232.541	85.81
232.775	74.81
233.009	87.81
233.243	67.81
233.477	74.81
233.711	85.81
233.945	81.81
234.179	77.81
234.413	86.81
234.647	89.81
234.881	89.81
235.115	84.81
235.349	79.81
235.583	89.81
235.817	79.81
236.051	93.81
236.285	71.81
236.519	72.81
236.753	81.81
236.987	72.81
237.221	75.81
237.455	74.81
237.689	70.81
237.922	78.81
238.156	77.81
238.39	82.81
238.624	75.81
238.858	69.81
239.091	74.81
239.325	85.81
239.559	83.81
239.793	72.81
240.027	83.81
240.26	81.81
240.494	78.81
240.728	69.81
240.961	69.81
241.195	74.81
241.429	80.81
241.662	67.81
241.896	86.81
242.13	73.81
242.363	78.81
242.597	72.81
242.83	89.81
243.064	71.81
243.298	81.81
243.531	81.81
243.765	88.81
243.998	94.81
244.232	81.81
244.465	65.81
244.699	94.81
244.932	84.81
245.166	71.81
245.399	80.81
245.633	69.81
245.866	69.81
246.099	70.81
246.333	82.81
246.566	60.81
246.8	85.81
247.033	76.81
247.266	67.81
247.5	75.81
247.733	81.81
247.966	86.81
248.2	79.81
248.433	92.81
248.666	77.81
248.899	69.81
249.133	76.81
249.366	74.81
249.599	81.81
249.832	77.81
250.066	73.81
250.299	75.81
250.532	73.81
250.765	86.81
250.998	81.81
251.231	69.81
251.465	81.81
251.698	77.81
251.931	81.81
252.164	73.81
252.397	78.81
252.63	75.81
252.863	81.81
253.096	89.81
253.329	87.81
253.562	73.81
253.795	82.81
254.028	81.81
254.261	61.81
254.494	74.81
254.727	84.81
254.96	83.81
255.193	77.81
255.426	93.81
255.659	75.81
255.892	64.81
256.124	82.81
256.357	74.81
256.59	71.81
256.823	82.81
257.056	89.81
257.289	69.81
257.521	75.81
257.754	85.81
257.987	74.81
258.22	70.81
258.452	87.81
258.685	82.81
258.918	80.81
259.151	77.81
259.383	74.81
259.616	91.81
259.849	86.81
260.081	87.81
260.314	74.81
260.547	69.81
260.779	72.81
261.012	81.81
261.244	85.81
261.477	95.81
261.71	85.81
261.942	82.81
262.175	77.81
262.407	81.81
262.64	50.81
262.872	85.81
263.105	84.81
263.337	85.81
263.57	78.81
263.802	85.81
264.035	76.81
264.267	70.81
264.499	75.81
264.732	78.81
264.964	81.81
265.197	72.81
265.429	86.81
265.661	78.81
265.894	87.81
266.126	87.81
266.358	88.81
266.591	97.81
266.823	85.81
267.055	103.81
267.287	70.81
267.52	90.81
267.752	85.81
267.984	73.81
268.216	81.81
268.448	101.81
268.681	90.81
268.913	75.81
269.145	82.81
269.377	89.81
269.609	82.81
269.841	68.81
270.073	91.81
270.306	89.81
270.538	72.81
270.77	81.81
271.002	74.81
271.234	94.81
271.466	99.81
271.698	84.81
271.93	89.81
272.162	73.81
272.394	78.81
272.626	79.81
272.858	86.81
273.09	72.81
273.322	86.81
273.553	76.81
273.785	94.81
274.017	84.81
274.249	73.81
274.481	71.81
274.713	81.81
274.945	78.81
275.176	68.81
275.408	81.81
275.64	67.81
275.872	83.81
276.104	76.81
276.335	62.81
276.567	94.81
276.799	78.81
277.031	65.81
277.262	96.81
277.494	93.81
277.726	90.81
277.957	85.81
278.189	67.81
278.421	73.81
278.652	81.81
278.884	89.81
279.115	76.81
279.347	77.81
279.579	63.81
279.81	75.81
280.042	76.81
280.273	75.81
280.505	87.81
280.736	76.81
280.968	75.81
281.199	83.81
281.431	85.81
281.662	81.81
281.894	84.81
282.125	59.81
282.356	76.81
282.588	79.81
282.819	75.81
283.051	79.81
283.282	69.81
283.513	74.81
283.745	79.81
283.976	73.81
284.207	82.81
284.439	88.81
284.67	89.81
284.901	80.81
285.132	77.81
285.364	85.81
285.595	80.81
285.826	73.81
286.057	71.81
286.288	75.81
286.52	99.81
286.751	76.81
286.982	77.81
287.213	84.81
287.444	88.81
287.675	67.81
287.906	96.81
288.138	77.81
288.369	83.81
288.6	73.81
288.831	82.81
289.062	96.81
289.293	88.81
289.524	71.81
289.755	90.81
289.986	76.81
290.217	85.81
290.448	77.81
290.679	94.81
290.91	83.81
291.141	80.81
291.371	81.81
291.602	76.81
291.833	80.81
292.064	76.81
292.295	69.81
292.526	78.81
292.757	79.81
292.987	78.81
293.218	75.81
293.449	95.81
293.68	75.81
293.91	81.81
294.141	78.81
294.372	80.81
294.603	85.81
294.833	80.81
295.064	80.81
295.295	72.81
295.525	81.81
295.756	96.81
295.987	96.81
296.217	80.81
296.448	83.81
296.679	82.81
296.909	96.81
297.14	94.81
297.37	100.81
297.601	82.81
297.831	83.81
298.062	87.81
298.292	76.81
298.523	80.81
298.753	80.81
298.984	95.81
299.214	89.81
299.445	90.81
299.675	84.81
299.905	78.81
300.136	74.81
300.366	74.81
300.597	70.81
300.827	70.81
301.057	75.81
301.288	72.81
301.518	88.81
301.748	96.81
301.979	96.81
302.209	86.81
302.439	76.81
302.669	78.81
302.9	89.81
303.13	88.81
303.36	94.81
303.59	78.81
303.82	84.81
304.051	71.81
304.281	76.81
304.511	80.81
304.741	79.81
304.971	74.81
305.201	83.81
305.431	71.81
305.661	92.81
305.891	88.81
306.121	84.81
306.352	75.81
306.582	79.81
306.812	90.81
307.042	86.81
307.272	87.81
307.502	95.81
307.731	73.81
307.961	73.81
308.191	80.81
308.421	105.81
308.651	85.81
308.881	86.81
309.111	93.81
309.341	70.81
309.571	74.81
309.8	93.81
310.03	89.81
310.26	79.81
310.49	85.81
310.72	77.81
310.949	83.81
311.179	82.81
311.409	85.81
311.639	86.81
311.868	70.81
312.098	85.81
312.328	83.81
312.557	91.81
312.787	83.81
313.017	90.81
313.246	81.81
313.476	67.81
313.706	69.81
313.935	73.81
314.165	75.81
314.394	61.81
314.624	71.81
314.853	85.81
315.083	82.81
315.312	83.81
315.542	82.81
315.771	77.81
316.001	93.81
316.23	76.81
316.46	79.81
316.689	70.81
316.919	84.81
317.148	94.81
317.377	84.81
317.607	76.81
317.836	82.81
318.065	74.81
318.295	74.81
318.524	90.81
318.753	86.81
318.983	69.81
319.212	93.81
319.441	83.81
319.67	75.81
319.9	82.81
320.129	84.81
320.358	75.81
320.587	75.81
320.816	87.81
321.046	79.81
321.275	76.81
321.504	79.81
321.733	99.81
321.962	81.81
322.191	82.81
322.42	82.81
322.649	70.81
322.878	94.81
323.108	65.81
323.337	80.81
323.566	85.81
323.795	85.81
324.024	83.81
324.253	76.81
324.482	79.81
324.71	86.81
324.939	86.81
325.168	72.81
325.397	63.81
325.626	77.81
325.855	95.81
326.084	92.81
326.313	91.81
326.542	100.81
326.77	86.81
326.999	82.81
327.228	80.81
327.457	73.81
327.686	80.81
327.914	81.81
328.143	89.81
328.372	89.81
328.6	85.81
328.829	76.81
329.058	77.81
329.287	74.81
329.515	79.81
329.744	79.81
329.972	69.81
330.201	84.81
330.43	72.81
330.658	78.81
330.887	82.81
331.115	63.81
331.344	88.81
331.572	81.81
331.801	83.81
332.03	78.81
332.258	76.81
332.486	85.81
332.715	74.81
332.943	76.81
333.172	88.81
333.4	79.81
333.629	79.81
333.857	85.81
334.085	76.81
334.314	82.81
334.542	91.81
334.771	90.81
334.999	93.81
335.227	73.81
335.455	76.81
335.684	82.81
335.912	82.81
336.14	79.81
336.369	79.81
336.597	88.81
336.825	80.81
337.053	85.81
337.281	79.81
337.51	84.81
337.738	85.81
337.966	74.81
338.194	87.81
338.422	97.81
338.65	89.81
338.878	75.81
339.106	90.81
339.334	94.81
339.562	82.81
339.79	96.81
340.018	72.81
340.246	82.81
340.474	83.81
340.702	86.81
340.93	62.81
341.158	81.81
341.386	74.81
341.614	82.81
341.842	76.81
342.07	85.81
342.298	72.81
342.526	65.81
342.754	85.81
342.981	97.81
343.209	87.81
343.437	86.81
343.665	83.81
343.893	81.81
344.12	85.81
344.348	76.81
344.576	97.81
344.804	94.81
345.031	65.81
345.259	96.81
345.487	80.81
345.714	94.81
345.942	75.81
346.17	83.81
346.397	74.81
346.625	73.81
346.853	73.81
347.08	80.81
347.308	72.81
347.535	61.81
347.763	81.81
347.99	80.81
348.218	87.81
348.445	83.81
348.673	69.81
348.9	69.81
349.128	76.81
349.355	82.81
349.583	79.81
349.81	73.81
350.037	84.81
350.265	83.81
350.492	79.81
350.72	86.81
350.947	74.81
351.174	83.81
351.402	91.81
351.629	77.81
351.856	75.81
352.083	87.81
352.311	82.81
352.538	91.81
352.765	78.81
352.992	93.81
353.22	73.81
353.447	82.81
353.674	78.81
353.901	85.81
354.128	79.81
354.355	86.81
354.583	82.81
354.81	92.81
355.037	69.81
355.264	84.81
355.491	81.81
355.718	88.81
355.945	79.81
356.172	85.81
356.399	81.81
356.626	81.81
356.853	84.81
357.08	84.81
357.307	84.81
357.534	97.81
357.761	80.81
357.988	76.81
358.215	87.81
358.441	91.81
358.668	76.81
358.895	86.81
359.122	84.81
359.349	82.81
359.576	89.81
359.802	91.81
360.029	88.81
360.256	91.81
360.483	85.81
360.709	87.81
360.936	86.81
361.163	89.81
361.39	86.81
361.616	85.81
361.843	85.81
362.07	97.81
362.296	87.81
362.523	70.81
362.749	78.81
362.976	91.81
363.203	84.81
363.429	87.81
363.656	85.81
363.882	75.81
364.109	86.81
364.335	87.81
364.562	83.81
364.788	98.81
365.015	87.81
365.241	84.81
365.468	71.81
365.694	94.81
365.92	87.81
366.147	89.81
366.373	74.81
366.599	57.81
366.826	76.81
367.052	77.81
367.278	73.81
367.505	75.81
367.731	94.81
367.957	66.81
368.184	87.81
368.41	79.81
368.636	91.81
368.862	71.81
369.089	84.81
369.315	82.81
369.541	93.81
369.767	104.81
369.993	83.81
370.219	81.81
370.445	71.81
370.672	80.81
370.898	67.81
371.124	77.81
371.35	80.81
371.576	65.81
371.802	77.81
372.028	94.81
372.254	76.81
372.48	88.81
372.706	61.81
372.932	85.81
373.158	94.81
373.384	84.81
373.61	80.81
373.835	88.81
374.061	70.81
374.287	82.81
374.513	88.81
374.739	77.81
374.965	91.81
375.191	84.81
375.416	89.81
375.642	82.81
375.868	82.81
376.094	70.81
376.319	82.81
376.545	83.81
376.771	75.81
376.997	83.81
377.222	92.81
377.448	72.81
377.674	71.81
377.899	86.81
378.125	75.81
378.35	82.81
378.576	78.81
378.802	84.81
379.027	82.81
379.253	78.81
379.478	89.81
379.704	74.81
379.929	93.81
380.155	91.81
380.38	79.81
380.606	81.81
380.831	76.81
381.057	87.81
381.282	71.81
381.507	91.81
381.733	94.81
381.958	80.81
382.184	94.81
382.409	96.81
382.634	91.81
382.86	89.81
383.085	77.81
383.31	82.81
383.535	80.81
383.761	75.81
383.986	81.81
384.211	75.81
384.436	91.81
384.662	77.81
384.887	71.81
385.112	85.81
385.337	91.81
385.562	87.81
385.787	82.81
386.013	72.81
386.238	72.81
386.463	73.81
386.688	99.81
386.913	79.81
387.138	86.81
387.363	87.81
387.588	94.81
387.813	86.81
388.038	99.81
388.263	83.81
388.488	76.81
388.713	95.81
388.938	71.81
389.163	78.81
389.387	78.81
389.612	72.81
389.837	81.81
390.062	93.81
390.287	83.81
390.512	80.81
390.736	85.81
390.961	77.81
391.186	77.81
391.411	80.81
391.636	75.81
391.86	85.81
392.085	97.81
392.31	73.81
392.534	88.81
392.759	95.81
392.984	84.81
393.208	98.81
393.433	106.81
393.658	98.81
393.882	85.81
394.107	84.81
394.331	84.81
394.556	81.81
394.78	84.81
395.005	83.81
395.229	69.81
395.454	70.81
395.678	89.81
395.903	93.81
396.127	85.81
396.352	88.81
396.576	91.81
396.801	114.81
397.025	95.81
397.249	93.81
397.474	74.81
397.698	82.81
397.922	95.81
398.147	81.81
398.371	73.81
398.595	88.81
398.82	88.81
399.044	95.81
399.268	79.81
399.492	100.81
399.717	77.81
399.941	87.81
400.165	78.81
400.389	80.81
400.613	85.81
400.837	89.81
401.062	76.81
401.286	83.81
401.51	75.81
401.734	87.81
401.958	72.81
402.182	97.81
402.406	90.81
402.63	81.81
402.854	85.81
403.078	79.81
403.302	88.81
403.526	94.81
403.75	83.81
403.974	73.81
404.198	81.81
404.422	86.81
404.645	85.81
404.869	71.81
405.093	67.81
405.317	72.81
405.541	64.81
405.765	80.81
405.988	71.81
406.212	87.81
406.436	83.81
406.66	101.81
406.883	80.81
407.107	79.81
407.331	89.81
407.555	71.81
407.778	72.81
408.002	93.81
408.226	85.81
408.449	91.81
408.673	69.81
408.896	73.81
409.12	85.81
409.344	78.81
409.567	73.81
409.791	83.81
410.014	75.81
410.238	94.81
410.461	83.81
410.685	91.81
410.908	78.81
411.132	75.81
411.355	72.81
411.578	71.81
411.802	86.81
412.025	80.81
412.249	87.81
412.472	86.81
412.695	82.81
412.919	74.81
413.142	95.81
413.365	81.81
413.589	83.81
413.812	80.81
414.035	93.81
414.258	81.81
414.482	89.81
414.705	82.81
414.928	80.81
415.151	74.81
415.374	76.81
415.597	93.81
415.821	89.81
416.044	86.81
416.267	79.81
416.49	79.81
416.713	81.81
416.936	82.81
417.159	75.81
417.382	77.81
417.605	74.81
417.828	75.81
418.051	82.81
418.274	87.81
418.497	97.81
418.72	67.81
418.943	78.81
419.166	95.81
419.389	71.81
419.611	82.81
419.834	62.81
420.057	75.81
420.28	83.81
420.503	87.81
420.726	77.81
420.948	95.81
421.171	85.81
421.394	85.81
421.617	91.81
421.839	105.81
422.062	89.81
422.285	104.81
422.507	121.81
422.73	133.81
422.953	122.81
423.175	106.81
423.398	93.81
423.621	85.81
423.843	68.81
424.066	74.81
424.288	70.81
424.511	83.81
424.733	83.81
424.956	84.81
425.178	73.81
425.401	76.81
425.623	75.81
425.846	77.81
426.068	71.81
426.291	86.81
426.513	72.81
426.735	77.81
426.958	79.81
427.18	73.81
427.402	83.81
427.625	74.81
427.847	90.81
428.069	71.81
428.292	81.81
428.514	94.81
428.736	73.81
428.958	78.81
429.181	96.81
429.403	73.81
429.625	86.81
429.847	89.81
430.069	96.81
430.292	103.81
430.514	109.81
430.736	105.81
430.958	96.81
431.18	80.81
431.402	94.81
431.624	75.81
431.846	74.81
432.068	66.81
432.29	94.81
432.512	82.81
432.734	81.81
432.956	94.81
433.178	75.81
433.4	96.81
433.622	80.81
433.844	81.81
434.066	93.81
434.287	80.81
434.509	84.81
434.731	71.81
434.953	82.81
435.175	85.81
435.397	84.81
435.618	81.81
435.84	87.81
436.062	94.81
436.284	84.81
436.505	77.81
436.727	71.81
436.949	83.81
437.17	89.81
437.392	88.81
437.614	86.81
437.835	76.81
438.057	67.81
438.278	89.81
438.5	78.81
438.721	77.81
438.943	82.81
439.165	75.81
439.386	67.81
439.608	80.81
439.829	69.81
440.05	84.81
440.272	94.81
440.493	90.81
440.715	89.81
440.936	86.81
441.158	98.81
441.379	73.81
441.6	85.81
441.822	85.81
442.043	79.81
442.264	93.81
442.486	92.81
442.707	91.81
442.928	93.81
443.149	90.81
443.371	93.81
443.592	102.81
443.813	96.81
444.034	87.81
444.255	71.81
444.476	86.81
444.698	72.81
444.919	88.81
445.14	148.81
445.361	128.81
445.582	115.81
445.803	118.81
446.024	109.81
446.245	79.81
446.466	86.81
446.687	87.81
446.908	73.81
447.129	72.81
447.35	85.81
447.571	73.81
447.792	74.81
448.013	78.81
448.234	81.81
448.455	88.81
448.675	76.81
448.896	81.81
449.117	81.81
449.338	81.81
449.559	85.81
449.779	69.81
450	91.81
450.221	78.81
450.442	80.81
450.662	80.81
450.883	70.81
451.104	88.81
451.324	97.81
451.545	91.81
451.766	83.81
451.986	85.81
452.207	87.81
452.428	91.81
452.648	88.81
452.869	74.81
453.089	81.81
453.31	77.81
453.53	86.81
453.751	90.81
453.971	82.81
454.192	79.81
454.412	69.81
454.633	72.81
454.853	76.81
455.073	70.81
455.294	69.81
455.514	67.81
455.734	81.81
455.955	78.81
456.175	79.81
456.395	73.81
456.616	69.81
456.836	91.81
457.056	79.81
457.276	67.81
457.497	73.81
457.717	90.81
457.937	77.81
458.157	81.81
458.377	86.81
458.598	89.81
458.818	85.81
459.038	75.81
459.258	79.81
459.478	88.81
459.698	81.81
459.918	74.81
460.138	74.81
460.358	84.81
460.578	83.81
460.798	81.81
461.018	85.81
461.238	81.81
461.458	89.81
461.678	89.81
461.898	78.81
462.118	91.81
462.338	76.81
462.558	86.81
462.777	69.81
462.997	74.81
463.217	74.81
463.437	94.81
463.657	80.81
463.876	73.81
464.096	79.81
464.316	63.81
464.536	82.81
464.755	70.81
464.975	72.81
465.195	81.81
465.414	86.81
465.634	95.81
465.854	89.81
466.073	75.81
466.293	76.81
466.512	67.81
466.732	91.81
466.951	81.81
467.171	84.81
467.391	91.81
467.61	76.81
467.829	81.81
468.049	82.81
468.268	93.81
468.488	87.81
468.707	70.81
468.927	84.81
469.146	87.81
469.365	90.81
469.585	83.81
469.804	75.81
470.023	74.81
470.243	73.81
470.462	92.81
470.681	83.81
470.901	73.81
471.12	89.81
471.339	69.81
471.558	83.81
471.777	66.81
471.997	75.81
472.216	77.81
472.435	92.81
472.654	80.81
472.873	89.81
473.092	93.81
473.311	76.81
473.53	74.81
473.749	73.81
473.968	80.81
474.187	75.81
474.406	87.81
474.625	80.81
474.844	91.81
475.063	85.81
475.282	79.81
475.501	70.81
475.72	96.81
475.939	71.81
476.158	77.81
476.377	73.81
476.596	95.81
476.814	79.81
477.033	81.81
477.252	87.81
477.471	75.81
477.69	81.81
477.908	62.81
478.127	79.81
478.346	89.81
478.564	73.81
478.783	78.81
479.002	86.81
479.22	83.81
479.439	86.81
479.658	85.81
479.876	79.81
480.095	78.81
480.313	90.81
480.532	76.81
480.751	73.81
480.969	76.81
481.188	85.81
481.406	81.81
481.624	79.81
481.843	81.81
482.061	70.81
482.28	77.81
482.498	86.81
482.717	87.81
482.935	90.81
483.153	89.81
483.372	67.81
483.59	85.81
483.808	75.81
484.027	85.81
484.245	81.81
484.463	99.81
484.681	79.81
484.9	82.81
485.118	86.81
485.336	79.81
485.554	70.81
485.772	81.81
485.99	91.81
486.209	63.81
486.427	79.81
486.645	97.81
486.863	87.81
487.081	85.81
487.299	75.81
487.517	92.81
487.735	93.81
487.953	93.81
488.171	102.81
488.389	81.81
488.607	73.81
488.825	74.81
489.043	87.81
489.261	94.81
489.479	86.81
489.696	95.81
489.914	84.81
490.132	90.81
490.35	82.81
490.568	83.81
490.786	81.81
491.003	79.81
491.221	93.81
491.439	87.81
491.657	90.81
491.874	88.81
492.092	86.81
492.31	86.81
492.527	83.81
492.745	84.81
492.963	97.81
493.18	84.81
493.398	87.81
493.615	83.81
493.833	85.81
494.05	68.81
494.268	84.81
494.485	87.81
494.703	85.81
494.92	71.81
495.138	81.81
495.355	86.81
495.573	80.81
495.79	85.81
496.008	83.81
496.225	85.81
496.442	80.81
496.66	85.81
496.877	86.81
497.094	99.81
497.312	85.81
497.529	81.81
497.746	86.81
497.963	81.81
498.181	94.81
498.398	85.81
498.615	79.81
498.832	81.81
499.049	90.81
499.267	81.81
499.484	75.81
499.701	69.81
499.918	89.81
500.135	70.81
500.352	80.81
500.569	89.81
500.786	95.81
501.003	92.81
501.22	87.81
501.437	78.81
501.654	87.81
501.871	73.81
502.088	77.81
502.305	83.81
502.522	83.81
502.739	91.81
502.956	80.81
503.172	77.81
503.389	79.81
503.606	92.81
503.823	84.81
504.04	78.81
504.256	80.81
504.473	86.81
504.69	93.81
504.907	95.81
505.123	87.81
505.34	83.81
505.557	90.81
505.773	88.81
505.99	83.81
506.207	73.81
506.423	91.81
506.64	92.81
506.856	79.81
507.073	87.81
507.289	98.81
507.506	70.81
507.722	85.81
507.939	91.81
508.155	72.81
508.372	70.81
508.588	86.81
508.805	80.81
509.021	74.81
509.238	90.81
509.454	79.81
509.67	73.81
509.887	72.81
510.103	82.81
510.319	81.81
510.536	93.81
510.752	91.81
510.968	83.81
511.184	83.81
511.401	89.81
511.617	85.81
511.833	85.81
512.049	83.81
512.265	84.81
512.481	79.81
512.698	78.81
512.914	94.81
513.13	88.81
513.346	77.81
513.562	76.81
513.778	80.81
513.994	81.81
514.21	96.81
514.426	85.81
514.642	90.81
514.858	82.81
515.074	80.81
515.29	95.81
515.506	83.81
515.721	78.81
515.937	85.81
516.153	85.81
516.369	85.81
516.585	85.81
516.801	84.81
517.016	75.81
517.232	89.81
517.448	95.81
517.664	90.81
517.879	85.81
518.095	64.81
518.311	92.81
518.527	76.81
518.742	82.81
518.958	88.81
519.173	87.81
519.389	82.81
519.605	85.81
519.82	79.81
520.036	78.81
