Data from CBS_1_HRD10591_00015.txt Node
Date: Mon Jan 19 14:03:56 EST 2026
User: Yrep
Spectrometer: HR+D1059
Trigger mode: 1
Integration Time (sec): 1.000000E-1
Scans to average: 1
Electric dark correction enabled: true
Nonlinearity correction enabled: false
Boxcar width: 0
XAxis mode: Wavelengths
Number of Pixels in Spectrum: 2048
>>>>>Begin Spectral Data<<<<<
223.165	-16.12
223.4	-16.12
223.635	-16.12
223.869	-24.12
224.104	-11.12
224.338	-19.12
224.573	-23.12
224.808	-21.12
225.042	-17.12
225.277	-3.12
225.511	-7.12
225.746	7.88
225.98	12.88
226.215	28.88
226.449	10.88
226.683	25.88
226.918	14.88
227.152	40.88
227.387	38.88
227.621	37.88
227.856	36.88
228.09	32.88
228.324	45.88
228.559	54.88
228.793	48.88
229.027	56.88
229.262	67.88
229.496	70.88
229.73	55.88
229.964	61.88
230.199	60.88
230.433	77.88
230.667	70.88
230.901	64.88
231.136	58.88
231.37	79.88
231.604	76.88
231.838	79.88
232.072	81.88
232.306	69.88
232.541	68.88
232.775	67.88
233.009	71.88
233.243	70.88
233.477	80.88
233.711	73.88
233.945	58.88
234.179	77.88
234.413	71.88
234.647	76.88
234.881	90.88
235.115	81.88
235.349	48.88
235.583	76.88
235.817	68.88
236.051	69.88
236.285	54.88
236.519	70.88
236.753	70.88
236.987	80.88
237.221	70.88
237.455	76.88
237.689	66.88
237.922	68.88
238.156	72.88
238.39	60.88
238.624	85.88
238.858	79.88
239.091	75.88
239.325	64.88
239.559	58.88
239.793	61.88
240.027	79.88
240.26	61.88
240.494	76.88
240.728	76.88
240.961	72.88
241.195	71.88
241.429	75.88
241.662	59.88
241.896	71.88
242.13	70.88
242.363	92.88
242.597	79.88
242.83	81.88
243.064	78.88
243.298	66.88
243.531	63.88
243.765	63.88
243.998	66.88
244.232	73.88
244.465	70.88
244.699	80.88
244.932	70.88
245.166	59.88
245.399	78.88
245.633	66.88
245.866	73.88
246.099	86.88
246.333	74.88
246.566	65.88
246.8	84.88
247.033	70.88
247.266	77.88
247.5	87.88
247.733	84.88
247.966	66.88
248.2	69.88
248.433	75.88
248.666	69.88
248.899	77.88
249.133	66.88
249.366	70.88
249.599	60.88
249.832	62.88
250.066	72.88
250.299	76.88
250.532	59.88
250.765	59.88
250.998	67.88
251.231	72.88
251.465	64.88
251.698	73.88
251.931	72.88
252.164	80.88
252.397	80.88
252.63	77.88
252.863	68.88
253.096	79.88
253.329	82.88
253.562	78.88
253.795	86.88
254.028	70.88
254.261	69.88
254.494	77.88
254.727	69.88
254.96	70.88
255.193	67.88
255.426	70.88
255.659	93.88
255.892	73.88
256.124	61.88
256.357	88.88
256.59	84.88
256.823	76.88
257.056	86.88
257.289	88.88
257.521	68.88
257.754	72.88
257.987	76.88
258.22	78.88
258.452	74.88
258.685	97.88
258.918	81.88
259.151	50.88
259.383	72.88
259.616	76.88
259.849	74.88
260.081	71.88
260.314	78.88
260.547	71.88
260.779	87.88
261.012	77.88
261.244	71.88
261.477	70.88
261.71	66.88
261.942	75.88
262.175	76.88
262.407	72.88
262.64	62.88
262.872	75.88
263.105	65.88
263.337	84.88
263.57	65.88
263.802	71.88
264.035	79.88
264.267	91.88
264.499	81.88
264.732	68.88
264.964	73.88
265.197	69.88
265.429	80.88
265.661	56.88
265.894	69.88
266.126	84.88
266.358	87.88
266.591	84.88
266.823	83.88
267.055	73.88
267.287	68.88
267.52	68.88
267.752	82.88
267.984	92.88
268.216	83.88
268.448	90.88
268.681	69.88
268.913	87.88
269.145	73.88
269.377	74.88
269.609	75.88
269.841	80.88
270.073	81.88
270.306	83.88
270.538	86.88
270.77	75.88
271.002	78.88
271.234	88.88
271.466	72.88
271.698	64.88
271.93	73.88
272.162	79.88
272.394	82.88
272.626	66.88
272.858	63.88
273.09	66.88
273.322	70.88
273.553	81.88
273.785	66.88
274.017	71.88
274.249	81.88
274.481	87.88
274.713	77.88
274.945	82.88
275.176	85.88
275.408	74.88
275.64	67.88
275.872	68.88
276.104	66.88
276.335	92.88
276.567	76.88
276.799	84.88
277.031	90.88
277.262	88.88
277.494	70.88
277.726	70.88
277.957	67.88
278.189	69.88
278.421	66.88
278.652	80.88
278.884	72.88
279.115	88.88
279.347	86.88
279.579	68.88
279.81	78.88
280.042	94.88
280.273	78.88
280.505	70.88
280.736	70.88
280.968	81.88
281.199	88.88
281.431	78.88
281.662	78.88
281.894	78.88
282.125	92.88
282.356	87.88
282.588	84.88
282.819	79.88
283.051	84.88
283.282	78.88
283.513	85.88
283.745	74.88
283.976	81.88
284.207	78.88
284.439	73.88
284.67	78.88
284.901	97.88
285.132	79.88
285.364	87.88
285.595	95.88
285.826	70.88
286.057	79.88
286.288	80.88
286.52	72.88
286.751	79.88
286.982	77.88
287.213	73.88
287.444	75.88
287.675	81.88
287.906	84.88
288.138	81.88
288.369	84.88
288.6	90.88
288.831	78.88
289.062	78.88
289.293	92.88
289.524	81.88
289.755	81.88
289.986	94.88
290.217	91.88
290.448	81.88
290.679	80.88
290.91	83.88
291.141	81.88
291.371	86.88
291.602	90.88
291.833	80.88
292.064	80.88
292.295	86.88
292.526	92.88
292.757	67.88
292.987	84.88
293.218	85.88
293.449	71.88
293.68	86.88
293.91	93.88
294.141	94.88
294.372	86.88
294.603	75.88
294.833	75.88
295.064	72.88
295.295	88.88
295.525	85.88
295.756	77.88
295.987	75.88
296.217	68.88
296.448	75.88
296.679	106.88
296.909	95.88
297.14	82.88
297.37	79.88
297.601	75.88
297.831	95.88
298.062	90.88
298.292	83.88
298.523	102.88
298.753	84.88
298.984	90.88
299.214	85.88
299.445	81.88
299.675	91.88
299.905	93.88
300.136	102.88
300.366	85.88
300.597	89.88
300.827	87.88
301.057	90.88
301.288	87.88
301.518	92.88
301.748	86.88
301.979	98.88
302.209	83.88
302.439	84.88
302.669	88.88
302.9	75.88
303.13	58.88
303.36	82.88
303.59	82.88
303.82	73.88
304.051	96.88
304.281	82.88
304.511	86.88
304.741	88.88
304.971	73.88
305.201	84.88
305.431	92.88
305.661	74.88
305.891	76.88
306.121	88.88
306.352	87.88
306.582	91.88
306.812	82.88
307.042	69.88
307.272	85.88
307.502	77.88
307.731	75.88
307.961	85.88
308.191	91.88
308.421	72.88
308.651	90.88
308.881	78.88
309.111	76.88
309.341	84.88
309.571	92.88
309.8	88.88
310.03	91.88
310.26	86.88
310.49	80.88
310.72	87.88
310.949	86.88
311.179	77.88
311.409	71.88
311.639	88.88
311.868	72.88
312.098	90.88
312.328	78.88
312.557	76.88
312.787	67.88
313.017	86.88
313.246	76.88
313.476	71.88
313.706	87.88
313.935	74.88
314.165	85.88
314.394	80.88
314.624	82.88
314.853	82.88
315.083	77.88
315.312	100.88
315.542	72.88
315.771	95.88
316.001	79.88
316.23	87.88
316.46	84.88
316.689	71.88
316.919	76.88
317.148	66.88
317.377	82.88
317.607	79.88
317.836	100.88
318.065	88.88
318.295	86.88
318.524	77.88
318.753	91.88
318.983	92.88
319.212	90.88
319.441	81.88
319.67	72.88
319.9	86.88
320.129	87.88
320.358	88.88
320.587	78.88
320.816	82.88
321.046	80.88
321.275	81.88
321.504	85.88
321.733	84.88
321.962	98.88
322.191	83.88
322.42	81.88
322.649	79.88
322.878	85.88
323.108	77.88
323.337	79.88
323.566	73.88
323.795	91.88
324.024	78.88
324.253	77.88
324.482	76.88
324.71	85.88
324.939	92.88
325.168	84.88
325.397	79.88
325.626	84.88
325.855	83.88
326.084	81.88
326.313	75.88
326.542	76.88
326.77	83.88
326.999	87.88
327.228	71.88
327.457	87.88
327.686	84.88
327.914	77.88
328.143	87.88
328.372	95.88
328.6	94.88
328.829	85.88
329.058	79.88
329.287	84.88
329.515	83.88
329.744	85.88
329.972	87.88
330.201	77.88
330.43	82.88
330.658	82.88
330.887	67.88
331.115	91.88
331.344	85.88
331.572	99.88
331.801	79.88
332.03	88.88
332.258	81.88
332.486	84.88
332.715	90.88
332.943	82.88
333.172	76.88
333.4	83.88
333.629	96.88
333.857	89.88
334.085	104.88
334.314	88.88
334.542	75.88
334.771	84.88
334.999	95.88
335.227	101.88
335.455	74.88
335.684	92.88
335.912	118.88
336.14	91.88
336.369	101.88
336.597	77.88
336.825	88.88
337.053	87.88
337.281	87.88
337.51	81.88
337.738	92.88
337.966	77.88
338.194	90.88
338.422	80.88
338.65	81.88
338.878	80.88
339.106	81.88
339.334	76.88
339.562	88.88
339.79	86.88
340.018	76.88
340.246	71.88
340.474	84.88
340.702	92.88
340.93	75.88
341.158	85.88
341.386	74.88
341.614	83.88
341.842	84.88
342.07	86.88
342.298	87.88
342.526	90.88
342.754	69.88
342.981	76.88
343.209	87.88
343.437	85.88
343.665	90.88
343.893	89.88
344.12	82.88
344.348	81.88
344.576	83.88
344.804	89.88
345.031	83.88
345.259	94.88
345.487	88.88
345.714	95.88
345.942	98.88
346.17	90.88
346.397	81.88
346.625	70.88
346.853	84.88
347.08	80.88
347.308	76.88
347.535	79.88
347.763	88.88
347.99	80.88
348.218	82.88
348.445	84.88
348.673	74.88
348.9	82.88
349.128	87.88
349.355	74.88
349.583	80.88
349.81	79.88
350.037	66.88
350.265	84.88
350.492	65.88
350.72	78.88
350.947	77.88
351.174	84.88
351.402	86.88
351.629	79.88
351.856	80.88
352.083	80.88
352.311	96.88
352.538	71.88
352.765	69.88
352.992	84.88
353.22	96.88
353.447	82.88
353.674	83.88
353.901	81.88
354.128	93.88
354.355	92.88
354.583	72.88
354.81	81.88
355.037	78.88
355.264	86.88
355.491	81.88
355.718	78.88
355.945	84.88
356.172	82.88
356.399	94.88
356.626	97.88
356.853	87.88
357.08	93.88
357.307	94.88
357.534	90.88
357.761	96.88
357.988	79.88
358.215	86.88
358.441	83.88
358.668	83.88
358.895	81.88
359.122	82.88
359.349	75.88
359.576	99.88
359.802	75.88
360.029	91.88
360.256	85.88
360.483	100.88
360.709	101.88
360.936	107.88
361.163	85.88
361.39	98.88
361.616	77.88
361.843	92.88
362.07	103.88
362.296	123.88
362.523	133.88
362.749	125.88
362.976	143.88
363.203	143.88
363.429	112.88
363.656	110.88
363.882	107.88
364.109	122.88
364.335	160.88
364.562	164.88
364.788	118.88
365.015	98.88
365.241	87.88
365.468	96.88
365.694	80.88
365.92	77.88
366.147	86.88
366.373	90.88
366.599	90.88
366.826	92.88
367.052	78.88
367.278	95.88
367.505	94.88
367.731	108.88
367.957	93.88
368.184	88.88
368.41	90.88
368.636	80.88
368.862	92.88
369.089	92.88
369.315	82.88
369.541	85.88
369.767	70.88
369.993	83.88
370.219	82.88
370.445	94.88
370.672	85.88
370.898	83.88
371.124	76.88
371.35	70.88
371.576	86.88
371.802	92.88
372.028	95.88
372.254	97.88
372.48	82.88
372.706	91.88
372.932	86.88
373.158	86.88
373.384	80.88
373.61	102.88
373.835	88.88
374.061	90.88
374.287	91.88
374.513	93.88
374.739	88.88
374.965	92.88
375.191	89.88
375.416	81.88
375.642	88.88
375.868	77.88
376.094	96.88
376.319	79.88
376.545	97.88
376.771	85.88
376.997	89.88
377.222	82.88
377.448	88.88
377.674	85.88
377.899	91.88
378.125	84.88
378.35	92.88
378.576	88.88
378.802	84.88
379.027	91.88
379.253	80.88
379.478	79.88
379.704	78.88
379.929	81.88
380.155	95.88
380.38	91.88
380.606	81.88
380.831	89.88
381.057	94.88
381.282	90.88
381.507	80.88
381.733	97.88
381.958	94.88
382.184	78.88
382.409	105.88
382.634	85.88
382.86	92.88
383.085	75.88
383.31	81.88
383.535	98.88
383.761	84.88
383.986	88.88
384.211	105.88
384.436	90.88
384.662	94.88
384.887	99.88
385.112	87.88
385.337	95.88
385.562	89.88
385.787	89.88
386.013	87.88
386.238	94.88
386.463	90.88
386.688	98.88
386.913	92.88
387.138	90.88
387.363	97.88
387.588	108.88
387.813	100.88
388.038	94.88
388.263	94.88
388.488	94.88
388.713	91.88
388.938	101.88
389.163	73.88
389.387	86.88
389.612	99.88
389.837	89.88
390.062	86.88
390.287	88.88
390.512	73.88
390.736	70.88
390.961	93.88
391.186	86.88
391.411	80.88
391.636	91.88
391.86	103.88
392.085	83.88
392.31	95.88
392.534	128.88
392.759	130.88
392.984	160.88
393.208	252.88
393.433	343.88
393.658	278.88
393.882	165.88
394.107	123.88
394.331	110.88
394.556	123.88
394.78	101.88
395.005	103.88
395.229	115.88
395.454	95.88
395.678	123.88
395.903	141.88
396.127	134.88
396.352	159.88
396.576	183.88
396.801	235.88
397.025	291.88
397.249	202.88
397.474	151.88
397.698	130.88
397.922	95.88
398.147	103.88
398.371	84.88
398.595	83.88
398.82	89.88
399.044	78.88
399.268	80.88
399.492	91.88
399.717	84.88
399.941	77.88
400.165	96.88
400.389	99.88
400.613	76.88
400.837	82.88
401.062	91.88
401.286	82.88
401.51	95.88
401.734	106.88
401.958	86.88
402.182	94.88
402.406	81.88
402.63	77.88
402.854	85.88
403.078	98.88
403.302	94.88
403.526	89.88
403.75	96.88
403.974	77.88
404.198	90.88
404.422	112.88
404.645	100.88
404.869	98.88
405.093	86.88
405.317	83.88
405.541	85.88
405.765	81.88
405.988	85.88
406.212	77.88
406.436	92.88
406.66	91.88
406.883	91.88
407.107	98.88
407.331	96.88
407.555	90.88
407.778	105.88
408.002	116.88
408.226	91.88
408.449	98.88
408.673	75.88
408.896	84.88
409.12	99.88
409.344	92.88
409.567	110.88
409.791	120.88
410.014	114.88
410.238	109.88
410.461	103.88
410.685	88.88
410.908	90.88
411.132	86.88
411.355	83.88
411.578	95.88
411.802	73.88
412.025	80.88
412.249	93.88
412.472	92.88
412.695	81.88
412.919	81.88
413.142	94.88
413.365	84.88
413.589	80.88
413.812	78.88
414.035	83.88
414.258	90.88
414.482	80.88
414.705	89.88
414.928	86.88
415.151	76.88
415.374	76.88
415.597	92.88
415.821	76.88
416.044	75.88
416.267	68.88
416.49	66.88
416.713	79.88
416.936	83.88
417.159	90.88
417.382	64.88
417.605	85.88
417.828	82.88
418.051	81.88
418.274	67.88
418.497	96.88
418.72	94.88
418.943	86.88
419.166	86.88
419.389	80.88
419.611	87.88
419.834	83.88
420.057	93.88
420.28	92.88
420.503	91.88
420.726	93.88
420.948	106.88
421.171	109.88
421.394	110.88
421.617	118.88
421.839	152.88
422.062	176.88
422.285	245.88
422.507	342.88
422.73	417.88
422.953	376.88
423.175	291.88
423.398	200.88
423.621	150.88
423.843	129.88
424.066	127.88
424.288	118.88
424.511	108.88
424.733	100.88
424.956	109.88
425.178	98.88
425.401	86.88
425.623	96.88
425.846	87.88
426.068	83.88
426.291	91.88
426.513	75.88
426.735	82.88
426.958	91.88
427.18	76.88
427.402	91.88
427.625	93.88
427.847	96.88
428.069	104.88
428.292	155.88
428.514	163.88
428.736	120.88
428.958	144.88
429.181	151.88
429.403	103.88
429.625	103.88
429.847	135.88
430.069	199.88
430.292	232.88
430.514	211.88
430.736	157.88
430.958	158.88
431.18	109.88
431.402	92.88
431.624	106.88
431.846	140.88
432.068	173.88
432.29	118.88
432.512	94.88
432.734	90.88
432.956	81.88
433.178	83.88
433.4	79.88
433.622	94.88
433.844	89.88
434.066	86.88
434.287	95.88
434.509	82.88
434.731	91.88
434.953	100.88
435.175	71.88
435.397	86.88
435.618	95.88
435.84	98.88
436.062	92.88
436.284	94.88
436.505	80.88
436.727	76.88
436.949	84.88
437.17	86.88
437.392	91.88
437.614	75.88
437.835	71.88
438.057	83.88
438.278	83.88
438.5	83.88
438.721	92.88
438.943	85.88
439.165	83.88
439.386	73.88
439.608	91.88
439.829	72.88
440.05	71.88
440.272	94.88
440.493	84.88
440.715	96.88
440.936	87.88
441.158	80.88
441.379	96.88
441.6	86.88
441.822	87.88
442.043	99.88
442.264	114.88
442.486	174.88
442.707	220.88
442.928	152.88
443.149	147.88
443.371	197.88
443.592	320.88
443.813	299.88
444.034	126.88
444.255	92.88
444.476	86.88
444.698	102.88
444.919	104.88
445.14	219.88
445.361	267.88
445.582	383.88
445.803	318.88
446.024	158.88
446.245	113.88
446.466	117.88
446.687	88.88
446.908	85.88
447.129	86.88
447.35	95.88
447.571	83.88
447.792	88.88
448.013	93.88
448.234	82.88
448.455	96.88
448.675	85.88
448.896	88.88
449.117	86.88
449.338	81.88
449.559	84.88
449.779	76.88
450	80.88
450.221	76.88
450.442	84.88
450.662	94.88
450.883	80.88
451.104	77.88
451.324	82.88
451.545	90.88
451.766	81.88
451.986	88.88
452.207	93.88
452.428	101.88
452.648	90.88
452.869	111.88
453.089	98.88
453.31	98.88
453.53	110.88
453.751	106.88
453.971	91.88
454.192	78.88
454.412	72.88
454.633	79.88
454.853	77.88
455.073	88.88
455.294	95.88
455.514	91.88
455.734	79.88
455.955	69.88
456.175	80.88
456.395	83.88
456.616	86.88
456.836	94.88
457.056	84.88
457.276	94.88
457.497	72.88
457.717	99.88
457.937	130.88
458.157	160.88
458.377	174.88
458.598	164.88
458.818	180.88
459.038	130.88
459.258	91.88
459.478	81.88
459.698	96.88
459.918	80.88
460.138	72.88
460.358	87.88
460.578	102.88
460.798	119.88
461.018	121.88
461.238	87.88
461.458	84.88
461.678	75.88
461.898	87.88
462.118	93.88
462.338	76.88
462.558	72.88
462.777	81.88
462.997	94.88
463.217	83.88
463.437	83.88
463.657	91.88
463.876	80.88
464.096	86.88
464.316	72.88
464.536	76.88
464.755	87.88
464.975	86.88
465.195	90.88
465.414	101.88
465.634	75.88
465.854	76.88
466.073	99.88
466.293	77.88
466.512	85.88
466.732	95.88
466.951	72.88
467.171	92.88
467.391	83.88
467.61	90.88
467.829	93.88
468.049	94.88
468.268	84.88
468.488	97.88
468.707	99.88
468.927	90.88
469.146	86.88
469.365	77.88
469.585	90.88
469.804	71.88
470.023	84.88
470.243	92.88
470.462	87.88
470.681	93.88
470.901	81.88
471.12	77.88
471.339	85.88
471.558	107.88
471.777	101.88
471.997	73.88
472.216	85.88
472.435	85.88
472.654	92.88
472.873	78.88
473.092	90.88
473.311	88.88
473.53	81.88
473.749	88.88
473.968	90.88
474.187	74.88
474.406	86.88
474.625	91.88
474.844	84.88
475.063	83.88
475.282	96.88
475.501	84.88
475.72	89.88
475.939	90.88
476.158	85.88
476.377	85.88
476.596	85.88
476.814	76.88
477.033	83.88
477.252	88.88
477.471	92.88
477.69	90.88
477.908	84.88
478.127	94.88
478.346	99.88
478.564	90.88
478.783	88.88
479.002	91.88
479.22	85.88
479.439	86.88
479.658	98.88
479.876	70.88
480.095	93.88
480.313	95.88
480.532	100.88
480.751	103.88
480.969	91.88
481.188	73.88
481.406	82.88
481.624	78.88
481.843	90.88
482.061	91.88
482.28	94.88
482.498	90.88
482.717	108.88
482.935	95.88
483.153	86.88
483.372	81.88
483.59	95.88
483.808	94.88
484.027	90.88
484.245	100.88
484.463	88.88
484.681	94.88
484.9	84.88
485.118	102.88
485.336	88.88
485.554	79.88
485.772	94.88
485.99	91.88
486.209	86.88
486.427	86.88
486.645	92.88
486.863	91.88
487.081	85.88
487.299	91.88
487.517	106.88
487.735	141.88
487.953	259.88
488.171	232.88
488.389	117.88
488.607	92.88
488.825	94.88
489.043	79.88
489.261	97.88
489.479	90.88
489.696	102.88
489.914	91.88
490.132	95.88
490.35	87.88
490.568	87.88
490.786	87.88
491.003	71.88
491.221	99.88
491.439	87.88
491.657	86.88
491.874	96.88
492.092	82.88
492.31	95.88
492.527	94.88
492.745	80.88
492.963	85.88
493.18	83.88
493.398	85.88
493.615	83.88
493.833	80.88
494.05	96.88
494.268	73.88
494.485	91.88
494.703	80.88
494.92	88.88
495.138	89.88
495.355	84.88
495.573	96.88
495.79	72.88
496.008	98.88
496.225	90.88
496.442	80.88
496.66	87.88
496.877	78.88
497.094	92.88
497.312	81.88
497.529	100.88
497.746	101.88
497.963	92.88
498.181	97.88
498.398	103.88
498.615	111.88
498.832	80.88
499.049	95.88
499.267	87.88
499.484	98.88
499.701	106.88
499.918	88.88
500.135	94.88
500.352	95.88
500.569	73.88
500.786	79.88
501.003	94.88
501.22	84.88
501.437	76.88
501.654	84.88
501.871	93.88
502.088	94.88
502.305	96.88
502.522	87.88
502.739	90.88
502.956	86.88
503.172	74.88
503.389	80.88
503.606	81.88
503.823	101.88
504.04	129.88
504.256	194.88
504.473	177.88
504.69	118.88
504.907	94.88
505.123	88.88
505.34	84.88
505.557	99.88
505.773	88.88
505.99	97.88
506.207	71.88
506.423	91.88
506.64	76.88
506.856	98.88
507.073	89.88
507.289	72.88
507.506	89.88
507.722	87.88
507.939	90.88
508.155	90.88
508.372	82.88
508.588	84.88
508.805	91.88
509.021	87.88
509.238	93.88
509.454	96.88
509.67	84.88
509.887	95.88
510.103	94.88
510.319	96.88
510.536	78.88
510.752	79.88
510.968	84.88
511.184	79.88
511.401	87.88
511.617	93.88
511.833	78.88
512.049	75.88
512.265	86.88
512.481	95.88
512.698	88.88
512.914	80.88
513.13	83.88
513.346	88.88
513.562	72.88
513.778	100.88
513.994	93.88
514.21	87.88
514.426	92.88
514.642	87.88
514.858	84.88
515.074	89.88
515.29	74.88
515.506	85.88
515.721	98.88
515.937	84.88
516.153	85.88
516.369	95.88
516.585	82.88
516.801	87.88
517.016	99.88
517.232	87.88
517.448	95.88
517.664	83.88
517.879	115.88
