Data from CBS_1_HRD10591_00028.txt Node
Date: Mon Jan 19 14:04:02 EST 2026
User: Yrep
Spectrometer: HR+D1059
Trigger mode: 1
Integration Time (sec): 1.000000E-1
Scans to average: 1
Electric dark correction enabled: true
Nonlinearity correction enabled: false
Boxcar width: 0
XAxis mode: Wavelengths
Number of Pixels in Spectrum: 2048
>>>>>Begin Spectral Data<<<<<
223.165	-22.12
223.4	-22.12
223.635	-22.12
223.869	-14.12
224.104	-19.12
224.338	-18.12
224.573	-13.12
224.808	-18.12
225.042	-7.12
225.277	2.88
225.511	-5.12
225.746	7.88
225.98	4.88
226.215	1.88
226.449	19.88
226.683	13.88
226.918	27.88
227.152	37.88
227.387	34.88
227.621	33.88
227.856	31.88
228.09	43.88
228.324	39.88
228.559	55.88
228.793	51.88
229.027	63.88
229.262	67.88
229.496	56.88
229.73	62.88
229.964	64.88
230.199	71.88
230.433	64.88
230.667	69.88
230.901	84.88
231.136	64.88
231.37	75.88
231.604	66.88
231.838	71.88
232.072	75.88
232.306	85.88
232.541	70.88
232.775	67.88
233.009	83.88
233.243	82.88
233.477	81.88
233.711	72.88
233.945	76.88
234.179	71.88
234.413	81.88
234.647	81.88
234.881	86.88
235.115	75.88
235.349	68.88
235.583	77.88
235.817	74.88
236.051	67.88
236.285	59.88
236.519	73.88
236.753	71.88
236.987	85.88
237.221	78.88
237.455	65.88
237.689	75.88
237.922	75.88
238.156	81.88
238.39	72.88
238.624	68.88
238.858	76.88
239.091	81.88
239.325	73.88
239.559	77.88
239.793	74.88
240.027	81.88
240.26	65.88
240.494	80.88
240.728	71.88
240.961	79.88
241.195	61.88
241.429	68.88
241.662	74.88
241.896	83.88
242.13	73.88
242.363	68.88
242.597	75.88
242.83	85.88
243.064	70.88
243.298	64.88
243.531	62.88
243.765	78.88
243.998	78.88
244.232	74.88
244.465	69.88
244.699	75.88
244.932	83.88
245.166	75.88
245.399	72.88
245.633	83.88
245.866	64.88
246.099	77.88
246.333	79.88
246.566	60.88
246.8	82.88
247.033	72.88
247.266	67.88
247.5	81.88
247.733	81.88
247.966	74.88
248.2	84.88
248.433	90.88
248.666	79.88
248.899	69.88
249.133	75.88
249.366	87.88
249.599	76.88
249.832	79.88
250.066	58.88
250.299	79.88
250.532	65.88
250.765	63.88
250.998	73.88
251.231	81.88
251.465	60.88
251.698	83.88
251.931	72.88
252.164	81.88
252.397	68.88
252.63	83.88
252.863	73.88
253.096	87.88
253.329	70.88
253.562	79.88
253.795	81.88
254.028	72.88
254.261	70.88
254.494	64.88
254.727	78.88
254.96	70.88
255.193	78.88
255.426	77.88
255.659	74.88
255.892	75.88
256.124	67.88
256.357	77.88
256.59	79.88
256.823	83.88
257.056	79.88
257.289	91.88
257.521	69.88
257.754	69.88
257.987	81.88
258.22	82.88
258.452	79.88
258.685	92.88
258.918	86.88
259.151	78.88
259.383	78.88
259.616	55.88
259.849	65.88
260.081	86.88
260.314	63.88
260.547	76.88
260.779	73.88
261.012	64.88
261.244	71.88
261.477	87.88
261.71	71.88
261.942	75.88
262.175	87.88
262.407	64.88
262.64	69.88
262.872	69.88
263.105	75.88
263.337	76.88
263.57	73.88
263.802	60.88
264.035	77.88
264.267	71.88
264.499	71.88
264.732	85.88
264.964	84.88
265.197	63.88
265.429	82.88
265.661	77.88
265.894	73.88
266.126	86.88
266.358	63.88
266.591	75.88
266.823	74.88
267.055	90.88
267.287	69.88
267.52	78.88
267.752	85.88
267.984	83.88
268.216	81.88
268.448	78.88
268.681	83.88
268.913	93.88
269.145	81.88
269.377	71.88
269.609	73.88
269.841	80.88
270.073	71.88
270.306	77.88
270.538	89.88
270.77	71.88
271.002	86.88
271.234	84.88
271.466	95.88
271.698	75.88
271.93	85.88
272.162	80.88
272.394	77.88
272.626	74.88
272.858	62.88
273.09	80.88
273.322	79.88
273.553	76.88
273.785	80.88
274.017	92.88
274.249	82.88
274.481	78.88
274.713	80.88
274.945	77.88
275.176	91.88
275.408	77.88
275.64	73.88
275.872	79.88
276.104	77.88
276.335	63.88
276.567	79.88
276.799	71.88
277.031	76.88
277.262	86.88
277.494	71.88
277.726	84.88
277.957	74.88
278.189	74.88
278.421	69.88
278.652	83.88
278.884	83.88
279.115	76.88
279.347	99.88
279.579	92.88
279.81	73.88
280.042	72.88
280.273	85.88
280.505	83.88
280.736	79.88
280.968	76.88
281.199	78.88
281.431	79.88
281.662	75.88
281.894	84.88
282.125	81.88
282.356	90.88
282.588	73.88
282.819	86.88
283.051	88.88
283.282	75.88
283.513	83.88
283.745	91.88
283.976	82.88
284.207	88.88
284.439	86.88
284.67	79.88
284.901	85.88
285.132	67.88
285.364	75.88
285.595	77.88
285.826	70.88
286.057	81.88
286.288	81.88
286.52	86.88
286.751	71.88
286.982	78.88
287.213	97.88
287.444	89.88
287.675	89.88
287.906	86.88
288.138	82.88
288.369	85.88
288.6	83.88
288.831	73.88
289.062	87.88
289.293	90.88
289.524	76.88
289.755	88.88
289.986	72.88
290.217	75.88
290.448	82.88
290.679	70.88
290.91	75.88
291.141	79.88
291.371	82.88
291.602	97.88
291.833	75.88
292.064	71.88
292.295	81.88
292.526	68.88
292.757	84.88
292.987	69.88
293.218	76.88
293.449	70.88
293.68	82.88
293.91	84.88
294.141	83.88
294.372	83.88
294.603	92.88
294.833	75.88
295.064	77.88
295.295	76.88
295.525	85.88
295.756	77.88
295.987	79.88
296.217	75.88
296.448	82.88
296.679	80.88
296.909	93.88
297.14	83.88
297.37	80.88
297.601	69.88
297.831	79.88
298.062	86.88
298.292	77.88
298.523	81.88
298.753	77.88
298.984	85.88
299.214	84.88
299.445	77.88
299.675	90.88
299.905	88.88
300.136	77.88
300.366	89.88
300.597	89.88
300.827	97.88
301.057	76.88
301.288	81.88
301.518	80.88
301.748	88.88
301.979	93.88
302.209	56.88
302.439	95.88
302.669	69.88
302.9	97.88
303.13	69.88
303.36	72.88
303.59	80.88
303.82	83.88
304.051	85.88
304.281	94.88
304.511	89.88
304.741	85.88
304.971	75.88
305.201	77.88
305.431	70.88
305.661	87.88
305.891	79.88
306.121	83.88
306.352	89.88
306.582	79.88
306.812	77.88
307.042	85.88
307.272	84.88
307.502	80.88
307.731	94.88
307.961	77.88
308.191	86.88
308.421	93.88
308.651	73.88
308.881	90.88
309.111	85.88
309.341	84.88
309.571	88.88
309.8	73.88
310.03	77.88
310.26	91.88
310.49	103.88
310.72	97.88
310.949	84.88
311.179	88.88
311.409	91.88
311.639	91.88
311.868	90.88
312.098	71.88
312.328	85.88
312.557	74.88
312.787	77.88
313.017	88.88
313.246	69.88
313.476	78.88
313.706	86.88
313.935	97.88
314.165	89.88
314.394	90.88
314.624	82.88
314.853	78.88
315.083	85.88
315.312	85.88
315.542	86.88
315.771	83.88
316.001	93.88
316.23	87.88
316.46	78.88
316.689	73.88
316.919	89.88
317.148	86.88
317.377	89.88
317.607	79.88
317.836	80.88
318.065	80.88
318.295	90.88
318.524	87.88
318.753	81.88
318.983	73.88
319.212	87.88
319.441	69.88
319.67	92.88
319.9	87.88
320.129	87.88
320.358	75.88
320.587	98.88
320.816	86.88
321.046	87.88
321.275	81.88
321.504	91.88
321.733	77.88
321.962	85.88
322.191	84.88
322.42	84.88
322.649	81.88
322.878	82.88
323.108	82.88
323.337	79.88
323.566	87.88
323.795	79.88
324.024	76.88
324.253	73.88
324.482	78.88
324.71	74.88
324.939	74.88
325.168	82.88
325.397	78.88
325.626	94.88
325.855	68.88
326.084	82.88
326.313	67.88
326.542	92.88
326.77	87.88
326.999	88.88
327.228	89.88
327.457	78.88
327.686	90.88
327.914	91.88
328.143	91.88
328.372	77.88
328.6	83.88
328.829	91.88
329.058	75.88
329.287	86.88
329.515	88.88
329.744	84.88
329.972	85.88
330.201	79.88
330.43	86.88
330.658	90.88
330.887	72.88
331.115	82.88
331.344	72.88
331.572	81.88
331.801	81.88
332.03	92.88
332.258	82.88
332.486	70.88
332.715	79.88
332.943	77.88
333.172	87.88
333.4	80.88
333.629	80.88
333.857	85.88
334.085	93.88
334.314	89.88
334.542	85.88
334.771	98.88
334.999	89.88
335.227	81.88
335.455	84.88
335.684	82.88
335.912	85.88
336.14	98.88
336.369	96.88
336.597	82.88
336.825	89.88
337.053	87.88
337.281	69.88
337.51	77.88
337.738	91.88
337.966	68.88
338.194	79.88
338.422	81.88
338.65	92.88
338.878	81.88
339.106	82.88
339.334	82.88
339.562	75.88
339.79	91.88
340.018	89.88
340.246	85.88
340.474	97.88
340.702	77.88
340.93	80.88
341.158	83.88
341.386	84.88
341.614	85.88
341.842	78.88
342.07	86.88
342.298	74.88
342.526	85.88
342.754	82.88
342.981	68.88
343.209	79.88
343.437	81.88
343.665	80.88
343.893	69.88
344.12	85.88
344.348	81.88
344.576	77.88
344.804	80.88
345.031	76.88
345.259	87.88
345.487	83.88
345.714	70.88
345.942	86.88
346.17	86.88
346.397	62.88
346.625	78.88
346.853	78.88
347.08	82.88
347.308	88.88
347.535	64.88
347.763	81.88
347.99	83.88
348.218	83.88
348.445	86.88
348.673	87.88
348.9	83.88
349.128	77.88
349.355	83.88
349.583	70.88
349.81	85.88
350.037	78.88
350.265	95.88
350.492	86.88
350.72	71.88
350.947	102.88
351.174	85.88
351.402	79.88
351.629	78.88
351.856	78.88
352.083	77.88
352.311	80.88
352.538	84.88
352.765	88.88
352.992	95.88
353.22	86.88
353.447	90.88
353.674	83.88
353.901	95.88
354.128	74.88
354.355	75.88
354.583	72.88
354.81	82.88
355.037	69.88
355.264	77.88
355.491	79.88
355.718	80.88
355.945	82.88
356.172	70.88
356.399	84.88
356.626	86.88
356.853	70.88
357.08	79.88
357.307	82.88
357.534	98.88
357.761	83.88
357.988	93.88
358.215	89.88
358.441	81.88
358.668	77.88
358.895	97.88
359.122	84.88
359.349	75.88
359.576	63.88
359.802	87.88
360.029	79.88
360.256	92.88
360.483	86.88
360.709	74.88
360.936	89.88
361.163	77.88
361.39	81.88
361.616	85.88
361.843	86.88
362.07	91.88
362.296	77.88
362.523	92.88
362.749	82.88
362.976	118.88
363.203	111.88
363.429	98.88
363.656	97.88
363.882	88.88
364.109	94.88
364.335	121.88
364.562	131.88
364.788	91.88
365.015	80.88
365.241	77.88
365.468	79.88
365.694	86.88
365.92	80.88
366.147	86.88
366.373	94.88
366.599	69.88
366.826	69.88
367.052	74.88
367.278	79.88
367.505	88.88
367.731	94.88
367.957	82.88
368.184	79.88
368.41	80.88
368.636	86.88
368.862	75.88
369.089	90.88
369.315	75.88
369.541	90.88
369.767	70.88
369.993	89.88
370.219	90.88
370.445	71.88
370.672	81.88
370.898	87.88
371.124	71.88
371.35	91.88
371.576	82.88
371.802	69.88
372.028	80.88
372.254	101.88
372.48	79.88
372.706	75.88
372.932	92.88
373.158	79.88
373.384	78.88
373.61	86.88
373.835	97.88
374.061	97.88
374.287	86.88
374.513	91.88
374.739	82.88
374.965	81.88
375.191	81.88
375.416	79.88
375.642	95.88
375.868	88.88
376.094	91.88
376.319	85.88
376.545	90.88
376.771	89.88
376.997	73.88
377.222	97.88
377.448	85.88
377.674	82.88
377.899	93.88
378.125	81.88
378.35	83.88
378.576	60.88
378.802	99.88
379.027	79.88
379.253	81.88
379.478	85.88
379.704	83.88
379.929	89.88
380.155	81.88
380.38	72.88
380.606	84.88
380.831	96.88
381.057	76.88
381.282	77.88
381.507	94.88
381.733	87.88
381.958	91.88
382.184	83.88
382.409	85.88
382.634	71.88
382.86	80.88
383.085	86.88
383.31	83.88
383.535	78.88
383.761	82.88
383.986	94.88
384.211	85.88
384.436	84.88
384.662	66.88
384.887	75.88
385.112	80.88
385.337	99.88
385.562	90.88
385.787	94.88
386.013	94.88
386.238	86.88
386.463	81.88
386.688	85.88
386.913	70.88
387.138	97.88
387.363	92.88
387.588	86.88
387.813	102.88
388.038	103.88
388.263	96.88
388.488	92.88
388.713	77.88
388.938	67.88
389.163	73.88
389.387	80.88
389.612	85.88
389.837	86.88
390.062	77.88
390.287	87.88
390.512	77.88
390.736	78.88
390.961	87.88
391.186	73.88
391.411	78.88
391.636	84.88
391.86	98.88
392.085	86.88
392.31	85.88
392.534	94.88
392.759	99.88
392.984	129.88
393.208	198.88
393.433	245.88
393.658	193.88
393.882	122.88
394.107	98.88
394.331	97.88
394.556	86.88
394.78	91.88
395.005	98.88
395.229	80.88
395.454	82.88
395.678	98.88
395.903	102.88
396.127	113.88
396.352	128.88
396.576	133.88
396.801	178.88
397.025	205.88
397.249	128.88
397.474	102.88
397.698	94.88
397.922	87.88
398.147	77.88
398.371	90.88
398.595	85.88
398.82	92.88
399.044	79.88
399.268	89.88
399.492	82.88
399.717	86.88
399.941	85.88
400.165	79.88
400.389	82.88
400.613	78.88
400.837	74.88
401.062	72.88
401.286	76.88
401.51	67.88
401.734	79.88
401.958	95.88
402.182	79.88
402.406	84.88
402.63	89.88
402.854	75.88
403.078	78.88
403.302	83.88
403.526	83.88
403.75	91.88
403.974	87.88
404.198	79.88
404.422	83.88
404.645	83.88
404.869	89.88
405.093	82.88
405.317	93.88
405.541	81.88
405.765	79.88
405.988	85.88
406.212	82.88
406.436	83.88
406.66	82.88
406.883	86.88
407.107	82.88
407.331	77.88
407.555	95.88
407.778	92.88
408.002	80.88
408.226	78.88
408.449	86.88
408.673	79.88
408.896	81.88
409.12	79.88
409.344	82.88
409.567	87.88
409.791	101.88
410.014	109.88
410.238	94.88
410.461	86.88
410.685	84.88
410.908	79.88
411.132	82.88
411.355	86.88
411.578	89.88
411.802	84.88
412.025	83.88
412.249	85.88
412.472	82.88
412.695	87.88
412.919	85.88
413.142	85.88
413.365	73.88
413.589	95.88
413.812	81.88
414.035	81.88
414.258	90.88
414.482	81.88
414.705	87.88
414.928	92.88
415.151	78.88
415.374	91.88
415.597	72.88
415.821	89.88
416.044	78.88
416.267	86.88
416.49	76.88
416.713	78.88
416.936	99.88
417.159	83.88
417.382	81.88
417.605	71.88
417.828	69.88
418.051	87.88
418.274	81.88
418.497	83.88
418.72	85.88
418.943	81.88
419.166	83.88
419.389	97.88
419.611	82.88
419.834	91.88
420.057	74.88
420.28	77.88
420.503	89.88
420.726	86.88
420.948	92.88
421.171	91.88
421.394	85.88
421.617	116.88
421.839	107.88
422.062	109.88
422.285	155.88
422.507	245.88
422.73	323.88
422.953	291.88
423.175	208.88
423.398	130.88
423.621	126.88
423.843	91.88
424.066	89.88
424.288	89.88
424.511	103.88
424.733	100.88
424.956	84.88
425.178	84.88
425.401	88.88
425.623	91.88
425.846	80.88
426.068	94.88
426.291	101.88
426.513	87.88
426.735	91.88
426.958	91.88
427.18	77.88
427.402	90.88
427.625	71.88
427.847	92.88
428.069	95.88
428.292	121.88
428.514	136.88
428.736	107.88
428.958	115.88
429.181	106.88
429.403	82.88
429.625	83.88
429.847	105.88
430.069	147.88
430.292	146.88
430.514	141.88
430.736	123.88
430.958	141.88
431.18	85.88
431.402	93.88
431.624	77.88
431.846	89.88
432.068	115.88
432.29	83.88
432.512	87.88
432.734	85.88
432.956	99.88
433.178	69.88
433.4	83.88
433.622	69.88
433.844	80.88
434.066	79.88
434.287	71.88
434.509	73.88
434.731	79.88
434.953	93.88
435.175	67.88
435.397	88.88
435.618	69.88
435.84	92.88
436.062	87.88
436.284	92.88
436.505	83.88
436.727	85.88
436.949	81.88
437.17	87.88
437.392	85.88
437.614	84.88
437.835	71.88
438.057	82.88
438.278	79.88
438.5	64.88
438.721	95.88
438.943	94.88
439.165	90.88
439.386	81.88
439.608	79.88
439.829	63.88
440.05	78.88
440.272	83.88
440.493	82.88
440.715	93.88
440.936	79.88
441.158	87.88
441.379	85.88
441.6	85.88
441.822	86.88
442.043	76.88
442.264	86.88
442.486	111.88
442.707	137.88
442.928	118.88
443.149	115.88
443.371	140.88
443.592	233.88
443.813	187.88
444.034	105.88
444.255	98.88
444.476	79.88
444.698	113.88
444.919	86.88
445.14	179.88
445.361	177.88
445.582	260.88
445.803	221.88
446.024	107.88
446.245	83.88
446.466	86.88
446.687	69.88
446.908	85.88
447.129	93.88
447.35	84.88
447.571	71.88
447.792	69.88
448.013	82.88
448.234	80.88
448.455	74.88
448.675	81.88
448.896	81.88
449.117	77.88
449.338	89.88
449.559	79.88
449.779	67.88
450	74.88
450.221	69.88
450.442	84.88
450.662	83.88
450.883	76.88
451.104	87.88
451.324	79.88
451.545	80.88
451.766	80.88
451.986	81.88
452.207	73.88
452.428	89.88
452.648	88.88
452.869	96.88
453.089	82.88
453.31	74.88
453.53	82.88
453.751	88.88
453.971	95.88
454.192	81.88
454.412	79.88
454.633	77.88
454.853	82.88
455.073	86.88
455.294	76.88
455.514	62.88
455.734	75.88
455.955	71.88
456.175	87.88
456.395	85.88
456.616	79.88
456.836	73.88
457.056	78.88
457.276	79.88
457.497	79.88
457.717	95.88
457.937	98.88
458.157	127.88
458.377	123.88
458.598	111.88
458.818	122.88
459.038	103.88
459.258	88.88
459.478	77.88
459.698	76.88
459.918	75.88
460.138	78.88
460.358	78.88
460.578	84.88
460.798	111.88
461.018	108.88
461.238	71.88
461.458	95.88
461.678	77.88
461.898	81.88
462.118	67.88
462.338	83.88
462.558	73.88
462.777	74.88
462.997	82.88
463.217	89.88
463.437	73.88
463.657	69.88
463.876	84.88
464.096	63.88
464.316	81.88
464.536	85.88
464.755	86.88
464.975	71.88
465.195	89.88
465.414	77.88
465.634	71.88
465.854	77.88
466.073	77.88
466.293	76.88
466.512	80.88
466.732	59.88
466.951	79.88
467.171	76.88
467.391	80.88
467.61	66.88
467.829	87.88
468.049	79.88
468.268	87.88
468.488	77.88
468.707	84.88
468.927	81.88
469.146	85.88
469.365	83.88
469.585	84.88
469.804	81.88
470.023	78.88
470.243	81.88
470.462	67.88
470.681	89.88
470.901	84.88
471.12	82.88
471.339	65.88
471.558	80.88
471.777	92.88
471.997	82.88
472.216	78.88
472.435	76.88
472.654	85.88
472.873	98.88
473.092	79.88
473.311	87.88
473.53	84.88
473.749	90.88
473.968	84.88
474.187	73.88
474.406	81.88
474.625	84.88
474.844	91.88
475.063	84.88
475.282	107.88
475.501	99.88
475.72	85.88
475.939	69.88
476.158	83.88
476.377	79.88
476.596	93.88
476.814	91.88
477.033	86.88
477.252	81.88
477.471	89.88
477.69	73.88
477.908	78.88
478.127	83.88
478.346	76.88
478.564	85.88
478.783	67.88
479.002	90.88
479.22	64.88
479.439	78.88
479.658	77.88
479.876	75.88
480.095	70.88
480.313	75.88
480.532	73.88
480.751	85.88
480.969	84.88
481.188	84.88
481.406	94.88
481.624	95.88
481.843	90.88
482.061	84.88
482.28	83.88
482.498	73.88
482.717	85.88
482.935	80.88
483.153	82.88
483.372	84.88
483.59	89.88
483.808	83.88
484.027	86.88
484.245	75.88
484.463	86.88
484.681	83.88
484.9	87.88
485.118	95.88
485.336	81.88
485.554	77.88
485.772	78.88
485.99	87.88
486.209	85.88
486.427	90.88
486.645	87.88
486.863	93.88
487.081	87.88
487.299	81.88
487.517	89.88
487.735	107.88
487.953	187.88
488.171	147.88
488.389	81.88
488.607	82.88
488.825	73.88
489.043	79.88
489.261	97.88
489.479	67.88
489.696	81.88
489.914	79.88
490.132	81.88
490.35	81.88
490.568	78.88
490.786	101.88
491.003	70.88
491.221	77.88
491.439	86.88
491.657	71.88
491.874	81.88
492.092	82.88
492.31	89.88
492.527	73.88
492.745	78.88
492.963	87.88
493.18	75.88
493.398	78.88
493.615	85.88
493.833	74.88
494.05	82.88
494.268	80.88
494.485	92.88
494.703	83.88
494.92	78.88
495.138	79.88
495.355	82.88
495.573	68.88
495.79	83.88
496.008	81.88
496.225	78.88
496.442	96.88
496.66	86.88
496.877	73.88
497.094	91.88
497.312	76.88
497.529	85.88
497.746	70.88
497.963	82.88
498.181	93.88
498.398	86.88
498.615	78.88
498.832	78.88
499.049	75.88
499.267	74.88
499.484	92.88
499.701	84.88
499.918	88.88
500.135	94.88
500.352	85.88
500.569	81.88
500.786	94.88
501.003	80.88
501.22	82.88
501.437	84.88
501.654	78.88
501.871	69.88
502.088	89.88
502.305	84.88
502.522	76.88
502.739	85.88
502.956	72.88
503.172	91.88
503.389	86.88
503.606	85.88
503.823	97.88
504.04	90.88
504.256	133.88
504.473	134.88
504.69	92.88
504.907	109.88
505.123	71.88
505.34	95.88
505.557	78.88
505.773	78.88
505.99	88.88
506.207	97.88
506.423	76.88
506.64	79.88
506.856	87.88
507.073	73.88
507.289	77.88
507.506	86.88
507.722	80.88
507.939	73.88
508.155	106.88
508.372	75.88
508.588	75.88
508.805	87.88
509.021	75.88
509.238	65.88
509.454	92.88
509.67	81.88
509.887	72.88
510.103	84.88
510.319	69.88
510.536	77.88
510.752	74.88
510.968	83.88
511.184	80.88
511.401	86.88
511.617	77.88
511.833	81.88
512.049	98.88
512.265	85.88
512.481	87.88
512.698	72.88
512.914	85.88
513.13	79.88
513.346	79.88
513.562	87.88
513.778	89.88
513.994	87.88
514.21	77.88
514.426	66.88
514.642	95.88
514.858	90.88
515.074	80.88
515.29	83.88
515.506	85.88
515.721	77.88
515.937	84.88
516.153	77.88
516.369	88.88
516.585	88.88
516.801	83.88
517.016	82.88
517.232	79.88
517.448	84.88
517.664	79.88
517.879	83.88
518.095	83.88
518.311	78.88
518.527	111.88
518.742	110.88
518.958	157.88
519.173	179.88
