Data from CBS_1_HRD10591_00039.txt Node
Date: Mon Jan 19 14:04:08 EST 2026
User: Yrep
Spectrometer: HR+D1059
Trigger mode: 1
Integration Time (sec): 1.000000E-1
Scans to average: 1
Electric dark correction enabled: true
Nonlinearity correction enabled: false
Boxcar width: 0
XAxis mode: Wavelengths
Number of Pixels in Spectrum: 2048
>>>>>Begin Spectral Data<<<<<
223.165	-24.06
223.4	-24.06
223.635	-24.06
223.869	-26.06
224.104	-12.06
224.338	-15.06
224.573	-9.06
224.808	-15.06
225.042	-1.06
225.277	-6.06
225.511	4.94
225.746	6.94
225.98	-6.06
226.215	6.94
226.449	21.94
226.683	16.94
226.918	35.94
227.152	20.94
227.387	25.94
227.621	34.94
227.856	48.94
228.09	50.94
228.324	54.94
228.559	53.94
228.793	55.94
229.027	63.94
229.262	75.94
229.496	64.94
229.73	67.94
229.964	67.94
230.199	77.94
230.433	78.94
230.667	69.94
230.901	72.94
231.136	85.94
231.37	68.94
231.604	71.94
231.838	84.94
232.072	71.94
232.306	90.94
232.541	88.94
232.775	76.94
233.009	78.94
233.243	77.94
233.477	77.94
233.711	72.94
233.945	85.94
234.179	84.94
234.413	79.94
234.647	89.94
234.881	81.94
235.115	81.94
235.349	74.94
235.583	74.94
235.817	81.94
236.051	81.94
236.285	77.94
236.519	80.94
236.753	80.94
236.987	79.94
237.221	69.94
237.455	68.94
237.689	74.94
237.922	72.94
238.156	79.94
238.39	78.94
238.624	68.94
238.858	80.94
239.091	78.94
239.325	65.94
239.559	64.94
239.793	78.94
240.027	72.94
240.26	74.94
240.494	80.94
240.728	72.94
240.961	88.94
241.195	83.94
241.429	77.94
241.662	78.94
241.896	63.94
242.13	72.94
242.363	75.94
242.597	68.94
242.83	81.94
243.064	72.94
243.298	81.94
243.531	76.94
243.765	72.94
243.998	75.94
244.232	85.94
244.465	82.94
244.699	80.94
244.932	86.94
245.166	72.94
245.399	69.94
245.633	68.94
245.866	88.94
246.099	75.94
246.333	76.94
246.566	75.94
246.8	66.94
247.033	80.94
247.266	61.94
247.5	82.94
247.733	65.94
247.966	76.94
248.2	83.94
248.433	74.94
248.666	84.94
248.899	80.94
249.133	67.94
249.366	83.94
249.599	76.94
249.832	90.94
250.066	78.94
250.299	74.94
250.532	75.94
250.765	75.94
250.998	91.94
251.231	90.94
251.465	56.94
251.698	88.94
251.931	69.94
252.164	73.94
252.397	73.94
252.63	80.94
252.863	73.94
253.096	84.94
253.329	76.94
253.562	77.94
253.795	69.94
254.028	88.94
254.261	82.94
254.494	76.94
254.727	85.94
254.96	84.94
255.193	68.94
255.426	84.94
255.659	83.94
255.892	80.94
256.124	85.94
256.357	93.94
256.59	80.94
256.823	74.94
257.056	85.94
257.289	76.94
257.521	63.94
257.754	83.94
257.987	80.94
258.22	88.94
258.452	86.94
258.685	72.94
258.918	54.94
259.151	75.94
259.383	86.94
259.616	75.94
259.849	83.94
260.081	80.94
260.314	74.94
260.547	89.94
260.779	73.94
261.012	80.94
261.244	84.94
261.477	88.94
261.71	100.94
261.942	74.94
262.175	81.94
262.407	78.94
262.64	73.94
262.872	78.94
263.105	80.94
263.337	81.94
263.57	76.94
263.802	80.94
264.035	75.94
264.267	74.94
264.499	94.94
264.732	74.94
264.964	74.94
265.197	63.94
265.429	66.94
265.661	56.94
265.894	80.94
266.126	94.94
266.358	74.94
266.591	80.94
266.823	64.94
267.055	74.94
267.287	78.94
267.52	61.94
267.752	84.94
267.984	89.94
268.216	82.94
268.448	89.94
268.681	94.94
268.913	88.94
269.145	72.94
269.377	88.94
269.609	66.94
269.841	73.94
270.073	83.94
270.306	88.94
270.538	81.94
270.77	86.94
271.002	87.94
271.234	85.94
271.466	81.94
271.698	72.94
271.93	76.94
272.162	74.94
272.394	72.94
272.626	79.94
272.858	71.94
273.09	84.94
273.322	90.94
273.553	78.94
273.785	75.94
274.017	71.94
274.249	94.94
274.481	88.94
274.713	89.94
274.945	78.94
275.176	86.94
275.408	65.94
275.64	70.94
275.872	78.94
276.104	86.94
276.335	81.94
276.567	68.94
276.799	96.94
277.031	72.94
277.262	69.94
277.494	81.94
277.726	87.94
277.957	83.94
278.189	82.94
278.421	82.94
278.652	73.94
278.884	87.94
279.115	92.94
279.347	86.94
279.579	76.94
279.81	74.94
280.042	87.94
280.273	92.94
280.505	100.94
280.736	82.94
280.968	86.94
281.199	79.94
281.431	91.94
281.662	89.94
281.894	87.94
282.125	73.94
282.356	74.94
282.588	85.94
282.819	76.94
283.051	74.94
283.282	70.94
283.513	72.94
283.745	84.94
283.976	84.94
284.207	75.94
284.439	83.94
284.67	82.94
284.901	76.94
285.132	87.94
285.364	86.94
285.595	74.94
285.826	84.94
286.057	96.94
286.288	90.94
286.52	93.94
286.751	90.94
286.982	77.94
287.213	78.94
287.444	75.94
287.675	98.94
287.906	80.94
288.138	96.94
288.369	85.94
288.6	84.94
288.831	78.94
289.062	79.94
289.293	81.94
289.524	88.94
289.755	86.94
289.986	77.94
290.217	96.94
290.448	81.94
290.679	72.94
290.91	82.94
291.141	81.94
291.371	82.94
291.602	99.94
291.833	77.94
292.064	81.94
292.295	94.94
292.526	72.94
292.757	88.94
292.987	88.94
293.218	88.94
293.449	66.94
293.68	82.94
293.91	74.94
294.141	108.94
294.372	77.94
294.603	84.94
294.833	86.94
295.064	70.94
295.295	90.94
295.525	78.94
295.756	87.94
295.987	81.94
296.217	68.94
296.448	91.94
296.679	68.94
296.909	82.94
297.14	96.94
297.37	85.94
297.601	93.94
297.831	85.94
298.062	84.94
298.292	77.94
298.523	72.94
298.753	78.94
298.984	76.94
299.214	78.94
299.445	80.94
299.675	96.94
299.905	92.94
300.136	84.94
300.366	86.94
300.597	87.94
300.827	77.94
301.057	81.94
301.288	92.94
301.518	80.94
301.748	92.94
301.979	89.94
302.209	87.94
302.439	81.94
302.669	85.94
302.9	83.94
303.13	88.94
303.36	89.94
303.59	84.94
303.82	79.94
304.051	78.94
304.281	84.94
304.511	89.94
304.741	78.94
304.971	100.94
305.201	88.94
305.431	84.94
305.661	81.94
305.891	91.94
306.121	78.94
306.352	89.94
306.582	87.94
306.812	88.94
307.042	98.94
307.272	66.94
307.502	82.94
307.731	81.94
307.961	80.94
308.191	90.94
308.421	76.94
308.651	93.94
308.881	79.94
309.111	93.94
309.341	80.94
309.571	93.94
309.8	90.94
310.03	69.94
310.26	72.94
310.49	99.94
310.72	94.94
310.949	83.94
311.179	72.94
311.409	70.94
311.639	76.94
311.868	73.94
312.098	89.94
312.328	87.94
312.557	91.94
312.787	84.94
313.017	85.94
313.246	80.94
313.476	74.94
313.706	92.94
313.935	84.94
314.165	79.94
314.394	83.94
314.624	96.94
314.853	86.94
315.083	90.94
315.312	85.94
315.542	82.94
315.771	92.94
316.001	82.94
316.23	93.94
316.46	90.94
316.689	84.94
316.919	75.94
317.148	82.94
317.377	87.94
317.607	83.94
317.836	88.94
318.065	85.94
318.295	100.94
318.524	64.94
318.753	83.94
318.983	87.94
319.212	91.94
319.441	74.94
319.67	79.94
319.9	78.94
320.129	96.94
320.358	80.94
320.587	75.94
320.816	79.94
321.046	80.94
321.275	90.94
321.504	87.94
321.733	88.94
321.962	87.94
322.191	92.94
322.42	89.94
322.649	81.94
322.878	91.94
323.108	97.94
323.337	88.94
323.566	87.94
323.795	82.94
324.024	72.94
324.253	96.94
324.482	82.94
324.71	88.94
324.939	93.94
325.168	83.94
325.397	92.94
325.626	88.94
325.855	84.94
326.084	86.94
326.313	75.94
326.542	86.94
326.77	95.94
326.999	95.94
327.228	88.94
327.457	95.94
327.686	95.94
327.914	90.94
328.143	71.94
328.372	89.94
328.6	78.94
328.829	80.94
329.058	90.94
329.287	88.94
329.515	91.94
329.744	89.94
329.972	88.94
330.201	81.94
330.43	94.94
330.658	84.94
330.887	84.94
331.115	89.94
331.344	104.94
331.572	100.94
331.801	82.94
332.03	75.94
332.258	78.94
332.486	94.94
332.715	77.94
332.943	83.94
333.172	84.94
333.4	73.94
333.629	76.94
333.857	87.94
334.085	80.94
334.314	98.94
334.542	98.94
334.771	81.94
334.999	93.94
335.227	78.94
335.455	82.94
335.684	93.94
335.912	84.94
336.14	100.94
336.369	100.94
336.597	91.94
336.825	77.94
337.053	80.94
337.281	84.94
337.51	83.94
337.738	88.94
337.966	87.94
338.194	80.94
338.422	84.94
338.65	82.94
338.878	96.94
339.106	80.94
339.334	79.94
339.562	82.94
339.79	78.94
340.018	67.94
340.246	86.94
340.474	74.94
340.702	84.94
340.93	72.94
341.158	80.94
341.386	85.94
341.614	71.94
341.842	82.94
342.07	80.94
342.298	90.94
342.526	85.94
342.754	82.94
342.981	93.94
343.209	73.94
343.437	76.94
343.665	84.94
343.893	96.94
344.12	82.94
344.348	91.94
344.576	79.94
344.804	100.94
345.031	88.94
345.259	93.94
345.487	84.94
345.714	86.94
345.942	88.94
346.17	84.94
346.397	96.94
346.625	80.94
346.853	99.94
347.08	76.94
347.308	87.94
347.535	87.94
347.763	76.94
347.99	89.94
348.218	81.94
348.445	82.94
348.673	81.94
348.9	85.94
349.128	89.94
349.355	85.94
349.583	74.94
349.81	98.94
350.037	102.94
350.265	74.94
350.492	92.94
350.72	86.94
350.947	102.94
351.174	89.94
351.402	84.94
351.629	77.94
351.856	87.94
352.083	77.94
352.311	91.94
352.538	77.94
352.765	80.94
352.992	89.94
353.22	92.94
353.447	84.94
353.674	90.94
353.901	65.94
354.128	87.94
354.355	86.94
354.583	86.94
354.81	85.94
355.037	73.94
355.264	79.94
355.491	74.94
355.718	82.94
355.945	76.94
356.172	85.94
356.399	89.94
356.626	77.94
356.853	81.94
357.08	84.94
357.307	78.94
357.534	83.94
357.761	72.94
357.988	80.94
358.215	84.94
358.441	78.94
358.668	94.94
358.895	104.94
359.122	77.94
359.349	84.94
359.576	93.94
359.802	76.94
360.029	75.94
360.256	88.94
360.483	84.94
360.709	74.94
360.936	91.94
361.163	88.94
361.39	96.94
361.616	96.94
361.843	92.94
362.07	79.94
362.296	101.94
362.523	89.94
362.749	109.94
362.976	112.94
363.203	119.94
363.429	98.94
363.656	100.94
363.882	110.94
364.109	109.94
364.335	103.94
364.562	122.94
364.788	97.94
365.015	90.94
365.241	100.94
365.468	90.94
365.694	79.94
365.92	93.94
366.147	84.94
366.373	96.94
366.599	89.94
366.826	79.94
367.052	90.94
367.278	97.94
367.505	99.94
367.731	101.94
367.957	93.94
368.184	80.94
368.41	95.94
368.636	85.94
368.862	86.94
369.089	91.94
369.315	101.94
369.541	89.94
369.767	84.94
369.993	100.94
370.219	85.94
370.445	103.94
370.672	114.94
370.898	84.94
371.124	74.94
371.35	92.94
371.576	95.94
371.802	90.94
372.028	94.94
372.254	84.94
372.48	86.94
372.706	65.94
372.932	86.94
373.158	86.94
373.384	90.94
373.61	89.94
373.835	96.94
374.061	100.94
374.287	74.94
374.513	86.94
374.739	77.94
374.965	68.94
375.191	91.94
375.416	99.94
375.642	97.94
375.868	90.94
376.094	104.94
376.319	73.94
376.545	94.94
376.771	90.94
376.997	90.94
377.222	83.94
377.448	97.94
377.674	77.94
377.899	71.94
378.125	77.94
378.35	83.94
378.576	82.94
378.802	85.94
379.027	95.94
379.253	97.94
379.478	89.94
379.704	80.94
379.929	85.94
380.155	77.94
380.38	77.94
380.606	78.94
380.831	78.94
381.057	97.94
381.282	84.94
381.507	100.94
381.733	84.94
381.958	96.94
382.184	96.94
382.409	83.94
382.634	86.94
382.86	83.94
383.085	96.94
383.31	84.94
383.535	86.94
383.761	91.94
383.986	88.94
384.211	84.94
384.436	97.94
384.662	93.94
384.887	94.94
385.112	91.94
385.337	85.94
385.562	76.94
385.787	92.94
386.013	103.94
386.238	71.94
386.463	89.94
386.688	109.94
386.913	85.94
387.138	80.94
387.363	94.94
387.588	81.94
387.813	96.94
388.038	79.94
388.263	98.94
388.488	84.94
388.713	83.94
388.938	81.94
389.163	92.94
389.387	88.94
389.612	90.94
389.837	86.94
390.062	80.94
390.287	81.94
390.512	80.94
390.736	78.94
390.961	90.94
391.186	81.94
391.411	78.94
391.636	78.94
391.86	92.94
392.085	94.94
392.31	72.94
392.534	92.94
392.759	105.94
392.984	119.94
393.208	207.94
393.433	302.94
393.658	236.94
393.882	120.94
394.107	115.94
394.331	100.94
394.556	96.94
394.78	89.94
395.005	92.94
395.229	79.94
395.454	86.94
395.678	111.94
395.903	105.94
396.127	133.94
396.352	130.94
396.576	140.94
396.801	204.94
397.025	243.94
397.249	156.94
397.474	110.94
397.698	96.94
397.922	88.94
398.147	84.94
398.371	86.94
398.595	73.94
398.82	92.94
399.044	80.94
399.268	86.94
399.492	92.94
399.717	74.94
399.941	90.94
400.165	87.94
400.389	82.94
400.613	85.94
400.837	92.94
401.062	84.94
401.286	82.94
401.51	88.94
401.734	83.94
401.958	76.94
402.182	90.94
402.406	75.94
402.63	100.94
402.854	85.94
403.078	78.94
403.302	94.94
403.526	84.94
403.75	96.94
403.974	80.94
404.198	89.94
404.422	97.94
404.645	84.94
404.869	94.94
405.093	86.94
405.317	87.94
405.541	90.94
405.765	87.94
405.988	77.94
406.212	84.94
406.436	88.94
406.66	81.94
406.883	88.94
407.107	81.94
407.331	78.94
407.555	93.94
407.778	85.94
408.002	99.94
408.226	84.94
408.449	78.94
408.673	95.94
408.896	91.94
409.12	78.94
409.344	77.94
409.567	104.94
409.791	98.94
410.014	94.94
410.238	89.94
410.461	93.94
410.685	88.94
410.908	92.94
411.132	96.94
411.355	89.94
411.578	84.94
411.802	81.94
412.025	95.94
412.249	92.94
412.472	91.94
412.695	90.94
412.919	90.94
413.142	84.94
413.365	85.94
413.589	93.94
413.812	81.94
414.035	92.94
414.258	78.94
414.482	86.94
414.705	81.94
414.928	93.94
415.151	96.94
415.374	90.94
415.597	89.94
415.821	82.94
416.044	82.94
416.267	84.94
416.49	88.94
416.713	90.94
416.936	73.94
417.159	82.94
417.382	81.94
417.605	86.94
417.828	87.94
418.051	80.94
418.274	86.94
418.497	86.94
418.72	87.94
418.943	104.94
419.166	90.94
419.389	70.94
419.611	73.94
419.834	70.94
420.057	88.94
420.28	78.94
420.503	88.94
420.726	84.94
420.948	81.94
421.171	100.94
421.394	96.94
421.617	92.94
421.839	106.94
422.062	124.94
422.285	159.94
422.507	242.94
422.73	362.94
422.953	327.94
423.175	190.94
423.398	132.94
423.621	103.94
423.843	98.94
424.066	98.94
424.288	100.94
424.511	103.94
424.733	96.94
424.956	86.94
425.178	90.94
425.401	78.94
425.623	87.94
425.846	88.94
426.068	93.94
426.291	74.94
426.513	84.94
426.735	94.94
426.958	87.94
427.18	89.94
427.402	84.94
427.625	79.94
427.847	86.94
428.069	92.94
428.292	128.94
428.514	126.94
428.736	98.94
428.958	106.94
429.181	126.94
429.403	99.94
429.625	89.94
429.847	105.94
430.069	152.94
430.292	178.94
430.514	148.94
430.736	122.94
430.958	124.94
431.18	115.94
431.402	84.94
431.624	94.94
431.846	103.94
432.068	127.94
432.29	103.94
432.512	80.94
432.734	73.94
432.956	84.94
433.178	92.94
433.4	85.94
433.622	88.94
433.844	78.94
434.066	75.94
434.287	84.94
434.509	75.94
434.731	91.94
434.953	86.94
435.175	92.94
435.397	87.94
435.618	94.94
435.84	89.94
436.062	82.94
436.284	85.94
436.505	95.94
436.727	84.94
436.949	80.94
437.17	93.94
437.392	72.94
437.614	81.94
437.835	84.94
438.057	80.94
438.278	81.94
438.5	66.94
438.721	84.94
438.943	88.94
439.165	92.94
439.386	83.94
439.608	84.94
439.829	83.94
440.05	91.94
440.272	94.94
440.493	89.94
440.715	81.94
440.936	82.94
441.158	91.94
441.379	72.94
441.6	106.94
441.822	92.94
442.043	82.94
442.264	91.94
442.486	127.94
442.707	169.94
442.928	106.94
443.149	103.94
443.371	142.94
443.592	222.94
443.813	186.94
444.034	97.94
444.255	90.94
444.476	80.94
444.698	84.94
444.919	85.94
445.14	177.94
445.361	166.94
445.582	238.94
445.803	207.94
446.024	102.94
446.245	90.94
446.466	92.94
446.687	87.94
446.908	89.94
447.129	99.94
447.35	86.94
447.571	81.94
447.792	84.94
448.013	82.94
448.234	88.94
448.455	73.94
448.675	90.94
448.896	79.94
449.117	87.94
449.338	96.94
449.559	85.94
449.779	80.94
450	86.94
450.221	89.94
450.442	70.94
450.662	86.94
450.883	89.94
451.104	88.94
451.324	75.94
451.545	82.94
451.766	81.94
451.986	87.94
452.207	83.94
452.428	82.94
452.648	86.94
452.869	93.94
453.089	100.94
453.31	85.94
453.53	76.94
453.751	91.94
453.971	90.94
454.192	76.94
454.412	71.94
454.633	82.94
454.853	78.94
455.073	77.94
455.294	78.94
455.514	84.94
455.734	78.94
455.955	78.94
456.175	82.94
456.395	94.94
456.616	89.94
456.836	95.94
457.056	90.94
457.276	86.94
457.497	73.94
457.717	102.94
457.937	96.94
458.157	109.94
458.377	120.94
458.598	108.94
458.818	120.94
459.038	102.94
459.258	80.94
459.478	83.94
459.698	82.94
459.918	72.94
460.138	83.94
460.358	85.94
460.578	90.94
460.798	101.94
461.018	97.94
461.238	78.94
461.458	86.94
461.678	89.94
461.898	72.94
462.118	80.94
462.338	73.94
462.558	92.94
462.777	99.94
462.997	88.94
463.217	78.94
463.437	83.94
463.657	79.94
463.876	85.94
464.096	73.94
464.316	74.94
464.536	72.94
464.755	72.94
464.975	84.94
465.195	84.94
465.414	85.94
465.634	73.94
465.854	80.94
466.073	90.94
466.293	74.94
466.512	76.94
466.732	96.94
466.951	78.94
467.171	79.94
467.391	91.94
467.61	96.94
467.829	81.94
468.049	88.94
468.268	83.94
468.488	79.94
468.707	91.94
468.927	83.94
469.146	73.94
469.365	77.94
469.585	85.94
469.804	80.94
470.023	89.94
470.243	84.94
470.462	75.94
470.681	85.94
470.901	94.94
471.12	81.94
471.339	89.94
471.558	100.94
471.777	80.94
471.997	83.94
472.216	85.94
472.435	74.94
472.654	94.94
472.873	72.94
473.092	86.94
473.311	77.94
473.53	91.94
473.749	81.94
473.968	81.94
474.187	99.94
474.406	75.94
474.625	69.94
474.844	84.94
475.063	78.94
475.282	78.94
475.501	87.94
475.72	87.94
475.939	88.94
476.158	86.94
476.377	78.94
476.596	81.94
476.814	63.94
477.033	93.94
477.252	95.94
477.471	92.94
477.69	89.94
477.908	67.94
478.127	87.94
478.346	85.94
478.564	89.94
478.783	78.94
479.002	83.94
479.22	77.94
479.439	75.94
479.658	72.94
479.876	86.94
480.095	84.94
480.313	80.94
480.532	80.94
480.751	81.94
480.969	87.94
481.188	98.94
481.406	96.94
481.624	83.94
481.843	78.94
482.061	89.94
482.28	92.94
482.498	97.94
482.717	91.94
482.935	93.94
483.153	93.94
483.372	81.94
483.59	80.94
483.808	74.94
484.027	98.94
484.245	85.94
484.463	84.94
484.681	88.94
484.9	87.94
485.118	73.94
485.336	75.94
485.554	82.94
485.772	86.94
485.99	65.94
486.209	110.94
486.427	81.94
486.645	91.94
486.863	88.94
487.081	77.94
487.299	96.94
487.517	86.94
487.735	114.94
487.953	145.94
488.171	138.94
488.389	86.94
488.607	75.94
488.825	82.94
489.043	81.94
489.261	90.94
489.479	83.94
489.696	98.94
489.914	80.94
490.132	90.94
490.35	86.94
490.568	74.94
490.786	80.94
491.003	87.94
491.221	83.94
491.439	82.94
491.657	81.94
491.874	83.94
492.092	87.94
492.31	84.94
492.527	72.94
492.745	85.94
492.963	95.94
493.18	92.94
493.398	92.94
493.615	89.94
493.833	92.94
494.05	84.94
494.268	90.94
494.485	89.94
494.703	95.94
494.92	87.94
495.138	81.94
495.355	78.94
495.573	90.94
495.79	85.94
496.008	95.94
496.225	92.94
496.442	77.94
496.66	84.94
496.877	83.94
497.094	81.94
497.312	77.94
497.529	85.94
497.746	84.94
497.963	96.94
498.181	84.94
498.398	84.94
498.615	82.94
498.832	89.94
499.049	87.94
499.267	94.94
499.484	102.94
499.701	80.94
499.918	100.94
500.135	78.94
500.352	75.94
500.569	75.94
500.786	84.94
501.003	88.94
501.22	88.94
501.437	94.94
501.654	80.94
501.871	96.94
502.088	79.94
502.305	90.94
502.522	80.94
502.739	89.94
502.956	75.94
503.172	77.94
503.389	81.94
503.606	80.94
503.823	95.94
504.04	104.94
504.256	108.94
504.473	115.94
504.69	100.94
504.907	80.94
505.123	88.94
505.34	90.94
505.557	71.94
505.773	92.94
505.99	81.94
506.207	82.94
506.423	82.94
506.64	77.94
506.856	80.94
507.073	88.94
507.289	88.94
507.506	81.94
507.722	88.94
507.939	85.94
508.155	96.94
508.372	82.94
508.588	91.94
508.805	87.94
509.021	84.94
509.238	102.94
509.454	105.94
509.67	77.94
509.887	74.94
510.103	59.94
510.319	84.94
510.536	81.94
510.752	90.94
510.968	86.94
511.184	79.94
511.401	92.94
511.617	90.94
511.833	80.94
512.049	86.94
512.265	75.94
512.481	96.94
512.698	84.94
512.914	80.94
513.13	88.94
513.346	77.94
513.562	97.94
513.778	85.94
513.994	84.94
514.21	73.94
514.426	78.94
514.642	90.94
514.858	88.94
515.074	99.94
515.29	87.94
515.506	82.94
515.721	89.94
515.937	85.94
516.153	79.94
516.369	88.94
516.585	84.94
516.801	80.94
517.016	89.94
517.232	88.94
517.448	85.94
517.664	80.94
517.879	78.94
518.095	76.94
518.311	78.94
518.527	95.94
518.742	88.94
