Data from CBS_1_HRD10591_00006.txt Node
Date: Mon Jan 19 14:03:51 EST 2026
User: Yrep
Spectrometer: HR+D1059
Trigger mode: 1
Integration Time (sec): 1.000000E-1
Scans to average: 1
Electric dark correction enabled: true
Nonlinearity correction enabled: false
Boxcar width: 0
XAxis mode: Wavelengths
Number of Pixels in Spectrum: 2048
>>>>>Begin Spectral Data<<<<<
223.165	-21.44
223.4	-21.44
223.635	-21.44
223.869	-28.44
224.104	-13.44
224.338	-3.44
224.573	-19.44
224.808	-13.44
225.042	3.56
225.277	-7.44
225.511	3.56
225.746	6.56
225.98	7.56
226.215	12.56
226.449	7.56
226.683	18.56
226.918	28.56
227.152	18.56
227.387	39.56
227.621	30.56
227.856	57.56
228.09	47.56
228.324	40.56
228.559	45.56
228.793	55.56
229.027	66.56
229.262	57.56
229.496	65.56
229.73	70.56
229.964	71.56
230.199	72.56
230.433	74.56
230.667	72.56
230.901	75.56
231.136	70.56
231.37	80.56
231.604	73.56
231.838	73.56
232.072	82.56
232.306	70.56
232.541	69.56
232.775	68.56
233.009	73.56
233.243	69.56
233.477	90.56
233.711	87.56
233.945	76.56
234.179	82.56
234.413	74.56
234.647	82.56
234.881	73.56
235.115	81.56
235.349	74.56
235.583	77.56
235.817	79.56
236.051	84.56
236.285	88.56
236.519	85.56
236.753	75.56
236.987	69.56
237.221	84.56
237.455	73.56
237.689	79.56
237.922	71.56
238.156	80.56
238.39	87.56
238.624	73.56
238.858	81.56
239.091	72.56
239.325	68.56
239.559	79.56
239.793	87.56
240.027	90.56
240.26	73.56
240.494	55.56
240.728	62.56
240.961	87.56
241.195	93.56
241.429	75.56
241.662	69.56
241.896	84.56
242.13	90.56
242.363	71.56
242.597	79.56
242.83	74.56
243.064	72.56
243.298	71.56
243.531	69.56
243.765	70.56
243.998	66.56
244.232	81.56
244.465	64.56
244.699	81.56
244.932	80.56
245.166	74.56
245.399	70.56
245.633	72.56
245.866	83.56
246.099	71.56
246.333	79.56
246.566	75.56
246.8	79.56
247.033	74.56
247.266	73.56
247.5	71.56
247.733	79.56
247.966	78.56
248.2	91.56
248.433	73.56
248.666	75.56
248.899	73.56
249.133	74.56
249.366	85.56
249.599	77.56
249.832	86.56
250.066	75.56
250.299	67.56
250.532	91.56
250.765	84.56
250.998	83.56
251.231	74.56
251.465	76.56
251.698	81.56
251.931	59.56
252.164	82.56
252.397	80.56
252.63	80.56
252.863	87.56
253.096	78.56
253.329	77.56
253.562	90.56
253.795	76.56
254.028	81.56
254.261	64.56
254.494	81.56
254.727	79.56
254.96	76.56
255.193	87.56
255.426	66.56
255.659	80.56
255.892	82.56
256.124	66.56
256.357	86.56
256.59	69.56
256.823	75.56
257.056	84.56
257.289	75.56
257.521	79.56
257.754	77.56
257.987	86.56
258.22	79.56
258.452	76.56
258.685	73.56
258.918	69.56
259.151	79.56
259.383	87.56
259.616	81.56
259.849	79.56
260.081	90.56
260.314	77.56
260.547	79.56
260.779	70.56
261.012	76.56
261.244	72.56
261.477	67.56
261.71	73.56
261.942	68.56
262.175	75.56
262.407	78.56
262.64	71.56
262.872	83.56
263.105	74.56
263.337	87.56
263.57	75.56
263.802	65.56
264.035	84.56
264.267	71.56
264.499	85.56
264.732	87.56
264.964	93.56
265.197	88.56
265.429	79.56
265.661	87.56
265.894	74.56
266.126	83.56
266.358	65.56
266.591	74.56
266.823	87.56
267.055	77.56
267.287	95.56
267.52	83.56
267.752	77.56
267.984	90.56
268.216	74.56
268.448	93.56
268.681	73.56
268.913	71.56
269.145	67.56
269.377	82.56
269.609	83.56
269.841	86.56
270.073	86.56
270.306	81.56
270.538	70.56
270.77	70.56
271.002	60.56
271.234	74.56
271.466	61.56
271.698	87.56
271.93	73.56
272.162	88.56
272.394	86.56
272.626	83.56
272.858	84.56
273.09	75.56
273.322	87.56
273.553	77.56
273.785	73.56
274.017	83.56
274.249	77.56
274.481	75.56
274.713	80.56
274.945	86.56
275.176	69.56
275.408	83.56
275.64	79.56
275.872	84.56
276.104	75.56
276.335	85.56
276.567	88.56
276.799	83.56
277.031	77.56
277.262	57.56
277.494	87.56
277.726	81.56
277.957	87.56
278.189	80.56
278.421	82.56
278.652	83.56
278.884	75.56
279.115	80.56
279.347	83.56
279.579	98.56
279.81	91.56
280.042	86.56
280.273	79.56
280.505	61.56
280.736	69.56
280.968	85.56
281.199	87.56
281.431	74.56
281.662	82.56
281.894	95.56
282.125	88.56
282.356	110.56
282.588	85.56
282.819	78.56
283.051	88.56
283.282	97.56
283.513	83.56
283.745	96.56
283.976	90.56
284.207	71.56
284.439	87.56
284.67	86.56
284.901	85.56
285.132	85.56
285.364	95.56
285.595	94.56
285.826	70.56
286.057	80.56
286.288	86.56
286.52	86.56
286.751	98.56
286.982	94.56
287.213	87.56
287.444	89.56
287.675	90.56
287.906	96.56
288.138	86.56
288.369	98.56
288.6	94.56
288.831	80.56
289.062	86.56
289.293	90.56
289.524	95.56
289.755	87.56
289.986	87.56
290.217	90.56
290.448	89.56
290.679	75.56
290.91	89.56
291.141	72.56
291.371	83.56
291.602	86.56
291.833	80.56
292.064	92.56
292.295	84.56
292.526	90.56
292.757	85.56
292.987	90.56
293.218	88.56
293.449	81.56
293.68	73.56
293.91	106.56
294.141	100.56
294.372	84.56
294.603	74.56
294.833	85.56
295.064	89.56
295.295	79.56
295.525	81.56
295.756	93.56
295.987	83.56
296.217	78.56
296.448	70.56
296.679	73.56
296.909	86.56
297.14	82.56
297.37	83.56
297.601	87.56
297.831	78.56
298.062	70.56
298.292	89.56
298.523	97.56
298.753	78.56
298.984	89.56
299.214	92.56
299.445	80.56
299.675	82.56
299.905	98.56
300.136	73.56
300.366	88.56
300.597	98.56
300.827	86.56
301.057	73.56
301.288	87.56
301.518	83.56
301.748	92.56
301.979	78.56
302.209	81.56
302.439	82.56
302.669	86.56
302.9	65.56
303.13	90.56
303.36	87.56
303.59	94.56
303.82	88.56
304.051	96.56
304.281	86.56
304.511	83.56
304.741	78.56
304.971	83.56
305.201	82.56
305.431	68.56
305.661	85.56
305.891	87.56
306.121	90.56
306.352	77.56
306.582	81.56
306.812	83.56
307.042	86.56
307.272	90.56
307.502	99.56
307.731	82.56
307.961	87.56
308.191	92.56
308.421	84.56
308.651	91.56
308.881	85.56
309.111	93.56
309.341	100.56
309.571	89.56
309.8	87.56
310.03	95.56
310.26	81.56
310.49	88.56
310.72	81.56
310.949	75.56
311.179	95.56
311.409	73.56
311.639	88.56
311.868	75.56
312.098	87.56
312.328	83.56
312.557	92.56
312.787	83.56
313.017	91.56
313.246	85.56
313.476	86.56
313.706	89.56
313.935	83.56
314.165	81.56
314.394	71.56
314.624	85.56
314.853	75.56
315.083	91.56
315.312	88.56
315.542	87.56
315.771	83.56
316.001	87.56
316.23	79.56
316.46	89.56
316.689	95.56
316.919	81.56
317.148	82.56
317.377	89.56
317.607	93.56
317.836	114.56
318.065	102.56
318.295	103.56
318.524	94.56
318.753	86.56
318.983	80.56
319.212	83.56
319.441	69.56
319.67	87.56
319.9	89.56
320.129	90.56
320.358	81.56
320.587	87.56
320.816	87.56
321.046	93.56
321.275	80.56
321.504	93.56
321.733	97.56
321.962	97.56
322.191	98.56
322.42	80.56
322.649	92.56
322.878	88.56
323.108	100.56
323.337	93.56
323.566	88.56
323.795	87.56
324.024	96.56
324.253	99.56
324.482	94.56
324.71	87.56
324.939	83.56
325.168	81.56
325.397	71.56
325.626	85.56
325.855	82.56
326.084	72.56
326.313	95.56
326.542	101.56
326.77	98.56
326.999	91.56
327.228	88.56
327.457	91.56
327.686	84.56
327.914	79.56
328.143	104.56
328.372	91.56
328.6	85.56
328.829	84.56
329.058	97.56
329.287	93.56
329.515	90.56
329.744	75.56
329.972	99.56
330.201	93.56
330.43	92.56
330.658	90.56
330.887	83.56
331.115	85.56
331.344	89.56
331.572	81.56
331.801	92.56
332.03	84.56
332.258	94.56
332.486	88.56
332.715	93.56
332.943	75.56
333.172	89.56
333.4	108.56
333.629	88.56
333.857	87.56
334.085	102.56
334.314	85.56
334.542	89.56
334.771	105.56
334.999	113.56
335.227	94.56
335.455	106.56
335.684	96.56
335.912	109.56
336.14	109.56
336.369	98.56
336.597	90.56
336.825	72.56
337.053	84.56
337.281	88.56
337.51	90.56
337.738	84.56
337.966	79.56
338.194	86.56
338.422	88.56
338.65	91.56
338.878	84.56
339.106	83.56
339.334	82.56
339.562	84.56
339.79	79.56
340.018	91.56
340.246	95.56
340.474	88.56
340.702	95.56
340.93	102.56
341.158	92.56
341.386	88.56
341.614	86.56
341.842	75.56
342.07	98.56
342.298	85.56
342.526	80.56
342.754	87.56
342.981	93.56
343.209	96.56
343.437	99.56
343.665	96.56
343.893	93.56
344.12	95.56
344.348	79.56
344.576	86.56
344.804	95.56
345.031	90.56
345.259	90.56
345.487	68.56
345.714	81.56
345.942	101.56
346.17	88.56
346.397	94.56
346.625	85.56
346.853	97.56
347.08	70.56
347.308	97.56
347.535	81.56
347.763	92.56
347.99	94.56
348.218	87.56
348.445	74.56
348.673	99.56
348.9	107.56
349.128	88.56
349.355	93.56
349.583	86.56
349.81	83.56
350.037	83.56
350.265	82.56
350.492	101.56
350.72	83.56
350.947	96.56
351.174	100.56
351.402	88.56
351.629	85.56
351.856	84.56
352.083	85.56
352.311	81.56
352.538	78.56
352.765	83.56
352.992	81.56
353.22	81.56
353.447	87.56
353.674	99.56
353.901	78.56
354.128	91.56
354.355	78.56
354.583	76.56
354.81	89.56
355.037	98.56
355.264	105.56
355.491	88.56
355.718	86.56
355.945	97.56
356.172	96.56
356.399	100.56
356.626	90.56
356.853	74.56
357.08	86.56
357.307	74.56
357.534	94.56
357.761	82.56
357.988	77.56
358.215	80.56
358.441	79.56
358.668	89.56
358.895	84.56
359.122	84.56
359.349	89.56
359.576	97.56
359.802	83.56
360.029	71.56
360.256	93.56
360.483	93.56
360.709	100.56
360.936	76.56
361.163	74.56
361.39	81.56
361.616	94.56
361.843	94.56
362.07	103.56
362.296	119.56
362.523	130.56
362.749	131.56
362.976	164.56
363.203	155.56
363.429	121.56
363.656	103.56
363.882	111.56
364.109	137.56
364.335	166.56
364.562	190.56
364.788	126.56
365.015	95.56
365.241	95.56
365.468	98.56
365.694	93.56
365.92	95.56
366.147	88.56
366.373	85.56
366.599	101.56
366.826	83.56
367.052	86.56
367.278	81.56
367.505	92.56
367.731	90.56
367.957	82.56
368.184	81.56
368.41	83.56
368.636	74.56
368.862	79.56
369.089	86.56
369.315	81.56
369.541	97.56
369.767	103.56
369.993	99.56
370.219	93.56
370.445	96.56
370.672	90.56
370.898	101.56
371.124	101.56
371.35	82.56
371.576	93.56
371.802	97.56
372.028	98.56
372.254	83.56
372.48	84.56
372.706	78.56
372.932	101.56
373.158	94.56
373.384	93.56
373.61	112.56
373.835	98.56
374.061	86.56
374.287	86.56
374.513	106.56
374.739	89.56
374.965	98.56
375.191	98.56
375.416	91.56
375.642	91.56
375.868	96.56
376.094	96.56
376.319	93.56
376.545	84.56
376.771	91.56
376.997	82.56
377.222	101.56
377.448	77.56
377.674	90.56
377.899	95.56
378.125	86.56
378.35	82.56
378.576	82.56
378.802	88.56
379.027	93.56
379.253	85.56
379.478	76.56
379.704	91.56
379.929	85.56
380.155	87.56
380.38	96.56
380.606	93.56
380.831	83.56
381.057	98.56
381.282	84.56
381.507	94.56
381.733	102.56
381.958	79.56
382.184	93.56
382.409	90.56
382.634	95.56
382.86	88.56
383.085	91.56
383.31	107.56
383.535	89.56
383.761	75.56
383.986	112.56
384.211	101.56
384.436	102.56
384.662	96.56
384.887	92.56
385.112	87.56
385.337	81.56
385.562	80.56
385.787	103.56
386.013	98.56
386.238	97.56
386.463	94.56
386.688	96.56
386.913	81.56
387.138	97.56
387.363	105.56
387.588	98.56
387.813	96.56
388.038	91.56
388.263	96.56
388.488	101.56
388.713	99.56
388.938	90.56
389.163	95.56
389.387	93.56
389.612	76.56
389.837	99.56
390.062	94.56
390.287	101.56
390.512	73.56
390.736	94.56
390.961	96.56
391.186	92.56
391.411	96.56
391.636	80.56
391.86	97.56
392.085	109.56
392.31	104.56
392.534	114.56
392.759	129.56
392.984	165.56
393.208	265.56
393.433	336.56
393.658	287.56
393.882	177.56
394.107	133.56
394.331	123.56
394.556	145.56
394.78	119.56
395.005	109.56
395.229	111.56
395.454	133.56
395.678	125.56
395.903	135.56
396.127	139.56
396.352	166.56
396.576	213.56
396.801	275.56
397.025	312.56
397.249	201.56
397.474	161.56
397.698	124.56
397.922	102.56
398.147	99.56
398.371	90.56
398.595	93.56
398.82	91.56
399.044	81.56
399.268	86.56
399.492	93.56
399.717	83.56
399.941	81.56
400.165	84.56
400.389	82.56
400.613	95.56
400.837	93.56
401.062	94.56
401.286	79.56
401.51	84.56
401.734	82.56
401.958	92.56
402.182	85.56
402.406	85.56
402.63	88.56
402.854	97.56
403.078	98.56
403.302	104.56
403.526	96.56
403.75	82.56
403.974	98.56
404.198	85.56
404.422	103.56
404.645	100.56
404.869	99.56
405.093	93.56
405.317	97.56
405.541	86.56
405.765	85.56
405.988	90.56
406.212	82.56
406.436	78.56
406.66	81.56
406.883	91.56
407.107	80.56
407.331	89.56
407.555	102.56
407.778	93.56
408.002	106.56
408.226	91.56
408.449	101.56
408.673	88.56
408.896	95.56
409.12	104.56
409.344	122.56
409.567	111.56
409.791	117.56
410.014	121.56
410.238	110.56
410.461	95.56
410.685	83.56
410.908	85.56
411.132	106.56
411.355	95.56
411.578	95.56
411.802	81.56
412.025	79.56
412.249	90.56
412.472	81.56
412.695	86.56
412.919	83.56
413.142	90.56
413.365	88.56
413.589	85.56
413.812	81.56
414.035	93.56
414.258	94.56
414.482	79.56
414.705	87.56
414.928	91.56
415.151	93.56
415.374	101.56
415.597	92.56
415.821	92.56
416.044	102.56
416.267	90.56
416.49	79.56
416.713	86.56
416.936	91.56
417.159	105.56
417.382	96.56
417.605	89.56
417.828	101.56
418.051	86.56
418.274	97.56
418.497	80.56
418.72	98.56
418.943	106.56
419.166	93.56
419.389	93.56
419.611	91.56
419.834	83.56
420.057	99.56
420.28	93.56
420.503	90.56
420.726	94.56
420.948	105.56
421.171	115.56
421.394	126.56
421.617	155.56
421.839	178.56
422.062	180.56
422.285	269.56
422.507	409.56
422.73	501.56
422.953	459.56
423.175	336.56
423.398	232.56
423.621	163.56
423.843	128.56
424.066	120.56
424.288	117.56
424.511	112.56
424.733	113.56
424.956	89.56
425.178	104.56
425.401	84.56
425.623	105.56
425.846	88.56
426.068	98.56
426.291	91.56
426.513	93.56
426.735	98.56
426.958	107.56
427.18	96.56
427.402	100.56
427.625	85.56
427.847	91.56
428.069	93.56
428.292	160.56
428.514	176.56
428.736	141.56
428.958	157.56
429.181	164.56
429.403	113.56
429.625	123.56
429.847	152.56
430.069	214.56
430.292	243.56
430.514	227.56
430.736	170.56
430.958	173.56
431.18	130.56
431.402	98.56
431.624	111.56
431.846	138.56
432.068	161.56
432.29	99.56
432.512	82.56
432.734	95.56
432.956	105.56
433.178	75.56
433.4	86.56
433.622	97.56
433.844	95.56
434.066	84.56
434.287	96.56
434.509	83.56
434.731	92.56
434.953	89.56
435.175	89.56
435.397	117.56
435.618	97.56
435.84	101.56
436.062	99.56
436.284	91.56
436.505	88.56
436.727	86.56
436.949	86.56
437.17	97.56
437.392	88.56
437.614	91.56
437.835	94.56
438.057	96.56
438.278	94.56
438.5	96.56
438.721	85.56
438.943	87.56
439.165	95.56
439.386	84.56
439.608	88.56
439.829	97.56
440.05	90.56
440.272	90.56
440.493	87.56
440.715	88.56
440.936	93.56
441.158	99.56
441.379	101.56
441.6	103.56
441.822	102.56
442.043	85.56
442.264	93.56
442.486	180.56
442.707	254.56
442.928	154.56
443.149	135.56
443.371	217.56
443.592	356.56
443.813	305.56
444.034	141.56
444.255	114.56
444.476	105.56
444.698	97.56
444.919	122.56
445.14	211.56
445.361	280.56
445.582	428.56
445.803	355.56
446.024	165.56
446.245	103.56
446.466	96.56
446.687	98.56
446.908	98.56
447.129	91.56
447.35	81.56
447.571	87.56
447.792	75.56
448.013	93.56
448.234	109.56
448.455	88.56
448.675	81.56
448.896	79.56
449.117	80.56
449.338	79.56
449.559	83.56
449.779	90.56
450	87.56
450.221	72.56
450.442	81.56
450.662	90.56
450.883	82.56
451.104	91.56
451.324	89.56
451.545	86.56
451.766	87.56
451.986	76.56
452.207	85.56
452.428	100.56
452.648	112.56
452.869	132.56
453.089	102.56
453.31	102.56
453.53	102.56
453.751	88.56
453.971	99.56
454.192	88.56
454.412	95.56
454.633	89.56
454.853	86.56
455.073	79.56
455.294	94.56
455.514	81.56
455.734	82.56
455.955	74.56
456.175	70.56
456.395	86.56
456.616	92.56
456.836	87.56
457.056	99.56
457.276	108.56
457.497	98.56
457.717	102.56
457.937	157.56
458.157	179.56
458.377	200.56
458.598	183.56
458.818	195.56
459.038	122.56
459.258	102.56
459.478	97.56
459.698	83.56
459.918	82.56
460.138	74.56
460.358	92.56
460.578	92.56
460.798	129.56
461.018	131.56
461.238	89.56
461.458	84.56
461.678	83.56
461.898	73.56
462.118	87.56
462.338	82.56
462.558	79.56
462.777	91.56
462.997	83.56
463.217	90.56
463.437	93.56
463.657	71.56
463.876	86.56
464.096	87.56
464.316	86.56
464.536	94.56
464.755	85.56
464.975	86.56
465.195	81.56
465.414	96.56
465.634	94.56
465.854	88.56
466.073	85.56
466.293	83.56
466.512	88.56
466.732	94.56
466.951	94.56
467.171	81.56
467.391	86.56
467.61	96.56
467.829	94.56
468.049	86.56
468.268	94.56
468.488	82.56
468.707	90.56
468.927	88.56
469.146	78.56
469.365	87.56
469.585	93.56
469.804	99.56
470.023	74.56
470.243	82.56
470.462	77.56
470.681	79.56
470.901	86.56
471.12	99.56
471.339	86.56
471.558	89.56
471.777	88.56
471.997	86.56
472.216	82.56
472.435	84.56
472.654	66.56
472.873	85.56
473.092	87.56
473.311	96.56
473.53	90.56
473.749	96.56
473.968	101.56
474.187	89.56
474.406	82.56
474.625	93.56
474.844	84.56
475.063	88.56
475.282	95.56
475.501	95.56
475.72	93.56
475.939	83.56
476.158	80.56
476.377	75.56
476.596	87.56
476.814	89.56
477.033	88.56
477.252	94.56
477.471	95.56
477.69	82.56
477.908	87.56
478.127	92.56
478.346	89.56
478.564	101.56
478.783	84.56
479.002	82.56
479.22	76.56
479.439	82.56
479.658	96.56
479.876	90.56
480.095	86.56
480.313	81.56
480.532	83.56
480.751	82.56
480.969	79.56
481.188	102.56
481.406	84.56
481.624	94.56
481.843	99.56
482.061	97.56
482.28	98.56
482.498	85.56
482.717	82.56
482.935	97.56
483.153	102.56
483.372	104.56
483.59	89.56
483.808	91.56
484.027	85.56
484.245	74.56
484.463	93.56
484.681	113.56
484.9	90.56
485.118	99.56
485.336	94.56
485.554	91.56
485.772	99.56
485.99	94.56
486.209	84.56
486.427	95.56
486.645	90.56
486.863	110.56
487.081	101.56
487.299	95.56
487.517	123.56
487.735	156.56
487.953	307.56
488.171	234.56
488.389	113.56
488.607	87.56
488.825	96.56
489.043	87.56
489.261	89.56
489.479	87.56
489.696	83.56
489.914	96.56
490.132	89.56
490.35	94.56
490.568	77.56
490.786	92.56
491.003	97.56
491.221	87.56
491.439	93.56
491.657	91.56
491.874	78.56
492.092	90.56
492.31	95.56
492.527	91.56
492.745	79.56
492.963	81.56
493.18	80.56
493.398	94.56
493.615	83.56
493.833	93.56
494.05	86.56
494.268	102.56
494.485	89.56
494.703	81.56
494.92	91.56
495.138	79.56
495.355	88.56
495.573	94.56
495.79	93.56
496.008	91.56
496.225	100.56
496.442	87.56
496.66	101.56
496.877	110.56
497.094	85.56
497.312	83.56
497.529	102.56
497.746	89.56
497.963	93.56
498.181	94.56
498.398	85.56
498.615	93.56
498.832	75.56
499.049	93.56
499.267	80.56
499.484	88.56
499.701	82.56
499.918	74.56
500.135	94.56
500.352	95.56
500.569	79.56
500.786	103.56
501.003	104.56
501.22	99.56
501.437	81.56
501.654	83.56
501.871	84.56
502.088	80.56
502.305	80.56
502.522	102.56
502.739	110.56
502.956	94.56
503.172	93.56
503.389	98.56
503.606	78.56
503.823	104.56
504.04	111.56
504.256	206.56
504.473	231.56
504.69	133.56
504.907	100.56
505.123	85.56
505.34	88.56
505.557	91.56
505.773	95.56
505.99	75.56
506.207	90.56
506.423	94.56
506.64	110.56
506.856	101.56
507.073	100.56
507.289	85.56
507.506	91.56
507.722	90.56
507.939	89.56
508.155	109.56
508.372	94.56
508.588	91.56
508.805	93.56
509.021	71.56
509.238	95.56
509.454	91.56
509.67	93.56
509.887	91.56
510.103	79.56
510.319	89.56
510.536	71.56
510.752	90.56
510.968	86.56
511.184	102.56
511.401	86.56
511.617	70.56
511.833	102.56
512.049	103.56
512.265	91.56
512.481	94.56
512.698	75.56
512.914	104.56
513.13	103.56
513.346	89.56
513.562	89.56
513.778	87.56
513.994	84.56
514.21	95.56
514.426	78.56
514.642	69.56
514.858	92.56
515.074	97.56
515.29	98.56
515.506	95.56
515.721	93.56
515.937	75.56
516.153	90.56
516.369	101.56
516.585	99.56
516.801	93.56
517.016	106.56
517.232	82.56
