Data from CBS_1_HRD10591_00005.txt Node
Date: Mon Jan 19 14:03:51 EST 2026
User: Yrep
Spectrometer: HR+D1059
Trigger mode: 1
Integration Time (sec): 1.000000E-1
Scans to average: 1
Electric dark correction enabled: true
Nonlinearity correction enabled: false
Boxcar width: 0
XAxis mode: Wavelengths
Number of Pixels in Spectrum: 2048
>>>>>Begin Spectral Data<<<<<
223.165	-10.44
223.4	-10.44
223.635	-10.44
223.869	-38.44
224.104	-10.44
224.338	-25.44
224.573	-8.44
224.808	0.56
225.042	-17.44
225.277	-11.44
225.511	-5.44
225.746	1.56
225.98	7.56
226.215	10.56
226.449	11.56
226.683	25.56
226.918	30.56
227.152	39.56
227.387	51.56
227.621	31.56
227.856	48.56
228.09	28.56
228.324	47.56
228.559	61.56
228.793	54.56
229.027	54.56
229.262	77.56
229.496	61.56
229.73	85.56
229.964	79.56
230.199	66.56
230.433	68.56
230.667	76.56
230.901	96.56
231.136	101.56
231.37	66.56
231.604	81.56
231.838	75.56
232.072	79.56
232.306	78.56
232.541	76.56
232.775	69.56
233.009	88.56
233.243	81.56
233.477	76.56
233.711	83.56
233.945	66.56
234.179	71.56
234.413	85.56
234.647	93.56
234.881	83.56
235.115	67.56
235.349	73.56
235.583	86.56
235.817	83.56
236.051	72.56
236.285	77.56
236.519	80.56
236.753	81.56
236.987	78.56
237.221	74.56
237.455	74.56
237.689	74.56
237.922	70.56
238.156	75.56
238.39	83.56
238.624	75.56
238.858	85.56
239.091	57.56
239.325	74.56
239.559	67.56
239.793	72.56
240.027	88.56
240.26	67.56
240.494	92.56
240.728	85.56
240.961	72.56
241.195	86.56
241.429	77.56
241.662	79.56
241.896	83.56
242.13	91.56
242.363	70.56
242.597	80.56
242.83	87.56
243.064	76.56
243.298	63.56
243.531	65.56
243.765	83.56
243.998	74.56
244.232	86.56
244.465	84.56
244.699	89.56
244.932	74.56
245.166	82.56
245.399	69.56
245.633	76.56
245.866	97.56
246.099	85.56
246.333	69.56
246.566	81.56
246.8	55.56
247.033	77.56
247.266	82.56
247.5	73.56
247.733	80.56
247.966	83.56
248.2	72.56
248.433	67.56
248.666	73.56
248.899	77.56
249.133	83.56
249.366	91.56
249.599	79.56
249.832	85.56
250.066	80.56
250.299	68.56
250.532	71.56
250.765	80.56
250.998	86.56
251.231	71.56
251.465	89.56
251.698	75.56
251.931	83.56
252.164	86.56
252.397	69.56
252.63	86.56
252.863	82.56
253.096	81.56
253.329	70.56
253.562	93.56
253.795	79.56
254.028	69.56
254.261	83.56
254.494	87.56
254.727	76.56
254.96	83.56
255.193	81.56
255.426	74.56
255.659	83.56
255.892	83.56
256.124	90.56
256.357	81.56
256.59	78.56
256.823	74.56
257.056	71.56
257.289	76.56
257.521	74.56
257.754	76.56
257.987	85.56
258.22	85.56
258.452	88.56
258.685	69.56
258.918	73.56
259.151	81.56
259.383	91.56
259.616	84.56
259.849	73.56
260.081	73.56
260.314	74.56
260.547	79.56
260.779	78.56
261.012	74.56
261.244	87.56
261.477	95.56
261.71	90.56
261.942	84.56
262.175	77.56
262.407	83.56
262.64	79.56
262.872	65.56
263.105	90.56
263.337	89.56
263.57	82.56
263.802	85.56
264.035	82.56
264.267	74.56
264.499	63.56
264.732	69.56
264.964	83.56
265.197	79.56
265.429	76.56
265.661	70.56
265.894	81.56
266.126	72.56
266.358	78.56
266.591	93.56
266.823	93.56
267.055	83.56
267.287	106.56
267.52	86.56
267.752	103.56
267.984	78.56
268.216	79.56
268.448	89.56
268.681	75.56
268.913	77.56
269.145	68.56
269.377	97.56
269.609	90.56
269.841	97.56
270.073	81.56
270.306	87.56
270.538	87.56
270.77	88.56
271.002	81.56
271.234	71.56
271.466	72.56
271.698	74.56
271.93	88.56
272.162	83.56
272.394	85.56
272.626	69.56
272.858	85.56
273.09	71.56
273.322	69.56
273.553	83.56
273.785	99.56
274.017	78.56
274.249	78.56
274.481	79.56
274.713	91.56
274.945	86.56
275.176	82.56
275.408	73.56
275.64	85.56
275.872	89.56
276.104	84.56
276.335	86.56
276.567	84.56
276.799	70.56
277.031	74.56
277.262	82.56
277.494	97.56
277.726	77.56
277.957	87.56
278.189	81.56
278.421	75.56
278.652	85.56
278.884	83.56
279.115	102.56
279.347	85.56
279.579	91.56
279.81	87.56
280.042	100.56
280.273	83.56
280.505	81.56
280.736	85.56
280.968	78.56
281.199	88.56
281.431	74.56
281.662	84.56
281.894	76.56
282.125	84.56
282.356	88.56
282.588	83.56
282.819	72.56
283.051	88.56
283.282	75.56
283.513	76.56
283.745	81.56
283.976	77.56
284.207	91.56
284.439	86.56
284.67	84.56
284.901	79.56
285.132	85.56
285.364	96.56
285.595	87.56
285.826	77.56
286.057	98.56
286.288	95.56
286.52	72.56
286.751	97.56
286.982	84.56
287.213	81.56
287.444	96.56
287.675	82.56
287.906	88.56
288.138	92.56
288.369	82.56
288.6	82.56
288.831	75.56
289.062	84.56
289.293	82.56
289.524	101.56
289.755	79.56
289.986	74.56
290.217	85.56
290.448	95.56
290.679	91.56
290.91	87.56
291.141	88.56
291.371	91.56
291.602	79.56
291.833	81.56
292.064	83.56
292.295	86.56
292.526	94.56
292.757	87.56
292.987	81.56
293.218	82.56
293.449	84.56
293.68	86.56
293.91	96.56
294.141	74.56
294.372	95.56
294.603	70.56
294.833	89.56
295.064	91.56
295.295	98.56
295.525	81.56
295.756	73.56
295.987	91.56
296.217	95.56
296.448	84.56
296.679	67.56
296.909	83.56
297.14	96.56
297.37	80.56
297.601	88.56
297.831	79.56
298.062	80.56
298.292	83.56
298.523	96.56
298.753	85.56
298.984	89.56
299.214	103.56
299.445	96.56
299.675	104.56
299.905	98.56
300.136	87.56
300.366	89.56
300.597	93.56
300.827	110.56
301.057	94.56
301.288	95.56
301.518	91.56
301.748	83.56
301.979	105.56
302.209	85.56
302.439	82.56
302.669	90.56
302.9	78.56
303.13	93.56
303.36	95.56
303.59	94.56
303.82	86.56
304.051	98.56
304.281	79.56
304.511	101.56
304.741	79.56
304.971	86.56
305.201	93.56
305.431	89.56
305.661	90.56
305.891	100.56
306.121	98.56
306.352	67.56
306.582	85.56
306.812	89.56
307.042	95.56
307.272	78.56
307.502	82.56
307.731	97.56
307.961	99.56
308.191	100.56
308.421	104.56
308.651	87.56
308.881	86.56
309.111	102.56
309.341	118.56
309.571	105.56
309.8	90.56
310.03	97.56
310.26	81.56
310.49	100.56
310.72	74.56
310.949	77.56
311.179	73.56
311.409	87.56
311.639	86.56
311.868	99.56
312.098	89.56
312.328	82.56
312.557	85.56
312.787	97.56
313.017	93.56
313.246	93.56
313.476	79.56
313.706	88.56
313.935	99.56
314.165	97.56
314.394	74.56
314.624	91.56
314.853	81.56
315.083	102.56
315.312	95.56
315.542	89.56
315.771	90.56
316.001	105.56
316.23	96.56
316.46	97.56
316.689	103.56
316.919	95.56
317.148	97.56
317.377	95.56
317.607	88.56
317.836	99.56
318.065	98.56
318.295	116.56
318.524	110.56
318.753	94.56
318.983	95.56
319.212	85.56
319.441	72.56
319.67	86.56
319.9	79.56
320.129	102.56
320.358	83.56
320.587	99.56
320.816	91.56
321.046	99.56
321.275	99.56
321.504	77.56
321.733	111.56
321.962	101.56
322.191	98.56
322.42	83.56
322.649	93.56
322.878	95.56
323.108	102.56
323.337	97.56
323.566	98.56
323.795	89.56
324.024	98.56
324.253	81.56
324.482	89.56
324.71	81.56
324.939	85.56
325.168	93.56
325.397	92.56
325.626	89.56
325.855	77.56
326.084	97.56
326.313	81.56
326.542	97.56
326.77	96.56
326.999	102.56
327.228	95.56
327.457	75.56
327.686	81.56
327.914	91.56
328.143	91.56
328.372	84.56
328.6	94.56
328.829	85.56
329.058	93.56
329.287	83.56
329.515	82.56
329.744	106.56
329.972	98.56
330.201	91.56
330.43	92.56
330.658	93.56
330.887	100.56
331.115	81.56
331.344	104.56
331.572	83.56
331.801	95.56
332.03	84.56
332.258	77.56
332.486	95.56
332.715	85.56
332.943	84.56
333.172	97.56
333.4	105.56
333.629	95.56
333.857	95.56
334.085	85.56
334.314	118.56
334.542	111.56
334.771	109.56
334.999	129.56
335.227	125.56
335.455	111.56
335.684	121.56
335.912	120.56
336.14	117.56
336.369	111.56
336.597	112.56
336.825	97.56
337.053	99.56
337.281	99.56
337.51	88.56
337.738	77.56
337.966	90.56
338.194	85.56
338.422	92.56
338.65	94.56
338.878	82.56
339.106	95.56
339.334	85.56
339.562	87.56
339.79	104.56
340.018	96.56
340.246	89.56
340.474	99.56
340.702	91.56
340.93	102.56
341.158	99.56
341.386	93.56
341.614	94.56
341.842	91.56
342.07	87.56
342.298	93.56
342.526	93.56
342.754	82.56
342.981	98.56
343.209	80.56
343.437	108.56
343.665	93.56
343.893	78.56
344.12	105.56
344.348	97.56
344.576	109.56
344.804	95.56
345.031	96.56
345.259	85.56
345.487	108.56
345.714	89.56
345.942	85.56
346.17	94.56
346.397	83.56
346.625	74.56
346.853	108.56
347.08	89.56
347.308	96.56
347.535	104.56
347.763	93.56
347.99	95.56
348.218	88.56
348.445	87.56
348.673	98.56
348.9	110.56
349.128	93.56
349.355	91.56
349.583	102.56
349.81	85.56
350.037	97.56
350.265	110.56
350.492	75.56
350.72	97.56
350.947	106.56
351.174	89.56
351.402	85.56
351.629	95.56
351.856	95.56
352.083	79.56
352.311	97.56
352.538	85.56
352.765	100.56
352.992	90.56
353.22	87.56
353.447	83.56
353.674	101.56
353.901	93.56
354.128	87.56
354.355	83.56
354.583	96.56
354.81	94.56
355.037	82.56
355.264	86.56
355.491	97.56
355.718	94.56
355.945	87.56
356.172	84.56
356.399	96.56
356.626	89.56
356.853	105.56
357.08	86.56
357.307	88.56
357.534	107.56
357.761	117.56
357.988	100.56
358.215	106.56
358.441	119.56
358.668	87.56
358.895	104.56
359.122	105.56
359.349	88.56
359.576	94.56
359.802	81.56
360.029	91.56
360.256	102.56
360.483	95.56
360.709	90.56
360.936	90.56
361.163	110.56
361.39	95.56
361.616	93.56
361.843	114.56
362.07	118.56
362.296	132.56
362.523	171.56
362.749	161.56
362.976	178.56
363.203	194.56
363.429	148.56
363.656	119.56
363.882	130.56
364.109	180.56
364.335	248.56
364.562	251.56
364.788	175.56
365.015	114.56
365.241	109.56
365.468	105.56
365.694	115.56
365.92	107.56
366.147	104.56
366.373	89.56
366.599	98.56
366.826	95.56
367.052	117.56
367.278	103.56
367.505	102.56
367.731	103.56
367.957	95.56
368.184	91.56
368.41	81.56
368.636	84.56
368.862	85.56
369.089	98.56
369.315	101.56
369.541	89.56
369.767	101.56
369.993	96.56
370.219	89.56
370.445	110.56
370.672	107.56
370.898	104.56
371.124	95.56
371.35	83.56
371.576	85.56
371.802	93.56
372.028	101.56
372.254	95.56
372.48	111.56
372.706	95.56
372.932	89.56
373.158	104.56
373.384	99.56
373.61	125.56
373.835	126.56
374.061	105.56
374.287	98.56
374.513	94.56
374.739	96.56
374.965	95.56
375.191	108.56
375.416	98.56
375.642	104.56
375.868	111.56
376.094	100.56
376.319	98.56
376.545	99.56
376.771	97.56
376.997	90.56
377.222	98.56
377.448	96.56
377.674	109.56
377.899	67.56
378.125	91.56
378.35	87.56
378.576	107.56
378.802	95.56
379.027	98.56
379.253	88.56
379.478	83.56
379.704	98.56
379.929	102.56
380.155	106.56
380.38	99.56
380.606	100.56
380.831	118.56
381.057	90.56
381.282	91.56
381.507	100.56
381.733	115.56
381.958	109.56
382.184	120.56
382.409	102.56
382.634	101.56
382.86	91.56
383.085	96.56
383.31	105.56
383.535	104.56
383.761	107.56
383.986	114.56
384.211	106.56
384.436	104.56
384.662	102.56
384.887	97.56
385.112	88.56
385.337	109.56
385.562	104.56
385.787	107.56
386.013	116.56
386.238	99.56
386.463	122.56
386.688	121.56
386.913	102.56
387.138	109.56
387.363	111.56
387.588	104.56
387.813	106.56
388.038	117.56
388.263	116.56
388.488	112.56
388.713	101.56
388.938	99.56
389.163	95.56
389.387	117.56
389.612	98.56
389.837	91.56
390.062	89.56
390.287	101.56
390.512	97.56
390.736	103.56
390.961	112.56
391.186	97.56
391.411	109.56
391.636	101.56
391.86	121.56
392.085	130.56
392.31	129.56
392.534	137.56
392.759	191.56
392.984	286.56
393.208	449.56
393.433	601.56
393.658	459.56
393.882	228.56
394.107	189.56
394.331	173.56
394.556	179.56
394.78	158.56
395.005	141.56
395.229	128.56
395.454	128.56
395.678	162.56
395.903	182.56
396.127	211.56
396.352	265.56
396.576	290.56
396.801	431.56
397.025	501.56
397.249	309.56
397.474	227.56
397.698	161.56
397.922	118.56
398.147	114.56
398.371	100.56
398.595	101.56
398.82	110.56
399.044	101.56
399.268	111.56
399.492	122.56
399.717	98.56
399.941	107.56
400.165	113.56
400.389	78.56
400.613	109.56
400.837	95.56
401.062	93.56
401.286	85.56
401.51	91.56
401.734	82.56
401.958	97.56
402.182	105.56
402.406	88.56
402.63	107.56
402.854	97.56
403.078	104.56
403.302	104.56
403.526	109.56
403.75	120.56
403.974	93.56
404.198	122.56
404.422	132.56
404.645	141.56
404.869	119.56
405.093	101.56
405.317	83.56
405.541	88.56
405.765	95.56
405.988	97.56
406.212	94.56
406.436	109.56
406.66	95.56
406.883	100.56
407.107	74.56
407.331	100.56
407.555	126.56
407.778	142.56
408.002	145.56
408.226	112.56
408.449	100.56
408.673	103.56
408.896	99.56
409.12	115.56
409.344	125.56
409.567	138.56
409.791	160.56
410.014	154.56
410.238	141.56
410.461	121.56
410.685	111.56
410.908	121.56
411.132	105.56
411.355	101.56
411.578	103.56
411.802	83.56
412.025	102.56
412.249	95.56
412.472	100.56
412.695	89.56
412.919	103.56
413.142	97.56
413.365	113.56
413.589	114.56
413.812	94.56
414.035	103.56
414.258	93.56
414.482	95.56
414.705	111.56
414.928	97.56
415.151	75.56
415.374	93.56
415.597	97.56
415.821	104.56
416.044	111.56
416.267	96.56
416.49	84.56
416.713	95.56
416.936	101.56
417.159	102.56
417.382	103.56
417.605	98.56
417.828	105.56
418.051	87.56
418.274	83.56
418.497	93.56
418.72	109.56
418.943	99.56
419.166	102.56
419.389	91.56
419.611	105.56
419.834	113.56
420.057	98.56
420.28	106.56
420.503	113.56
420.726	117.56
420.948	123.56
421.171	149.56
421.394	155.56
421.617	207.56
421.839	211.56
422.062	272.56
422.285	422.56
422.507	689.56
422.73	847.56
422.953	779.56
423.175	534.56
423.398	347.56
423.621	247.56
423.843	189.56
424.066	178.56
424.288	146.56
424.511	142.56
424.733	127.56
424.956	137.56
425.178	127.56
425.401	122.56
425.623	125.56
425.846	99.56
426.068	116.56
426.291	107.56
426.513	105.56
426.735	90.56
426.958	114.56
427.18	109.56
427.402	114.56
427.625	123.56
427.847	109.56
428.069	142.56
428.292	225.56
428.514	254.56
428.736	198.56
428.958	253.56
429.181	223.56
429.403	145.56
429.625	151.56
429.847	219.56
430.069	333.56
430.292	405.56
430.514	352.56
430.736	254.56
430.958	249.56
431.18	155.56
431.402	109.56
431.624	143.56
431.846	227.56
432.068	251.56
432.29	139.56
432.512	96.56
432.734	101.56
432.956	89.56
433.178	107.56
433.4	89.56
433.622	102.56
433.844	98.56
434.066	104.56
434.287	88.56
434.509	94.56
434.731	103.56
434.953	103.56
435.175	110.56
435.397	121.56
435.618	119.56
435.84	124.56
436.062	112.56
436.284	102.56
436.505	117.56
436.727	87.56
436.949	86.56
437.17	110.56
437.392	83.56
437.614	88.56
437.835	85.56
438.057	106.56
438.278	88.56
438.5	95.56
438.721	102.56
438.943	93.56
439.165	103.56
439.386	96.56
439.608	89.56
439.829	107.56
440.05	109.56
440.272	91.56
440.493	89.56
440.715	104.56
440.936	107.56
441.158	114.56
441.379	101.56
441.6	90.56
441.822	115.56
442.043	107.56
442.264	155.56
442.486	265.56
442.707	386.56
442.928	246.56
443.149	197.56
443.371	317.56
443.592	582.56
443.813	504.56
444.034	211.56
444.255	133.56
444.476	100.56
444.698	121.56
444.919	149.56
445.14	278.56
445.361	412.56
445.582	703.56
445.803	599.56
446.024	231.56
446.245	140.56
446.466	93.56
446.687	98.56
446.908	98.56
447.129	85.56
447.35	94.56
447.571	99.56
447.792	86.56
448.013	87.56
448.234	97.56
448.455	99.56
448.675	90.56
448.896	99.56
449.117	83.56
449.338	87.56
449.559	98.56
449.779	89.56
450	85.56
450.221	85.56
450.442	101.56
450.662	96.56
450.883	95.56
451.104	100.56
451.324	93.56
451.545	91.56
451.766	114.56
451.986	91.56
452.207	86.56
452.428	102.56
452.648	129.56
452.869	145.56
453.089	118.56
453.31	113.56
453.53	107.56
453.751	93.56
453.971	86.56
454.192	100.56
454.412	74.56
454.633	86.56
454.853	98.56
455.073	96.56
455.294	85.56
455.514	85.56
455.734	105.56
455.955	84.56
456.175	106.56
456.395	106.56
456.616	89.56
456.836	104.56
457.056	97.56
457.276	98.56
457.497	104.56
457.717	128.56
457.937	189.56
458.157	268.56
458.377	279.56
458.598	262.56
458.818	273.56
459.038	169.56
459.258	108.56
459.478	111.56
459.698	99.56
459.918	87.56
460.138	103.56
460.358	100.56
460.578	111.56
460.798	165.56
461.018	161.56
461.238	103.56
461.458	98.56
461.678	97.56
461.898	88.56
462.118	100.56
462.338	93.56
462.558	89.56
462.777	90.56
462.997	93.56
463.217	92.56
463.437	93.56
463.657	90.56
463.876	75.56
464.096	84.56
464.316	85.56
464.536	94.56
464.755	95.56
464.975	82.56
465.195	93.56
465.414	107.56
465.634	92.56
465.854	94.56
466.073	96.56
466.293	91.56
466.512	73.56
466.732	101.56
466.951	94.56
467.171	99.56
467.391	92.56
467.61	87.56
467.829	89.56
468.049	102.56
468.268	101.56
468.488	105.56
468.707	116.56
468.927	106.56
469.146	109.56
469.365	90.56
469.585	107.56
469.804	105.56
470.023	92.56
470.243	102.56
470.462	97.56
470.681	104.56
470.901	94.56
471.12	91.56
471.339	109.56
471.558	97.56
471.777	92.56
471.997	94.56
472.216	86.56
472.435	86.56
472.654	95.56
472.873	97.56
473.092	95.56
473.311	95.56
473.53	99.56
473.749	85.56
473.968	95.56
474.187	102.56
474.406	91.56
474.625	87.56
474.844	91.56
475.063	88.56
475.282	111.56
475.501	101.56
475.72	89.56
475.939	89.56
476.158	86.56
476.377	94.56
476.596	93.56
476.814	106.56
477.033	90.56
477.252	92.56
477.471	100.56
477.69	91.56
477.908	92.56
478.127	94.56
478.346	95.56
478.564	101.56
478.783	88.56
479.002	104.56
479.22	106.56
479.439	89.56
479.658	91.56
479.876	101.56
480.095	106.56
480.313	94.56
480.532	93.56
480.751	99.56
480.969	86.56
481.188	103.56
481.406	102.56
481.624	98.56
481.843	94.56
482.061	97.56
482.28	110.56
482.498	102.56
482.717	101.56
482.935	99.56
483.153	105.56
483.372	117.56
483.59	95.56
483.808	115.56
484.027	105.56
484.245	86.56
484.463	113.56
484.681	116.56
484.9	97.56
485.118	101.56
485.336	91.56
485.554	103.56
485.772	113.56
485.99	98.56
486.209	101.56
486.427	99.56
486.645	101.56
486.863	104.56
487.081	110.56
487.299	123.56
487.517	132.56
487.735	221.56
487.953	440.56
488.171	358.56
488.389	162.56
488.607	113.56
488.825	96.56
489.043	109.56
489.261	115.56
489.479	100.56
489.696	111.56
489.914	109.56
490.132	101.56
490.35	96.56
490.568	83.56
490.786	111.56
491.003	100.56
491.221	104.56
491.439	96.56
491.657	94.56
491.874	105.56
492.092	99.56
492.31	97.56
492.527	103.56
492.745	98.56
492.963	103.56
493.18	101.56
493.398	100.56
493.615	94.56
493.833	79.56
494.05	100.56
494.268	110.56
494.485	75.56
494.703	105.56
494.92	90.56
495.138	89.56
495.355	87.56
495.573	96.56
495.79	95.56
496.008	112.56
496.225	99.56
496.442	94.56
496.66	106.56
496.877	114.56
497.094	116.56
497.312	97.56
497.529	89.56
497.746	82.56
497.963	102.56
498.181	99.56
498.398	102.56
498.615	93.56
498.832	95.56
499.049	97.56
499.267	110.56
499.484	99.56
499.701	97.56
499.918	107.56
500.135	100.56
500.352	106.56
500.569	105.56
500.786	107.56
501.003	110.56
501.22	89.56
501.437	101.56
501.654	92.56
501.871	101.56
502.088	96.56
502.305	104.56
502.522	102.56
502.739	101.56
502.956	89.56
503.172	106.56
503.389	107.56
503.606	109.56
503.823	125.56
504.04	164.56
504.256	288.56
504.473	303.56
504.69	157.56
504.907	131.56
505.123	97.56
505.34	98.56
505.557	99.56
505.773	97.56
505.99	99.56
506.207	99.56
506.423	117.56
506.64	93.56
506.856	105.56
507.073	100.56
507.289	111.56
507.506	97.56
507.722	102.56
507.939	115.56
508.155	89.56
508.372	102.56
508.588	93.56
508.805	96.56
509.021	95.56
509.238	90.56
509.454	94.56
509.67	85.56
509.887	97.56
510.103	105.56
510.319	102.56
510.536	104.56
510.752	104.56
510.968	83.56
511.184	107.56
511.401	105.56
511.617	93.56
511.833	104.56
512.049	91.56
512.265	98.56
512.481	93.56
512.698	90.56
512.914	109.56
513.13	113.56
513.346	103.56
513.562	93.56
