Data from CBS_1_HRD10591_00044.txt Node
Date: Mon Jan 19 14:04:10 EST 2026
User: Yrep
Spectrometer: HR+D1059
Trigger mode: 1
Integration Time (sec): 1.000000E-1
Scans to average: 1
Electric dark correction enabled: true
Nonlinearity correction enabled: false
Boxcar width: 0
XAxis mode: Wavelengths
Number of Pixels in Spectrum: 2048
>>>>>Begin Spectral Data<<<<<
223.165	-16.69
223.4	-16.69
223.635	-16.69
223.869	-29.69
224.104	-24.69
224.338	-4.69
224.573	-20.69
224.808	-30.69
225.042	1.31
225.277	-5.69
225.511	-1.69
225.746	-4.69
225.98	5.31
226.215	17.31
226.449	23.31
226.683	18.31
226.918	25.31
227.152	48.31
227.387	27.31
227.621	34.31
227.856	35.31
228.09	49.31
228.324	52.31
228.559	58.31
228.793	42.31
229.027	69.31
229.262	68.31
229.496	77.31
229.73	73.31
229.964	77.31
230.199	76.31
230.433	78.31
230.667	74.31
230.901	77.31
231.136	80.31
231.37	76.31
231.604	74.31
231.838	97.31
232.072	90.31
232.306	85.31
232.541	105.31
232.775	83.31
233.009	86.31
233.243	75.31
233.477	85.31
233.711	89.31
233.945	81.31
234.179	79.31
234.413	76.31
234.647	81.31
234.881	76.31
235.115	80.31
235.349	74.31
235.583	68.31
235.817	84.31
236.051	94.31
236.285	68.31
236.519	75.31
236.753	74.31
236.987	69.31
237.221	92.31
237.455	88.31
237.689	86.31
237.922	77.31
238.156	74.31
238.39	66.31
238.624	83.31
238.858	78.31
239.091	82.31
239.325	86.31
239.559	82.31
239.793	80.31
240.027	76.31
240.26	73.31
240.494	70.31
240.728	88.31
240.961	76.31
241.195	80.31
241.429	77.31
241.662	77.31
241.896	75.31
242.13	80.31
242.363	76.31
242.597	76.31
242.83	84.31
243.064	75.31
243.298	70.31
243.531	73.31
243.765	94.31
243.998	91.31
244.232	82.31
244.465	93.31
244.699	76.31
244.932	83.31
245.166	67.31
245.399	55.31
245.633	77.31
245.866	68.31
246.099	80.31
246.333	71.31
246.566	79.31
246.8	69.31
247.033	56.31
247.266	79.31
247.5	70.31
247.733	68.31
247.966	80.31
248.2	89.31
248.433	82.31
248.666	84.31
248.899	69.31
249.133	86.31
249.366	75.31
249.599	56.31
249.832	81.31
250.066	78.31
250.299	78.31
250.532	79.31
250.765	83.31
250.998	71.31
251.231	84.31
251.465	76.31
251.698	86.31
251.931	66.31
252.164	90.31
252.397	75.31
252.63	85.31
252.863	76.31
253.096	67.31
253.329	75.31
253.562	82.31
253.795	68.31
254.028	82.31
254.261	68.31
254.494	75.31
254.727	78.31
254.96	82.31
255.193	77.31
255.426	81.31
255.659	66.31
255.892	91.31
256.124	83.31
256.357	83.31
256.59	65.31
256.823	81.31
257.056	85.31
257.289	78.31
257.521	82.31
257.754	70.31
257.987	74.31
258.22	93.31
258.452	85.31
258.685	61.31
258.918	84.31
259.151	77.31
259.383	85.31
259.616	83.31
259.849	83.31
260.081	89.31
260.314	78.31
260.547	90.31
260.779	84.31
261.012	88.31
261.244	73.31
261.477	80.31
261.71	84.31
261.942	84.31
262.175	85.31
262.407	78.31
262.64	70.31
262.872	88.31
263.105	96.31
263.337	94.31
263.57	89.31
263.802	80.31
264.035	80.31
264.267	63.31
264.499	67.31
264.732	82.31
264.964	86.31
265.197	64.31
265.429	91.31
265.661	94.31
265.894	84.31
266.126	83.31
266.358	83.31
266.591	88.31
266.823	81.31
267.055	80.31
267.287	85.31
267.52	86.31
267.752	67.31
267.984	86.31
268.216	72.31
268.448	68.31
268.681	83.31
268.913	82.31
269.145	80.31
269.377	65.31
269.609	90.31
269.841	87.31
270.073	90.31
270.306	75.31
270.538	79.31
270.77	80.31
271.002	85.31
271.234	86.31
271.466	115.31
271.698	95.31
271.93	70.31
272.162	74.31
272.394	82.31
272.626	82.31
272.858	92.31
273.09	87.31
273.322	84.31
273.553	85.31
273.785	88.31
274.017	79.31
274.249	88.31
274.481	73.31
274.713	71.31
274.945	74.31
275.176	70.31
275.408	87.31
275.64	82.31
275.872	74.31
276.104	74.31
276.335	90.31
276.567	79.31
276.799	90.31
277.031	93.31
277.262	82.31
277.494	81.31
277.726	93.31
277.957	68.31
278.189	88.31
278.421	76.31
278.652	71.31
278.884	87.31
279.115	86.31
279.347	72.31
279.579	94.31
279.81	78.31
280.042	65.31
280.273	73.31
280.505	71.31
280.736	76.31
280.968	84.31
281.199	88.31
281.431	67.31
281.662	89.31
281.894	80.31
282.125	81.31
282.356	92.31
282.588	88.31
282.819	88.31
283.051	79.31
283.282	77.31
283.513	78.31
283.745	91.31
283.976	80.31
284.207	84.31
284.439	81.31
284.67	84.31
284.901	88.31
285.132	83.31
285.364	85.31
285.595	75.31
285.826	83.31
286.057	83.31
286.288	80.31
286.52	68.31
286.751	78.31
286.982	81.31
287.213	80.31
287.444	96.31
287.675	91.31
287.906	88.31
288.138	75.31
288.369	75.31
288.6	74.31
288.831	74.31
289.062	79.31
289.293	91.31
289.524	83.31
289.755	79.31
289.986	82.31
290.217	87.31
290.448	90.31
290.679	92.31
290.91	90.31
291.141	66.31
291.371	74.31
291.602	73.31
291.833	81.31
292.064	82.31
292.295	96.31
292.526	82.31
292.757	92.31
292.987	90.31
293.218	84.31
293.449	82.31
293.68	71.31
293.91	77.31
294.141	101.31
294.372	84.31
294.603	94.31
294.833	78.31
295.064	84.31
295.295	76.31
295.525	86.31
295.756	93.31
295.987	97.31
296.217	84.31
296.448	90.31
296.679	82.31
296.909	68.31
297.14	92.31
297.37	90.31
297.601	84.31
297.831	94.31
298.062	80.31
298.292	83.31
298.523	85.31
298.753	80.31
298.984	88.31
299.214	87.31
299.445	90.31
299.675	80.31
299.905	80.31
300.136	67.31
300.366	85.31
300.597	86.31
300.827	88.31
301.057	90.31
301.288	80.31
301.518	77.31
301.748	88.31
301.979	85.31
302.209	76.31
302.439	76.31
302.669	92.31
302.9	89.31
303.13	92.31
303.36	81.31
303.59	90.31
303.82	101.31
304.051	88.31
304.281	93.31
304.511	89.31
304.741	73.31
304.971	86.31
305.201	89.31
305.431	90.31
305.661	87.31
305.891	88.31
306.121	87.31
306.352	88.31
306.582	89.31
306.812	79.31
307.042	95.31
307.272	97.31
307.502	73.31
307.731	88.31
307.961	86.31
308.191	87.31
308.421	99.31
308.651	100.31
308.881	79.31
309.111	73.31
309.341	86.31
309.571	88.31
309.8	108.31
310.03	76.31
310.26	73.31
310.49	71.31
310.72	72.31
310.949	86.31
311.179	90.31
311.409	92.31
311.639	97.31
311.868	68.31
312.098	99.31
312.328	79.31
312.557	91.31
312.787	83.31
313.017	84.31
313.246	77.31
313.476	72.31
313.706	88.31
313.935	94.31
314.165	74.31
314.394	84.31
314.624	94.31
314.853	99.31
315.083	68.31
315.312	87.31
315.542	94.31
315.771	86.31
316.001	83.31
316.23	102.31
316.46	100.31
316.689	84.31
316.919	73.31
317.148	74.31
317.377	105.31
317.607	87.31
317.836	96.31
318.065	97.31
318.295	86.31
318.524	89.31
318.753	76.31
318.983	93.31
319.212	96.31
319.441	86.31
319.67	90.31
319.9	79.31
320.129	89.31
320.358	82.31
320.587	90.31
320.816	91.31
321.046	85.31
321.275	65.31
321.504	81.31
321.733	67.31
321.962	83.31
322.191	76.31
322.42	91.31
322.649	88.31
322.878	75.31
323.108	99.31
323.337	90.31
323.566	94.31
323.795	79.31
324.024	76.31
324.253	88.31
324.482	84.31
324.71	89.31
324.939	99.31
325.168	92.31
325.397	73.31
325.626	83.31
325.855	76.31
326.084	81.31
326.313	82.31
326.542	71.31
326.77	70.31
326.999	86.31
327.228	75.31
327.457	90.31
327.686	88.31
327.914	84.31
328.143	83.31
328.372	80.31
328.6	91.31
328.829	75.31
329.058	86.31
329.287	84.31
329.515	84.31
329.744	86.31
329.972	73.31
330.201	80.31
330.43	80.31
330.658	81.31
330.887	88.31
331.115	79.31
331.344	85.31
331.572	97.31
331.801	77.31
332.03	91.31
332.258	87.31
332.486	75.31
332.715	77.31
332.943	103.31
333.172	85.31
333.4	74.31
333.629	81.31
333.857	85.31
334.085	82.31
334.314	70.31
334.542	88.31
334.771	67.31
334.999	84.31
335.227	91.31
335.455	75.31
335.684	85.31
335.912	95.31
336.14	94.31
336.369	81.31
336.597	93.31
336.825	76.31
337.053	90.31
337.281	90.31
337.51	81.31
337.738	95.31
337.966	74.31
338.194	84.31
338.422	91.31
338.65	91.31
338.878	86.31
339.106	77.31
339.334	76.31
339.562	85.31
339.79	89.31
340.018	80.31
340.246	88.31
340.474	82.31
340.702	83.31
340.93	93.31
341.158	87.31
341.386	89.31
341.614	72.31
341.842	90.31
342.07	86.31
342.298	75.31
342.526	88.31
342.754	76.31
342.981	77.31
343.209	86.31
343.437	103.31
343.665	98.31
343.893	80.31
344.12	88.31
344.348	86.31
344.576	88.31
344.804	89.31
345.031	85.31
345.259	80.31
345.487	80.31
345.714	86.31
345.942	87.31
346.17	86.31
346.397	74.31
346.625	83.31
346.853	87.31
347.08	84.31
347.308	81.31
347.535	80.31
347.763	86.31
347.99	82.31
348.218	84.31
348.445	88.31
348.673	95.31
348.9	95.31
349.128	85.31
349.355	88.31
349.583	86.31
349.81	95.31
350.037	78.31
350.265	82.31
350.492	82.31
350.72	74.31
350.947	82.31
351.174	90.31
351.402	94.31
351.629	84.31
351.856	92.31
352.083	85.31
352.311	73.31
352.538	68.31
352.765	88.31
352.992	96.31
353.22	87.31
353.447	68.31
353.674	100.31
353.901	87.31
354.128	88.31
354.355	88.31
354.583	65.31
354.81	88.31
355.037	89.31
355.264	80.31
355.491	75.31
355.718	88.31
355.945	78.31
356.172	83.31
356.399	90.31
356.626	78.31
356.853	81.31
357.08	85.31
357.307	88.31
357.534	90.31
357.761	92.31
357.988	86.31
358.215	86.31
358.441	91.31
358.668	83.31
358.895	98.31
359.122	96.31
359.349	96.31
359.576	75.31
359.802	83.31
360.029	98.31
360.256	84.31
360.483	92.31
360.709	82.31
360.936	94.31
361.163	86.31
361.39	84.31
361.616	82.31
361.843	71.31
362.07	94.31
362.296	90.31
362.523	86.31
362.749	87.31
362.976	89.31
363.203	83.31
363.429	103.31
363.656	96.31
363.882	94.31
364.109	82.31
364.335	117.31
364.562	113.31
364.788	111.31
365.015	100.31
365.241	94.31
365.468	80.31
365.694	79.31
365.92	91.31
366.147	85.31
366.373	71.31
366.599	83.31
366.826	85.31
367.052	84.31
367.278	85.31
367.505	74.31
367.731	86.31
367.957	92.31
368.184	79.31
368.41	84.31
368.636	77.31
368.862	82.31
369.089	91.31
369.315	72.31
369.541	79.31
369.767	94.31
369.993	92.31
370.219	75.31
370.445	71.31
370.672	92.31
370.898	74.31
371.124	97.31
371.35	77.31
371.576	73.31
371.802	92.31
372.028	83.31
372.254	92.31
372.48	109.31
372.706	80.31
372.932	86.31
373.158	92.31
373.384	95.31
373.61	99.31
373.835	93.31
374.061	94.31
374.287	86.31
374.513	72.31
374.739	76.31
374.965	89.31
375.191	84.31
375.416	89.31
375.642	88.31
375.868	81.31
376.094	79.31
376.319	82.31
376.545	77.31
376.771	85.31
376.997	74.31
377.222	80.31
377.448	80.31
377.674	73.31
377.899	93.31
378.125	82.31
378.35	77.31
378.576	92.31
378.802	84.31
379.027	85.31
379.253	82.31
379.478	82.31
379.704	78.31
379.929	80.31
380.155	82.31
380.38	82.31
380.606	78.31
380.831	76.31
381.057	96.31
381.282	99.31
381.507	89.31
381.733	75.31
381.958	94.31
382.184	92.31
382.409	90.31
382.634	95.31
382.86	88.31
383.085	92.31
383.31	81.31
383.535	98.31
383.761	81.31
383.986	100.31
384.211	87.31
384.436	87.31
384.662	94.31
384.887	82.31
385.112	70.31
385.337	78.31
385.562	82.31
385.787	83.31
386.013	101.31
386.238	77.31
386.463	94.31
386.688	106.31
386.913	90.31
387.138	81.31
387.363	113.31
387.588	91.31
387.813	91.31
388.038	90.31
388.263	83.31
388.488	94.31
388.713	84.31
388.938	85.31
389.163	83.31
389.387	84.31
389.612	79.31
389.837	83.31
390.062	99.31
390.287	86.31
390.512	86.31
390.736	89.31
390.961	93.31
391.186	92.31
391.411	90.31
391.636	74.31
391.86	83.31
392.085	97.31
392.31	74.31
392.534	94.31
392.759	103.31
392.984	137.31
393.208	174.31
393.433	213.31
393.658	178.31
393.882	120.31
394.107	99.31
394.331	106.31
394.556	103.31
394.78	101.31
395.005	92.31
395.229	92.31
395.454	80.31
395.678	86.31
395.903	102.31
396.127	106.31
396.352	111.31
396.576	116.31
396.801	156.31
397.025	191.31
397.249	128.31
397.474	110.31
397.698	102.31
397.922	76.31
398.147	86.31
398.371	80.31
398.595	91.31
398.82	96.31
399.044	77.31
399.268	74.31
399.492	76.31
399.717	93.31
399.941	81.31
400.165	95.31
400.389	82.31
400.613	64.31
400.837	81.31
401.062	74.31
401.286	88.31
401.51	84.31
401.734	74.31
401.958	80.31
402.182	80.31
402.406	98.31
402.63	83.31
402.854	80.31
403.078	80.31
403.302	79.31
403.526	86.31
403.75	105.31
403.974	91.31
404.198	97.31
404.422	84.31
404.645	89.31
404.869	77.31
405.093	84.31
405.317	73.31
405.541	77.31
405.765	93.31
405.988	88.31
406.212	86.31
406.436	84.31
406.66	75.31
406.883	96.31
407.107	73.31
407.331	75.31
407.555	84.31
407.778	86.31
408.002	91.31
408.226	76.31
408.449	88.31
408.673	69.31
408.896	78.31
409.12	89.31
409.344	89.31
409.567	88.31
409.791	80.31
410.014	87.31
410.238	76.31
410.461	76.31
410.685	76.31
410.908	82.31
411.132	85.31
411.355	93.31
411.578	91.31
411.802	76.31
412.025	81.31
412.249	87.31
412.472	86.31
412.695	100.31
412.919	77.31
413.142	76.31
413.365	88.31
413.589	82.31
413.812	92.31
414.035	83.31
414.258	79.31
414.482	71.31
414.705	80.31
414.928	86.31
415.151	84.31
415.374	76.31
415.597	83.31
415.821	69.31
416.044	82.31
416.267	89.31
416.49	79.31
416.713	79.31
416.936	76.31
417.159	83.31
417.382	86.31
417.605	68.31
417.828	88.31
418.051	73.31
418.274	72.31
418.497	78.31
418.72	68.31
418.943	86.31
419.166	80.31
419.389	96.31
419.611	71.31
419.834	83.31
420.057	86.31
420.28	92.31
420.503	86.31
420.726	79.31
420.948	81.31
421.171	89.31
421.394	91.31
421.617	113.31
421.839	100.31
422.062	99.31
422.285	111.31
422.507	183.31
422.73	240.31
422.953	240.31
423.175	154.31
423.398	122.31
423.621	96.31
423.843	91.31
424.066	84.31
424.288	86.31
424.511	82.31
424.733	89.31
424.956	80.31
425.178	88.31
425.401	83.31
425.623	88.31
425.846	76.31
426.068	84.31
426.291	86.31
426.513	86.31
426.735	94.31
426.958	77.31
427.18	91.31
427.402	90.31
427.625	89.31
427.847	80.31
428.069	101.31
428.292	105.31
428.514	118.31
428.736	100.31
428.958	96.31
429.181	113.31
429.403	87.31
429.625	95.31
429.847	107.31
430.069	117.31
430.292	135.31
430.514	129.31
430.736	112.31
430.958	116.31
431.18	86.31
431.402	91.31
431.624	97.31
431.846	110.31
432.068	98.31
432.29	81.31
432.512	83.31
432.734	80.31
432.956	86.31
433.178	99.31
433.4	84.31
433.622	77.31
433.844	65.31
434.066	96.31
434.287	80.31
434.509	77.31
434.731	79.31
434.953	84.31
435.175	95.31
435.397	71.31
435.618	103.31
435.84	82.31
436.062	93.31
436.284	89.31
436.505	79.31
436.727	87.31
436.949	83.31
437.17	71.31
437.392	84.31
437.614	98.31
437.835	90.31
438.057	88.31
438.278	75.31
438.5	94.31
438.721	88.31
438.943	88.31
439.165	87.31
439.386	87.31
439.608	90.31
439.829	99.31
440.05	84.31
440.272	84.31
440.493	77.31
440.715	96.31
440.936	93.31
441.158	91.31
441.379	78.31
441.6	84.31
441.822	81.31
442.043	77.31
442.264	84.31
442.486	110.31
442.707	127.31
442.928	96.31
443.149	87.31
443.371	121.31
443.592	179.31
443.813	150.31
444.034	90.31
444.255	82.31
444.476	83.31
444.698	100.31
444.919	94.31
445.14	175.31
445.361	178.31
445.582	190.31
445.803	166.31
446.024	99.31
446.245	82.31
446.466	71.31
446.687	88.31
446.908	73.31
447.129	80.31
447.35	79.31
447.571	96.31
447.792	87.31
448.013	83.31
448.234	81.31
448.455	92.31
448.675	82.31
448.896	92.31
449.117	75.31
449.338	93.31
449.559	83.31
449.779	94.31
450	84.31
450.221	84.31
450.442	85.31
450.662	79.31
450.883	74.31
451.104	77.31
451.324	78.31
451.545	80.31
451.766	91.31
451.986	94.31
452.207	98.31
452.428	89.31
452.648	87.31
452.869	97.31
453.089	100.31
453.31	68.31
453.53	87.31
453.751	90.31
453.971	65.31
454.192	84.31
454.412	84.31
454.633	93.31
454.853	90.31
455.073	88.31
455.294	77.31
455.514	88.31
455.734	97.31
455.955	84.31
456.175	90.31
456.395	75.31
456.616	84.31
456.836	67.31
457.056	86.31
457.276	82.31
457.497	82.31
457.717	96.31
457.937	101.31
458.157	102.31
458.377	95.31
458.598	106.31
458.818	119.31
459.038	107.31
459.258	84.31
459.478	65.31
459.698	88.31
459.918	77.31
460.138	76.31
460.358	82.31
460.578	86.31
460.798	101.31
461.018	94.31
461.238	78.31
461.458	73.31
461.678	72.31
461.898	77.31
462.118	78.31
462.338	85.31
462.558	90.31
462.777	86.31
462.997	81.31
463.217	74.31
463.437	84.31
463.657	87.31
463.876	90.31
464.096	84.31
464.316	75.31
464.536	83.31
464.755	82.31
464.975	81.31
465.195	83.31
465.414	98.31
465.634	83.31
465.854	80.31
466.073	80.31
466.293	89.31
466.512	78.31
466.732	82.31
466.951	81.31
467.171	100.31
467.391	89.31
467.61	86.31
467.829	80.31
468.049	95.31
468.268	100.31
468.488	84.31
468.707	76.31
468.927	82.31
469.146	86.31
469.365	63.31
469.585	94.31
469.804	81.31
470.023	76.31
470.243	84.31
470.462	84.31
470.681	83.31
470.901	86.31
471.12	82.31
471.339	76.31
471.558	76.31
471.777	83.31
471.997	86.31
472.216	86.31
472.435	94.31
472.654	82.31
472.873	83.31
473.092	88.31
473.311	70.31
473.53	83.31
473.749	82.31
473.968	88.31
474.187	82.31
474.406	77.31
474.625	79.31
474.844	71.31
475.063	89.31
475.282	85.31
475.501	81.31
475.72	92.31
475.939	93.31
476.158	88.31
476.377	90.31
476.596	87.31
476.814	90.31
477.033	71.31
477.252	71.31
477.471	89.31
477.69	91.31
477.908	90.31
478.127	83.31
478.346	83.31
478.564	89.31
478.783	100.31
479.002	88.31
479.22	83.31
479.439	93.31
479.658	81.31
479.876	87.31
480.095	82.31
480.313	79.31
480.532	73.31
480.751	92.31
480.969	91.31
481.188	72.31
481.406	88.31
481.624	85.31
481.843	87.31
482.061	95.31
482.28	88.31
482.498	94.31
482.717	75.31
482.935	84.31
483.153	90.31
483.372	94.31
483.59	88.31
483.808	72.31
484.027	81.31
484.245	82.31
484.463	92.31
484.681	91.31
484.9	92.31
485.118	92.31
485.336	85.31
485.554	73.31
485.772	84.31
485.99	87.31
486.209	92.31
486.427	82.31
486.645	88.31
486.863	94.31
487.081	95.31
487.299	73.31
487.517	88.31
487.735	104.31
487.953	136.31
488.171	119.31
488.389	103.31
488.607	86.31
488.825	96.31
489.043	84.31
489.261	84.31
489.479	86.31
489.696	80.31
489.914	72.31
490.132	86.31
490.35	91.31
490.568	62.31
490.786	86.31
491.003	80.31
491.221	82.31
491.439	67.31
491.657	84.31
491.874	72.31
492.092	93.31
492.31	85.31
492.527	98.31
492.745	77.31
492.963	78.31
493.18	77.31
493.398	90.31
493.615	85.31
493.833	72.31
494.05	92.31
494.268	85.31
494.485	80.31
494.703	83.31
494.92	95.31
495.138	95.31
495.355	77.31
495.573	81.31
495.79	75.31
496.008	89.31
496.225	84.31
496.442	89.31
496.66	78.31
496.877	87.31
497.094	102.31
497.312	90.31
497.529	76.31
497.746	88.31
497.963	86.31
498.181	72.31
498.398	77.31
498.615	78.31
498.832	86.31
499.049	85.31
499.267	91.31
499.484	90.31
499.701	82.31
499.918	68.31
500.135	81.31
500.352	84.31
500.569	81.31
500.786	100.31
501.003	94.31
501.22	91.31
501.437	88.31
501.654	81.31
501.871	101.31
502.088	82.31
502.305	82.31
502.522	82.31
502.739	97.31
502.956	82.31
503.172	77.31
503.389	87.31
503.606	102.31
503.823	95.31
504.04	96.31
504.256	124.31
504.473	117.31
504.69	87.31
504.907	82.31
505.123	91.31
505.34	88.31
505.557	79.31
505.773	83.31
505.99	79.31
506.207	76.31
506.423	83.31
506.64	84.31
506.856	75.31
507.073	70.31
507.289	80.31
507.506	83.31
507.722	97.31
507.939	79.31
508.155	81.31
508.372	89.31
508.588	75.31
508.805	84.31
509.021	91.31
509.238	76.31
509.454	84.31
509.67	97.31
509.887	90.31
510.103	97.31
510.319	82.31
510.536	83.31
510.752	87.31
510.968	85.31
511.184	87.31
511.401	81.31
511.617	93.31
511.833	73.31
512.049	80.31
512.265	86.31
512.481	82.31
512.698	88.31
512.914	96.31
513.13	92.31
513.346	90.31
513.562	96.31
513.778	87.31
513.994	69.31
514.21	88.31
514.426	97.31
514.642	104.31
514.858	87.31
515.074	77.31
515.29	90.31
515.506	79.31
515.721	82.31
515.937	82.31
516.153	83.31
516.369	82.31
516.585	88.31
516.801	79.31
517.016	76.31
517.232	82.31
517.448	82.31
517.664	79.31
517.879	85.31
518.095	90.31
518.311	95.31
518.527	98.31
518.742	98.31
518.958	111.31
