Data from CBS_1_HRD10591_00022.txt Node
Date: Mon Jan 19 14:03:59 EST 2026
User: Yrep
Spectrometer: HR+D1059
Trigger mode: 1
Integration Time (sec): 1.000000E-1
Scans to average: 1
Electric dark correction enabled: true
Nonlinearity correction enabled: false
Boxcar width: 0
XAxis mode: Wavelengths
Number of Pixels in Spectrum: 2048
>>>>>Begin Spectral Data<<<<<
223.165	-20.19
223.4	-20.19
223.635	-20.19
223.869	-17.19
224.104	-1.19
224.338	1.81
224.573	-4.19
224.808	-12.19
225.042	-10.19
225.277	-7.19
225.511	-19.19
225.746	-5.19
225.98	2.81
226.215	7.81
226.449	6.81
226.683	20.81
226.918	23.81
227.152	32.81
227.387	33.81
227.621	25.81
227.856	45.81
228.09	37.81
228.324	46.81
228.559	59.81
228.793	63.81
229.027	58.81
229.262	57.81
229.496	71.81
229.73	56.81
229.964	57.81
230.199	69.81
230.433	70.81
230.667	83.81
230.901	79.81
231.136	88.81
231.37	82.81
231.604	72.81
231.838	78.81
232.072	85.81
232.306	77.81
232.541	66.81
232.775	75.81
233.009	74.81
233.243	79.81
233.477	79.81
233.711	80.81
233.945	79.81
234.179	93.81
234.413	74.81
234.647	69.81
234.881	77.81
235.115	80.81
235.349	84.81
235.583	86.81
235.817	80.81
236.051	76.81
236.285	74.81
236.519	88.81
236.753	77.81
236.987	74.81
237.221	73.81
237.455	75.81
237.689	78.81
237.922	75.81
238.156	78.81
238.39	81.81
238.624	67.81
238.858	68.81
239.091	83.81
239.325	69.81
239.559	79.81
239.793	64.81
240.027	81.81
240.26	71.81
240.494	73.81
240.728	73.81
240.961	55.81
241.195	81.81
241.429	62.81
241.662	67.81
241.896	68.81
242.13	80.81
242.363	66.81
242.597	69.81
242.83	70.81
243.064	84.81
243.298	81.81
243.531	68.81
243.765	61.81
243.998	80.81
244.232	84.81
244.465	88.81
244.699	78.81
244.932	76.81
245.166	77.81
245.399	73.81
245.633	57.81
245.866	90.81
246.099	71.81
246.333	81.81
246.566	64.81
246.8	74.81
247.033	77.81
247.266	69.81
247.5	60.81
247.733	71.81
247.966	83.81
248.2	83.81
248.433	69.81
248.666	76.81
248.899	72.81
249.133	79.81
249.366	83.81
249.599	70.81
249.832	80.81
250.066	77.81
250.299	69.81
250.532	87.81
250.765	78.81
250.998	81.81
251.231	93.81
251.465	54.81
251.698	73.81
251.931	52.81
252.164	79.81
252.397	87.81
252.63	67.81
252.863	71.81
253.096	80.81
253.329	82.81
253.562	74.81
253.795	74.81
254.028	82.81
254.261	79.81
254.494	82.81
254.727	65.81
254.96	72.81
255.193	80.81
255.426	82.81
255.659	76.81
255.892	72.81
256.124	76.81
256.357	76.81
256.59	80.81
256.823	67.81
257.056	61.81
257.289	62.81
257.521	84.81
257.754	79.81
257.987	77.81
258.22	78.81
258.452	60.81
258.685	71.81
258.918	71.81
259.151	70.81
259.383	87.81
259.616	89.81
259.849	78.81
260.081	62.81
260.314	68.81
260.547	79.81
260.779	76.81
261.012	79.81
261.244	77.81
261.477	65.81
261.71	87.81
261.942	79.81
262.175	66.81
262.407	71.81
262.64	74.81
262.872	91.81
263.105	72.81
263.337	69.81
263.57	99.81
263.802	80.81
264.035	71.81
264.267	72.81
264.499	67.81
264.732	81.81
264.964	82.81
265.197	72.81
265.429	79.81
265.661	81.81
265.894	71.81
266.126	80.81
266.358	89.81
266.591	82.81
266.823	71.81
267.055	77.81
267.287	65.81
267.52	77.81
267.752	88.81
267.984	65.81
268.216	77.81
268.448	90.81
268.681	75.81
268.913	87.81
269.145	86.81
269.377	71.81
269.609	70.81
269.841	67.81
270.073	74.81
270.306	62.81
270.538	81.81
270.77	67.81
271.002	85.81
271.234	86.81
271.466	86.81
271.698	91.81
271.93	70.81
272.162	85.81
272.394	84.81
272.626	82.81
272.858	78.81
273.09	71.81
273.322	81.81
273.553	71.81
273.785	63.81
274.017	88.81
274.249	81.81
274.481	76.81
274.713	74.81
274.945	82.81
275.176	67.81
275.408	77.81
275.64	88.81
275.872	77.81
276.104	83.81
276.335	78.81
276.567	67.81
276.799	81.81
277.031	63.81
277.262	79.81
277.494	87.81
277.726	79.81
277.957	67.81
278.189	74.81
278.421	91.81
278.652	82.81
278.884	91.81
279.115	78.81
279.347	71.81
279.579	79.81
279.81	73.81
280.042	83.81
280.273	80.81
280.505	73.81
280.736	77.81
280.968	77.81
281.199	74.81
281.431	77.81
281.662	85.81
281.894	72.81
282.125	88.81
282.356	80.81
282.588	80.81
282.819	86.81
283.051	81.81
283.282	66.81
283.513	85.81
283.745	78.81
283.976	83.81
284.207	79.81
284.439	67.81
284.67	71.81
284.901	79.81
285.132	86.81
285.364	83.81
285.595	73.81
285.826	73.81
286.057	86.81
286.288	85.81
286.52	90.81
286.751	92.81
286.982	73.81
287.213	77.81
287.444	65.81
287.675	79.81
287.906	60.81
288.138	93.81
288.369	84.81
288.6	83.81
288.831	70.81
289.062	93.81
289.293	79.81
289.524	77.81
289.755	78.81
289.986	78.81
290.217	72.81
290.448	84.81
290.679	85.81
290.91	88.81
291.141	85.81
291.371	85.81
291.602	73.81
291.833	76.81
292.064	82.81
292.295	71.81
292.526	69.81
292.757	73.81
292.987	72.81
293.218	81.81
293.449	76.81
293.68	88.81
293.91	83.81
294.141	81.81
294.372	78.81
294.603	90.81
294.833	101.81
295.064	96.81
295.295	83.81
295.525	68.81
295.756	80.81
295.987	75.81
296.217	70.81
296.448	64.81
296.679	71.81
296.909	94.81
297.14	77.81
297.37	79.81
297.601	69.81
297.831	72.81
298.062	83.81
298.292	83.81
298.523	71.81
298.753	84.81
298.984	74.81
299.214	79.81
299.445	89.81
299.675	68.81
299.905	87.81
300.136	79.81
300.366	72.81
300.597	77.81
300.827	82.81
301.057	77.81
301.288	82.81
301.518	96.81
301.748	94.81
301.979	103.81
302.209	72.81
302.439	83.81
302.669	83.81
302.9	84.81
303.13	80.81
303.36	79.81
303.59	73.81
303.82	94.81
304.051	97.81
304.281	78.81
304.511	63.81
304.741	80.81
304.971	79.81
305.201	76.81
305.431	80.81
305.661	81.81
305.891	86.81
306.121	89.81
306.352	86.81
306.582	91.81
306.812	72.81
307.042	86.81
307.272	73.81
307.502	73.81
307.731	89.81
307.961	79.81
308.191	78.81
308.421	81.81
308.651	83.81
308.881	82.81
309.111	80.81
309.341	84.81
309.571	84.81
309.8	80.81
310.03	85.81
310.26	77.81
310.49	73.81
310.72	80.81
310.949	81.81
311.179	74.81
311.409	79.81
311.639	83.81
311.868	86.81
312.098	81.81
312.328	87.81
312.557	93.81
312.787	83.81
313.017	88.81
313.246	92.81
313.476	67.81
313.706	77.81
313.935	85.81
314.165	79.81
314.394	92.81
314.624	95.81
314.853	87.81
315.083	97.81
315.312	73.81
315.542	85.81
315.771	92.81
316.001	73.81
316.23	81.81
316.46	89.81
316.689	83.81
316.919	84.81
317.148	85.81
317.377	93.81
317.607	88.81
317.836	78.81
318.065	83.81
318.295	96.81
318.524	79.81
318.753	73.81
318.983	85.81
319.212	85.81
319.441	81.81
319.67	78.81
319.9	94.81
320.129	87.81
320.358	79.81
320.587	82.81
320.816	77.81
321.046	89.81
321.275	83.81
321.504	92.81
321.733	73.81
321.962	96.81
322.191	93.81
322.42	86.81
322.649	76.81
322.878	93.81
323.108	76.81
323.337	92.81
323.566	69.81
323.795	87.81
324.024	82.81
324.253	87.81
324.482	91.81
324.71	84.81
324.939	86.81
325.168	80.81
325.397	78.81
325.626	84.81
325.855	76.81
326.084	97.81
326.313	94.81
326.542	85.81
326.77	85.81
326.999	84.81
327.228	86.81
327.457	79.81
327.686	72.81
327.914	86.81
328.143	83.81
328.372	74.81
328.6	78.81
328.829	79.81
329.058	89.81
329.287	79.81
329.515	83.81
329.744	83.81
329.972	90.81
330.201	87.81
330.43	89.81
330.658	79.81
330.887	92.81
331.115	81.81
331.344	74.81
331.572	100.81
331.801	82.81
332.03	87.81
332.258	73.81
332.486	69.81
332.715	91.81
332.943	90.81
333.172	88.81
333.4	79.81
333.629	87.81
333.857	80.81
334.085	80.81
334.314	88.81
334.542	86.81
334.771	87.81
334.999	83.81
335.227	97.81
335.455	89.81
335.684	89.81
335.912	86.81
336.14	90.81
336.369	83.81
336.597	83.81
336.825	82.81
337.053	77.81
337.281	89.81
337.51	74.81
337.738	88.81
337.966	82.81
338.194	79.81
338.422	89.81
338.65	87.81
338.878	98.81
339.106	80.81
339.334	75.81
339.562	81.81
339.79	75.81
340.018	85.81
340.246	71.81
340.474	96.81
340.702	84.81
340.93	87.81
341.158	77.81
341.386	98.81
341.614	81.81
341.842	79.81
342.07	77.81
342.298	74.81
342.526	76.81
342.754	86.81
342.981	69.81
343.209	78.81
343.437	95.81
343.665	80.81
343.893	93.81
344.12	87.81
344.348	98.81
344.576	88.81
344.804	89.81
345.031	81.81
345.259	81.81
345.487	104.81
345.714	76.81
345.942	79.81
346.17	87.81
346.397	80.81
346.625	81.81
346.853	82.81
347.08	80.81
347.308	85.81
347.535	94.81
347.763	72.81
347.99	81.81
348.218	81.81
348.445	89.81
348.673	84.81
348.9	91.81
349.128	97.81
349.355	80.81
349.583	65.81
349.81	71.81
350.037	85.81
350.265	66.81
350.492	89.81
350.72	71.81
350.947	65.81
351.174	76.81
351.402	75.81
351.629	81.81
351.856	80.81
352.083	84.81
352.311	81.81
352.538	79.81
352.765	79.81
352.992	89.81
353.22	77.81
353.447	85.81
353.674	84.81
353.901	80.81
354.128	100.81
354.355	87.81
354.583	73.81
354.81	83.81
355.037	80.81
355.264	81.81
355.491	81.81
355.718	94.81
355.945	86.81
356.172	84.81
356.399	78.81
356.626	69.81
356.853	95.81
357.08	86.81
357.307	67.81
357.534	96.81
357.761	88.81
357.988	85.81
358.215	82.81
358.441	81.81
358.668	80.81
358.895	82.81
359.122	92.81
359.349	81.81
359.576	79.81
359.802	75.81
360.029	84.81
360.256	75.81
360.483	69.81
360.709	72.81
360.936	86.81
361.163	78.81
361.39	92.81
361.616	93.81
361.843	92.81
362.07	97.81
362.296	96.81
362.523	88.81
362.749	97.81
362.976	112.81
363.203	109.81
363.429	104.81
363.656	97.81
363.882	80.81
364.109	110.81
364.335	105.81
364.562	117.81
364.788	99.81
365.015	90.81
365.241	85.81
365.468	99.81
365.694	72.81
365.92	82.81
366.147	78.81
366.373	86.81
366.599	72.81
366.826	63.81
367.052	81.81
367.278	85.81
367.505	87.81
367.731	73.81
367.957	78.81
368.184	87.81
368.41	84.81
368.636	85.81
368.862	66.81
369.089	73.81
369.315	81.81
369.541	84.81
369.767	86.81
369.993	77.81
370.219	83.81
370.445	88.81
370.672	83.81
370.898	86.81
371.124	85.81
371.35	79.81
371.576	92.81
371.802	88.81
372.028	77.81
372.254	78.81
372.48	74.81
372.706	71.81
372.932	83.81
373.158	79.81
373.384	88.81
373.61	86.81
373.835	78.81
374.061	86.81
374.287	85.81
374.513	83.81
374.739	91.81
374.965	95.81
375.191	70.81
375.416	74.81
375.642	84.81
375.868	88.81
376.094	80.81
376.319	85.81
376.545	83.81
376.771	81.81
376.997	78.81
377.222	83.81
377.448	89.81
377.674	71.81
377.899	73.81
378.125	89.81
378.35	76.81
378.576	78.81
378.802	85.81
379.027	75.81
379.253	78.81
379.478	82.81
379.704	69.81
379.929	91.81
380.155	76.81
380.38	81.81
380.606	93.81
380.831	83.81
381.057	84.81
381.282	72.81
381.507	84.81
381.733	85.81
381.958	77.81
382.184	86.81
382.409	76.81
382.634	72.81
382.86	84.81
383.085	100.81
383.31	88.81
383.535	92.81
383.761	100.81
383.986	88.81
384.211	78.81
384.436	79.81
384.662	72.81
384.887	78.81
385.112	81.81
385.337	69.81
385.562	85.81
385.787	94.81
386.013	87.81
386.238	82.81
386.463	97.81
386.688	102.81
386.913	75.81
387.138	85.81
387.363	83.81
387.588	100.81
387.813	79.81
388.038	92.81
388.263	77.81
388.488	94.81
388.713	90.81
388.938	74.81
389.163	86.81
389.387	82.81
389.612	81.81
389.837	80.81
390.062	79.81
390.287	97.81
390.512	89.81
390.736	79.81
390.961	87.81
391.186	86.81
391.411	74.81
391.636	94.81
391.86	85.81
392.085	86.81
392.31	83.81
392.534	80.81
392.759	107.81
392.984	119.81
393.208	178.81
393.433	213.81
393.658	195.81
393.882	113.81
394.107	98.81
394.331	92.81
394.556	110.81
394.78	83.81
395.005	89.81
395.229	86.81
395.454	83.81
395.678	93.81
395.903	107.81
396.127	100.81
396.352	109.81
396.576	141.81
396.801	180.81
397.025	190.81
397.249	138.81
397.474	99.81
397.698	91.81
397.922	86.81
398.147	86.81
398.371	81.81
398.595	85.81
398.82	83.81
399.044	88.81
399.268	87.81
399.492	83.81
399.717	74.81
399.941	77.81
400.165	88.81
400.389	91.81
400.613	85.81
400.837	75.81
401.062	79.81
401.286	86.81
401.51	74.81
401.734	87.81
401.958	78.81
402.182	89.81
402.406	80.81
402.63	79.81
402.854	91.81
403.078	85.81
403.302	93.81
403.526	99.81
403.75	81.81
403.974	80.81
404.198	86.81
404.422	88.81
404.645	85.81
404.869	77.81
405.093	97.81
405.317	89.81
405.541	85.81
405.765	84.81
405.988	86.81
406.212	87.81
406.436	84.81
406.66	89.81
406.883	73.81
407.107	86.81
407.331	76.81
407.555	83.81
407.778	91.81
408.002	82.81
408.226	85.81
408.449	83.81
408.673	101.81
408.896	96.81
409.12	85.81
409.344	89.81
409.567	92.81
409.791	99.81
410.014	94.81
410.238	90.81
410.461	77.81
410.685	87.81
410.908	94.81
411.132	86.81
411.355	69.81
411.578	90.81
411.802	84.81
412.025	84.81
412.249	80.81
412.472	81.81
412.695	73.81
412.919	79.81
413.142	86.81
413.365	66.81
413.589	87.81
413.812	82.81
414.035	82.81
414.258	88.81
414.482	90.81
414.705	83.81
414.928	79.81
415.151	87.81
415.374	89.81
415.597	82.81
415.821	59.81
416.044	76.81
416.267	84.81
416.49	66.81
416.713	84.81
416.936	83.81
417.159	93.81
417.382	91.81
417.605	78.81
417.828	81.81
418.051	86.81
418.274	87.81
418.497	93.81
418.72	79.81
418.943	82.81
419.166	68.81
419.389	87.81
419.611	85.81
419.834	97.81
420.057	86.81
420.28	91.81
420.503	92.81
420.726	81.81
420.948	98.81
421.171	99.81
421.394	95.81
421.617	108.81
421.839	102.81
422.062	121.81
422.285	145.81
422.507	226.81
422.73	292.81
422.953	258.81
423.175	183.81
423.398	131.81
423.621	119.81
423.843	96.81
424.066	96.81
424.288	96.81
424.511	86.81
424.733	73.81
424.956	84.81
425.178	93.81
425.401	88.81
425.623	86.81
425.846	63.81
426.068	78.81
426.291	96.81
426.513	78.81
426.735	95.81
426.958	91.81
427.18	80.81
427.402	87.81
427.625	77.81
427.847	89.81
428.069	84.81
428.292	121.81
428.514	118.81
428.736	119.81
428.958	114.81
429.181	112.81
429.403	88.81
429.625	79.81
429.847	113.81
430.069	135.81
430.292	147.81
430.514	150.81
430.736	112.81
430.958	111.81
431.18	86.81
431.402	96.81
431.624	91.81
431.846	104.81
432.068	126.81
432.29	99.81
432.512	91.81
432.734	86.81
432.956	90.81
433.178	83.81
433.4	81.81
433.622	90.81
433.844	81.81
434.066	91.81
434.287	83.81
434.509	83.81
434.731	94.81
434.953	92.81
435.175	91.81
435.397	103.81
435.618	89.81
435.84	84.81
436.062	86.81
436.284	81.81
436.505	83.81
436.727	77.81
436.949	78.81
437.17	89.81
437.392	83.81
437.614	83.81
437.835	76.81
438.057	73.81
438.278	72.81
438.5	76.81
438.721	92.81
438.943	89.81
439.165	70.81
439.386	83.81
439.608	78.81
439.829	84.81
440.05	69.81
440.272	80.81
440.493	79.81
440.715	74.81
440.936	90.81
441.158	73.81
441.379	87.81
441.6	78.81
441.822	83.81
442.043	85.81
442.264	95.81
442.486	118.81
442.707	141.81
442.928	121.81
443.149	103.81
443.371	130.81
443.592	202.81
443.813	173.81
444.034	94.81
444.255	81.81
444.476	76.81
444.698	98.81
444.919	114.81
445.14	169.81
445.361	168.81
445.582	225.81
445.803	192.81
446.024	108.81
446.245	93.81
446.466	65.81
446.687	71.81
446.908	72.81
447.129	85.81
447.35	84.81
447.571	71.81
447.792	77.81
448.013	77.81
448.234	71.81
448.455	63.81
448.675	71.81
448.896	77.81
449.117	83.81
449.338	93.81
449.559	92.81
449.779	91.81
450	71.81
450.221	82.81
450.442	72.81
450.662	83.81
450.883	73.81
451.104	72.81
451.324	79.81
451.545	75.81
451.766	80.81
451.986	71.81
452.207	78.81
452.428	80.81
452.648	93.81
452.869	94.81
453.089	94.81
453.31	81.81
453.53	74.81
453.751	81.81
453.971	83.81
454.192	91.81
454.412	67.81
454.633	81.81
454.853	77.81
455.073	79.81
455.294	80.81
455.514	96.81
455.734	83.81
455.955	81.81
456.175	90.81
456.395	91.81
456.616	91.81
456.836	89.81
457.056	83.81
457.276	72.81
457.497	89.81
457.717	80.81
457.937	114.81
458.157	117.81
458.377	119.81
458.598	105.81
458.818	112.81
459.038	84.81
459.258	79.81
459.478	70.81
459.698	73.81
459.918	92.81
460.138	87.81
460.358	86.81
460.578	88.81
460.798	120.81
461.018	95.81
461.238	83.81
461.458	69.81
461.678	80.81
461.898	83.81
462.118	77.81
462.338	72.81
462.558	84.81
462.777	75.81
462.997	79.81
463.217	86.81
463.437	63.81
463.657	91.81
463.876	85.81
464.096	93.81
464.316	76.81
464.536	89.81
464.755	91.81
464.975	77.81
465.195	83.81
465.414	86.81
465.634	94.81
465.854	89.81
466.073	74.81
466.293	76.81
466.512	72.81
466.732	71.81
466.951	68.81
467.171	92.81
467.391	90.81
467.61	79.81
467.829	87.81
468.049	79.81
468.268	74.81
468.488	104.81
468.707	79.81
468.927	67.81
469.146	89.81
469.365	85.81
469.585	74.81
469.804	76.81
470.023	83.81
470.243	78.81
470.462	77.81
470.681	71.81
470.901	80.81
471.12	74.81
471.339	85.81
471.558	79.81
471.777	71.81
471.997	92.81
472.216	83.81
472.435	89.81
472.654	80.81
472.873	92.81
473.092	88.81
473.311	102.81
473.53	76.81
473.749	82.81
473.968	78.81
474.187	76.81
474.406	89.81
474.625	68.81
474.844	93.81
475.063	85.81
475.282	86.81
475.501	79.81
475.72	96.81
475.939	88.81
476.158	90.81
476.377	75.81
476.596	87.81
476.814	82.81
477.033	78.81
477.252	81.81
477.471	86.81
477.69	71.81
477.908	87.81
478.127	97.81
478.346	81.81
478.564	78.81
478.783	84.81
479.002	78.81
479.22	72.81
479.439	68.81
479.658	85.81
479.876	91.81
480.095	87.81
480.313	86.81
480.532	68.81
480.751	91.81
480.969	91.81
481.188	81.81
481.406	77.81
481.624	92.81
481.843	76.81
482.061	83.81
482.28	80.81
482.498	73.81
482.717	79.81
482.935	80.81
483.153	91.81
483.372	76.81
483.59	88.81
483.808	77.81
484.027	82.81
484.245	79.81
484.463	70.81
484.681	98.81
484.9	76.81
485.118	76.81
485.336	82.81
485.554	84.81
485.772	76.81
485.99	89.81
486.209	78.81
486.427	69.81
486.645	87.81
486.863	91.81
487.081	80.81
487.299	97.81
487.517	95.81
487.735	110.81
487.953	151.81
488.171	126.81
488.389	96.81
488.607	84.81
488.825	97.81
489.043	85.81
489.261	75.81
489.479	75.81
489.696	90.81
489.914	90.81
490.132	82.81
490.35	72.81
490.568	93.81
490.786	84.81
491.003	68.81
491.221	72.81
491.439	92.81
491.657	85.81
491.874	77.81
492.092	85.81
492.31	88.81
492.527	91.81
492.745	79.81
492.963	86.81
493.18	80.81
493.398	80.81
493.615	93.81
493.833	72.81
494.05	86.81
494.268	83.81
494.485	90.81
494.703	78.81
494.92	77.81
495.138	76.81
495.355	74.81
495.573	87.81
495.79	67.81
496.008	101.81
496.225	73.81
496.442	91.81
496.66	74.81
496.877	86.81
497.094	77.81
497.312	89.81
497.529	82.81
497.746	80.81
497.963	91.81
498.181	83.81
498.398	88.81
498.615	93.81
498.832	79.81
499.049	80.81
499.267	90.81
499.484	96.81
499.701	90.81
499.918	88.81
500.135	101.81
500.352	90.81
500.569	79.81
500.786	81.81
501.003	96.81
501.22	82.81
501.437	101.81
501.654	77.81
501.871	87.81
502.088	83.81
502.305	80.81
502.522	88.81
502.739	68.81
502.956	85.81
503.172	88.81
503.389	86.81
503.606	86.81
503.823	87.81
504.04	86.81
504.256	129.81
504.473	130.81
504.69	97.81
504.907	82.81
505.123	88.81
505.34	94.81
505.557	96.81
505.773	80.81
505.99	80.81
506.207	88.81
506.423	84.81
506.64	95.81
506.856	87.81
507.073	76.81
507.289	81.81
507.506	95.81
507.722	72.81
507.939	81.81
508.155	79.81
508.372	87.81
508.588	72.81
508.805	90.81
509.021	92.81
509.238	90.81
509.454	75.81
509.67	83.81
509.887	87.81
510.103	71.81
510.319	95.81
510.536	85.81
510.752	88.81
510.968	79.81
511.184	93.81
511.401	75.81
511.617	82.81
511.833	73.81
512.049	87.81
512.265	73.81
512.481	86.81
512.698	85.81
512.914	75.81
513.13	79.81
513.346	77.81
513.562	99.81
513.778	81.81
513.994	86.81
514.21	90.81
514.426	71.81
514.642	77.81
514.858	80.81
515.074	77.81
515.29	79.81
515.506	90.81
515.721	74.81
515.937	78.81
516.153	92.81
516.369	87.81
516.585	83.81
516.801	90.81
517.016	77.81
517.232	87.81
517.448	86.81
517.664	100.81
517.879	91.81
518.095	79.81
518.311	91.81
518.527	103.81
518.742	113.81
518.958	161.81
519.173	153.81
