Data from CBS_1_HRD10591_00034.txt Node
Date: Mon Jan 19 14:04:05 EST 2026
User: Yrep
Spectrometer: HR+D1059
Trigger mode: 1
Integration Time (sec): 1.000000E-1
Scans to average: 1
Electric dark correction enabled: true
Nonlinearity correction enabled: false
Boxcar width: 0
XAxis mode: Wavelengths
Number of Pixels in Spectrum: 2048
>>>>>Begin Spectral Data<<<<<
223.165	-14.69
223.4	-14.69
223.635	-14.69
223.869	-19.69
224.104	-13.69
224.338	-21.69
224.573	-29.69
224.808	-14.69
225.042	1.31
225.277	3.31
225.511	4.31
225.746	7.31
225.98	20.31
226.215	18.31
226.449	3.31
226.683	17.31
226.918	20.31
227.152	18.31
227.387	24.31
227.621	37.31
227.856	38.31
228.09	36.31
228.324	48.31
228.559	51.31
228.793	68.31
229.027	66.31
229.262	49.31
229.496	68.31
229.73	78.31
229.964	76.31
230.199	76.31
230.433	78.31
230.667	90.31
230.901	83.31
231.136	74.31
231.37	66.31
231.604	68.31
231.838	82.31
232.072	78.31
232.306	97.31
232.541	76.31
232.775	81.31
233.009	78.31
233.243	78.31
233.477	94.31
233.711	75.31
233.945	70.31
234.179	77.31
234.413	85.31
234.647	76.31
234.881	82.31
235.115	66.31
235.349	68.31
235.583	92.31
235.817	69.31
236.051	84.31
236.285	65.31
236.519	88.31
236.753	83.31
236.987	75.31
237.221	79.31
237.455	77.31
237.689	72.31
237.922	82.31
238.156	67.31
238.39	76.31
238.624	66.31
238.858	80.31
239.091	73.31
239.325	86.31
239.559	82.31
239.793	82.31
240.027	88.31
240.26	67.31
240.494	76.31
240.728	85.31
240.961	73.31
241.195	70.31
241.429	77.31
241.662	68.31
241.896	72.31
242.13	74.31
242.363	90.31
242.597	69.31
242.83	94.31
243.064	84.31
243.298	68.31
243.531	91.31
243.765	73.31
243.998	83.31
244.232	80.31
244.465	77.31
244.699	74.31
244.932	66.31
245.166	84.31
245.399	90.31
245.633	72.31
245.866	72.31
246.099	74.31
246.333	77.31
246.566	72.31
246.8	86.31
247.033	87.31
247.266	73.31
247.5	86.31
247.733	89.31
247.966	83.31
248.2	78.31
248.433	78.31
248.666	66.31
248.899	88.31
249.133	76.31
249.366	86.31
249.599	87.31
249.832	71.31
250.066	70.31
250.299	80.31
250.532	82.31
250.765	77.31
250.998	77.31
251.231	77.31
251.465	73.31
251.698	64.31
251.931	77.31
252.164	76.31
252.397	70.31
252.63	75.31
252.863	92.31
253.096	78.31
253.329	77.31
253.562	95.31
253.795	77.31
254.028	74.31
254.261	65.31
254.494	80.31
254.727	83.31
254.96	91.31
255.193	71.31
255.426	75.31
255.659	88.31
255.892	98.31
256.124	87.31
256.357	87.31
256.59	73.31
256.823	76.31
257.056	86.31
257.289	62.31
257.521	81.31
257.754	75.31
257.987	72.31
258.22	78.31
258.452	68.31
258.685	89.31
258.918	84.31
259.151	76.31
259.383	77.31
259.616	81.31
259.849	79.31
260.081	78.31
260.314	82.31
260.547	75.31
260.779	78.31
261.012	72.31
261.244	84.31
261.477	98.31
261.71	91.31
261.942	88.31
262.175	80.31
262.407	82.31
262.64	74.31
262.872	68.31
263.105	99.31
263.337	81.31
263.57	85.31
263.802	78.31
264.035	81.31
264.267	77.31
264.499	77.31
264.732	66.31
264.964	77.31
265.197	83.31
265.429	82.31
265.661	91.31
265.894	76.31
266.126	90.31
266.358	84.31
266.591	96.31
266.823	89.31
267.055	68.31
267.287	65.31
267.52	85.31
267.752	82.31
267.984	82.31
268.216	84.31
268.448	92.31
268.681	86.31
268.913	82.31
269.145	89.31
269.377	72.31
269.609	72.31
269.841	94.31
270.073	82.31
270.306	90.31
270.538	79.31
270.77	75.31
271.002	84.31
271.234	88.31
271.466	72.31
271.698	79.31
271.93	82.31
272.162	92.31
272.394	98.31
272.626	83.31
272.858	76.31
273.09	83.31
273.322	77.31
273.553	95.31
273.785	80.31
274.017	76.31
274.249	80.31
274.481	74.31
274.713	99.31
274.945	81.31
275.176	83.31
275.408	78.31
275.64	76.31
275.872	80.31
276.104	88.31
276.335	86.31
276.567	83.31
276.799	72.31
277.031	82.31
277.262	74.31
277.494	85.31
277.726	93.31
277.957	93.31
278.189	84.31
278.421	76.31
278.652	76.31
278.884	100.31
279.115	74.31
279.347	71.31
279.579	82.31
279.81	84.31
280.042	75.31
280.273	76.31
280.505	82.31
280.736	85.31
280.968	84.31
281.199	94.31
281.431	92.31
281.662	86.31
281.894	75.31
282.125	82.31
282.356	82.31
282.588	92.31
282.819	86.31
283.051	89.31
283.282	76.31
283.513	93.31
283.745	86.31
283.976	86.31
284.207	80.31
284.439	74.31
284.67	99.31
284.901	76.31
285.132	79.31
285.364	68.31
285.595	82.31
285.826	75.31
286.057	75.31
286.288	73.31
286.52	87.31
286.751	85.31
286.982	74.31
287.213	73.31
287.444	71.31
287.675	82.31
287.906	80.31
288.138	77.31
288.369	74.31
288.6	72.31
288.831	86.31
289.062	75.31
289.293	88.31
289.524	92.31
289.755	89.31
289.986	78.31
290.217	71.31
290.448	86.31
290.679	88.31
290.91	80.31
291.141	74.31
291.371	101.31
291.602	80.31
291.833	86.31
292.064	89.31
292.295	95.31
292.526	91.31
292.757	93.31
292.987	88.31
293.218	90.31
293.449	76.31
293.68	100.31
293.91	82.31
294.141	81.31
294.372	79.31
294.603	80.31
294.833	90.31
295.064	81.31
295.295	92.31
295.525	96.31
295.756	89.31
295.987	83.31
296.217	87.31
296.448	77.31
296.679	86.31
296.909	86.31
297.14	83.31
297.37	82.31
297.601	99.31
297.831	74.31
298.062	83.31
298.292	78.31
298.523	79.31
298.753	87.31
298.984	76.31
299.214	89.31
299.445	99.31
299.675	92.31
299.905	88.31
300.136	77.31
300.366	76.31
300.597	68.31
300.827	89.31
301.057	80.31
301.288	84.31
301.518	91.31
301.748	82.31
301.979	98.31
302.209	89.31
302.439	87.31
302.669	84.31
302.9	88.31
303.13	87.31
303.36	85.31
303.59	83.31
303.82	91.31
304.051	77.31
304.281	91.31
304.511	88.31
304.741	86.31
304.971	88.31
305.201	87.31
305.431	91.31
305.661	89.31
305.891	82.31
306.121	101.31
306.352	87.31
306.582	92.31
306.812	74.31
307.042	81.31
307.272	87.31
307.502	85.31
307.731	96.31
307.961	92.31
308.191	98.31
308.421	99.31
308.651	86.31
308.881	87.31
309.111	76.31
309.341	87.31
309.571	87.31
309.8	71.31
310.03	85.31
310.26	91.31
310.49	81.31
310.72	73.31
310.949	84.31
311.179	87.31
311.409	67.31
311.639	90.31
311.868	86.31
312.098	93.31
312.328	84.31
312.557	89.31
312.787	90.31
313.017	74.31
313.246	90.31
313.476	91.31
313.706	65.31
313.935	88.31
314.165	82.31
314.394	84.31
314.624	80.31
314.853	77.31
315.083	68.31
315.312	84.31
315.542	83.31
315.771	86.31
316.001	94.31
316.23	89.31
316.46	73.31
316.689	74.31
316.919	92.31
317.148	94.31
317.377	96.31
317.607	86.31
317.836	76.31
318.065	83.31
318.295	82.31
318.524	91.31
318.753	86.31
318.983	87.31
319.212	95.31
319.441	93.31
319.67	76.31
319.9	92.31
320.129	93.31
320.358	80.31
320.587	99.31
320.816	86.31
321.046	88.31
321.275	83.31
321.504	89.31
321.733	92.31
321.962	83.31
322.191	77.31
322.42	83.31
322.649	94.31
322.878	86.31
323.108	82.31
323.337	87.31
323.566	85.31
323.795	87.31
324.024	93.31
324.253	77.31
324.482	79.31
324.71	76.31
324.939	89.31
325.168	94.31
325.397	88.31
325.626	70.31
325.855	87.31
326.084	86.31
326.313	85.31
326.542	93.31
326.77	87.31
326.999	83.31
327.228	84.31
327.457	94.31
327.686	99.31
327.914	84.31
328.143	99.31
328.372	84.31
328.6	83.31
328.829	83.31
329.058	88.31
329.287	85.31
329.515	86.31
329.744	86.31
329.972	78.31
330.201	84.31
330.43	91.31
330.658	81.31
330.887	80.31
331.115	86.31
331.344	88.31
331.572	90.31
331.801	73.31
332.03	86.31
332.258	80.31
332.486	76.31
332.715	84.31
332.943	84.31
333.172	82.31
333.4	90.31
333.629	92.31
333.857	79.31
334.085	86.31
334.314	80.31
334.542	87.31
334.771	76.31
334.999	94.31
335.227	81.31
335.455	93.31
335.684	89.31
335.912	94.31
336.14	74.31
336.369	87.31
336.597	86.31
336.825	88.31
337.053	98.31
337.281	80.31
337.51	87.31
337.738	83.31
337.966	93.31
338.194	90.31
338.422	84.31
338.65	84.31
338.878	75.31
339.106	91.31
339.334	89.31
339.562	66.31
339.79	88.31
340.018	81.31
340.246	74.31
340.474	79.31
340.702	90.31
340.93	92.31
341.158	77.31
341.386	80.31
341.614	86.31
341.842	87.31
342.07	76.31
342.298	75.31
342.526	83.31
342.754	87.31
342.981	88.31
343.209	73.31
343.437	84.31
343.665	91.31
343.893	92.31
344.12	79.31
344.348	83.31
344.576	92.31
344.804	82.31
345.031	88.31
345.259	73.31
345.487	87.31
345.714	80.31
345.942	95.31
346.17	75.31
346.397	80.31
346.625	86.31
346.853	70.31
347.08	100.31
347.308	86.31
347.535	85.31
347.763	91.31
347.99	90.31
348.218	81.31
348.445	88.31
348.673	75.31
348.9	72.31
349.128	83.31
349.355	66.31
349.583	80.31
349.81	83.31
350.037	82.31
350.265	99.31
350.492	75.31
350.72	80.31
350.947	76.31
351.174	82.31
351.402	67.31
351.629	86.31
351.856	86.31
352.083	75.31
352.311	86.31
352.538	74.31
352.765	75.31
352.992	90.31
353.22	72.31
353.447	86.31
353.674	85.31
353.901	74.31
354.128	91.31
354.355	79.31
354.583	81.31
354.81	88.31
355.037	83.31
355.264	87.31
355.491	82.31
355.718	70.31
355.945	82.31
356.172	73.31
356.399	87.31
356.626	93.31
356.853	84.31
357.08	85.31
357.307	72.31
357.534	75.31
357.761	89.31
357.988	98.31
358.215	86.31
358.441	76.31
358.668	74.31
358.895	88.31
359.122	83.31
359.349	86.31
359.576	94.31
359.802	87.31
360.029	75.31
360.256	75.31
360.483	87.31
360.709	83.31
360.936	94.31
361.163	73.31
361.39	77.31
361.616	80.31
361.843	76.31
362.07	86.31
362.296	98.31
362.523	75.31
362.749	73.31
362.976	103.31
363.203	75.31
363.429	78.31
363.656	67.31
363.882	84.31
364.109	78.31
364.335	82.31
364.562	85.31
364.788	80.31
365.015	73.31
365.241	88.31
365.468	99.31
365.694	81.31
365.92	80.31
366.147	70.31
366.373	88.31
366.599	80.31
366.826	87.31
367.052	83.31
367.278	86.31
367.505	89.31
367.731	77.31
367.957	82.31
368.184	72.31
368.41	89.31
368.636	90.31
368.862	89.31
369.089	90.31
369.315	65.31
369.541	74.31
369.767	76.31
369.993	77.31
370.219	71.31
370.445	80.31
370.672	76.31
370.898	88.31
371.124	95.31
371.35	89.31
371.576	90.31
371.802	87.31
372.028	95.31
372.254	97.31
372.48	85.31
372.706	87.31
372.932	83.31
373.158	90.31
373.384	87.31
373.61	78.31
373.835	94.31
374.061	84.31
374.287	82.31
374.513	82.31
374.739	78.31
374.965	90.31
375.191	82.31
375.416	90.31
375.642	84.31
375.868	73.31
376.094	99.31
376.319	71.31
376.545	80.31
376.771	78.31
376.997	72.31
377.222	76.31
377.448	85.31
377.674	88.31
377.899	73.31
378.125	80.31
378.35	82.31
378.576	72.31
378.802	88.31
379.027	85.31
379.253	100.31
379.478	90.31
379.704	88.31
379.929	73.31
380.155	88.31
380.38	80.31
380.606	90.31
380.831	78.31
381.057	84.31
381.282	78.31
381.507	84.31
381.733	83.31
381.958	82.31
382.184	90.31
382.409	84.31
382.634	81.31
382.86	71.31
383.085	85.31
383.31	87.31
383.535	80.31
383.761	88.31
383.986	67.31
384.211	69.31
384.436	78.31
384.662	77.31
384.887	89.31
385.112	87.31
385.337	60.31
385.562	76.31
385.787	90.31
386.013	82.31
386.238	83.31
386.463	82.31
386.688	75.31
386.913	76.31
387.138	87.31
387.363	89.31
387.588	77.31
387.813	90.31
388.038	87.31
388.263	87.31
388.488	91.31
388.713	90.31
388.938	78.31
389.163	84.31
389.387	89.31
389.612	87.31
389.837	69.31
390.062	73.31
390.287	77.31
390.512	76.31
390.736	87.31
390.961	74.31
391.186	100.31
391.411	87.31
391.636	71.31
391.86	83.31
392.085	73.31
392.31	78.31
392.534	82.31
392.759	84.31
392.984	98.31
393.208	126.31
393.433	137.31
393.658	126.31
393.882	100.31
394.107	83.31
394.331	105.31
394.556	98.31
394.78	108.31
395.005	86.31
395.229	106.31
395.454	93.31
395.678	88.31
395.903	78.31
396.127	81.31
396.352	103.31
396.576	112.31
396.801	115.31
397.025	107.31
397.249	91.31
397.474	85.31
397.698	82.31
397.922	93.31
398.147	95.31
398.371	76.31
398.595	88.31
398.82	90.31
399.044	71.31
399.268	80.31
399.492	83.31
399.717	91.31
399.941	82.31
400.165	100.31
400.389	82.31
400.613	88.31
400.837	95.31
401.062	91.31
401.286	85.31
401.51	79.31
401.734	74.31
401.958	87.31
402.182	84.31
402.406	90.31
402.63	83.31
402.854	81.31
403.078	85.31
403.302	88.31
403.526	82.31
403.75	90.31
403.974	82.31
404.198	85.31
404.422	91.31
404.645	78.31
404.869	68.31
405.093	78.31
405.317	89.31
405.541	89.31
405.765	87.31
405.988	79.31
406.212	83.31
406.436	77.31
406.66	72.31
406.883	83.31
407.107	70.31
407.331	91.31
407.555	81.31
407.778	87.31
408.002	88.31
408.226	84.31
408.449	88.31
408.673	99.31
408.896	98.31
409.12	70.31
409.344	79.31
409.567	76.31
409.791	78.31
410.014	90.31
410.238	80.31
410.461	82.31
410.685	66.31
410.908	79.31
411.132	90.31
411.355	74.31
411.578	81.31
411.802	89.31
412.025	75.31
412.249	77.31
412.472	89.31
412.695	83.31
412.919	79.31
413.142	89.31
413.365	76.31
413.589	80.31
413.812	74.31
414.035	82.31
414.258	76.31
414.482	72.31
414.705	83.31
414.928	74.31
415.151	65.31
415.374	83.31
415.597	74.31
415.821	78.31
416.044	92.31
416.267	94.31
416.49	76.31
416.713	88.31
416.936	75.31
417.159	89.31
417.382	64.31
417.605	74.31
417.828	94.31
418.051	90.31
418.274	67.31
418.497	87.31
418.72	78.31
418.943	87.31
419.166	83.31
419.389	86.31
419.611	87.31
419.834	87.31
420.057	89.31
420.28	91.31
420.503	70.31
420.726	73.31
420.948	96.31
421.171	86.31
421.394	94.31
421.617	94.31
421.839	99.31
422.062	88.31
422.285	100.31
422.507	103.31
422.73	137.31
422.953	121.31
423.175	118.31
423.398	85.31
423.621	79.31
423.843	93.31
424.066	91.31
424.288	92.31
424.511	79.31
424.733	77.31
424.956	79.31
425.178	86.31
425.401	91.31
425.623	86.31
425.846	89.31
426.068	82.31
426.291	90.31
426.513	81.31
426.735	78.31
426.958	66.31
427.18	85.31
427.402	86.31
427.625	78.31
427.847	78.31
428.069	91.31
428.292	90.31
428.514	92.31
428.736	88.31
428.958	82.31
429.181	99.31
429.403	89.31
429.625	84.31
429.847	82.31
430.069	101.31
430.292	107.31
430.514	103.31
430.736	89.31
430.958	87.31
431.18	81.31
431.402	87.31
431.624	78.31
431.846	97.31
432.068	101.31
432.29	99.31
432.512	86.31
432.734	86.31
432.956	73.31
433.178	88.31
433.4	80.31
433.622	71.31
433.844	74.31
434.066	78.31
434.287	74.31
434.509	95.31
434.731	82.31
434.953	74.31
435.175	76.31
435.397	90.31
435.618	84.31
435.84	91.31
436.062	87.31
436.284	91.31
436.505	83.31
436.727	92.31
436.949	83.31
437.17	87.31
437.392	86.31
437.614	83.31
437.835	86.31
438.057	90.31
438.278	83.31
438.5	89.31
438.721	68.31
438.943	82.31
439.165	89.31
439.386	79.31
439.608	91.31
439.829	92.31
440.05	81.31
440.272	84.31
440.493	75.31
440.715	75.31
440.936	80.31
441.158	71.31
441.379	77.31
441.6	94.31
441.822	95.31
442.043	82.31
442.264	88.31
442.486	92.31
442.707	91.31
442.928	92.31
443.149	92.31
443.371	107.31
443.592	102.31
443.813	97.31
444.034	76.31
444.255	86.31
444.476	84.31
444.698	77.31
444.919	86.31
445.14	175.31
445.361	136.31
445.582	123.31
445.803	114.31
446.024	82.31
446.245	79.31
446.466	86.31
446.687	74.31
446.908	81.31
447.129	74.31
447.35	81.31
447.571	82.31
447.792	86.31
448.013	69.31
448.234	81.31
448.455	96.31
448.675	86.31
448.896	76.31
449.117	82.31
449.338	70.31
449.559	64.31
449.779	78.31
450	70.31
450.221	80.31
450.442	70.31
450.662	83.31
450.883	96.31
451.104	91.31
451.324	89.31
451.545	84.31
451.766	89.31
451.986	77.31
452.207	77.31
452.428	80.31
452.648	76.31
452.869	86.31
453.089	89.31
453.31	81.31
453.53	66.31
453.751	81.31
453.971	92.31
454.192	81.31
454.412	80.31
454.633	86.31
454.853	77.31
455.073	83.31
455.294	89.31
455.514	86.31
455.734	73.31
455.955	80.31
456.175	66.31
456.395	80.31
456.616	78.31
456.836	74.31
457.056	80.31
457.276	97.31
457.497	89.31
457.717	89.31
457.937	81.31
458.157	84.31
458.377	84.31
458.598	96.31
458.818	71.31
459.038	81.31
459.258	78.31
459.478	80.31
459.698	80.31
459.918	81.31
460.138	81.31
460.358	82.31
460.578	86.31
460.798	107.31
461.018	81.31
461.238	83.31
461.458	79.31
461.678	82.31
461.898	76.31
462.118	83.31
462.338	66.31
462.558	77.31
462.777	81.31
462.997	86.31
463.217	84.31
463.437	77.31
463.657	88.31
463.876	83.31
464.096	82.31
464.316	88.31
464.536	75.31
464.755	86.31
464.975	72.31
465.195	76.31
465.414	79.31
465.634	75.31
465.854	80.31
466.073	90.31
466.293	98.31
466.512	84.31
466.732	84.31
466.951	76.31
467.171	79.31
467.391	81.31
467.61	78.31
467.829	71.31
468.049	82.31
468.268	87.31
468.488	82.31
468.707	83.31
468.927	80.31
469.146	86.31
469.365	77.31
469.585	84.31
469.804	97.31
470.023	80.31
470.243	76.31
470.462	102.31
470.681	76.31
470.901	77.31
471.12	84.31
471.339	85.31
471.558	68.31
471.777	85.31
471.997	74.31
472.216	83.31
472.435	80.31
472.654	85.31
472.873	66.31
473.092	80.31
473.311	81.31
473.53	88.31
473.749	80.31
473.968	82.31
474.187	75.31
474.406	72.31
474.625	84.31
474.844	82.31
475.063	90.31
475.282	78.31
475.501	82.31
475.72	92.31
475.939	81.31
476.158	78.31
476.377	95.31
476.596	87.31
476.814	91.31
477.033	79.31
477.252	82.31
477.471	79.31
477.69	81.31
477.908	80.31
478.127	85.31
478.346	84.31
478.564	94.31
478.783	76.31
479.002	80.31
479.22	78.31
479.439	90.31
479.658	82.31
479.876	72.31
480.095	76.31
480.313	88.31
480.532	88.31
480.751	76.31
480.969	95.31
481.188	76.31
481.406	82.31
481.624	71.31
481.843	66.31
482.061	84.31
482.28	84.31
482.498	83.31
482.717	76.31
482.935	69.31
483.153	94.31
483.372	78.31
483.59	69.31
483.808	75.31
484.027	87.31
484.245	100.31
484.463	88.31
484.681	94.31
484.9	86.31
485.118	77.31
485.336	71.31
485.554	72.31
485.772	87.31
485.99	67.31
486.209	78.31
486.427	66.31
486.645	85.31
486.863	88.31
487.081	88.31
487.299	81.31
487.517	78.31
487.735	94.31
487.953	88.31
488.171	104.31
488.389	84.31
488.607	97.31
488.825	71.31
489.043	74.31
489.261	86.31
489.479	91.31
489.696	102.31
489.914	90.31
490.132	89.31
490.35	95.31
490.568	95.31
490.786	83.31
491.003	78.31
491.221	88.31
491.439	83.31
491.657	87.31
491.874	82.31
492.092	78.31
492.31	94.31
492.527	92.31
492.745	77.31
492.963	80.31
493.18	67.31
493.398	82.31
493.615	81.31
493.833	96.31
494.05	85.31
494.268	86.31
494.485	88.31
494.703	75.31
494.92	94.31
495.138	70.31
495.355	81.31
495.573	86.31
495.79	80.31
496.008	81.31
496.225	70.31
496.442	82.31
496.66	83.31
496.877	84.31
497.094	92.31
497.312	87.31
497.529	82.31
497.746	81.31
497.963	102.31
498.181	90.31
498.398	92.31
498.615	94.31
498.832	76.31
499.049	90.31
499.267	81.31
499.484	83.31
499.701	86.31
499.918	103.31
500.135	73.31
500.352	71.31
500.569	79.31
500.786	79.31
501.003	94.31
501.22	99.31
501.437	89.31
501.654	65.31
501.871	80.31
502.088	91.31
502.305	94.31
502.522	74.31
502.739	71.31
502.956	87.31
503.172	79.31
503.389	85.31
503.606	89.31
503.823	71.31
504.04	93.31
504.256	88.31
504.473	96.31
504.69	90.31
504.907	89.31
505.123	90.31
505.34	95.31
505.557	89.31
505.773	96.31
505.99	88.31
506.207	95.31
506.423	71.31
506.64	68.31
506.856	82.31
507.073	76.31
507.289	72.31
507.506	75.31
507.722	88.31
507.939	86.31
508.155	84.31
508.372	80.31
508.588	86.31
508.805	84.31
509.021	87.31
509.238	83.31
509.454	88.31
509.67	89.31
509.887	80.31
510.103	80.31
510.319	85.31
510.536	93.31
510.752	84.31
510.968	84.31
511.184	103.31
511.401	72.31
511.617	79.31
511.833	81.31
512.049	84.31
512.265	87.31
512.481	72.31
512.698	82.31
512.914	84.31
513.13	79.31
513.346	83.31
513.562	88.31
513.778	86.31
513.994	87.31
514.21	96.31
514.426	71.31
514.642	94.31
514.858	76.31
515.074	89.31
515.29	102.31
515.506	78.31
515.721	83.31
515.937	90.31
516.153	79.31
516.369	89.31
516.585	93.31
516.801	84.31
517.016	88.31
517.232	80.31
517.448	82.31
517.664	90.31
517.879	73.31
518.095	84.31
518.311	80.31
518.527	96.31
518.742	88.31
518.958	103.31
519.173	91.31
519.389	87.31
519.605	86.31
519.82	77.31
