Data from CBS_1_HRD10591_00019.txt Node
Date: Mon Jan 19 14:03:58 EST 2026
User: Yrep
Spectrometer: HR+D1059
Trigger mode: 1
Integration Time (sec): 1.000000E-1
Scans to average: 1
Electric dark correction enabled: true
Nonlinearity correction enabled: false
Boxcar width: 0
XAxis mode: Wavelengths
Number of Pixels in Spectrum: 2048
>>>>>Begin Spectral Data<<<<<
223.165	-21.88
223.4	-21.88
223.635	-21.88
223.869	-9.88
224.104	-21.88
224.338	-22.88
224.573	-21.88
224.808	-16.88
225.042	0.12
225.277	-6.88
225.511	0.12
225.746	7.12
225.98	10.12
226.215	3.12
226.449	22.12
226.683	22.12
226.918	24.12
227.152	33.12
227.387	35.12
227.621	27.12
227.856	40.12
228.09	48.12
228.324	64.12
228.559	60.12
228.793	60.12
229.027	62.12
229.262	56.12
229.496	64.12
229.73	60.12
229.964	65.12
230.199	82.12
230.433	76.12
230.667	83.12
230.901	72.12
231.136	76.12
231.37	71.12
231.604	84.12
231.838	76.12
232.072	75.12
232.306	66.12
232.541	72.12
232.775	84.12
233.009	79.12
233.243	66.12
233.477	80.12
233.711	86.12
233.945	91.12
234.179	81.12
234.413	90.12
234.647	84.12
234.881	95.12
235.115	84.12
235.349	83.12
235.583	82.12
235.817	76.12
236.051	80.12
236.285	84.12
236.519	84.12
236.753	80.12
236.987	53.12
237.221	80.12
237.455	73.12
237.689	82.12
237.922	86.12
238.156	72.12
238.39	72.12
238.624	64.12
238.858	82.12
239.091	90.12
239.325	71.12
239.559	78.12
239.793	81.12
240.027	80.12
240.26	73.12
240.494	73.12
240.728	74.12
240.961	84.12
241.195	77.12
241.429	72.12
241.662	66.12
241.896	84.12
242.13	65.12
242.363	83.12
242.597	74.12
242.83	80.12
243.064	78.12
243.298	68.12
243.531	71.12
243.765	84.12
243.998	72.12
244.232	72.12
244.465	81.12
244.699	80.12
244.932	94.12
245.166	83.12
245.399	92.12
245.633	83.12
245.866	82.12
246.099	72.12
246.333	66.12
246.566	80.12
246.8	69.12
247.033	74.12
247.266	80.12
247.5	87.12
247.733	84.12
247.966	86.12
248.2	75.12
248.433	73.12
248.666	79.12
248.899	74.12
249.133	75.12
249.366	91.12
249.599	64.12
249.832	74.12
250.066	79.12
250.299	80.12
250.532	87.12
250.765	93.12
250.998	81.12
251.231	86.12
251.465	69.12
251.698	75.12
251.931	78.12
252.164	91.12
252.397	79.12
252.63	73.12
252.863	86.12
253.096	66.12
253.329	74.12
253.562	80.12
253.795	83.12
254.028	94.12
254.261	78.12
254.494	81.12
254.727	82.12
254.96	97.12
255.193	83.12
255.426	94.12
255.659	78.12
255.892	81.12
256.124	75.12
256.357	92.12
256.59	86.12
256.823	75.12
257.056	78.12
257.289	89.12
257.521	84.12
257.754	91.12
257.987	79.12
258.22	90.12
258.452	82.12
258.685	74.12
258.918	90.12
259.151	92.12
259.383	76.12
259.616	71.12
259.849	74.12
260.081	79.12
260.314	92.12
260.547	80.12
260.779	89.12
261.012	70.12
261.244	67.12
261.477	82.12
261.71	75.12
261.942	80.12
262.175	84.12
262.407	98.12
262.64	83.12
262.872	90.12
263.105	69.12
263.337	78.12
263.57	76.12
263.802	88.12
264.035	82.12
264.267	84.12
264.499	85.12
264.732	96.12
264.964	85.12
265.197	83.12
265.429	88.12
265.661	82.12
265.894	80.12
266.126	81.12
266.358	90.12
266.591	90.12
266.823	74.12
267.055	94.12
267.287	83.12
267.52	64.12
267.752	88.12
267.984	73.12
268.216	79.12
268.448	88.12
268.681	75.12
268.913	94.12
269.145	70.12
269.377	74.12
269.609	71.12
269.841	82.12
270.073	89.12
270.306	95.12
270.538	71.12
270.77	74.12
271.002	84.12
271.234	78.12
271.466	83.12
271.698	62.12
271.93	80.12
272.162	101.12
272.394	79.12
272.626	74.12
272.858	72.12
273.09	80.12
273.322	90.12
273.553	91.12
273.785	82.12
274.017	77.12
274.249	84.12
274.481	75.12
274.713	75.12
274.945	99.12
275.176	91.12
275.408	86.12
275.64	80.12
275.872	83.12
276.104	91.12
276.335	91.12
276.567	95.12
276.799	80.12
277.031	97.12
277.262	81.12
277.494	72.12
277.726	82.12
277.957	69.12
278.189	98.12
278.421	88.12
278.652	85.12
278.884	84.12
279.115	94.12
279.347	76.12
279.579	84.12
279.81	92.12
280.042	83.12
280.273	99.12
280.505	83.12
280.736	83.12
280.968	91.12
281.199	82.12
281.431	77.12
281.662	87.12
281.894	96.12
282.125	94.12
282.356	89.12
282.588	76.12
282.819	92.12
283.051	83.12
283.282	86.12
283.513	91.12
283.745	82.12
283.976	79.12
284.207	88.12
284.439	74.12
284.67	80.12
284.901	84.12
285.132	85.12
285.364	83.12
285.595	88.12
285.826	90.12
286.057	102.12
286.288	90.12
286.52	94.12
286.751	91.12
286.982	82.12
287.213	70.12
287.444	85.12
287.675	87.12
287.906	84.12
288.138	87.12
288.369	94.12
288.6	93.12
288.831	94.12
289.062	82.12
289.293	79.12
289.524	88.12
289.755	87.12
289.986	88.12
290.217	85.12
290.448	69.12
290.679	90.12
290.91	84.12
291.141	90.12
291.371	87.12
291.602	83.12
291.833	84.12
292.064	90.12
292.295	92.12
292.526	84.12
292.757	94.12
292.987	88.12
293.218	96.12
293.449	75.12
293.68	86.12
293.91	94.12
294.141	87.12
294.372	86.12
294.603	106.12
294.833	77.12
295.064	76.12
295.295	70.12
295.525	81.12
295.756	93.12
295.987	91.12
296.217	86.12
296.448	78.12
296.679	79.12
296.909	94.12
297.14	94.12
297.37	89.12
297.601	82.12
297.831	80.12
298.062	98.12
298.292	66.12
298.523	96.12
298.753	107.12
298.984	94.12
299.214	81.12
299.445	77.12
299.675	72.12
299.905	93.12
300.136	83.12
300.366	98.12
300.597	88.12
300.827	77.12
301.057	71.12
301.288	86.12
301.518	83.12
301.748	89.12
301.979	90.12
302.209	78.12
302.439	88.12
302.669	81.12
302.9	102.12
303.13	90.12
303.36	102.12
303.59	86.12
303.82	88.12
304.051	83.12
304.281	77.12
304.511	89.12
304.741	82.12
304.971	73.12
305.201	84.12
305.431	77.12
305.661	91.12
305.891	83.12
306.121	77.12
306.352	76.12
306.582	80.12
306.812	76.12
307.042	94.12
307.272	96.12
307.502	88.12
307.731	65.12
307.961	75.12
308.191	83.12
308.421	92.12
308.651	80.12
308.881	75.12
309.111	75.12
309.341	89.12
309.571	98.12
309.8	62.12
310.03	89.12
310.26	96.12
310.49	87.12
310.72	97.12
310.949	83.12
311.179	95.12
311.409	82.12
311.639	91.12
311.868	82.12
312.098	82.12
312.328	71.12
312.557	74.12
312.787	81.12
313.017	106.12
313.246	74.12
313.476	80.12
313.706	82.12
313.935	96.12
314.165	102.12
314.394	91.12
314.624	88.12
314.853	75.12
315.083	89.12
315.312	92.12
315.542	84.12
315.771	100.12
316.001	95.12
316.23	104.12
316.46	85.12
316.689	83.12
316.919	92.12
317.148	88.12
317.377	82.12
317.607	85.12
317.836	90.12
318.065	94.12
318.295	95.12
318.524	78.12
318.753	96.12
318.983	87.12
319.212	91.12
319.441	91.12
319.67	79.12
319.9	91.12
320.129	90.12
320.358	87.12
320.587	82.12
320.816	89.12
321.046	82.12
321.275	76.12
321.504	89.12
321.733	85.12
321.962	94.12
322.191	95.12
322.42	89.12
322.649	78.12
322.878	74.12
323.108	70.12
323.337	82.12
323.566	87.12
323.795	91.12
324.024	77.12
324.253	82.12
324.482	85.12
324.71	86.12
324.939	85.12
325.168	79.12
325.397	95.12
325.626	76.12
325.855	91.12
326.084	96.12
326.313	88.12
326.542	97.12
326.77	81.12
326.999	79.12
327.228	81.12
327.457	78.12
327.686	84.12
327.914	104.12
328.143	75.12
328.372	83.12
328.6	76.12
328.829	91.12
329.058	88.12
329.287	82.12
329.515	96.12
329.744	103.12
329.972	90.12
330.201	77.12
330.43	81.12
330.658	88.12
330.887	79.12
331.115	89.12
331.344	90.12
331.572	93.12
331.801	88.12
332.03	92.12
332.258	91.12
332.486	74.12
332.715	86.12
332.943	79.12
333.172	83.12
333.4	86.12
333.629	68.12
333.857	84.12
334.085	95.12
334.314	82.12
334.542	89.12
334.771	75.12
334.999	82.12
335.227	95.12
335.455	78.12
335.684	88.12
335.912	81.12
336.14	96.12
336.369	72.12
336.597	88.12
336.825	79.12
337.053	77.12
337.281	84.12
337.51	81.12
337.738	111.12
337.966	91.12
338.194	76.12
338.422	98.12
338.65	88.12
338.878	95.12
339.106	73.12
339.334	94.12
339.562	85.12
339.79	98.12
340.018	99.12
340.246	98.12
340.474	71.12
340.702	78.12
340.93	82.12
341.158	100.12
341.386	81.12
341.614	82.12
341.842	81.12
342.07	96.12
342.298	77.12
342.526	77.12
342.754	89.12
342.981	76.12
343.209	67.12
343.437	89.12
343.665	76.12
343.893	72.12
344.12	92.12
344.348	83.12
344.576	91.12
344.804	82.12
345.031	92.12
345.259	79.12
345.487	102.12
345.714	91.12
345.942	84.12
346.17	89.12
346.397	95.12
346.625	87.12
346.853	86.12
347.08	96.12
347.308	80.12
347.535	85.12
347.763	69.12
347.99	101.12
348.218	84.12
348.445	78.12
348.673	89.12
348.9	98.12
349.128	80.12
349.355	76.12
349.583	82.12
349.81	87.12
350.037	74.12
350.265	77.12
350.492	108.12
350.72	91.12
350.947	80.12
351.174	84.12
351.402	100.12
351.629	83.12
351.856	86.12
352.083	75.12
352.311	90.12
352.538	76.12
352.765	82.12
352.992	86.12
353.22	85.12
353.447	80.12
353.674	83.12
353.901	100.12
354.128	81.12
354.355	88.12
354.583	72.12
354.81	81.12
355.037	90.12
355.264	79.12
355.491	84.12
355.718	80.12
355.945	86.12
356.172	72.12
356.399	88.12
356.626	89.12
356.853	83.12
357.08	88.12
357.307	87.12
357.534	88.12
357.761	91.12
357.988	84.12
358.215	80.12
358.441	96.12
358.668	98.12
358.895	78.12
359.122	81.12
359.349	68.12
359.576	86.12
359.802	81.12
360.029	94.12
360.256	77.12
360.483	81.12
360.709	98.12
360.936	82.12
361.163	87.12
361.39	76.12
361.616	82.12
361.843	93.12
362.07	82.12
362.296	78.12
362.523	88.12
362.749	87.12
362.976	98.12
363.203	102.12
363.429	104.12
363.656	89.12
363.882	102.12
364.109	105.12
364.335	97.12
364.562	89.12
364.788	88.12
365.015	91.12
365.241	88.12
365.468	92.12
365.694	71.12
365.92	90.12
366.147	90.12
366.373	87.12
366.599	76.12
366.826	69.12
367.052	94.12
367.278	98.12
367.505	65.12
367.731	94.12
367.957	90.12
368.184	92.12
368.41	79.12
368.636	78.12
368.862	82.12
369.089	91.12
369.315	89.12
369.541	94.12
369.767	94.12
369.993	100.12
370.219	76.12
370.445	91.12
370.672	96.12
370.898	76.12
371.124	94.12
371.35	80.12
371.576	85.12
371.802	83.12
372.028	74.12
372.254	68.12
372.48	91.12
372.706	92.12
372.932	75.12
373.158	80.12
373.384	90.12
373.61	99.12
373.835	96.12
374.061	75.12
374.287	74.12
374.513	90.12
374.739	79.12
374.965	86.12
375.191	86.12
375.416	89.12
375.642	92.12
375.868	81.12
376.094	88.12
376.319	86.12
376.545	82.12
376.771	74.12
376.997	100.12
377.222	90.12
377.448	93.12
377.674	77.12
377.899	93.12
378.125	82.12
378.35	78.12
378.576	89.12
378.802	94.12
379.027	100.12
379.253	86.12
379.478	88.12
379.704	75.12
379.929	98.12
380.155	93.12
380.38	85.12
380.606	90.12
380.831	74.12
381.057	96.12
381.282	86.12
381.507	87.12
381.733	76.12
381.958	78.12
382.184	80.12
382.409	92.12
382.634	93.12
382.86	74.12
383.085	97.12
383.31	90.12
383.535	95.12
383.761	70.12
383.986	83.12
384.211	93.12
384.436	86.12
384.662	91.12
384.887	80.12
385.112	74.12
385.337	86.12
385.562	90.12
385.787	80.12
386.013	82.12
386.238	89.12
386.463	99.12
386.688	104.12
386.913	98.12
387.138	84.12
387.363	96.12
387.588	88.12
387.813	86.12
388.038	90.12
388.263	89.12
388.488	79.12
388.713	84.12
388.938	85.12
389.163	82.12
389.387	94.12
389.612	63.12
389.837	75.12
390.062	88.12
390.287	94.12
390.512	90.12
390.736	80.12
390.961	82.12
391.186	99.12
391.411	81.12
391.636	76.12
391.86	76.12
392.085	91.12
392.31	83.12
392.534	90.12
392.759	93.12
392.984	115.12
393.208	146.12
393.433	178.12
393.658	181.12
393.882	91.12
394.107	98.12
394.331	91.12
394.556	89.12
394.78	98.12
395.005	100.12
395.229	98.12
395.454	88.12
395.678	102.12
395.903	96.12
396.127	105.12
396.352	92.12
396.576	107.12
396.801	155.12
397.025	160.12
397.249	118.12
397.474	122.12
397.698	99.12
397.922	72.12
398.147	86.12
398.371	79.12
398.595	76.12
398.82	82.12
399.044	78.12
399.268	98.12
399.492	90.12
399.717	76.12
399.941	83.12
400.165	89.12
400.389	85.12
400.613	81.12
400.837	94.12
401.062	95.12
401.286	92.12
401.51	85.12
401.734	72.12
401.958	84.12
402.182	72.12
402.406	86.12
402.63	80.12
402.854	75.12
403.078	77.12
403.302	92.12
403.526	83.12
403.75	75.12
403.974	80.12
404.198	90.12
404.422	86.12
404.645	91.12
404.869	91.12
405.093	75.12
405.317	88.12
405.541	90.12
405.765	88.12
405.988	92.12
406.212	107.12
406.436	78.12
406.66	75.12
406.883	90.12
407.107	78.12
407.331	85.12
407.555	92.12
407.778	86.12
408.002	76.12
408.226	76.12
408.449	76.12
408.673	89.12
408.896	82.12
409.12	79.12
409.344	82.12
409.567	98.12
409.791	97.12
410.014	95.12
410.238	84.12
410.461	84.12
410.685	61.12
410.908	66.12
411.132	101.12
411.355	80.12
411.578	94.12
411.802	75.12
412.025	89.12
412.249	90.12
412.472	81.12
412.695	77.12
412.919	62.12
413.142	77.12
413.365	75.12
413.589	88.12
413.812	84.12
414.035	89.12
414.258	78.12
414.482	76.12
414.705	74.12
414.928	75.12
415.151	74.12
415.374	85.12
415.597	75.12
415.821	81.12
416.044	86.12
416.267	80.12
416.49	74.12
416.713	78.12
416.936	81.12
417.159	71.12
417.382	76.12
417.605	79.12
417.828	100.12
418.051	86.12
418.274	86.12
418.497	73.12
418.72	88.12
418.943	88.12
419.166	85.12
419.389	85.12
419.611	71.12
419.834	71.12
420.057	75.12
420.28	78.12
420.503	96.12
420.726	80.12
420.948	84.12
421.171	90.12
421.394	83.12
421.617	89.12
421.839	105.12
422.062	96.12
422.285	105.12
422.507	154.12
422.73	212.12
422.953	198.12
423.175	126.12
423.398	102.12
423.621	91.12
423.843	91.12
424.066	97.12
424.288	103.12
424.511	82.12
424.733	90.12
424.956	86.12
425.178	86.12
425.401	99.12
425.623	75.12
425.846	77.12
426.068	94.12
426.291	94.12
426.513	99.12
426.735	88.12
426.958	91.12
427.18	76.12
427.402	92.12
427.625	89.12
427.847	80.12
428.069	84.12
428.292	95.12
428.514	108.12
428.736	98.12
428.958	86.12
429.181	98.12
429.403	88.12
429.625	73.12
429.847	102.12
430.069	115.12
430.292	115.12
430.514	98.12
430.736	100.12
430.958	117.12
431.18	95.12
431.402	84.12
431.624	74.12
431.846	102.12
432.068	96.12
432.29	91.12
432.512	87.12
432.734	95.12
432.956	82.12
433.178	82.12
433.4	81.12
433.622	82.12
433.844	79.12
434.066	97.12
434.287	83.12
434.509	86.12
434.731	68.12
434.953	66.12
435.175	75.12
435.397	86.12
435.618	58.12
435.84	95.12
436.062	82.12
436.284	94.12
436.505	77.12
436.727	83.12
436.949	83.12
437.17	75.12
437.392	81.12
437.614	82.12
437.835	62.12
438.057	87.12
438.278	77.12
438.5	81.12
438.721	89.12
438.943	92.12
439.165	87.12
439.386	79.12
439.608	79.12
439.829	73.12
440.05	81.12
440.272	97.12
440.493	86.12
440.715	100.12
440.936	81.12
441.158	81.12
441.379	92.12
441.6	103.12
441.822	82.12
442.043	94.12
442.264	81.12
442.486	97.12
442.707	128.12
442.928	85.12
443.149	98.12
443.371	110.12
443.592	146.12
443.813	140.12
444.034	101.12
444.255	94.12
444.476	83.12
444.698	97.12
444.919	82.12
445.14	184.12
445.361	156.12
445.582	158.12
445.803	155.12
446.024	110.12
446.245	77.12
446.466	96.12
446.687	85.12
446.908	77.12
447.129	99.12
447.35	80.12
447.571	84.12
447.792	79.12
448.013	72.12
448.234	89.12
448.455	91.12
448.675	76.12
448.896	75.12
449.117	84.12
449.338	87.12
449.559	96.12
449.779	82.12
450	82.12
450.221	85.12
450.442	74.12
450.662	77.12
450.883	63.12
451.104	87.12
451.324	84.12
451.545	78.12
451.766	99.12
451.986	65.12
452.207	76.12
452.428	96.12
452.648	85.12
452.869	86.12
453.089	86.12
453.31	90.12
453.53	79.12
453.751	72.12
453.971	81.12
454.192	71.12
454.412	92.12
454.633	85.12
454.853	71.12
455.073	78.12
455.294	96.12
455.514	78.12
455.734	98.12
455.955	89.12
456.175	82.12
456.395	102.12
456.616	85.12
456.836	93.12
457.056	81.12
457.276	77.12
457.497	85.12
457.717	100.12
457.937	82.12
458.157	88.12
458.377	96.12
458.598	97.12
458.818	87.12
459.038	103.12
459.258	80.12
459.478	87.12
459.698	80.12
459.918	76.12
460.138	87.12
460.358	76.12
460.578	83.12
460.798	92.12
461.018	100.12
461.238	102.12
461.458	92.12
461.678	82.12
461.898	93.12
462.118	82.12
462.338	75.12
462.558	77.12
462.777	86.12
462.997	82.12
463.217	87.12
463.437	82.12
463.657	88.12
463.876	72.12
464.096	99.12
464.316	83.12
464.536	77.12
464.755	90.12
464.975	89.12
465.195	77.12
465.414	84.12
465.634	83.12
465.854	83.12
466.073	92.12
466.293	82.12
466.512	81.12
466.732	83.12
466.951	75.12
467.171	75.12
467.391	78.12
467.61	86.12
467.829	91.12
468.049	71.12
468.268	76.12
468.488	85.12
468.707	82.12
468.927	86.12
469.146	74.12
469.365	81.12
469.585	85.12
469.804	70.12
470.023	94.12
470.243	88.12
470.462	80.12
470.681	87.12
470.901	90.12
471.12	85.12
471.339	89.12
471.558	88.12
471.777	84.12
471.997	92.12
472.216	86.12
472.435	82.12
472.654	90.12
472.873	91.12
473.092	88.12
473.311	82.12
473.53	84.12
473.749	87.12
473.968	98.12
474.187	81.12
474.406	86.12
474.625	79.12
474.844	75.12
475.063	74.12
475.282	83.12
475.501	83.12
475.72	86.12
475.939	83.12
476.158	90.12
476.377	83.12
476.596	84.12
476.814	93.12
477.033	80.12
477.252	83.12
477.471	96.12
477.69	90.12
477.908	88.12
478.127	101.12
478.346	88.12
478.564	80.12
478.783	79.12
479.002	103.12
479.22	89.12
479.439	85.12
479.658	84.12
479.876	77.12
480.095	80.12
480.313	77.12
480.532	101.12
480.751	78.12
480.969	91.12
481.188	84.12
481.406	83.12
481.624	75.12
481.843	90.12
482.061	80.12
482.28	91.12
482.498	79.12
482.717	96.12
482.935	64.12
483.153	79.12
483.372	90.12
483.59	82.12
483.808	85.12
484.027	88.12
484.245	82.12
484.463	96.12
484.681	100.12
484.9	76.12
485.118	94.12
485.336	88.12
485.554	74.12
485.772	79.12
485.99	78.12
486.209	89.12
486.427	83.12
486.645	83.12
486.863	94.12
487.081	89.12
487.299	77.12
487.517	80.12
487.735	94.12
487.953	116.12
488.171	110.12
488.389	69.12
488.607	72.12
488.825	114.12
489.043	96.12
489.261	66.12
489.479	89.12
489.696	94.12
489.914	85.12
490.132	92.12
490.35	90.12
490.568	91.12
490.786	90.12
491.003	80.12
491.221	90.12
491.439	94.12
491.657	86.12
491.874	91.12
492.092	94.12
492.31	85.12
492.527	74.12
492.745	68.12
492.963	100.12
493.18	103.12
493.398	81.12
493.615	74.12
493.833	83.12
494.05	80.12
494.268	85.12
494.485	80.12
494.703	84.12
494.92	90.12
495.138	84.12
495.355	98.12
495.573	84.12
495.79	102.12
496.008	76.12
496.225	96.12
496.442	77.12
496.66	85.12
496.877	79.12
497.094	91.12
497.312	96.12
497.529	82.12
497.746	94.12
497.963	82.12
498.181	83.12
498.398	78.12
498.615	96.12
498.832	96.12
499.049	95.12
499.267	85.12
499.484	82.12
499.701	80.12
499.918	78.12
500.135	91.12
500.352	80.12
500.569	84.12
500.786	83.12
501.003	82.12
501.22	96.12
501.437	89.12
501.654	75.12
501.871	91.12
502.088	88.12
502.305	92.12
502.522	85.12
502.739	86.12
502.956	79.12
503.172	82.12
503.389	75.12
503.606	75.12
503.823	84.12
504.04	97.12
504.256	96.12
504.473	102.12
504.69	89.12
504.907	76.12
505.123	88.12
505.34	73.12
505.557	85.12
505.773	85.12
505.99	93.12
506.207	84.12
506.423	70.12
506.64	77.12
506.856	101.12
507.073	90.12
507.289	83.12
507.506	84.12
507.722	76.12
507.939	93.12
508.155	92.12
508.372	91.12
508.588	89.12
508.805	91.12
509.021	78.12
509.238	82.12
509.454	85.12
509.67	83.12
509.887	82.12
510.103	86.12
510.319	89.12
510.536	90.12
510.752	98.12
510.968	70.12
511.184	85.12
511.401	79.12
511.617	91.12
511.833	87.12
512.049	76.12
512.265	96.12
512.481	90.12
512.698	88.12
512.914	97.12
513.13	78.12
513.346	82.12
513.562	80.12
513.778	94.12
513.994	89.12
514.21	93.12
514.426	90.12
514.642	82.12
514.858	89.12
515.074	87.12
515.29	72.12
515.506	80.12
515.721	91.12
515.937	92.12
516.153	90.12
516.369	98.12
516.585	78.12
516.801	90.12
517.016	85.12
517.232	81.12
517.448	82.12
517.664	90.12
517.879	91.12
518.095	86.12
518.311	75.12
518.527	91.12
518.742	96.12
518.958	103.12
519.173	124.12
