Data from CBS_1_HRD10591_00007.txt Node
Date: Mon Jan 19 14:03:52 EST 2026
User: Yrep
Spectrometer: HR+D1059
Trigger mode: 1
Integration Time (sec): 1.000000E-1
Scans to average: 1
Electric dark correction enabled: true
Nonlinearity correction enabled: false
Boxcar width: 0
XAxis mode: Wavelengths
Number of Pixels in Spectrum: 2048
>>>>>Begin Spectral Data<<<<<
223.165	-9.31
223.4	-9.31
223.635	-9.31
223.869	-18.31
224.104	-16.31
224.338	-18.31
224.573	-15.31
224.808	-24.31
225.042	-11.31
225.277	-10.31
225.511	8.69
225.746	8.69
225.98	9.69
226.215	12.69
226.449	17.69
226.683	26.69
226.918	27.69
227.152	11.69
227.387	32.69
227.621	28.69
227.856	52.69
228.09	48.69
228.324	41.69
228.559	52.69
228.793	71.69
229.027	71.69
229.262	65.69
229.496	63.69
229.73	72.69
229.964	79.69
230.199	64.69
230.433	55.69
230.667	70.69
230.901	71.69
231.136	72.69
231.37	79.69
231.604	83.69
231.838	82.69
232.072	81.69
232.306	69.69
232.541	84.69
232.775	72.69
233.009	84.69
233.243	78.69
233.477	75.69
233.711	78.69
233.945	90.69
234.179	69.69
234.413	75.69
234.647	86.69
234.881	81.69
235.115	76.69
235.349	85.69
235.583	78.69
235.817	79.69
236.051	81.69
236.285	77.69
236.519	72.69
236.753	75.69
236.987	71.69
237.221	72.69
237.455	74.69
237.689	69.69
237.922	85.69
238.156	75.69
238.39	82.69
238.624	74.69
238.858	87.69
239.091	78.69
239.325	92.69
239.559	89.69
239.793	96.69
240.027	83.69
240.26	80.69
240.494	82.69
240.728	75.69
240.961	68.69
241.195	69.69
241.429	73.69
241.662	67.69
241.896	73.69
242.13	68.69
242.363	88.69
242.597	66.69
242.83	86.69
243.064	70.69
243.298	77.69
243.531	77.69
243.765	86.69
243.998	88.69
244.232	84.69
244.465	60.69
244.699	78.69
244.932	70.69
245.166	82.69
245.399	73.69
245.633	70.69
245.866	65.69
246.099	72.69
246.333	86.69
246.566	68.69
246.8	66.69
247.033	76.69
247.266	84.69
247.5	80.69
247.733	85.69
247.966	87.69
248.2	63.69
248.433	84.69
248.666	73.69
248.899	76.69
249.133	83.69
249.366	92.69
249.599	81.69
249.832	67.69
250.066	87.69
250.299	80.69
250.532	91.69
250.765	74.69
250.998	82.69
251.231	86.69
251.465	75.69
251.698	81.69
251.931	92.69
252.164	78.69
252.397	77.69
252.63	79.69
252.863	72.69
253.096	89.69
253.329	79.69
253.562	89.69
253.795	74.69
254.028	81.69
254.261	75.69
254.494	84.69
254.727	88.69
254.96	74.69
255.193	78.69
255.426	83.69
255.659	78.69
255.892	98.69
256.124	79.69
256.357	80.69
256.59	69.69
256.823	88.69
257.056	72.69
257.289	82.69
257.521	91.69
257.754	70.69
257.987	90.69
258.22	79.69
258.452	85.69
258.685	82.69
258.918	95.69
259.151	81.69
259.383	82.69
259.616	77.69
259.849	89.69
260.081	99.69
260.314	87.69
260.547	82.69
260.779	75.69
261.012	84.69
261.244	82.69
261.477	67.69
261.71	86.69
261.942	75.69
262.175	88.69
262.407	74.69
262.64	77.69
262.872	82.69
263.105	92.69
263.337	80.69
263.57	83.69
263.802	80.69
264.035	83.69
264.267	86.69
264.499	76.69
264.732	85.69
264.964	74.69
265.197	89.69
265.429	70.69
265.661	79.69
265.894	88.69
266.126	75.69
266.358	90.69
266.591	76.69
266.823	69.69
267.055	82.69
267.287	72.69
267.52	73.69
267.752	86.69
267.984	91.69
268.216	74.69
268.448	89.69
268.681	84.69
268.913	75.69
269.145	76.69
269.377	84.69
269.609	83.69
269.841	82.69
270.073	104.69
270.306	94.69
270.538	90.69
270.77	65.69
271.002	79.69
271.234	84.69
271.466	84.69
271.698	90.69
271.93	77.69
272.162	84.69
272.394	96.69
272.626	90.69
272.858	76.69
273.09	86.69
273.322	88.69
273.553	81.69
273.785	87.69
274.017	84.69
274.249	97.69
274.481	77.69
274.713	92.69
274.945	76.69
275.176	75.69
275.408	72.69
275.64	74.69
275.872	95.69
276.104	90.69
276.335	72.69
276.567	77.69
276.799	78.69
277.031	88.69
277.262	75.69
277.494	80.69
277.726	83.69
277.957	78.69
278.189	90.69
278.421	95.69
278.652	88.69
278.884	82.69
279.115	87.69
279.347	74.69
279.579	82.69
279.81	84.69
280.042	81.69
280.273	84.69
280.505	79.69
280.736	85.69
280.968	81.69
281.199	75.69
281.431	70.69
281.662	86.69
281.894	89.69
282.125	92.69
282.356	88.69
282.588	86.69
282.819	88.69
283.051	83.69
283.282	80.69
283.513	96.69
283.745	83.69
283.976	78.69
284.207	79.69
284.439	79.69
284.67	82.69
284.901	84.69
285.132	94.69
285.364	93.69
285.595	78.69
285.826	87.69
286.057	102.69
286.288	95.69
286.52	76.69
286.751	83.69
286.982	76.69
287.213	97.69
287.444	80.69
287.675	90.69
287.906	82.69
288.138	74.69
288.369	78.69
288.6	78.69
288.831	94.69
289.062	84.69
289.293	78.69
289.524	64.69
289.755	80.69
289.986	89.69
290.217	84.69
290.448	82.69
290.679	79.69
290.91	72.69
291.141	78.69
291.371	91.69
291.602	83.69
291.833	86.69
292.064	88.69
292.295	72.69
292.526	94.69
292.757	68.69
292.987	74.69
293.218	92.69
293.449	91.69
293.68	86.69
293.91	68.69
294.141	95.69
294.372	76.69
294.603	83.69
294.833	99.69
295.064	83.69
295.295	97.69
295.525	97.69
295.756	80.69
295.987	81.69
296.217	90.69
296.448	76.69
296.679	86.69
296.909	84.69
297.14	91.69
297.37	86.69
297.601	78.69
297.831	77.69
298.062	90.69
298.292	85.69
298.523	69.69
298.753	74.69
298.984	81.69
299.214	82.69
299.445	90.69
299.675	88.69
299.905	96.69
300.136	91.69
300.366	89.69
300.597	80.69
300.827	83.69
301.057	97.69
301.288	94.69
301.518	89.69
301.748	95.69
301.979	118.69
302.209	76.69
302.439	91.69
302.669	94.69
302.9	74.69
303.13	91.69
303.36	81.69
303.59	91.69
303.82	96.69
304.051	86.69
304.281	86.69
304.511	92.69
304.741	68.69
304.971	80.69
305.201	80.69
305.431	80.69
305.661	81.69
305.891	89.69
306.121	88.69
306.352	99.69
306.582	90.69
306.812	72.69
307.042	84.69
307.272	75.69
307.502	79.69
307.731	80.69
307.961	102.69
308.191	98.69
308.421	87.69
308.651	95.69
308.881	76.69
309.111	83.69
309.341	95.69
309.571	106.69
309.8	92.69
310.03	74.69
310.26	92.69
310.49	107.69
310.72	82.69
310.949	90.69
311.179	92.69
311.409	97.69
311.639	90.69
311.868	95.69
312.098	79.69
312.328	72.69
312.557	83.69
312.787	82.69
313.017	89.69
313.246	87.69
313.476	84.69
313.706	87.69
313.935	96.69
314.165	82.69
314.394	86.69
314.624	86.69
314.853	100.69
315.083	87.69
315.312	90.69
315.542	88.69
315.771	88.69
316.001	99.69
316.23	87.69
316.46	96.69
316.689	99.69
316.919	85.69
317.148	78.69
317.377	74.69
317.607	92.69
317.836	104.69
318.065	93.69
318.295	96.69
318.524	88.69
318.753	107.69
318.983	94.69
319.212	91.69
319.441	79.69
319.67	77.69
319.9	90.69
320.129	87.69
320.358	99.69
320.587	90.69
320.816	96.69
321.046	80.69
321.275	97.69
321.504	85.69
321.733	99.69
321.962	84.69
322.191	104.69
322.42	100.69
322.649	91.69
322.878	89.69
323.108	92.69
323.337	90.69
323.566	87.69
323.795	81.69
324.024	91.69
324.253	62.69
324.482	82.69
324.71	91.69
324.939	97.69
325.168	90.69
325.397	81.69
325.626	80.69
325.855	80.69
326.084	84.69
326.313	100.69
326.542	86.69
326.77	91.69
326.999	88.69
327.228	82.69
327.457	73.69
327.686	70.69
327.914	90.69
328.143	91.69
328.372	74.69
328.6	87.69
328.829	84.69
329.058	86.69
329.287	67.69
329.515	78.69
329.744	88.69
329.972	92.69
330.201	93.69
330.43	72.69
330.658	98.69
330.887	77.69
331.115	99.69
331.344	89.69
331.572	90.69
331.801	84.69
332.03	86.69
332.258	92.69
332.486	82.69
332.715	78.69
332.943	90.69
333.172	76.69
333.4	88.69
333.629	89.69
333.857	92.69
334.085	84.69
334.314	100.69
334.542	97.69
334.771	103.69
334.999	100.69
335.227	100.69
335.455	96.69
335.684	82.69
335.912	104.69
336.14	105.69
336.369	92.69
336.597	83.69
336.825	94.69
337.053	86.69
337.281	86.69
337.51	87.69
337.738	84.69
337.966	84.69
338.194	96.69
338.422	86.69
338.65	83.69
338.878	95.69
339.106	90.69
339.334	87.69
339.562	98.69
339.79	78.69
340.018	73.69
340.246	86.69
340.474	84.69
340.702	90.69
340.93	83.69
341.158	90.69
341.386	83.69
341.614	94.69
341.842	91.69
342.07	81.69
342.298	79.69
342.526	92.69
342.754	90.69
342.981	89.69
343.209	77.69
343.437	103.69
343.665	102.69
343.893	86.69
344.12	98.69
344.348	77.69
344.576	83.69
344.804	90.69
345.031	90.69
345.259	83.69
345.487	86.69
345.714	85.69
345.942	76.69
346.17	87.69
346.397	82.69
346.625	76.69
346.853	100.69
347.08	80.69
347.308	83.69
347.535	97.69
347.763	87.69
347.99	87.69
348.218	94.69
348.445	83.69
348.673	82.69
348.9	88.69
349.128	87.69
349.355	85.69
349.583	99.69
349.81	103.69
350.037	96.69
350.265	104.69
350.492	100.69
350.72	77.69
350.947	70.69
351.174	83.69
351.402	90.69
351.629	67.69
351.856	83.69
352.083	90.69
352.311	69.69
352.538	66.69
352.765	92.69
352.992	91.69
353.22	88.69
353.447	100.69
353.674	90.69
353.901	84.69
354.128	91.69
354.355	96.69
354.583	92.69
354.81	86.69
355.037	83.69
355.264	84.69
355.491	92.69
355.718	99.69
355.945	76.69
356.172	99.69
356.399	111.69
356.626	91.69
356.853	95.69
357.08	91.69
357.307	77.69
357.534	87.69
357.761	102.69
357.988	99.69
358.215	89.69
358.441	81.69
358.668	93.69
358.895	81.69
359.122	94.69
359.349	90.69
359.576	75.69
359.802	79.69
360.029	89.69
360.256	98.69
360.483	80.69
360.709	96.69
360.936	94.69
361.163	96.69
361.39	88.69
361.616	97.69
361.843	96.69
362.07	106.69
362.296	114.69
362.523	114.69
362.749	118.69
362.976	119.69
363.203	144.69
363.429	123.69
363.656	98.69
363.882	106.69
364.109	131.69
364.335	154.69
364.562	146.69
364.788	112.69
365.015	95.69
365.241	98.69
365.468	99.69
365.694	106.69
365.92	95.69
366.147	86.69
366.373	98.69
366.599	89.69
366.826	94.69
367.052	88.69
367.278	94.69
367.505	107.69
367.731	95.69
367.957	78.69
368.184	104.69
368.41	83.69
368.636	94.69
368.862	101.69
369.089	85.69
369.315	90.69
369.541	91.69
369.767	90.69
369.993	73.69
370.219	83.69
370.445	90.69
370.672	94.69
370.898	94.69
371.124	103.69
371.35	98.69
371.576	75.69
371.802	95.69
372.028	99.69
372.254	106.69
372.48	105.69
372.706	88.69
372.932	90.69
373.158	95.69
373.384	105.69
373.61	106.69
373.835	102.69
374.061	94.69
374.287	107.69
374.513	98.69
374.739	88.69
374.965	96.69
375.191	101.69
375.416	92.69
375.642	80.69
375.868	100.69
376.094	92.69
376.319	94.69
376.545	102.69
376.771	82.69
376.997	98.69
377.222	72.69
377.448	82.69
377.674	100.69
377.899	95.69
378.125	87.69
378.35	97.69
378.576	101.69
378.802	86.69
379.027	75.69
379.253	84.69
379.478	67.69
379.704	90.69
379.929	95.69
380.155	94.69
380.38	88.69
380.606	76.69
380.831	74.69
381.057	91.69
381.282	107.69
381.507	103.69
381.733	102.69
381.958	95.69
382.184	90.69
382.409	97.69
382.634	90.69
382.86	94.69
383.085	103.69
383.31	101.69
383.535	93.69
383.761	77.69
383.986	92.69
384.211	100.69
384.436	83.69
384.662	93.69
384.887	94.69
385.112	90.69
385.337	91.69
385.562	86.69
385.787	88.69
386.013	85.69
386.238	95.69
386.463	95.69
386.688	101.69
386.913	106.69
387.138	103.69
387.363	113.69
387.588	107.69
387.813	100.69
388.038	101.69
388.263	102.69
388.488	87.69
388.713	94.69
388.938	99.69
389.163	102.69
389.387	100.69
389.612	80.69
389.837	85.69
390.062	90.69
390.287	80.69
390.512	87.69
390.736	88.69
390.961	92.69
391.186	97.69
391.411	94.69
391.636	97.69
391.86	98.69
392.085	96.69
392.31	109.69
392.534	114.69
392.759	121.69
392.984	146.69
393.208	244.69
393.433	286.69
393.658	247.69
393.882	145.69
394.107	117.69
394.331	115.69
394.556	112.69
394.78	102.69
395.005	102.69
395.229	96.69
395.454	94.69
395.678	114.69
395.903	131.69
396.127	120.69
396.352	146.69
396.576	163.69
396.801	207.69
397.025	252.69
397.249	192.69
397.474	156.69
397.698	117.69
397.922	86.69
398.147	88.69
398.371	90.69
398.595	90.69
398.82	86.69
399.044	94.69
399.268	87.69
399.492	96.69
399.717	84.69
399.941	102.69
400.165	106.69
400.389	88.69
400.613	92.69
400.837	90.69
401.062	75.69
401.286	92.69
401.51	92.69
401.734	99.69
401.958	88.69
402.182	88.69
402.406	85.69
402.63	84.69
402.854	94.69
403.078	91.69
403.302	90.69
403.526	90.69
403.75	90.69
403.974	105.69
404.198	90.69
404.422	100.69
404.645	108.69
404.869	99.69
405.093	83.69
405.317	94.69
405.541	88.69
405.765	80.69
405.988	100.69
406.212	94.69
406.436	91.69
406.66	91.69
406.883	89.69
407.107	99.69
407.331	79.69
407.555	91.69
407.778	105.69
408.002	104.69
408.226	91.69
408.449	88.69
408.673	93.69
408.896	96.69
409.12	95.69
409.344	115.69
409.567	136.69
409.791	125.69
410.014	114.69
410.238	110.69
410.461	97.69
410.685	94.69
410.908	100.69
411.132	95.69
411.355	98.69
411.578	107.69
411.802	95.69
412.025	90.69
412.249	96.69
412.472	78.69
412.695	77.69
412.919	84.69
413.142	92.69
413.365	93.69
413.589	79.69
413.812	89.69
414.035	85.69
414.258	79.69
414.482	82.69
414.705	81.69
414.928	79.69
415.151	94.69
415.374	89.69
415.597	82.69
415.821	93.69
416.044	90.69
416.267	75.69
416.49	74.69
416.713	89.69
416.936	86.69
417.159	101.69
417.382	84.69
417.605	76.69
417.828	99.69
418.051	86.69
418.274	81.69
418.497	77.69
418.72	98.69
418.943	90.69
419.166	83.69
419.389	98.69
419.611	91.69
419.834	91.69
420.057	89.69
420.28	98.69
420.503	115.69
420.726	86.69
420.948	96.69
421.171	122.69
421.394	122.69
421.617	134.69
421.839	139.69
422.062	169.69
422.285	226.69
422.507	296.69
422.73	381.69
422.953	372.69
423.175	267.69
423.398	183.69
423.621	155.69
423.843	120.69
424.066	121.69
424.288	117.69
424.511	99.69
424.733	101.69
424.956	94.69
425.178	96.69
425.401	96.69
425.623	104.69
425.846	101.69
426.068	96.69
426.291	97.69
426.513	94.69
426.735	95.69
426.958	86.69
427.18	91.69
427.402	93.69
427.625	88.69
427.847	98.69
428.069	105.69
428.292	144.69
428.514	164.69
428.736	124.69
428.958	144.69
429.181	136.69
429.403	107.69
429.625	107.69
429.847	138.69
430.069	162.69
430.292	200.69
430.514	206.69
430.736	150.69
430.958	160.69
431.18	119.69
431.402	98.69
431.624	97.69
431.846	129.69
432.068	152.69
432.29	117.69
432.512	89.69
432.734	92.69
432.956	87.69
433.178	88.69
433.4	99.69
433.622	87.69
433.844	101.69
434.066	81.69
434.287	75.69
434.509	87.69
434.731	82.69
434.953	96.69
435.175	98.69
435.397	92.69
435.618	105.69
435.84	111.69
436.062	88.69
436.284	81.69
436.505	99.69
436.727	79.69
436.949	87.69
437.17	81.69
437.392	74.69
437.614	97.69
437.835	98.69
438.057	65.69
438.278	81.69
438.5	85.69
438.721	86.69
438.943	96.69
439.165	105.69
439.386	91.69
439.608	80.69
439.829	81.69
440.05	98.69
440.272	89.69
440.493	81.69
440.715	80.69
440.936	77.69
441.158	92.69
441.379	92.69
441.6	95.69
441.822	90.69
442.043	109.69
442.264	116.69
442.486	154.69
442.707	207.69
442.928	142.69
443.149	127.69
443.371	178.69
443.592	290.69
443.813	268.69
444.034	146.69
444.255	103.69
444.476	98.69
444.698	89.69
444.919	100.69
445.14	199.69
445.361	232.69
445.582	339.69
445.803	302.69
446.024	134.69
446.245	92.69
446.466	103.69
446.687	87.69
446.908	72.69
447.129	80.69
447.35	82.69
447.571	87.69
447.792	83.69
448.013	79.69
448.234	100.69
448.455	76.69
448.675	89.69
448.896	76.69
449.117	86.69
449.338	84.69
449.559	87.69
449.779	87.69
450	98.69
450.221	101.69
450.442	74.69
450.662	78.69
450.883	87.69
451.104	87.69
451.324	84.69
451.545	88.69
451.766	82.69
451.986	87.69
452.207	86.69
452.428	92.69
452.648	96.69
452.869	124.69
453.089	88.69
453.31	99.69
453.53	87.69
453.751	85.69
453.971	86.69
454.192	79.69
454.412	81.69
454.633	85.69
454.853	89.69
455.073	82.69
455.294	80.69
455.514	102.69
455.734	79.69
455.955	88.69
456.175	88.69
456.395	87.69
456.616	93.69
456.836	76.69
457.056	83.69
457.276	87.69
457.497	91.69
457.717	94.69
457.937	135.69
458.157	161.69
458.377	150.69
458.598	151.69
458.818	169.69
459.038	118.69
459.258	78.69
459.478	91.69
459.698	76.69
459.918	82.69
460.138	84.69
460.358	83.69
460.578	97.69
460.798	100.69
461.018	118.69
461.238	80.69
461.458	84.69
461.678	90.69
461.898	92.69
462.118	87.69
462.338	71.69
462.558	84.69
462.777	94.69
462.997	75.69
463.217	89.69
463.437	74.69
463.657	84.69
463.876	82.69
464.096	94.69
464.316	97.69
464.536	85.69
464.755	91.69
464.975	89.69
465.195	89.69
465.414	87.69
465.634	91.69
465.854	77.69
466.073	89.69
466.293	83.69
466.512	77.69
466.732	91.69
466.951	84.69
467.171	87.69
467.391	84.69
467.61	100.69
467.829	88.69
468.049	64.69
468.268	83.69
468.488	87.69
468.707	107.69
468.927	86.69
469.146	76.69
469.365	86.69
469.585	82.69
469.804	90.69
470.023	94.69
470.243	85.69
470.462	87.69
470.681	90.69
470.901	82.69
471.12	78.69
471.339	88.69
471.558	78.69
471.777	77.69
471.997	86.69
472.216	89.69
472.435	73.69
472.654	87.69
472.873	76.69
473.092	77.69
473.311	99.69
473.53	89.69
473.749	74.69
473.968	96.69
474.187	84.69
474.406	81.69
474.625	81.69
474.844	82.69
475.063	96.69
475.282	94.69
475.501	93.69
475.72	87.69
475.939	96.69
476.158	77.69
476.377	83.69
476.596	100.69
476.814	85.69
477.033	83.69
477.252	94.69
477.471	81.69
477.69	99.69
477.908	89.69
478.127	101.69
478.346	96.69
478.564	81.69
478.783	70.69
479.002	80.69
479.22	83.69
479.439	95.69
479.658	90.69
479.876	81.69
480.095	84.69
480.313	88.69
480.532	88.69
480.751	81.69
480.969	89.69
481.188	81.69
481.406	88.69
481.624	99.69
481.843	108.69
482.061	97.69
482.28	97.69
482.498	87.69
482.717	89.69
482.935	86.69
483.153	93.69
483.372	97.69
483.59	90.69
483.808	85.69
484.027	90.69
484.245	83.69
484.463	86.69
484.681	76.69
484.9	95.69
485.118	86.69
485.336	100.69
485.554	94.69
485.772	91.69
485.99	100.69
486.209	90.69
486.427	89.69
486.645	84.69
486.863	79.69
487.081	85.69
487.299	92.69
487.517	113.69
487.735	138.69
487.953	249.69
488.171	218.69
488.389	119.69
488.607	98.69
488.825	101.69
489.043	87.69
489.261	98.69
489.479	84.69
489.696	93.69
489.914	95.69
490.132	90.69
490.35	98.69
490.568	82.69
490.786	91.69
491.003	89.69
491.221	84.69
491.439	83.69
491.657	91.69
491.874	91.69
492.092	104.69
492.31	94.69
492.527	81.69
492.745	84.69
492.963	97.69
493.18	80.69
493.398	83.69
493.615	96.69
493.833	97.69
494.05	82.69
494.268	85.69
494.485	84.69
494.703	86.69
494.92	90.69
495.138	85.69
495.355	96.69
495.573	88.69
495.79	94.69
496.008	98.69
496.225	106.69
496.442	95.69
496.66	103.69
496.877	86.69
497.094	86.69
497.312	99.69
497.529	92.69
497.746	101.69
497.963	92.69
498.181	103.69
498.398	119.69
498.615	100.69
498.832	77.69
499.049	82.69
499.267	98.69
499.484	98.69
499.701	78.69
499.918	80.69
500.135	93.69
500.352	96.69
500.569	104.69
500.786	87.69
501.003	95.69
501.22	97.69
501.437	87.69
501.654	112.69
501.871	99.69
502.088	86.69
502.305	92.69
502.522	87.69
502.739	93.69
502.956	92.69
503.172	99.69
503.389	96.69
503.606	85.69
503.823	80.69
504.04	113.69
504.256	181.69
504.473	182.69
504.69	114.69
504.907	100.69
505.123	94.69
505.34	76.69
505.557	91.69
505.773	80.69
505.99	86.69
506.207	92.69
506.423	92.69
506.64	89.69
506.856	87.69
507.073	79.69
507.289	83.69
507.506	98.69
507.722	95.69
507.939	86.69
508.155	100.69
508.372	104.69
508.588	87.69
508.805	99.69
509.021	88.69
509.238	89.69
509.454	104.69
509.67	84.69
509.887	98.69
510.103	98.69
510.319	110.69
510.536	100.69
510.752	82.69
510.968	90.69
511.184	95.69
511.401	95.69
511.617	89.69
511.833	89.69
512.049	99.69
512.265	95.69
512.481	82.69
512.698	78.69
512.914	85.69
513.13	88.69
513.346	91.69
513.562	84.69
513.778	75.69
513.994	102.69
514.21	106.69
514.426	83.69
514.642	92.69
514.858	102.69
515.074	82.69
515.29	79.69
515.506	87.69
515.721	95.69
515.937	99.69
516.153	85.69
516.369	86.69
516.585	110.69
516.801	86.69
517.016	91.69
517.232	89.69
