Data from CBS_1_HRD10591_00018.txt Node
Date: Mon Jan 19 14:03:57 EST 2026
User: Yrep
Spectrometer: HR+D1059
Trigger mode: 1
Integration Time (sec): 1.000000E-1
Scans to average: 1
Electric dark correction enabled: true
Nonlinearity correction enabled: false
Boxcar width: 0
XAxis mode: Wavelengths
Number of Pixels in Spectrum: 2048
>>>>>Begin Spectral Data<<<<<
223.165	-11.56
223.4	-11.56
223.635	-11.56
223.869	-18.56
224.104	-22.56
224.338	-19.56
224.573	-25.56
224.808	-1.56
225.042	-12.56
225.277	-14.56
225.511	-1.56
225.746	13.44
225.98	4.44
226.215	12.44
226.449	18.44
226.683	17.44
226.918	26.44
227.152	35.44
227.387	49.44
227.621	36.44
227.856	56.44
228.09	37.44
228.324	52.44
228.559	64.44
228.793	76.44
229.027	71.44
229.262	52.44
229.496	52.44
229.73	79.44
229.964	66.44
230.199	74.44
230.433	82.44
230.667	75.44
230.901	91.44
231.136	78.44
231.37	80.44
231.604	90.44
231.838	76.44
232.072	86.44
232.306	96.44
232.541	89.44
232.775	86.44
233.009	67.44
233.243	75.44
233.477	78.44
233.711	80.44
233.945	69.44
234.179	84.44
234.413	70.44
234.647	94.44
234.881	78.44
235.115	86.44
235.349	83.44
235.583	78.44
235.817	67.44
236.051	80.44
236.285	87.44
236.519	59.44
236.753	75.44
236.987	73.44
237.221	79.44
237.455	86.44
237.689	72.44
237.922	66.44
238.156	60.44
238.39	85.44
238.624	77.44
238.858	79.44
239.091	68.44
239.325	77.44
239.559	71.44
239.793	80.44
240.027	78.44
240.26	70.44
240.494	83.44
240.728	81.44
240.961	73.44
241.195	88.44
241.429	74.44
241.662	72.44
241.896	74.44
242.13	76.44
242.363	81.44
242.597	62.44
242.83	79.44
243.064	79.44
243.298	76.44
243.531	54.44
243.765	84.44
243.998	83.44
244.232	83.44
244.465	79.44
244.699	57.44
244.932	75.44
245.166	72.44
245.399	78.44
245.633	88.44
245.866	67.44
246.099	71.44
246.333	76.44
246.566	66.44
246.8	71.44
247.033	78.44
247.266	99.44
247.5	83.44
247.733	77.44
247.966	90.44
248.2	82.44
248.433	77.44
248.666	96.44
248.899	78.44
249.133	81.44
249.366	84.44
249.599	71.44
249.832	64.44
250.066	81.44
250.299	69.44
250.532	84.44
250.765	82.44
250.998	82.44
251.231	71.44
251.465	78.44
251.698	73.44
251.931	86.44
252.164	90.44
252.397	80.44
252.63	87.44
252.863	77.44
253.096	80.44
253.329	92.44
253.562	75.44
253.795	78.44
254.028	78.44
254.261	79.44
254.494	71.44
254.727	75.44
254.96	87.44
255.193	75.44
255.426	72.44
255.659	68.44
255.892	78.44
256.124	73.44
256.357	89.44
256.59	77.44
256.823	77.44
257.056	78.44
257.289	81.44
257.521	76.44
257.754	80.44
257.987	91.44
258.22	83.44
258.452	83.44
258.685	75.44
258.918	74.44
259.151	82.44
259.383	82.44
259.616	81.44
259.849	81.44
260.081	91.44
260.314	62.44
260.547	75.44
260.779	84.44
261.012	72.44
261.244	77.44
261.477	84.44
261.71	75.44
261.942	86.44
262.175	93.44
262.407	82.44
262.64	76.44
262.872	80.44
263.105	84.44
263.337	83.44
263.57	75.44
263.802	86.44
264.035	86.44
264.267	83.44
264.499	79.44
264.732	73.44
264.964	80.44
265.197	82.44
265.429	75.44
265.661	83.44
265.894	74.44
266.126	94.44
266.358	75.44
266.591	83.44
266.823	85.44
267.055	74.44
267.287	81.44
267.52	79.44
267.752	72.44
267.984	82.44
268.216	59.44
268.448	86.44
268.681	98.44
268.913	74.44
269.145	85.44
269.377	87.44
269.609	84.44
269.841	85.44
270.073	77.44
270.306	78.44
270.538	77.44
270.77	81.44
271.002	92.44
271.234	92.44
271.466	83.44
271.698	59.44
271.93	83.44
272.162	89.44
272.394	80.44
272.626	90.44
272.858	93.44
273.09	102.44
273.322	89.44
273.553	83.44
273.785	66.44
274.017	92.44
274.249	70.44
274.481	78.44
274.713	76.44
274.945	96.44
275.176	92.44
275.408	86.44
275.64	80.44
275.872	79.44
276.104	85.44
276.335	77.44
276.567	80.44
276.799	77.44
277.031	82.44
277.262	71.44
277.494	94.44
277.726	86.44
277.957	98.44
278.189	82.44
278.421	95.44
278.652	77.44
278.884	83.44
279.115	86.44
279.347	92.44
279.579	74.44
279.81	84.44
280.042	82.44
280.273	84.44
280.505	92.44
280.736	79.44
280.968	81.44
281.199	85.44
281.431	84.44
281.662	88.44
281.894	87.44
282.125	92.44
282.356	78.44
282.588	76.44
282.819	80.44
283.051	75.44
283.282	94.44
283.513	79.44
283.745	71.44
283.976	72.44
284.207	75.44
284.439	95.44
284.67	87.44
284.901	89.44
285.132	91.44
285.364	67.44
285.595	97.44
285.826	74.44
286.057	95.44
286.288	76.44
286.52	82.44
286.751	80.44
286.982	83.44
287.213	93.44
287.444	86.44
287.675	89.44
287.906	70.44
288.138	87.44
288.369	82.44
288.6	87.44
288.831	82.44
289.062	86.44
289.293	88.44
289.524	91.44
289.755	76.44
289.986	77.44
290.217	77.44
290.448	82.44
290.679	74.44
290.91	80.44
291.141	79.44
291.371	72.44
291.602	108.44
291.833	84.44
292.064	86.44
292.295	88.44
292.526	82.44
292.757	92.44
292.987	78.44
293.218	98.44
293.449	76.44
293.68	84.44
293.91	81.44
294.141	84.44
294.372	69.44
294.603	84.44
294.833	74.44
295.064	67.44
295.295	73.44
295.525	74.44
295.756	92.44
295.987	79.44
296.217	88.44
296.448	79.44
296.679	96.44
296.909	94.44
297.14	85.44
297.37	90.44
297.601	82.44
297.831	91.44
298.062	67.44
298.292	77.44
298.523	66.44
298.753	100.44
298.984	98.44
299.214	91.44
299.445	88.44
299.675	88.44
299.905	94.44
300.136	84.44
300.366	82.44
300.597	83.44
300.827	80.44
301.057	83.44
301.288	85.44
301.518	84.44
301.748	90.44
301.979	98.44
302.209	89.44
302.439	89.44
302.669	77.44
302.9	88.44
303.13	85.44
303.36	82.44
303.59	83.44
303.82	80.44
304.051	85.44
304.281	80.44
304.511	86.44
304.741	81.44
304.971	79.44
305.201	69.44
305.431	75.44
305.661	71.44
305.891	79.44
306.121	84.44
306.352	94.44
306.582	87.44
306.812	85.44
307.042	100.44
307.272	78.44
307.502	75.44
307.731	86.44
307.961	78.44
308.191	78.44
308.421	86.44
308.651	92.44
308.881	90.44
309.111	91.44
309.341	84.44
309.571	74.44
309.8	90.44
310.03	82.44
310.26	76.44
310.49	84.44
310.72	102.44
310.949	85.44
311.179	82.44
311.409	76.44
311.639	65.44
311.868	83.44
312.098	73.44
312.328	94.44
312.557	80.44
312.787	92.44
313.017	94.44
313.246	86.44
313.476	75.44
313.706	67.44
313.935	83.44
314.165	91.44
314.394	72.44
314.624	80.44
314.853	82.44
315.083	68.44
315.312	88.44
315.542	88.44
315.771	86.44
316.001	80.44
316.23	91.44
316.46	74.44
316.689	90.44
316.919	87.44
317.148	92.44
317.377	81.44
317.607	86.44
317.836	58.44
318.065	83.44
318.295	105.44
318.524	89.44
318.753	80.44
318.983	75.44
319.212	84.44
319.441	81.44
319.67	87.44
319.9	89.44
320.129	82.44
320.358	81.44
320.587	88.44
320.816	86.44
321.046	83.44
321.275	92.44
321.504	96.44
321.733	80.44
321.962	83.44
322.191	80.44
322.42	90.44
322.649	86.44
322.878	85.44
323.108	90.44
323.337	82.44
323.566	99.44
323.795	88.44
324.024	92.44
324.253	101.44
324.482	84.44
324.71	70.44
324.939	90.44
325.168	87.44
325.397	90.44
325.626	81.44
325.855	76.44
326.084	83.44
326.313	96.44
326.542	76.44
326.77	74.44
326.999	79.44
327.228	71.44
327.457	83.44
327.686	74.44
327.914	94.44
328.143	83.44
328.372	87.44
328.6	79.44
328.829	102.44
329.058	93.44
329.287	87.44
329.515	85.44
329.744	95.44
329.972	83.44
330.201	75.44
330.43	81.44
330.658	86.44
330.887	88.44
331.115	80.44
331.344	83.44
331.572	83.44
331.801	85.44
332.03	74.44
332.258	83.44
332.486	83.44
332.715	95.44
332.943	79.44
333.172	85.44
333.4	71.44
333.629	73.44
333.857	83.44
334.085	71.44
334.314	85.44
334.542	87.44
334.771	77.44
334.999	92.44
335.227	98.44
335.455	96.44
335.684	89.44
335.912	90.44
336.14	97.44
336.369	95.44
336.597	85.44
336.825	94.44
337.053	86.44
337.281	72.44
337.51	91.44
337.738	99.44
337.966	82.44
338.194	83.44
338.422	87.44
338.65	91.44
338.878	74.44
339.106	90.44
339.334	87.44
339.562	83.44
339.79	89.44
340.018	84.44
340.246	90.44
340.474	84.44
340.702	83.44
340.93	70.44
341.158	74.44
341.386	79.44
341.614	75.44
341.842	101.44
342.07	91.44
342.298	77.44
342.526	77.44
342.754	93.44
342.981	82.44
343.209	86.44
343.437	98.44
343.665	83.44
343.893	86.44
344.12	84.44
344.348	81.44
344.576	80.44
344.804	83.44
345.031	77.44
345.259	86.44
345.487	79.44
345.714	89.44
345.942	88.44
346.17	78.44
346.397	91.44
346.625	79.44
346.853	94.44
347.08	78.44
347.308	88.44
347.535	84.44
347.763	75.44
347.99	72.44
348.218	102.44
348.445	81.44
348.673	94.44
348.9	86.44
349.128	80.44
349.355	81.44
349.583	89.44
349.81	90.44
350.037	91.44
350.265	99.44
350.492	79.44
350.72	74.44
350.947	82.44
351.174	82.44
351.402	89.44
351.629	86.44
351.856	95.44
352.083	100.44
352.311	90.44
352.538	83.44
352.765	115.44
352.992	89.44
353.22	83.44
353.447	83.44
353.674	83.44
353.901	98.44
354.128	76.44
354.355	93.44
354.583	83.44
354.81	80.44
355.037	86.44
355.264	80.44
355.491	84.44
355.718	70.44
355.945	96.44
356.172	92.44
356.399	80.44
356.626	75.44
356.853	96.44
357.08	87.44
357.307	84.44
357.534	88.44
357.761	88.44
357.988	86.44
358.215	87.44
358.441	106.44
358.668	79.44
358.895	78.44
359.122	81.44
359.349	82.44
359.576	90.44
359.802	75.44
360.029	87.44
360.256	89.44
360.483	93.44
360.709	73.44
360.936	87.44
361.163	66.44
361.39	98.44
361.616	76.44
361.843	86.44
362.07	89.44
362.296	83.44
362.523	108.44
362.749	106.44
362.976	104.44
363.203	120.44
363.429	91.44
363.656	95.44
363.882	88.44
364.109	107.44
364.335	113.44
364.562	119.44
364.788	110.44
365.015	91.44
365.241	82.44
365.468	83.44
365.694	93.44
365.92	81.44
366.147	84.44
366.373	76.44
366.599	83.44
366.826	85.44
367.052	77.44
367.278	102.44
367.505	90.44
367.731	92.44
367.957	87.44
368.184	86.44
368.41	89.44
368.636	75.44
368.862	75.44
369.089	80.44
369.315	86.44
369.541	93.44
369.767	78.44
369.993	80.44
370.219	90.44
370.445	85.44
370.672	83.44
370.898	83.44
371.124	83.44
371.35	87.44
371.576	76.44
371.802	82.44
372.028	78.44
372.254	83.44
372.48	98.44
372.706	79.44
372.932	91.44
373.158	87.44
373.384	80.44
373.61	85.44
373.835	93.44
374.061	100.44
374.287	91.44
374.513	91.44
374.739	81.44
374.965	74.44
375.191	93.44
375.416	90.44
375.642	89.44
375.868	100.44
376.094	87.44
376.319	91.44
376.545	89.44
376.771	79.44
376.997	88.44
377.222	82.44
377.448	83.44
377.674	87.44
377.899	86.44
378.125	77.44
378.35	91.44
378.576	74.44
378.802	86.44
379.027	72.44
379.253	91.44
379.478	95.44
379.704	98.44
379.929	82.44
380.155	73.44
380.38	89.44
380.606	101.44
380.831	86.44
381.057	72.44
381.282	98.44
381.507	87.44
381.733	82.44
381.958	87.44
382.184	84.44
382.409	71.44
382.634	95.44
382.86	91.44
383.085	88.44
383.31	87.44
383.535	89.44
383.761	94.44
383.986	91.44
384.211	70.44
384.436	90.44
384.662	93.44
384.887	81.44
385.112	82.44
385.337	83.44
385.562	94.44
385.787	80.44
386.013	81.44
386.238	87.44
386.463	94.44
386.688	111.44
386.913	80.44
387.138	80.44
387.363	94.44
387.588	99.44
387.813	77.44
388.038	100.44
388.263	94.44
388.488	87.44
388.713	76.44
388.938	79.44
389.163	94.44
389.387	82.44
389.612	90.44
389.837	95.44
390.062	96.44
390.287	73.44
390.512	87.44
390.736	90.44
390.961	73.44
391.186	96.44
391.411	96.44
391.636	79.44
391.86	89.44
392.085	75.44
392.31	94.44
392.534	87.44
392.759	86.44
392.984	121.44
393.208	168.44
393.433	215.44
393.658	168.44
393.882	117.44
394.107	91.44
394.331	98.44
394.556	100.44
394.78	92.44
395.005	100.44
395.229	99.44
395.454	113.44
395.678	94.44
395.903	110.44
396.127	104.44
396.352	124.44
396.576	132.44
396.801	168.44
397.025	186.44
397.249	140.44
397.474	121.44
397.698	103.44
397.922	84.44
398.147	87.44
398.371	91.44
398.595	96.44
398.82	82.44
399.044	86.44
399.268	80.44
399.492	75.44
399.717	74.44
399.941	81.44
400.165	75.44
400.389	70.44
400.613	94.44
400.837	92.44
401.062	86.44
401.286	81.44
401.51	92.44
401.734	76.44
401.958	77.44
402.182	81.44
402.406	88.44
402.63	82.44
402.854	103.44
403.078	88.44
403.302	80.44
403.526	100.44
403.75	99.44
403.974	95.44
404.198	95.44
404.422	95.44
404.645	106.44
404.869	106.44
405.093	83.44
405.317	86.44
405.541	88.44
405.765	81.44
405.988	88.44
406.212	94.44
406.436	81.44
406.66	88.44
406.883	80.44
407.107	87.44
407.331	84.44
407.555	89.44
407.778	80.44
408.002	92.44
408.226	76.44
408.449	78.44
408.673	84.44
408.896	91.44
409.12	88.44
409.344	103.44
409.567	95.44
409.791	95.44
410.014	90.44
410.238	91.44
410.461	83.44
410.685	89.44
410.908	92.44
411.132	96.44
411.355	84.44
411.578	95.44
411.802	88.44
412.025	95.44
412.249	97.44
412.472	88.44
412.695	94.44
412.919	86.44
413.142	83.44
413.365	91.44
413.589	79.44
413.812	70.44
414.035	75.44
414.258	91.44
414.482	98.44
414.705	86.44
414.928	84.44
415.151	75.44
415.374	87.44
415.597	91.44
415.821	85.44
416.044	88.44
416.267	91.44
416.49	71.44
416.713	70.44
416.936	81.44
417.159	84.44
417.382	94.44
417.605	68.44
417.828	83.44
418.051	82.44
418.274	92.44
418.497	77.44
418.72	75.44
418.943	82.44
419.166	78.44
419.389	65.44
419.611	78.44
419.834	80.44
420.057	99.44
420.28	89.44
420.503	95.44
420.726	82.44
420.948	107.44
421.171	110.44
421.394	104.44
421.617	95.44
421.839	122.44
422.062	128.44
422.285	174.44
422.507	266.44
422.73	318.44
422.953	304.44
423.175	205.44
423.398	141.44
423.621	101.44
423.843	103.44
424.066	78.44
424.288	94.44
424.511	103.44
424.733	96.44
424.956	84.44
425.178	89.44
425.401	85.44
425.623	90.44
425.846	69.44
426.068	86.44
426.291	79.44
426.513	75.44
426.735	79.44
426.958	87.44
427.18	85.44
427.402	74.44
427.625	83.44
427.847	91.44
428.069	110.44
428.292	116.44
428.514	122.44
428.736	96.44
428.958	124.44
429.181	120.44
429.403	92.44
429.625	88.44
429.847	105.44
430.069	153.44
430.292	158.44
430.514	146.44
430.736	115.44
430.958	141.44
431.18	95.44
431.402	86.44
431.624	110.44
431.846	118.44
432.068	131.44
432.29	94.44
432.512	96.44
432.734	96.44
432.956	92.44
433.178	86.44
433.4	82.44
433.622	99.44
433.844	78.44
434.066	90.44
434.287	85.44
434.509	76.44
434.731	74.44
434.953	81.44
435.175	78.44
435.397	81.44
435.618	93.44
435.84	88.44
436.062	92.44
436.284	87.44
436.505	95.44
436.727	88.44
436.949	79.44
437.17	73.44
437.392	69.44
437.614	85.44
437.835	89.44
438.057	79.44
438.278	93.44
438.5	84.44
438.721	67.44
438.943	86.44
439.165	89.44
439.386	91.44
439.608	87.44
439.829	96.44
440.05	86.44
440.272	80.44
440.493	95.44
440.715	76.44
440.936	83.44
441.158	88.44
441.379	90.44
441.6	84.44
441.822	95.44
442.043	95.44
442.264	107.44
442.486	117.44
442.707	156.44
442.928	123.44
443.149	105.44
443.371	138.44
443.592	214.44
443.813	195.44
444.034	107.44
444.255	96.44
444.476	83.44
444.698	87.44
444.919	96.44
445.14	199.44
445.361	188.44
445.582	243.44
445.803	201.44
446.024	115.44
446.245	99.44
446.466	106.44
446.687	80.44
446.908	91.44
447.129	87.44
447.35	91.44
447.571	88.44
447.792	90.44
448.013	81.44
448.234	79.44
448.455	74.44
448.675	87.44
448.896	75.44
449.117	98.44
449.338	75.44
449.559	85.44
449.779	80.44
450	83.44
450.221	86.44
450.442	92.44
450.662	78.44
450.883	79.44
451.104	98.44
451.324	95.44
451.545	81.44
451.766	88.44
451.986	96.44
452.207	99.44
452.428	96.44
452.648	97.44
452.869	102.44
453.089	93.44
453.31	86.44
453.53	73.44
453.751	86.44
453.971	79.44
454.192	85.44
454.412	82.44
454.633	76.44
454.853	82.44
455.073	82.44
455.294	95.44
455.514	90.44
455.734	92.44
455.955	99.44
456.175	92.44
456.395	85.44
456.616	78.44
456.836	90.44
457.056	84.44
457.276	86.44
457.497	84.44
457.717	82.44
457.937	99.44
458.157	119.44
458.377	114.44
458.598	112.44
458.818	114.44
459.038	94.44
459.258	98.44
459.478	83.44
459.698	69.44
459.918	76.44
460.138	76.44
460.358	88.44
460.578	100.44
460.798	106.44
461.018	116.44
461.238	93.44
461.458	87.44
461.678	75.44
461.898	86.44
462.118	78.44
462.338	88.44
462.558	67.44
462.777	88.44
462.997	86.44
463.217	91.44
463.437	82.44
463.657	88.44
463.876	78.44
464.096	79.44
464.316	70.44
464.536	90.44
464.755	93.44
464.975	81.44
465.195	83.44
465.414	94.44
465.634	83.44
465.854	82.44
466.073	79.44
466.293	75.44
466.512	86.44
466.732	78.44
466.951	80.44
467.171	66.44
467.391	90.44
467.61	82.44
467.829	83.44
468.049	90.44
468.268	82.44
468.488	89.44
468.707	76.44
468.927	65.44
469.146	91.44
469.365	80.44
469.585	97.44
469.804	87.44
470.023	88.44
470.243	93.44
470.462	81.44
470.681	87.44
470.901	90.44
471.12	99.44
471.339	82.44
471.558	94.44
471.777	96.44
471.997	92.44
472.216	76.44
472.435	79.44
472.654	89.44
472.873	80.44
473.092	102.44
473.311	88.44
473.53	86.44
473.749	87.44
473.968	94.44
474.187	84.44
474.406	76.44
474.625	89.44
474.844	95.44
475.063	96.44
475.282	95.44
475.501	91.44
475.72	93.44
475.939	78.44
476.158	85.44
476.377	98.44
476.596	95.44
476.814	97.44
477.033	88.44
477.252	82.44
477.471	97.44
477.69	76.44
477.908	80.44
478.127	92.44
478.346	90.44
478.564	87.44
478.783	83.44
479.002	77.44
479.22	78.44
479.439	82.44
479.658	79.44
479.876	84.44
480.095	90.44
480.313	80.44
480.532	88.44
480.751	83.44
480.969	83.44
481.188	96.44
481.406	82.44
481.624	92.44
481.843	83.44
482.061	84.44
482.28	79.44
482.498	94.44
482.717	86.44
482.935	76.44
483.153	82.44
483.372	71.44
483.59	86.44
483.808	88.44
484.027	83.44
484.245	99.44
484.463	94.44
484.681	94.44
484.9	77.44
485.118	94.44
485.336	84.44
485.554	86.44
485.772	88.44
485.99	77.44
486.209	92.44
486.427	75.44
486.645	88.44
486.863	88.44
487.081	79.44
487.299	85.44
487.517	90.44
487.735	110.44
487.953	151.44
488.171	132.44
488.389	100.44
488.607	82.44
488.825	97.44
489.043	90.44
489.261	90.44
489.479	84.44
489.696	73.44
489.914	92.44
490.132	85.44
490.35	93.44
490.568	78.44
490.786	94.44
491.003	83.44
491.221	85.44
491.439	87.44
491.657	90.44
491.874	92.44
492.092	86.44
492.31	78.44
492.527	89.44
492.745	75.44
492.963	85.44
493.18	83.44
493.398	87.44
493.615	84.44
493.833	90.44
494.05	80.44
494.268	84.44
494.485	82.44
494.703	89.44
494.92	94.44
495.138	86.44
495.355	92.44
495.573	89.44
495.79	84.44
496.008	91.44
496.225	91.44
496.442	93.44
496.66	100.44
496.877	80.44
497.094	94.44
497.312	79.44
497.529	83.44
497.746	81.44
497.963	79.44
498.181	86.44
498.398	80.44
498.615	99.44
498.832	77.44
499.049	95.44
499.267	97.44
499.484	70.44
499.701	82.44
499.918	78.44
500.135	92.44
500.352	77.44
500.569	82.44
500.786	103.44
501.003	80.44
501.22	77.44
501.437	89.44
501.654	92.44
501.871	79.44
502.088	83.44
502.305	89.44
502.522	92.44
502.739	89.44
502.956	90.44
503.172	90.44
503.389	80.44
503.606	76.44
503.823	88.44
504.04	107.44
504.256	127.44
504.473	138.44
504.69	96.44
504.907	95.44
505.123	106.44
505.34	86.44
505.557	85.44
505.773	88.44
505.99	89.44
506.207	95.44
506.423	84.44
506.64	94.44
506.856	96.44
507.073	88.44
507.289	73.44
507.506	77.44
507.722	85.44
507.939	72.44
508.155	89.44
508.372	76.44
508.588	94.44
508.805	96.44
509.021	88.44
509.238	85.44
509.454	95.44
509.67	80.44
509.887	95.44
510.103	99.44
510.319	82.44
510.536	89.44
510.752	77.44
510.968	91.44
511.184	86.44
511.401	100.44
511.617	90.44
511.833	70.44
512.049	88.44
512.265	88.44
512.481	79.44
512.698	82.44
512.914	88.44
513.13	85.44
513.346	86.44
513.562	94.44
513.778	99.44
513.994	95.44
514.21	93.44
514.426	85.44
514.642	85.44
514.858	91.44
515.074	90.44
515.29	84.44
515.506	94.44
515.721	87.44
515.937	100.44
516.153	80.44
516.369	84.44
516.585	79.44
516.801	80.44
517.016	78.44
517.232	87.44
517.448	87.44
517.664	83.44
517.879	91.44
518.095	91.44
518.311	94.44
518.527	108.44
518.742	110.44
