Data from CBS_1_HRD10591_00033.txt Node
Date: Mon Jan 19 14:04:05 EST 2026
User: Yrep
Spectrometer: HR+D1059
Trigger mode: 1
Integration Time (sec): 1.000000E-1
Scans to average: 1
Electric dark correction enabled: true
Nonlinearity correction enabled: false
Boxcar width: 0
XAxis mode: Wavelengths
Number of Pixels in Spectrum: 2048
>>>>>Begin Spectral Data<<<<<
223.165	-9.44
223.4	-9.44
223.635	-9.44
223.869	-16.44
224.104	-22.44
224.338	-17.44
224.573	-22.44
224.808	-24.44
225.042	-4.44
225.277	16.56
225.511	-23.44
225.746	4.56
225.98	-10.44
226.215	14.56
226.449	15.56
226.683	36.56
226.918	34.56
227.152	28.56
227.387	35.56
227.621	27.56
227.856	46.56
228.09	44.56
228.324	37.56
228.559	46.56
228.793	51.56
229.027	67.56
229.262	62.56
229.496	72.56
229.73	68.56
229.964	77.56
230.199	61.56
230.433	83.56
230.667	82.56
230.901	87.56
231.136	76.56
231.37	80.56
231.604	98.56
231.838	71.56
232.072	87.56
232.306	100.56
232.541	86.56
232.775	90.56
233.009	80.56
233.243	78.56
233.477	81.56
233.711	83.56
233.945	90.56
234.179	82.56
234.413	87.56
234.647	72.56
234.881	79.56
235.115	89.56
235.349	80.56
235.583	82.56
235.817	78.56
236.051	85.56
236.285	74.56
236.519	86.56
236.753	82.56
236.987	70.56
237.221	78.56
237.455	73.56
237.689	69.56
237.922	85.56
238.156	86.56
238.39	73.56
238.624	82.56
238.858	62.56
239.091	66.56
239.325	76.56
239.559	66.56
239.793	56.56
240.027	84.56
240.26	90.56
240.494	77.56
240.728	72.56
240.961	59.56
241.195	66.56
241.429	71.56
241.662	71.56
241.896	71.56
242.13	86.56
242.363	80.56
242.597	82.56
242.83	60.56
243.064	71.56
243.298	102.56
243.531	87.56
243.765	74.56
243.998	59.56
244.232	74.56
244.465	76.56
244.699	71.56
244.932	74.56
245.166	77.56
245.399	72.56
245.633	82.56
245.866	86.56
246.099	85.56
246.333	85.56
246.566	77.56
246.8	65.56
247.033	87.56
247.266	67.56
247.5	91.56
247.733	81.56
247.966	72.56
248.2	58.56
248.433	81.56
248.666	65.56
248.899	76.56
249.133	83.56
249.366	78.56
249.599	77.56
249.832	86.56
250.066	73.56
250.299	61.56
250.532	82.56
250.765	76.56
250.998	73.56
251.231	73.56
251.465	80.56
251.698	80.56
251.931	76.56
252.164	77.56
252.397	71.56
252.63	78.56
252.863	79.56
253.096	84.56
253.329	90.56
253.562	85.56
253.795	78.56
254.028	81.56
254.261	76.56
254.494	77.56
254.727	75.56
254.96	82.56
255.193	84.56
255.426	66.56
255.659	92.56
255.892	89.56
256.124	76.56
256.357	61.56
256.59	72.56
256.823	80.56
257.056	79.56
257.289	78.56
257.521	62.56
257.754	75.56
257.987	87.56
258.22	62.56
258.452	76.56
258.685	80.56
258.918	95.56
259.151	73.56
259.383	80.56
259.616	72.56
259.849	84.56
260.081	88.56
260.314	76.56
260.547	69.56
260.779	80.56
261.012	86.56
261.244	79.56
261.477	96.56
261.71	79.56
261.942	75.56
262.175	73.56
262.407	78.56
262.64	74.56
262.872	80.56
263.105	75.56
263.337	86.56
263.57	72.56
263.802	76.56
264.035	77.56
264.267	90.56
264.499	89.56
264.732	80.56
264.964	83.56
265.197	80.56
265.429	77.56
265.661	58.56
265.894	91.56
266.126	78.56
266.358	75.56
266.591	66.56
266.823	76.56
267.055	86.56
267.287	71.56
267.52	75.56
267.752	81.56
267.984	90.56
268.216	70.56
268.448	90.56
268.681	95.56
268.913	87.56
269.145	75.56
269.377	85.56
269.609	84.56
269.841	89.56
270.073	78.56
270.306	82.56
270.538	67.56
270.77	77.56
271.002	83.56
271.234	74.56
271.466	88.56
271.698	70.56
271.93	81.56
272.162	90.56
272.394	79.56
272.626	75.56
272.858	85.56
273.09	68.56
273.322	95.56
273.553	83.56
273.785	91.56
274.017	92.56
274.249	92.56
274.481	85.56
274.713	94.56
274.945	69.56
275.176	87.56
275.408	89.56
275.64	84.56
275.872	84.56
276.104	94.56
276.335	82.56
276.567	72.56
276.799	76.56
277.031	69.56
277.262	89.56
277.494	93.56
277.726	80.56
277.957	95.56
278.189	82.56
278.421	78.56
278.652	83.56
278.884	84.56
279.115	81.56
279.347	76.56
279.579	75.56
279.81	81.56
280.042	65.56
280.273	90.56
280.505	90.56
280.736	87.56
280.968	74.56
281.199	94.56
281.431	92.56
281.662	71.56
281.894	90.56
282.125	86.56
282.356	84.56
282.588	83.56
282.819	77.56
283.051	78.56
283.282	75.56
283.513	90.56
283.745	78.56
283.976	75.56
284.207	66.56
284.439	82.56
284.67	87.56
284.901	94.56
285.132	84.56
285.364	84.56
285.595	93.56
285.826	80.56
286.057	98.56
286.288	70.56
286.52	88.56
286.751	75.56
286.982	100.56
287.213	89.56
287.444	85.56
287.675	80.56
287.906	82.56
288.138	82.56
288.369	68.56
288.6	91.56
288.831	86.56
289.062	94.56
289.293	79.56
289.524	79.56
289.755	103.56
289.986	76.56
290.217	86.56
290.448	72.56
290.679	78.56
290.91	82.56
291.141	81.56
291.371	95.56
291.602	90.56
291.833	86.56
292.064	93.56
292.295	76.56
292.526	73.56
292.757	76.56
292.987	97.56
293.218	85.56
293.449	84.56
293.68	67.56
293.91	75.56
294.141	93.56
294.372	93.56
294.603	92.56
294.833	90.56
295.064	79.56
295.295	86.56
295.525	70.56
295.756	79.56
295.987	104.56
296.217	95.56
296.448	86.56
296.679	87.56
296.909	80.56
297.14	84.56
297.37	103.56
297.601	90.56
297.831	82.56
298.062	80.56
298.292	90.56
298.523	85.56
298.753	82.56
298.984	76.56
299.214	84.56
299.445	88.56
299.675	81.56
299.905	87.56
300.136	87.56
300.366	81.56
300.597	69.56
300.827	92.56
301.057	74.56
301.288	80.56
301.518	81.56
301.748	72.56
301.979	90.56
302.209	74.56
302.439	91.56
302.669	87.56
302.9	87.56
303.13	83.56
303.36	81.56
303.59	75.56
303.82	69.56
304.051	85.56
304.281	92.56
304.511	90.56
304.741	100.56
304.971	86.56
305.201	90.56
305.431	82.56
305.661	77.56
305.891	79.56
306.121	79.56
306.352	86.56
306.582	87.56
306.812	104.56
307.042	104.56
307.272	83.56
307.502	72.56
307.731	90.56
307.961	90.56
308.191	83.56
308.421	89.56
308.651	89.56
308.881	80.56
309.111	81.56
309.341	86.56
309.571	82.56
309.8	88.56
310.03	95.56
310.26	76.56
310.49	80.56
310.72	93.56
310.949	83.56
311.179	100.56
311.409	87.56
311.639	76.56
311.868	88.56
312.098	81.56
312.328	98.56
312.557	80.56
312.787	80.56
313.017	87.56
313.246	85.56
313.476	88.56
313.706	82.56
313.935	80.56
314.165	86.56
314.394	82.56
314.624	87.56
314.853	91.56
315.083	85.56
315.312	99.56
315.542	90.56
315.771	76.56
316.001	81.56
316.23	80.56
316.46	82.56
316.689	81.56
316.919	80.56
317.148	87.56
317.377	104.56
317.607	97.56
317.836	89.56
318.065	89.56
318.295	96.56
318.524	83.56
318.753	87.56
318.983	82.56
319.212	86.56
319.441	88.56
319.67	89.56
319.9	90.56
320.129	79.56
320.358	79.56
320.587	76.56
320.816	77.56
321.046	90.56
321.275	87.56
321.504	70.56
321.733	92.56
321.962	88.56
322.191	87.56
322.42	88.56
322.649	100.56
322.878	78.56
323.108	97.56
323.337	83.56
323.566	88.56
323.795	87.56
324.024	95.56
324.253	91.56
324.482	84.56
324.71	81.56
324.939	99.56
325.168	84.56
325.397	90.56
325.626	94.56
325.855	90.56
326.084	71.56
326.313	82.56
326.542	85.56
326.77	91.56
326.999	95.56
327.228	91.56
327.457	87.56
327.686	88.56
327.914	84.56
328.143	93.56
328.372	95.56
328.6	72.56
328.829	94.56
329.058	82.56
329.287	90.56
329.515	80.56
329.744	93.56
329.972	87.56
330.201	76.56
330.43	88.56
330.658	84.56
330.887	80.56
331.115	86.56
331.344	89.56
331.572	88.56
331.801	83.56
332.03	85.56
332.258	94.56
332.486	88.56
332.715	93.56
332.943	82.56
333.172	87.56
333.4	92.56
333.629	83.56
333.857	73.56
334.085	91.56
334.314	98.56
334.542	86.56
334.771	86.56
334.999	86.56
335.227	89.56
335.455	82.56
335.684	86.56
335.912	84.56
336.14	88.56
336.369	89.56
336.597	92.56
336.825	73.56
337.053	95.56
337.281	91.56
337.51	73.56
337.738	90.56
337.966	88.56
338.194	94.56
338.422	75.56
338.65	84.56
338.878	98.56
339.106	87.56
339.334	92.56
339.562	89.56
339.79	94.56
340.018	80.56
340.246	84.56
340.474	87.56
340.702	85.56
340.93	83.56
341.158	96.56
341.386	79.56
341.614	71.56
341.842	89.56
342.07	83.56
342.298	88.56
342.526	77.56
342.754	88.56
342.981	79.56
343.209	90.56
343.437	87.56
343.665	82.56
343.893	87.56
344.12	98.56
344.348	84.56
344.576	84.56
344.804	89.56
345.031	83.56
345.259	81.56
345.487	76.56
345.714	88.56
345.942	84.56
346.17	99.56
346.397	99.56
346.625	92.56
346.853	90.56
347.08	67.56
347.308	82.56
347.535	73.56
347.763	75.56
347.99	81.56
348.218	88.56
348.445	79.56
348.673	88.56
348.9	93.56
349.128	77.56
349.355	81.56
349.583	81.56
349.81	87.56
350.037	94.56
350.265	84.56
350.492	94.56
350.72	94.56
350.947	85.56
351.174	74.56
351.402	80.56
351.629	79.56
351.856	91.56
352.083	94.56
352.311	70.56
352.538	102.56
352.765	100.56
352.992	90.56
353.22	74.56
353.447	82.56
353.674	79.56
353.901	92.56
354.128	95.56
354.355	86.56
354.583	94.56
354.81	88.56
355.037	90.56
355.264	81.56
355.491	104.56
355.718	85.56
355.945	89.56
356.172	82.56
356.399	92.56
356.626	79.56
356.853	85.56
357.08	77.56
357.307	82.56
357.534	86.56
357.761	96.56
357.988	83.56
358.215	90.56
358.441	82.56
358.668	75.56
358.895	89.56
359.122	71.56
359.349	98.56
359.576	92.56
359.802	78.56
360.029	82.56
360.256	88.56
360.483	79.56
360.709	79.56
360.936	85.56
361.163	78.56
361.39	84.56
361.616	96.56
361.843	76.56
362.07	86.56
362.296	92.56
362.523	92.56
362.749	86.56
362.976	86.56
363.203	112.56
363.429	98.56
363.656	71.56
363.882	77.56
364.109	98.56
364.335	103.56
364.562	93.56
364.788	89.56
365.015	97.56
365.241	100.56
365.468	80.56
365.694	99.56
365.92	91.56
366.147	84.56
366.373	80.56
366.599	84.56
366.826	97.56
367.052	89.56
367.278	88.56
367.505	77.56
367.731	97.56
367.957	74.56
368.184	78.56
368.41	88.56
368.636	79.56
368.862	84.56
369.089	94.56
369.315	85.56
369.541	74.56
369.767	73.56
369.993	83.56
370.219	87.56
370.445	89.56
370.672	91.56
370.898	99.56
371.124	84.56
371.35	90.56
371.576	84.56
371.802	77.56
372.028	88.56
372.254	78.56
372.48	80.56
372.706	77.56
372.932	85.56
373.158	96.56
373.384	106.56
373.61	89.56
373.835	76.56
374.061	74.56
374.287	91.56
374.513	82.56
374.739	94.56
374.965	96.56
375.191	85.56
375.416	89.56
375.642	82.56
375.868	97.56
376.094	91.56
376.319	91.56
376.545	76.56
376.771	81.56
376.997	76.56
377.222	81.56
377.448	89.56
377.674	85.56
377.899	87.56
378.125	77.56
378.35	77.56
378.576	85.56
378.802	81.56
379.027	92.56
379.253	95.56
379.478	75.56
379.704	94.56
379.929	86.56
380.155	83.56
380.38	88.56
380.606	94.56
380.831	97.56
381.057	84.56
381.282	90.56
381.507	89.56
381.733	85.56
381.958	83.56
382.184	93.56
382.409	80.56
382.634	83.56
382.86	84.56
383.085	81.56
383.31	81.56
383.535	89.56
383.761	87.56
383.986	88.56
384.211	90.56
384.436	87.56
384.662	80.56
384.887	87.56
385.112	81.56
385.337	97.56
385.562	83.56
385.787	84.56
386.013	90.56
386.238	84.56
386.463	71.56
386.688	89.56
386.913	83.56
387.138	90.56
387.363	82.56
387.588	79.56
387.813	98.56
388.038	84.56
388.263	97.56
388.488	88.56
388.713	100.56
388.938	75.56
389.163	82.56
389.387	92.56
389.612	65.56
389.837	75.56
390.062	88.56
390.287	99.56
390.512	74.56
390.736	74.56
390.961	104.56
391.186	91.56
391.411	88.56
391.636	66.56
391.86	73.56
392.085	71.56
392.31	80.56
392.534	87.56
392.759	90.56
392.984	123.56
393.208	167.56
393.433	219.56
393.658	184.56
393.882	122.56
394.107	96.56
394.331	81.56
394.556	89.56
394.78	88.56
395.005	95.56
395.229	100.56
395.454	94.56
395.678	99.56
395.903	103.56
396.127	114.56
396.352	105.56
396.576	118.56
396.801	165.56
397.025	172.56
397.249	123.56
397.474	97.56
397.698	100.56
397.922	110.56
398.147	82.56
398.371	83.56
398.595	87.56
398.82	84.56
399.044	84.56
399.268	89.56
399.492	72.56
399.717	82.56
399.941	83.56
400.165	83.56
400.389	77.56
400.613	83.56
400.837	89.56
401.062	91.56
401.286	76.56
401.51	94.56
401.734	93.56
401.958	91.56
402.182	87.56
402.406	83.56
402.63	84.56
402.854	74.56
403.078	90.56
403.302	91.56
403.526	83.56
403.75	75.56
403.974	101.56
404.198	90.56
404.422	103.56
404.645	92.56
404.869	82.56
405.093	73.56
405.317	85.56
405.541	83.56
405.765	94.56
405.988	92.56
406.212	71.56
406.436	89.56
406.66	70.56
406.883	83.56
407.107	77.56
407.331	84.56
407.555	88.56
407.778	88.56
408.002	95.56
408.226	78.56
408.449	93.56
408.673	81.56
408.896	82.56
409.12	73.56
409.344	89.56
409.567	106.56
409.791	102.56
410.014	83.56
410.238	98.56
410.461	88.56
410.685	84.56
410.908	83.56
411.132	96.56
411.355	79.56
411.578	100.56
411.802	83.56
412.025	89.56
412.249	79.56
412.472	82.56
412.695	86.56
412.919	73.56
413.142	94.56
413.365	77.56
413.589	82.56
413.812	84.56
414.035	101.56
414.258	95.56
414.482	76.56
414.705	75.56
414.928	87.56
415.151	81.56
415.374	83.56
415.597	94.56
415.821	83.56
416.044	91.56
416.267	83.56
416.49	97.56
416.713	82.56
416.936	84.56
417.159	82.56
417.382	81.56
417.605	81.56
417.828	87.56
418.051	88.56
418.274	90.56
418.497	75.56
418.72	72.56
418.943	74.56
419.166	84.56
419.389	99.56
419.611	92.56
419.834	81.56
420.057	94.56
420.28	89.56
420.503	85.56
420.726	91.56
420.948	80.56
421.171	80.56
421.394	96.56
421.617	91.56
421.839	98.56
422.062	119.56
422.285	106.56
422.507	174.56
422.73	235.56
422.953	230.56
423.175	151.56
423.398	118.56
423.621	101.56
423.843	99.56
424.066	98.56
424.288	90.56
424.511	90.56
424.733	84.56
424.956	83.56
425.178	85.56
425.401	63.56
425.623	80.56
425.846	86.56
426.068	89.56
426.291	80.56
426.513	89.56
426.735	81.56
426.958	85.56
427.18	93.56
427.402	79.56
427.625	87.56
427.847	97.56
428.069	76.56
428.292	112.56
428.514	124.56
428.736	105.56
428.958	102.56
429.181	107.56
429.403	78.56
429.625	94.56
429.847	103.56
430.069	115.56
430.292	135.56
430.514	113.56
430.736	98.56
430.958	110.56
431.18	94.56
431.402	83.56
431.624	95.56
431.846	111.56
432.068	107.56
432.29	98.56
432.512	82.56
432.734	83.56
432.956	74.56
433.178	84.56
433.4	75.56
433.622	86.56
433.844	76.56
434.066	87.56
434.287	79.56
434.509	79.56
434.731	73.56
434.953	66.56
435.175	84.56
435.397	87.56
435.618	75.56
435.84	93.56
436.062	70.56
436.284	92.56
436.505	89.56
436.727	70.56
436.949	87.56
437.17	92.56
437.392	79.56
437.614	76.56
437.835	63.56
438.057	79.56
438.278	76.56
438.5	98.56
438.721	85.56
438.943	85.56
439.165	67.56
439.386	74.56
439.608	103.56
439.829	87.56
440.05	78.56
440.272	68.56
440.493	84.56
440.715	69.56
440.936	75.56
441.158	88.56
441.379	79.56
441.6	73.56
441.822	88.56
442.043	94.56
442.264	91.56
442.486	92.56
442.707	127.56
442.928	103.56
443.149	88.56
443.371	120.56
443.592	163.56
443.813	147.56
444.034	119.56
444.255	86.56
444.476	79.56
444.698	91.56
444.919	87.56
445.14	180.56
445.361	169.56
445.582	193.56
445.803	176.56
446.024	92.56
446.245	87.56
446.466	71.56
446.687	86.56
446.908	82.56
447.129	87.56
447.35	64.56
447.571	83.56
447.792	84.56
448.013	81.56
448.234	80.56
448.455	74.56
448.675	66.56
448.896	88.56
449.117	88.56
449.338	74.56
449.559	90.56
449.779	85.56
450	83.56
450.221	86.56
450.442	72.56
450.662	71.56
450.883	85.56
451.104	76.56
451.324	105.56
451.545	81.56
451.766	75.56
451.986	77.56
452.207	76.56
452.428	90.56
452.648	69.56
452.869	100.56
453.089	79.56
453.31	72.56
453.53	92.56
453.751	85.56
453.971	79.56
454.192	83.56
454.412	84.56
454.633	87.56
454.853	73.56
455.073	80.56
455.294	83.56
455.514	80.56
455.734	72.56
455.955	79.56
456.175	79.56
456.395	76.56
456.616	76.56
456.836	94.56
457.056	80.56
457.276	86.56
457.497	94.56
457.717	86.56
457.937	98.56
458.157	92.56
458.377	97.56
458.598	99.56
458.818	107.56
459.038	74.56
459.258	65.56
459.478	77.56
459.698	73.56
459.918	71.56
460.138	67.56
460.358	73.56
460.578	86.56
460.798	111.56
461.018	103.56
461.238	80.56
461.458	86.56
461.678	84.56
461.898	88.56
462.118	87.56
462.338	85.56
462.558	82.56
462.777	85.56
462.997	74.56
463.217	81.56
463.437	71.56
463.657	82.56
463.876	85.56
464.096	83.56
464.316	70.56
464.536	75.56
464.755	69.56
464.975	74.56
465.195	88.56
465.414	80.56
465.634	83.56
465.854	78.56
466.073	73.56
466.293	88.56
466.512	82.56
466.732	96.56
466.951	92.56
467.171	78.56
467.391	74.56
467.61	78.56
467.829	84.56
468.049	85.56
468.268	76.56
468.488	86.56
468.707	99.56
468.927	84.56
469.146	77.56
469.365	89.56
469.585	83.56
469.804	87.56
470.023	87.56
470.243	84.56
470.462	86.56
470.681	91.56
470.901	80.56
471.12	82.56
471.339	87.56
471.558	87.56
471.777	82.56
471.997	85.56
472.216	63.56
472.435	86.56
472.654	84.56
472.873	87.56
473.092	79.56
473.311	89.56
473.53	94.56
473.749	72.56
473.968	88.56
474.187	84.56
474.406	85.56
474.625	85.56
474.844	90.56
475.063	87.56
475.282	67.56
475.501	73.56
475.72	72.56
475.939	80.56
476.158	81.56
476.377	81.56
476.596	87.56
476.814	77.56
477.033	89.56
477.252	85.56
477.471	72.56
477.69	82.56
477.908	82.56
478.127	91.56
478.346	93.56
478.564	81.56
478.783	87.56
479.002	90.56
479.22	88.56
479.439	81.56
479.658	76.56
479.876	106.56
480.095	75.56
480.313	91.56
480.532	82.56
480.751	82.56
480.969	87.56
481.188	64.56
481.406	79.56
481.624	68.56
481.843	86.56
482.061	72.56
482.28	85.56
482.498	91.56
482.717	75.56
482.935	80.56
483.153	86.56
483.372	87.56
483.59	82.56
483.808	82.56
484.027	83.56
484.245	90.56
484.463	82.56
484.681	92.56
484.9	87.56
485.118	84.56
485.336	65.56
485.554	82.56
485.772	91.56
485.99	84.56
486.209	84.56
486.427	85.56
486.645	65.56
486.863	82.56
487.081	96.56
487.299	90.56
487.517	76.56
487.735	93.56
487.953	138.56
488.171	127.56
488.389	89.56
488.607	86.56
488.825	88.56
489.043	88.56
489.261	86.56
489.479	81.56
489.696	93.56
489.914	91.56
490.132	74.56
490.35	90.56
490.568	75.56
490.786	78.56
491.003	86.56
491.221	82.56
491.439	82.56
491.657	76.56
491.874	76.56
492.092	83.56
492.31	83.56
492.527	90.56
492.745	84.56
492.963	80.56
493.18	87.56
493.398	84.56
493.615	89.56
493.833	83.56
494.05	74.56
494.268	85.56
494.485	81.56
494.703	76.56
494.92	72.56
495.138	87.56
495.355	83.56
495.573	85.56
495.79	77.56
496.008	82.56
496.225	73.56
496.442	85.56
496.66	81.56
496.877	75.56
497.094	83.56
497.312	90.56
497.529	83.56
497.746	72.56
497.963	79.56
498.181	88.56
498.398	83.56
498.615	87.56
498.832	86.56
499.049	97.56
499.267	86.56
499.484	95.56
499.701	88.56
499.918	72.56
500.135	93.56
500.352	86.56
500.569	82.56
500.786	83.56
501.003	79.56
501.22	79.56
501.437	81.56
501.654	84.56
501.871	87.56
502.088	92.56
502.305	83.56
502.522	90.56
502.739	82.56
502.956	81.56
503.172	69.56
503.389	88.56
503.606	85.56
503.823	76.56
504.04	87.56
504.256	114.56
504.473	99.56
504.69	71.56
504.907	90.56
505.123	78.56
505.34	84.56
505.557	83.56
505.773	83.56
505.99	80.56
506.207	74.56
506.423	86.56
506.64	96.56
506.856	94.56
507.073	86.56
507.289	87.56
507.506	91.56
507.722	89.56
507.939	71.56
508.155	96.56
508.372	90.56
508.588	75.56
508.805	77.56
509.021	79.56
509.238	82.56
509.454	91.56
509.67	84.56
509.887	88.56
510.103	77.56
510.319	80.56
510.536	90.56
510.752	75.56
510.968	88.56
511.184	74.56
511.401	72.56
511.617	85.56
511.833	97.56
512.049	86.56
512.265	78.56
512.481	76.56
512.698	80.56
512.914	90.56
513.13	83.56
513.346	87.56
513.562	78.56
513.778	92.56
513.994	88.56
514.21	84.56
514.426	96.56
514.642	91.56
514.858	83.56
515.074	75.56
515.29	90.56
515.506	86.56
515.721	77.56
515.937	96.56
516.153	94.56
516.369	73.56
516.585	90.56
516.801	96.56
517.016	103.56
517.232	82.56
517.448	75.56
517.664	89.56
517.879	87.56
518.095	93.56
518.311	94.56
518.527	93.56
518.742	90.56
518.958	109.56
519.173	127.56
