Data from CBS_1_HRD10591_00049.txt Node
Date: Mon Jan 19 14:04:13 EST 2026
User: Yrep
Spectrometer: HR+D1059
Trigger mode: 1
Integration Time (sec): 1.000000E-1
Scans to average: 1
Electric dark correction enabled: true
Nonlinearity correction enabled: false
Boxcar width: 0
XAxis mode: Wavelengths
Number of Pixels in Spectrum: 2048
>>>>>Begin Spectral Data<<<<<
223.165	-37.44
223.4	-37.44
223.635	-37.44
223.869	-12.44
224.104	-11.44
224.338	-21.44
224.573	-18.44
224.808	2.56
225.042	-12.44
225.277	-10.44
225.511	14.56
225.746	8.56
225.98	22.56
226.215	0.56
226.449	1.56
226.683	20.56
226.918	20.56
227.152	32.56
227.387	52.56
227.621	29.56
227.856	43.56
228.09	54.56
228.324	64.56
228.559	79.56
228.793	54.56
229.027	74.56
229.262	68.56
229.496	68.56
229.73	74.56
229.964	74.56
230.199	73.56
230.433	77.56
230.667	83.56
230.901	74.56
231.136	75.56
231.37	88.56
231.604	87.56
231.838	68.56
232.072	68.56
232.306	84.56
232.541	92.56
232.775	70.56
233.009	88.56
233.243	71.56
233.477	96.56
233.711	88.56
233.945	81.56
234.179	77.56
234.413	78.56
234.647	73.56
234.881	79.56
235.115	68.56
235.349	79.56
235.583	71.56
235.817	77.56
236.051	89.56
236.285	73.56
236.519	85.56
236.753	83.56
236.987	92.56
237.221	85.56
237.455	89.56
237.689	87.56
237.922	78.56
238.156	88.56
238.39	60.56
238.624	75.56
238.858	81.56
239.091	68.56
239.325	71.56
239.559	76.56
239.793	71.56
240.027	84.56
240.26	76.56
240.494	78.56
240.728	69.56
240.961	74.56
241.195	88.56
241.429	68.56
241.662	85.56
241.896	78.56
242.13	60.56
242.363	70.56
242.597	88.56
242.83	88.56
243.064	88.56
243.298	77.56
243.531	90.56
243.765	69.56
243.998	70.56
244.232	89.56
244.465	86.56
244.699	70.56
244.932	81.56
245.166	70.56
245.399	76.56
245.633	69.56
245.866	84.56
246.099	82.56
246.333	84.56
246.566	89.56
246.8	77.56
247.033	74.56
247.266	76.56
247.5	71.56
247.733	90.56
247.966	78.56
248.2	70.56
248.433	90.56
248.666	78.56
248.899	73.56
249.133	92.56
249.366	90.56
249.599	79.56
249.832	74.56
250.066	85.56
250.299	78.56
250.532	87.56
250.765	78.56
250.998	73.56
251.231	90.56
251.465	91.56
251.698	73.56
251.931	73.56
252.164	83.56
252.397	84.56
252.63	76.56
252.863	78.56
253.096	82.56
253.329	78.56
253.562	72.56
253.795	98.56
254.028	67.56
254.261	65.56
254.494	86.56
254.727	72.56
254.96	80.56
255.193	81.56
255.426	88.56
255.659	72.56
255.892	85.56
256.124	76.56
256.357	77.56
256.59	86.56
256.823	89.56
257.056	78.56
257.289	87.56
257.521	95.56
257.754	79.56
257.987	79.56
258.22	90.56
258.452	80.56
258.685	79.56
258.918	80.56
259.151	87.56
259.383	80.56
259.616	78.56
259.849	76.56
260.081	71.56
260.314	87.56
260.547	80.56
260.779	75.56
261.012	86.56
261.244	94.56
261.477	87.56
261.71	91.56
261.942	87.56
262.175	91.56
262.407	75.56
262.64	78.56
262.872	76.56
263.105	81.56
263.337	70.56
263.57	85.56
263.802	78.56
264.035	74.56
264.267	82.56
264.499	88.56
264.732	89.56
264.964	78.56
265.197	86.56
265.429	73.56
265.661	89.56
265.894	78.56
266.126	79.56
266.358	93.56
266.591	74.56
266.823	72.56
267.055	88.56
267.287	69.56
267.52	76.56
267.752	85.56
267.984	94.56
268.216	86.56
268.448	71.56
268.681	83.56
268.913	96.56
269.145	84.56
269.377	84.56
269.609	76.56
269.841	96.56
270.073	88.56
270.306	78.56
270.538	88.56
270.77	68.56
271.002	83.56
271.234	84.56
271.466	83.56
271.698	81.56
271.93	89.56
272.162	83.56
272.394	65.56
272.626	68.56
272.858	97.56
273.09	88.56
273.322	83.56
273.553	84.56
273.785	86.56
274.017	91.56
274.249	81.56
274.481	84.56
274.713	87.56
274.945	98.56
275.176	79.56
275.408	78.56
275.64	97.56
275.872	75.56
276.104	89.56
276.335	93.56
276.567	72.56
276.799	86.56
277.031	84.56
277.262	71.56
277.494	80.56
277.726	85.56
277.957	78.56
278.189	98.56
278.421	78.56
278.652	82.56
278.884	85.56
279.115	69.56
279.347	69.56
279.579	83.56
279.81	76.56
280.042	99.56
280.273	96.56
280.505	79.56
280.736	86.56
280.968	87.56
281.199	93.56
281.431	77.56
281.662	77.56
281.894	73.56
282.125	96.56
282.356	89.56
282.588	95.56
282.819	82.56
283.051	96.56
283.282	70.56
283.513	96.56
283.745	88.56
283.976	87.56
284.207	79.56
284.439	88.56
284.67	89.56
284.901	86.56
285.132	86.56
285.364	93.56
285.595	89.56
285.826	83.56
286.057	96.56
286.288	75.56
286.52	74.56
286.751	85.56
286.982	80.56
287.213	72.56
287.444	70.56
287.675	97.56
287.906	88.56
288.138	65.56
288.369	81.56
288.6	90.56
288.831	78.56
289.062	80.56
289.293	91.56
289.524	74.56
289.755	77.56
289.986	92.56
290.217	81.56
290.448	79.56
290.679	85.56
290.91	84.56
291.141	76.56
291.371	80.56
291.602	83.56
291.833	76.56
292.064	82.56
292.295	86.56
292.526	85.56
292.757	78.56
292.987	86.56
293.218	81.56
293.449	88.56
293.68	82.56
293.91	96.56
294.141	90.56
294.372	83.56
294.603	88.56
294.833	83.56
295.064	78.56
295.295	78.56
295.525	88.56
295.756	82.56
295.987	86.56
296.217	84.56
296.448	94.56
296.679	82.56
296.909	94.56
297.14	96.56
297.37	95.56
297.601	74.56
297.831	82.56
298.062	86.56
298.292	90.56
298.523	65.56
298.753	76.56
298.984	74.56
299.214	84.56
299.445	96.56
299.675	104.56
299.905	82.56
300.136	94.56
300.366	84.56
300.597	84.56
300.827	83.56
301.057	84.56
301.288	81.56
301.518	84.56
301.748	84.56
301.979	93.56
302.209	83.56
302.439	86.56
302.669	80.56
302.9	96.56
303.13	82.56
303.36	85.56
303.59	79.56
303.82	74.56
304.051	91.56
304.281	80.56
304.511	88.56
304.741	95.56
304.971	92.56
305.201	86.56
305.431	72.56
305.661	93.56
305.891	99.56
306.121	91.56
306.352	76.56
306.582	89.56
306.812	92.56
307.042	77.56
307.272	89.56
307.502	78.56
307.731	88.56
307.961	90.56
308.191	90.56
308.421	83.56
308.651	84.56
308.881	79.56
309.111	86.56
309.341	89.56
309.571	88.56
309.8	89.56
310.03	84.56
310.26	78.56
310.49	92.56
310.72	92.56
310.949	75.56
311.179	72.56
311.409	82.56
311.639	82.56
311.868	89.56
312.098	91.56
312.328	73.56
312.557	85.56
312.787	72.56
313.017	92.56
313.246	80.56
313.476	85.56
313.706	85.56
313.935	93.56
314.165	76.56
314.394	104.56
314.624	93.56
314.853	90.56
315.083	86.56
315.312	100.56
315.542	93.56
315.771	97.56
316.001	91.56
316.23	72.56
316.46	76.56
316.689	97.56
316.919	81.56
317.148	86.56
317.377	96.56
317.607	99.56
317.836	92.56
318.065	83.56
318.295	79.56
318.524	82.56
318.753	89.56
318.983	85.56
319.212	84.56
319.441	91.56
319.67	103.56
319.9	96.56
320.129	93.56
320.358	82.56
320.587	79.56
320.816	92.56
321.046	94.56
321.275	88.56
321.504	66.56
321.733	84.56
321.962	72.56
322.191	84.56
322.42	82.56
322.649	86.56
322.878	76.56
323.108	80.56
323.337	79.56
323.566	90.56
323.795	87.56
324.024	78.56
324.253	90.56
324.482	91.56
324.71	92.56
324.939	84.56
325.168	95.56
325.397	92.56
325.626	89.56
325.855	74.56
326.084	89.56
326.313	90.56
326.542	76.56
326.77	106.56
326.999	79.56
327.228	88.56
327.457	73.56
327.686	82.56
327.914	82.56
328.143	101.56
328.372	97.56
328.6	81.56
328.829	88.56
329.058	94.56
329.287	85.56
329.515	98.56
329.744	74.56
329.972	78.56
330.201	96.56
330.43	92.56
330.658	81.56
330.887	84.56
331.115	83.56
331.344	78.56
331.572	93.56
331.801	91.56
332.03	86.56
332.258	86.56
332.486	72.56
332.715	79.56
332.943	96.56
333.172	83.56
333.4	94.56
333.629	78.56
333.857	87.56
334.085	94.56
334.314	93.56
334.542	91.56
334.771	95.56
334.999	94.56
335.227	96.56
335.455	86.56
335.684	77.56
335.912	81.56
336.14	83.56
336.369	95.56
336.597	81.56
336.825	77.56
337.053	99.56
337.281	86.56
337.51	100.56
337.738	96.56
337.966	79.56
338.194	75.56
338.422	85.56
338.65	85.56
338.878	80.56
339.106	82.56
339.334	82.56
339.562	94.56
339.79	91.56
340.018	97.56
340.246	83.56
340.474	89.56
340.702	89.56
340.93	84.56
341.158	77.56
341.386	92.56
341.614	77.56
341.842	88.56
342.07	83.56
342.298	89.56
342.526	83.56
342.754	79.56
342.981	93.56
343.209	89.56
343.437	102.56
343.665	86.56
343.893	86.56
344.12	93.56
344.348	96.56
344.576	91.56
344.804	77.56
345.031	88.56
345.259	88.56
345.487	72.56
345.714	91.56
345.942	93.56
346.17	86.56
346.397	85.56
346.625	92.56
346.853	91.56
347.08	97.56
347.308	75.56
347.535	89.56
347.763	98.56
347.99	87.56
348.218	86.56
348.445	79.56
348.673	88.56
348.9	94.56
349.128	89.56
349.355	84.56
349.583	89.56
349.81	98.56
350.037	89.56
350.265	97.56
350.492	86.56
350.72	79.56
350.947	82.56
351.174	99.56
351.402	86.56
351.629	73.56
351.856	79.56
352.083	87.56
352.311	69.56
352.538	78.56
352.765	85.56
352.992	77.56
353.22	87.56
353.447	76.56
353.674	88.56
353.901	82.56
354.128	97.56
354.355	91.56
354.583	82.56
354.81	78.56
355.037	86.56
355.264	83.56
355.491	70.56
355.718	90.56
355.945	92.56
356.172	80.56
356.399	88.56
356.626	70.56
356.853	93.56
357.08	85.56
357.307	89.56
357.534	92.56
357.761	91.56
357.988	81.56
358.215	95.56
358.441	63.56
358.668	87.56
358.895	88.56
359.122	83.56
359.349	81.56
359.576	107.56
359.802	78.56
360.029	69.56
360.256	94.56
360.483	83.56
360.709	74.56
360.936	97.56
361.163	88.56
361.39	86.56
361.616	86.56
361.843	78.56
362.07	96.56
362.296	85.56
362.523	85.56
362.749	84.56
362.976	83.56
363.203	92.56
363.429	88.56
363.656	86.56
363.882	91.56
364.109	98.56
364.335	100.56
364.562	103.56
364.788	96.56
365.015	88.56
365.241	87.56
365.468	76.56
365.694	88.56
365.92	83.56
366.147	82.56
366.373	105.56
366.599	88.56
366.826	82.56
367.052	88.56
367.278	87.56
367.505	84.56
367.731	108.56
367.957	75.56
368.184	86.56
368.41	87.56
368.636	82.56
368.862	94.56
369.089	89.56
369.315	81.56
369.541	87.56
369.767	89.56
369.993	79.56
370.219	74.56
370.445	89.56
370.672	91.56
370.898	95.56
371.124	87.56
371.35	80.56
371.576	88.56
371.802	90.56
372.028	81.56
372.254	86.56
372.48	86.56
372.706	83.56
372.932	74.56
373.158	90.56
373.384	89.56
373.61	95.56
373.835	92.56
374.061	88.56
374.287	74.56
374.513	104.56
374.739	93.56
374.965	105.56
375.191	93.56
375.416	87.56
375.642	82.56
375.868	84.56
376.094	94.56
376.319	77.56
376.545	83.56
376.771	83.56
376.997	94.56
377.222	89.56
377.448	90.56
377.674	89.56
377.899	90.56
378.125	86.56
378.35	80.56
378.576	81.56
378.802	74.56
379.027	99.56
379.253	92.56
379.478	82.56
379.704	90.56
379.929	66.56
380.155	76.56
380.38	99.56
380.606	72.56
380.831	75.56
381.057	96.56
381.282	99.56
381.507	76.56
381.733	81.56
381.958	74.56
382.184	88.56
382.409	101.56
382.634	84.56
382.86	94.56
383.085	82.56
383.31	78.56
383.535	97.56
383.761	101.56
383.986	82.56
384.211	93.56
384.436	76.56
384.662	77.56
384.887	97.56
385.112	80.56
385.337	81.56
385.562	81.56
385.787	90.56
386.013	90.56
386.238	90.56
386.463	79.56
386.688	112.56
386.913	88.56
387.138	91.56
387.363	82.56
387.588	95.56
387.813	85.56
388.038	89.56
388.263	95.56
388.488	68.56
388.713	88.56
388.938	91.56
389.163	98.56
389.387	84.56
389.612	93.56
389.837	69.56
390.062	85.56
390.287	83.56
390.512	73.56
390.736	85.56
390.961	77.56
391.186	90.56
391.411	77.56
391.636	86.56
391.86	91.56
392.085	97.56
392.31	85.56
392.534	103.56
392.759	98.56
392.984	107.56
393.208	118.56
393.433	126.56
393.658	113.56
393.882	103.56
394.107	90.56
394.331	79.56
394.556	95.56
394.78	97.56
395.005	83.56
395.229	93.56
395.454	76.56
395.678	86.56
395.903	87.56
396.127	98.56
396.352	81.56
396.576	92.56
396.801	108.56
397.025	117.56
397.249	105.56
397.474	86.56
397.698	86.56
397.922	82.56
398.147	82.56
398.371	85.56
398.595	89.56
398.82	90.56
399.044	78.56
399.268	80.56
399.492	88.56
399.717	71.56
399.941	89.56
400.165	65.56
400.389	79.56
400.613	87.56
400.837	97.56
401.062	91.56
401.286	89.56
401.51	84.56
401.734	77.56
401.958	97.56
402.182	90.56
402.406	82.56
402.63	78.56
402.854	89.56
403.078	93.56
403.302	77.56
403.526	92.56
403.75	88.56
403.974	75.56
404.198	97.56
404.422	88.56
404.645	89.56
404.869	71.56
405.093	87.56
405.317	94.56
405.541	81.56
405.765	89.56
405.988	84.56
406.212	78.56
406.436	80.56
406.66	90.56
406.883	72.56
407.107	77.56
407.331	88.56
407.555	75.56
407.778	90.56
408.002	96.56
408.226	70.56
408.449	73.56
408.673	86.56
408.896	101.56
409.12	90.56
409.344	90.56
409.567	84.56
409.791	85.56
410.014	91.56
410.238	92.56
410.461	91.56
410.685	76.56
410.908	89.56
411.132	103.56
411.355	87.56
411.578	71.56
411.802	78.56
412.025	87.56
412.249	89.56
412.472	91.56
412.695	95.56
412.919	86.56
413.142	75.56
413.365	83.56
413.589	76.56
413.812	90.56
414.035	93.56
414.258	84.56
414.482	89.56
414.705	80.56
414.928	89.56
415.151	87.56
415.374	86.56
415.597	81.56
415.821	103.56
416.044	88.56
416.267	75.56
416.49	85.56
416.713	70.56
416.936	69.56
417.159	73.56
417.382	94.56
417.605	90.56
417.828	76.56
418.051	85.56
418.274	74.56
418.497	102.56
418.72	70.56
418.943	76.56
419.166	84.56
419.389	83.56
419.611	71.56
419.834	96.56
420.057	78.56
420.28	91.56
420.503	85.56
420.726	78.56
420.948	72.56
421.171	92.56
421.394	92.56
421.617	77.56
421.839	93.56
422.062	104.56
422.285	117.56
422.507	133.56
422.73	156.56
422.953	165.56
423.175	105.56
423.398	114.56
423.621	96.56
423.843	85.56
424.066	86.56
424.288	79.56
424.511	95.56
424.733	83.56
424.956	83.56
425.178	88.56
425.401	81.56
425.623	82.56
425.846	86.56
426.068	77.56
426.291	86.56
426.513	82.56
426.735	88.56
426.958	93.56
427.18	90.56
427.402	85.56
427.625	77.56
427.847	86.56
428.069	95.56
428.292	90.56
428.514	103.56
428.736	92.56
428.958	98.56
429.181	88.56
429.403	79.56
429.625	91.56
429.847	94.56
430.069	105.56
430.292	114.56
430.514	105.56
430.736	102.56
430.958	90.56
431.18	101.56
431.402	88.56
431.624	94.56
431.846	93.56
432.068	86.56
432.29	91.56
432.512	85.56
432.734	91.56
432.956	94.56
433.178	95.56
433.4	92.56
433.622	80.56
433.844	89.56
434.066	84.56
434.287	80.56
434.509	79.56
434.731	77.56
434.953	69.56
435.175	73.56
435.397	87.56
435.618	90.56
435.84	81.56
436.062	79.56
436.284	93.56
436.505	86.56
436.727	92.56
436.949	82.56
437.17	87.56
437.392	81.56
437.614	90.56
437.835	91.56
438.057	78.56
438.278	88.56
438.5	91.56
438.721	77.56
438.943	90.56
439.165	76.56
439.386	88.56
439.608	99.56
439.829	84.56
440.05	82.56
440.272	85.56
440.493	75.56
440.715	65.56
440.936	91.56
441.158	80.56
441.379	80.56
441.6	76.56
441.822	81.56
442.043	92.56
442.264	100.56
442.486	95.56
442.707	94.56
442.928	104.56
443.149	92.56
443.371	105.56
443.592	105.56
443.813	120.56
444.034	77.56
444.255	86.56
444.476	83.56
444.698	92.56
444.919	89.56
445.14	162.56
445.361	122.56
445.582	137.56
445.803	122.56
446.024	99.56
446.245	86.56
446.466	74.56
446.687	78.56
446.908	75.56
447.129	91.56
447.35	83.56
447.571	80.56
447.792	86.56
448.013	76.56
448.234	78.56
448.455	83.56
448.675	84.56
448.896	66.56
449.117	79.56
449.338	77.56
449.559	86.56
449.779	76.56
450	72.56
450.221	82.56
450.442	91.56
450.662	88.56
450.883	84.56
451.104	94.56
451.324	80.56
451.545	70.56
451.766	90.56
451.986	90.56
452.207	76.56
452.428	89.56
452.648	82.56
452.869	98.56
453.089	76.56
453.31	74.56
453.53	82.56
453.751	88.56
453.971	85.56
454.192	87.56
454.412	82.56
454.633	82.56
454.853	85.56
455.073	85.56
455.294	81.56
455.514	77.56
455.734	86.56
455.955	74.56
456.175	93.56
456.395	86.56
456.616	89.56
456.836	89.56
457.056	80.56
457.276	86.56
457.497	87.56
457.717	77.56
457.937	96.56
458.157	113.56
458.377	92.56
458.598	97.56
458.818	97.56
459.038	80.56
459.258	82.56
459.478	85.56
459.698	86.56
459.918	77.56
460.138	86.56
460.358	91.56
460.578	93.56
460.798	99.56
461.018	92.56
461.238	85.56
461.458	87.56
461.678	92.56
461.898	84.56
462.118	85.56
462.338	71.56
462.558	97.56
462.777	74.56
462.997	86.56
463.217	90.56
463.437	98.56
463.657	82.56
463.876	81.56
464.096	83.56
464.316	72.56
464.536	76.56
464.755	89.56
464.975	74.56
465.195	88.56
465.414	86.56
465.634	83.56
465.854	85.56
466.073	82.56
466.293	81.56
466.512	85.56
466.732	80.56
466.951	82.56
467.171	80.56
467.391	81.56
467.61	79.56
467.829	82.56
468.049	92.56
468.268	91.56
468.488	94.56
468.707	86.56
468.927	91.56
469.146	98.56
469.365	67.56
469.585	77.56
469.804	70.56
470.023	75.56
470.243	84.56
470.462	90.56
470.681	86.56
470.901	79.56
471.12	84.56
471.339	84.56
471.558	77.56
471.777	76.56
471.997	87.56
472.216	83.56
472.435	87.56
472.654	86.56
472.873	79.56
473.092	85.56
473.311	99.56
473.53	86.56
473.749	78.56
473.968	95.56
474.187	90.56
474.406	88.56
474.625	86.56
474.844	84.56
475.063	84.56
475.282	86.56
475.501	71.56
475.72	100.56
475.939	84.56
476.158	79.56
476.377	83.56
476.596	73.56
476.814	100.56
477.033	90.56
477.252	76.56
477.471	100.56
477.69	105.56
477.908	82.56
478.127	69.56
478.346	84.56
478.564	77.56
478.783	76.56
479.002	75.56
479.22	74.56
479.439	84.56
479.658	90.56
479.876	86.56
480.095	82.56
480.313	74.56
480.532	76.56
480.751	74.56
480.969	85.56
481.188	65.56
481.406	77.56
481.624	79.56
481.843	92.56
482.061	82.56
482.28	85.56
482.498	94.56
482.717	96.56
482.935	91.56
483.153	78.56
483.372	91.56
483.59	92.56
483.808	86.56
484.027	94.56
484.245	83.56
484.463	68.56
484.681	84.56
484.9	83.56
485.118	93.56
485.336	86.56
485.554	104.56
485.772	96.56
485.99	73.56
486.209	94.56
486.427	82.56
486.645	88.56
486.863	83.56
487.081	84.56
487.299	78.56
487.517	99.56
487.735	83.56
487.953	104.56
488.171	112.56
488.389	65.56
488.607	83.56
488.825	92.56
489.043	81.56
489.261	77.56
489.479	72.56
489.696	91.56
489.914	92.56
490.132	88.56
490.35	93.56
490.568	97.56
490.786	90.56
491.003	83.56
491.221	81.56
491.439	74.56
491.657	85.56
491.874	72.56
492.092	90.56
492.31	85.56
492.527	84.56
492.745	84.56
492.963	86.56
493.18	89.56
493.398	91.56
493.615	86.56
493.833	86.56
494.05	102.56
494.268	95.56
494.485	85.56
494.703	76.56
494.92	83.56
495.138	94.56
495.355	87.56
495.573	94.56
495.79	79.56
496.008	101.56
496.225	88.56
496.442	83.56
496.66	91.56
496.877	98.56
497.094	85.56
497.312	78.56
497.529	88.56
497.746	83.56
497.963	93.56
498.181	70.56
498.398	101.56
498.615	77.56
498.832	90.56
499.049	82.56
499.267	71.56
499.484	94.56
499.701	98.56
499.918	87.56
500.135	82.56
500.352	91.56
500.569	95.56
500.786	90.56
501.003	95.56
501.22	94.56
501.437	76.56
501.654	98.56
501.871	83.56
502.088	87.56
502.305	84.56
502.522	78.56
502.739	89.56
502.956	77.56
503.172	96.56
503.389	83.56
503.606	75.56
503.823	88.56
504.04	93.56
504.256	92.56
504.473	92.56
504.69	84.56
504.907	92.56
505.123	95.56
505.34	92.56
505.557	86.56
505.773	80.56
505.99	75.56
506.207	86.56
506.423	88.56
506.64	66.56
506.856	92.56
507.073	84.56
507.289	93.56
507.506	88.56
507.722	77.56
507.939	75.56
508.155	70.56
508.372	77.56
508.588	87.56
508.805	76.56
509.021	73.56
509.238	75.56
509.454	95.56
509.67	91.56
509.887	80.56
510.103	96.56
510.319	104.56
510.536	87.56
510.752	86.56
510.968	76.56
511.184	86.56
511.401	72.56
511.617	93.56
511.833	76.56
512.049	90.56
512.265	88.56
512.481	84.56
512.698	84.56
512.914	81.56
513.13	81.56
513.346	83.56
513.562	88.56
513.778	94.56
513.994	93.56
514.21	87.56
514.426	84.56
514.642	79.56
514.858	76.56
515.074	86.56
515.29	81.56
515.506	76.56
515.721	84.56
515.937	94.56
516.153	76.56
516.369	89.56
516.585	86.56
516.801	83.56
517.016	85.56
517.232	85.56
517.448	83.56
517.664	92.56
517.879	85.56
518.095	76.56
518.311	97.56
518.527	80.56
518.742	91.56
518.958	107.56
519.173	93.56
519.389	85.56
