Data from CBS_1_HRD10591_00031.txt Node
Date: Mon Jan 19 14:04:04 EST 2026
User: Yrep
Spectrometer: HR+D1059
Trigger mode: 1
Integration Time (sec): 1.000000E-1
Scans to average: 1
Electric dark correction enabled: true
Nonlinearity correction enabled: false
Boxcar width: 0
XAxis mode: Wavelengths
Number of Pixels in Spectrum: 2048
>>>>>Begin Spectral Data<<<<<
223.165	-17.62
223.4	-17.62
223.635	-17.62
223.869	-26.62
224.104	-8.62
224.338	-10.62
224.573	-28.62
224.808	-9.62
225.042	-8.62
225.277	4.38
225.511	-0.62
225.746	1.38
225.98	7.38
226.215	9.38
226.449	20.38
226.683	7.38
226.918	29.38
227.152	31.38
227.387	41.38
227.621	45.38
227.856	49.38
228.09	35.38
228.324	54.38
228.559	59.38
228.793	58.38
229.027	47.38
229.262	71.38
229.496	54.38
229.73	65.38
229.964	67.38
230.199	82.38
230.433	66.38
230.667	78.38
230.901	71.38
231.136	64.38
231.37	64.38
231.604	68.38
231.838	82.38
232.072	90.38
232.306	89.38
232.541	69.38
232.775	82.38
233.009	74.38
233.243	72.38
233.477	81.38
233.711	85.38
233.945	79.38
234.179	83.38
234.413	87.38
234.647	67.38
234.881	87.38
235.115	73.38
235.349	87.38
235.583	84.38
235.817	73.38
236.051	81.38
236.285	56.38
236.519	73.38
236.753	69.38
236.987	65.38
237.221	81.38
237.455	79.38
237.689	77.38
237.922	73.38
238.156	65.38
238.39	61.38
238.624	71.38
238.858	82.38
239.091	86.38
239.325	74.38
239.559	75.38
239.793	69.38
240.027	68.38
240.26	81.38
240.494	75.38
240.728	63.38
240.961	68.38
241.195	83.38
241.429	85.38
241.662	73.38
241.896	78.38
242.13	67.38
242.363	82.38
242.597	69.38
242.83	67.38
243.064	65.38
243.298	71.38
243.531	77.38
243.765	73.38
243.998	79.38
244.232	73.38
244.465	81.38
244.699	70.38
244.932	67.38
245.166	94.38
245.399	69.38
245.633	71.38
245.866	76.38
246.099	67.38
246.333	85.38
246.566	81.38
246.8	69.38
247.033	76.38
247.266	88.38
247.5	75.38
247.733	76.38
247.966	80.38
248.2	80.38
248.433	70.38
248.666	79.38
248.899	82.38
249.133	83.38
249.366	72.38
249.599	83.38
249.832	89.38
250.066	85.38
250.299	81.38
250.532	87.38
250.765	86.38
250.998	81.38
251.231	75.38
251.465	85.38
251.698	89.38
251.931	87.38
252.164	76.38
252.397	82.38
252.63	75.38
252.863	77.38
253.096	81.38
253.329	73.38
253.562	65.38
253.795	80.38
254.028	67.38
254.261	79.38
254.494	81.38
254.727	86.38
254.96	78.38
255.193	79.38
255.426	83.38
255.659	80.38
255.892	85.38
256.124	91.38
256.357	76.38
256.59	97.38
256.823	83.38
257.056	73.38
257.289	81.38
257.521	79.38
257.754	88.38
257.987	75.38
258.22	85.38
258.452	85.38
258.685	84.38
258.918	88.38
259.151	75.38
259.383	69.38
259.616	77.38
259.849	86.38
260.081	77.38
260.314	90.38
260.547	87.38
260.779	83.38
261.012	92.38
261.244	83.38
261.477	87.38
261.71	65.38
261.942	81.38
262.175	95.38
262.407	84.38
262.64	72.38
262.872	73.38
263.105	70.38
263.337	79.38
263.57	83.38
263.802	88.38
264.035	83.38
264.267	74.38
264.499	86.38
264.732	81.38
264.964	79.38
265.197	89.38
265.429	79.38
265.661	77.38
265.894	75.38
266.126	71.38
266.358	80.38
266.591	83.38
266.823	78.38
267.055	77.38
267.287	88.38
267.52	84.38
267.752	66.38
267.984	92.38
268.216	85.38
268.448	78.38
268.681	78.38
268.913	98.38
269.145	67.38
269.377	92.38
269.609	96.38
269.841	87.38
270.073	86.38
270.306	74.38
270.538	78.38
270.77	83.38
271.002	79.38
271.234	72.38
271.466	94.38
271.698	73.38
271.93	89.38
272.162	71.38
272.394	81.38
272.626	83.38
272.858	93.38
273.09	85.38
273.322	95.38
273.553	77.38
273.785	82.38
274.017	76.38
274.249	92.38
274.481	70.38
274.713	75.38
274.945	80.38
275.176	85.38
275.408	80.38
275.64	87.38
275.872	79.38
276.104	91.38
276.335	99.38
276.567	87.38
276.799	87.38
277.031	88.38
277.262	81.38
277.494	89.38
277.726	96.38
277.957	94.38
278.189	83.38
278.421	84.38
278.652	85.38
278.884	89.38
279.115	81.38
279.347	89.38
279.579	88.38
279.81	85.38
280.042	83.38
280.273	84.38
280.505	78.38
280.736	87.38
280.968	85.38
281.199	100.38
281.431	88.38
281.662	93.38
281.894	87.38
282.125	65.38
282.356	77.38
282.588	92.38
282.819	67.38
283.051	89.38
283.282	83.38
283.513	91.38
283.745	93.38
283.976	78.38
284.207	93.38
284.439	82.38
284.67	83.38
284.901	97.38
285.132	100.38
285.364	96.38
285.595	76.38
285.826	74.38
286.057	87.38
286.288	87.38
286.52	84.38
286.751	88.38
286.982	80.38
287.213	81.38
287.444	78.38
287.675	93.38
287.906	96.38
288.138	89.38
288.369	84.38
288.6	72.38
288.831	79.38
289.062	89.38
289.293	83.38
289.524	89.38
289.755	83.38
289.986	76.38
290.217	77.38
290.448	89.38
290.679	65.38
290.91	102.38
291.141	93.38
291.371	98.38
291.602	74.38
291.833	97.38
292.064	76.38
292.295	91.38
292.526	67.38
292.757	73.38
292.987	88.38
293.218	87.38
293.449	75.38
293.68	86.38
293.91	83.38
294.141	97.38
294.372	73.38
294.603	96.38
294.833	90.38
295.064	80.38
295.295	82.38
295.525	92.38
295.756	75.38
295.987	83.38
296.217	82.38
296.448	95.38
296.679	76.38
296.909	82.38
297.14	82.38
297.37	63.38
297.601	89.38
297.831	89.38
298.062	86.38
298.292	82.38
298.523	86.38
298.753	81.38
298.984	89.38
299.214	92.38
299.445	82.38
299.675	83.38
299.905	92.38
300.136	86.38
300.366	88.38
300.597	90.38
300.827	89.38
301.057	87.38
301.288	83.38
301.518	81.38
301.748	80.38
301.979	98.38
302.209	64.38
302.439	81.38
302.669	97.38
302.9	85.38
303.13	79.38
303.36	82.38
303.59	77.38
303.82	87.38
304.051	90.38
304.281	86.38
304.511	102.38
304.741	89.38
304.971	103.38
305.201	90.38
305.431	98.38
305.661	74.38
305.891	87.38
306.121	69.38
306.352	72.38
306.582	91.38
306.812	90.38
307.042	112.38
307.272	78.38
307.502	85.38
307.731	87.38
307.961	84.38
308.191	82.38
308.421	95.38
308.651	89.38
308.881	81.38
309.111	81.38
309.341	87.38
309.571	78.38
309.8	80.38
310.03	79.38
310.26	68.38
310.49	97.38
310.72	72.38
310.949	96.38
311.179	94.38
311.409	78.38
311.639	91.38
311.868	85.38
312.098	94.38
312.328	85.38
312.557	86.38
312.787	97.38
313.017	88.38
313.246	86.38
313.476	81.38
313.706	97.38
313.935	95.38
314.165	81.38
314.394	90.38
314.624	104.38
314.853	90.38
315.083	72.38
315.312	94.38
315.542	73.38
315.771	94.38
316.001	74.38
316.23	81.38
316.46	89.38
316.689	91.38
316.919	90.38
317.148	72.38
317.377	101.38
317.607	80.38
317.836	65.38
318.065	89.38
318.295	89.38
318.524	86.38
318.753	91.38
318.983	66.38
319.212	87.38
319.441	83.38
319.67	89.38
319.9	88.38
320.129	84.38
320.358	89.38
320.587	77.38
320.816	96.38
321.046	86.38
321.275	86.38
321.504	73.38
321.733	75.38
321.962	96.38
322.191	97.38
322.42	86.38
322.649	83.38
322.878	109.38
323.108	79.38
323.337	82.38
323.566	81.38
323.795	92.38
324.024	87.38
324.253	96.38
324.482	109.38
324.71	96.38
324.939	82.38
325.168	81.38
325.397	67.38
325.626	72.38
325.855	86.38
326.084	77.38
326.313	94.38
326.542	80.38
326.77	91.38
326.999	94.38
327.228	88.38
327.457	90.38
327.686	79.38
327.914	85.38
328.143	72.38
328.372	81.38
328.6	90.38
328.829	88.38
329.058	93.38
329.287	83.38
329.515	70.38
329.744	77.38
329.972	82.38
330.201	77.38
330.43	95.38
330.658	77.38
330.887	81.38
331.115	90.38
331.344	76.38
331.572	89.38
331.801	95.38
332.03	85.38
332.258	89.38
332.486	93.38
332.715	77.38
332.943	92.38
333.172	87.38
333.4	88.38
333.629	81.38
333.857	80.38
334.085	92.38
334.314	90.38
334.542	95.38
334.771	89.38
334.999	87.38
335.227	77.38
335.455	78.38
335.684	87.38
335.912	93.38
336.14	90.38
336.369	88.38
336.597	80.38
336.825	82.38
337.053	70.38
337.281	76.38
337.51	71.38
337.738	89.38
337.966	71.38
338.194	78.38
338.422	81.38
338.65	90.38
338.878	85.38
339.106	92.38
339.334	77.38
339.562	92.38
339.79	97.38
340.018	88.38
340.246	85.38
340.474	90.38
340.702	87.38
340.93	82.38
341.158	85.38
341.386	89.38
341.614	71.38
341.842	88.38
342.07	83.38
342.298	87.38
342.526	84.38
342.754	78.38
342.981	84.38
343.209	93.38
343.437	104.38
343.665	85.38
343.893	97.38
344.12	85.38
344.348	84.38
344.576	88.38
344.804	90.38
345.031	82.38
345.259	96.38
345.487	74.38
345.714	81.38
345.942	79.38
346.17	90.38
346.397	94.38
346.625	81.38
346.853	85.38
347.08	70.38
347.308	79.38
347.535	96.38
347.763	87.38
347.99	87.38
348.218	88.38
348.445	85.38
348.673	78.38
348.9	81.38
349.128	85.38
349.355	74.38
349.583	79.38
349.81	66.38
350.037	82.38
350.265	89.38
350.492	76.38
350.72	94.38
350.947	85.38
351.174	85.38
351.402	88.38
351.629	76.38
351.856	81.38
352.083	83.38
352.311	94.38
352.538	73.38
352.765	91.38
352.992	82.38
353.22	100.38
353.447	75.38
353.674	89.38
353.901	89.38
354.128	79.38
354.355	72.38
354.583	80.38
354.81	82.38
355.037	79.38
355.264	87.38
355.491	72.38
355.718	73.38
355.945	74.38
356.172	85.38
356.399	81.38
356.626	88.38
356.853	101.38
357.08	87.38
357.307	81.38
357.534	98.38
357.761	90.38
357.988	80.38
358.215	91.38
358.441	81.38
358.668	73.38
358.895	89.38
359.122	101.38
359.349	88.38
359.576	79.38
359.802	89.38
360.029	79.38
360.256	82.38
360.483	89.38
360.709	90.38
360.936	97.38
361.163	95.38
361.39	81.38
361.616	80.38
361.843	79.38
362.07	88.38
362.296	94.38
362.523	98.38
362.749	101.38
362.976	99.38
363.203	93.38
363.429	85.38
363.656	80.38
363.882	97.38
364.109	95.38
364.335	87.38
364.562	104.38
364.788	79.38
365.015	99.38
365.241	83.38
365.468	88.38
365.694	89.38
365.92	100.38
366.147	86.38
366.373	84.38
366.599	84.38
366.826	82.38
367.052	99.38
367.278	101.38
367.505	82.38
367.731	91.38
367.957	69.38
368.184	85.38
368.41	97.38
368.636	76.38
368.862	86.38
369.089	86.38
369.315	82.38
369.541	94.38
369.767	90.38
369.993	95.38
370.219	81.38
370.445	74.38
370.672	89.38
370.898	84.38
371.124	66.38
371.35	87.38
371.576	81.38
371.802	82.38
372.028	89.38
372.254	73.38
372.48	84.38
372.706	93.38
372.932	86.38
373.158	76.38
373.384	87.38
373.61	101.38
373.835	95.38
374.061	92.38
374.287	83.38
374.513	81.38
374.739	76.38
374.965	90.38
375.191	71.38
375.416	82.38
375.642	75.38
375.868	101.38
376.094	90.38
376.319	84.38
376.545	95.38
376.771	83.38
376.997	81.38
377.222	84.38
377.448	85.38
377.674	87.38
377.899	80.38
378.125	91.38
378.35	79.38
378.576	86.38
378.802	75.38
379.027	83.38
379.253	75.38
379.478	83.38
379.704	87.38
379.929	89.38
380.155	91.38
380.38	91.38
380.606	75.38
380.831	70.38
381.057	81.38
381.282	93.38
381.507	84.38
381.733	88.38
381.958	73.38
382.184	70.38
382.409	85.38
382.634	99.38
382.86	72.38
383.085	82.38
383.31	95.38
383.535	89.38
383.761	83.38
383.986	70.38
384.211	83.38
384.436	98.38
384.662	102.38
384.887	85.38
385.112	87.38
385.337	76.38
385.562	82.38
385.787	91.38
386.013	76.38
386.238	87.38
386.463	91.38
386.688	88.38
386.913	82.38
387.138	68.38
387.363	79.38
387.588	101.38
387.813	90.38
388.038	87.38
388.263	89.38
388.488	89.38
388.713	87.38
388.938	84.38
389.163	83.38
389.387	88.38
389.612	89.38
389.837	75.38
390.062	72.38
390.287	79.38
390.512	85.38
390.736	87.38
390.961	90.38
391.186	93.38
391.411	81.38
391.636	85.38
391.86	86.38
392.085	92.38
392.31	95.38
392.534	87.38
392.759	76.38
392.984	91.38
393.208	111.38
393.433	121.38
393.658	122.38
393.882	101.38
394.107	66.38
394.331	75.38
394.556	91.38
394.78	85.38
395.005	84.38
395.229	93.38
395.454	87.38
395.678	90.38
395.903	94.38
396.127	94.38
396.352	101.38
396.576	109.38
396.801	109.38
397.025	125.38
397.249	98.38
397.474	97.38
397.698	90.38
397.922	85.38
398.147	83.38
398.371	79.38
398.595	87.38
398.82	80.38
399.044	74.38
399.268	83.38
399.492	91.38
399.717	86.38
399.941	81.38
400.165	81.38
400.389	76.38
400.613	90.38
400.837	64.38
401.062	72.38
401.286	89.38
401.51	82.38
401.734	75.38
401.958	76.38
402.182	79.38
402.406	95.38
402.63	91.38
402.854	87.38
403.078	88.38
403.302	79.38
403.526	74.38
403.75	85.38
403.974	94.38
404.198	91.38
404.422	76.38
404.645	85.38
404.869	69.38
405.093	72.38
405.317	81.38
405.541	82.38
405.765	89.38
405.988	85.38
406.212	80.38
406.436	79.38
406.66	81.38
406.883	87.38
407.107	80.38
407.331	86.38
407.555	82.38
407.778	82.38
408.002	89.38
408.226	67.38
408.449	81.38
408.673	94.38
408.896	71.38
409.12	90.38
409.344	94.38
409.567	81.38
409.791	84.38
410.014	83.38
410.238	75.38
410.461	82.38
410.685	89.38
410.908	85.38
411.132	86.38
411.355	76.38
411.578	76.38
411.802	72.38
412.025	69.38
412.249	81.38
412.472	75.38
412.695	102.38
412.919	76.38
413.142	94.38
413.365	71.38
413.589	93.38
413.812	77.38
414.035	88.38
414.258	70.38
414.482	73.38
414.705	81.38
414.928	91.38
415.151	88.38
415.374	70.38
415.597	79.38
415.821	81.38
416.044	82.38
416.267	90.38
416.49	87.38
416.713	83.38
416.936	79.38
417.159	94.38
417.382	88.38
417.605	82.38
417.828	95.38
418.051	81.38
418.274	75.38
418.497	77.38
418.72	92.38
418.943	79.38
419.166	92.38
419.389	83.38
419.611	75.38
419.834	106.38
420.057	88.38
420.28	82.38
420.503	75.38
420.726	85.38
420.948	70.38
421.171	80.38
421.394	91.38
421.617	101.38
421.839	79.38
422.062	106.38
422.285	119.38
422.507	168.38
422.73	220.38
422.953	189.38
423.175	121.38
423.398	111.38
423.621	95.38
423.843	80.38
424.066	84.38
424.288	85.38
424.511	84.38
424.733	77.38
424.956	90.38
425.178	82.38
425.401	83.38
425.623	78.38
425.846	87.38
426.068	79.38
426.291	75.38
426.513	85.38
426.735	84.38
426.958	96.38
427.18	88.38
427.402	73.38
427.625	94.38
427.847	88.38
428.069	78.38
428.292	97.38
428.514	102.38
428.736	102.38
428.958	89.38
429.181	103.38
429.403	95.38
429.625	88.38
429.847	107.38
430.069	112.38
430.292	122.38
430.514	114.38
430.736	81.38
430.958	109.38
431.18	94.38
431.402	84.38
431.624	83.38
431.846	88.38
432.068	116.38
432.29	79.38
432.512	82.38
432.734	80.38
432.956	89.38
433.178	95.38
433.4	75.38
433.622	89.38
433.844	73.38
434.066	88.38
434.287	79.38
434.509	86.38
434.731	83.38
434.953	73.38
435.175	94.38
435.397	91.38
435.618	85.38
435.84	81.38
436.062	85.38
436.284	72.38
436.505	75.38
436.727	79.38
436.949	82.38
437.17	90.38
437.392	79.38
437.614	81.38
437.835	94.38
438.057	89.38
438.278	74.38
438.5	82.38
438.721	77.38
438.943	76.38
439.165	93.38
439.386	76.38
439.608	69.38
439.829	78.38
440.05	79.38
440.272	92.38
440.493	87.38
440.715	82.38
440.936	81.38
441.158	75.38
441.379	85.38
441.6	82.38
441.822	87.38
442.043	84.38
442.264	88.38
442.486	93.38
442.707	111.38
442.928	113.38
443.149	90.38
443.371	101.38
443.592	145.38
443.813	114.38
444.034	85.38
444.255	91.38
444.476	86.38
444.698	84.38
444.919	88.38
445.14	182.38
445.361	143.38
445.582	158.38
445.803	134.38
446.024	103.38
446.245	80.38
446.466	72.38
446.687	73.38
446.908	94.38
447.129	67.38
447.35	87.38
447.571	76.38
447.792	75.38
448.013	76.38
448.234	88.38
448.455	82.38
448.675	83.38
448.896	86.38
449.117	76.38
449.338	80.38
449.559	85.38
449.779	87.38
450	88.38
450.221	82.38
450.442	78.38
450.662	77.38
450.883	79.38
451.104	93.38
451.324	77.38
451.545	78.38
451.766	81.38
451.986	86.38
452.207	90.38
452.428	88.38
452.648	89.38
452.869	81.38
453.089	90.38
453.31	80.38
453.53	83.38
453.751	71.38
453.971	77.38
454.192	77.38
454.412	82.38
454.633	83.38
454.853	84.38
455.073	85.38
455.294	76.38
455.514	75.38
455.734	90.38
455.955	81.38
456.175	82.38
456.395	76.38
456.616	76.38
456.836	88.38
457.056	96.38
457.276	89.38
457.497	92.38
457.717	83.38
457.937	79.38
458.157	93.38
458.377	92.38
458.598	94.38
458.818	89.38
459.038	90.38
459.258	86.38
459.478	86.38
459.698	80.38
459.918	69.38
460.138	67.38
460.358	81.38
460.578	97.38
460.798	103.38
461.018	90.38
461.238	93.38
461.458	77.38
461.678	86.38
461.898	88.38
462.118	81.38
462.338	90.38
462.558	72.38
462.777	69.38
462.997	76.38
463.217	90.38
463.437	83.38
463.657	72.38
463.876	89.38
464.096	82.38
464.316	84.38
464.536	90.38
464.755	95.38
464.975	67.38
465.195	82.38
465.414	91.38
465.634	93.38
465.854	87.38
466.073	82.38
466.293	84.38
466.512	72.38
466.732	59.38
466.951	91.38
467.171	76.38
467.391	90.38
467.61	69.38
467.829	84.38
468.049	81.38
468.268	75.38
468.488	99.38
468.707	97.38
468.927	98.38
469.146	86.38
469.365	79.38
469.585	86.38
469.804	62.38
470.023	83.38
470.243	82.38
470.462	73.38
470.681	69.38
470.901	74.38
471.12	81.38
471.339	87.38
471.558	86.38
471.777	85.38
471.997	79.38
472.216	77.38
472.435	67.38
472.654	88.38
472.873	87.38
473.092	75.38
473.311	86.38
473.53	81.38
473.749	94.38
473.968	91.38
474.187	89.38
474.406	86.38
474.625	79.38
474.844	83.38
475.063	81.38
475.282	81.38
475.501	83.38
475.72	77.38
475.939	85.38
476.158	79.38
476.377	81.38
476.596	79.38
476.814	97.38
477.033	86.38
477.252	89.38
477.471	75.38
477.69	79.38
477.908	95.38
478.127	80.38
478.346	77.38
478.564	67.38
478.783	83.38
479.002	88.38
479.22	77.38
479.439	75.38
479.658	88.38
479.876	83.38
480.095	73.38
480.313	88.38
480.532	81.38
480.751	79.38
480.969	87.38
481.188	88.38
481.406	98.38
481.624	77.38
481.843	69.38
482.061	79.38
482.28	75.38
482.498	90.38
482.717	85.38
482.935	77.38
483.153	89.38
483.372	93.38
483.59	81.38
483.808	83.38
484.027	81.38
484.245	93.38
484.463	83.38
484.681	93.38
484.9	92.38
485.118	94.38
485.336	95.38
485.554	73.38
485.772	96.38
485.99	99.38
486.209	83.38
486.427	78.38
486.645	84.38
486.863	71.38
487.081	69.38
487.299	82.38
487.517	96.38
487.735	94.38
487.953	119.38
488.171	117.38
488.389	95.38
488.607	89.38
488.825	92.38
489.043	85.38
489.261	78.38
489.479	75.38
489.696	78.38
489.914	83.38
490.132	94.38
490.35	96.38
490.568	92.38
490.786	89.38
491.003	87.38
491.221	78.38
491.439	80.38
491.657	82.38
491.874	81.38
492.092	92.38
492.31	81.38
492.527	95.38
492.745	78.38
492.963	103.38
493.18	85.38
493.398	85.38
493.615	94.38
493.833	83.38
494.05	86.38
494.268	94.38
494.485	100.38
494.703	87.38
494.92	81.38
495.138	85.38
495.355	89.38
495.573	90.38
495.79	66.38
496.008	83.38
496.225	82.38
496.442	81.38
496.66	92.38
496.877	89.38
497.094	85.38
497.312	92.38
497.529	75.38
497.746	77.38
497.963	79.38
498.181	73.38
498.398	93.38
498.615	89.38
498.832	78.38
499.049	87.38
499.267	86.38
499.484	88.38
499.701	67.38
499.918	74.38
500.135	81.38
500.352	95.38
500.569	89.38
500.786	95.38
501.003	73.38
501.22	81.38
501.437	86.38
501.654	88.38
501.871	89.38
502.088	71.38
502.305	79.38
502.522	75.38
502.739	84.38
502.956	97.38
503.172	93.38
503.389	92.38
503.606	74.38
503.823	71.38
504.04	81.38
504.256	93.38
504.473	101.38
504.69	81.38
504.907	92.38
505.123	88.38
505.34	88.38
505.557	90.38
505.773	89.38
505.99	76.38
506.207	90.38
506.423	91.38
506.64	69.38
506.856	80.38
507.073	89.38
507.289	90.38
507.506	83.38
507.722	76.38
507.939	73.38
508.155	84.38
508.372	90.38
508.588	81.38
508.805	91.38
509.021	91.38
509.238	79.38
509.454	88.38
509.67	87.38
509.887	79.38
510.103	76.38
510.319	83.38
510.536	100.38
510.752	78.38
510.968	83.38
511.184	91.38
511.401	89.38
511.617	89.38
511.833	79.38
512.049	85.38
512.265	82.38
512.481	88.38
512.698	85.38
512.914	97.38
513.13	91.38
513.346	85.38
513.562	91.38
513.778	79.38
513.994	82.38
514.21	85.38
514.426	85.38
514.642	88.38
514.858	89.38
515.074	89.38
515.29	82.38
515.506	84.38
515.721	76.38
515.937	83.38
516.153	98.38
516.369	86.38
516.585	84.38
516.801	83.38
517.016	94.38
517.232	90.38
517.448	92.38
517.664	67.38
517.879	72.38
518.095	70.38
518.311	82.38
518.527	80.38
518.742	94.38
518.958	104.38
519.173	101.38
519.389	93.38
