Data from CBS_1_HRD10591_00029.txt Node
Date: Mon Jan 19 14:04:03 EST 2026
User: Yrep
Spectrometer: HR+D1059
Trigger mode: 1
Integration Time (sec): 1.000000E-1
Scans to average: 1
Electric dark correction enabled: true
Nonlinearity correction enabled: false
Boxcar width: 0
XAxis mode: Wavelengths
Number of Pixels in Spectrum: 2048
>>>>>Begin Spectral Data<<<<<
223.165	-17.88
223.4	-17.88
223.635	-17.88
223.869	-15.88
224.104	-21.88
224.338	-14.88
224.573	-22.88
224.808	-13.88
225.042	-7.88
225.277	5.12
225.511	-10.88
225.746	-3.88
225.98	3.12
226.215	8.12
226.449	23.12
226.683	32.12
226.918	29.12
227.152	29.12
227.387	30.12
227.621	32.12
227.856	54.12
228.09	29.12
228.324	50.12
228.559	58.12
228.793	51.12
229.027	55.12
229.262	74.12
229.496	66.12
229.73	65.12
229.964	76.12
230.199	77.12
230.433	72.12
230.667	83.12
230.901	76.12
231.136	62.12
231.37	74.12
231.604	86.12
231.838	70.12
232.072	81.12
232.306	73.12
232.541	71.12
232.775	77.12
233.009	71.12
233.243	82.12
233.477	74.12
233.711	74.12
233.945	77.12
234.179	84.12
234.413	83.12
234.647	79.12
234.881	75.12
235.115	82.12
235.349	79.12
235.583	82.12
235.817	74.12
236.051	70.12
236.285	72.12
236.519	76.12
236.753	69.12
236.987	74.12
237.221	80.12
237.455	76.12
237.689	70.12
237.922	64.12
238.156	72.12
238.39	72.12
238.624	73.12
238.858	84.12
239.091	77.12
239.325	88.12
239.559	75.12
239.793	65.12
240.027	76.12
240.26	78.12
240.494	88.12
240.728	80.12
240.961	62.12
241.195	78.12
241.429	81.12
241.662	87.12
241.896	65.12
242.13	62.12
242.363	61.12
242.597	65.12
242.83	83.12
243.064	81.12
243.298	77.12
243.531	69.12
243.765	84.12
243.998	70.12
244.232	64.12
244.465	73.12
244.699	77.12
244.932	66.12
245.166	88.12
245.399	86.12
245.633	92.12
245.866	96.12
246.099	76.12
246.333	61.12
246.566	72.12
246.8	71.12
247.033	83.12
247.266	78.12
247.5	73.12
247.733	82.12
247.966	78.12
248.2	66.12
248.433	68.12
248.666	82.12
248.899	70.12
249.133	76.12
249.366	73.12
249.599	87.12
249.832	71.12
250.066	79.12
250.299	66.12
250.532	63.12
250.765	89.12
250.998	80.12
251.231	58.12
251.465	68.12
251.698	80.12
251.931	86.12
252.164	73.12
252.397	82.12
252.63	72.12
252.863	67.12
253.096	72.12
253.329	73.12
253.562	77.12
253.795	83.12
254.028	95.12
254.261	80.12
254.494	71.12
254.727	82.12
254.96	74.12
255.193	79.12
255.426	89.12
255.659	88.12
255.892	97.12
256.124	71.12
256.357	63.12
256.59	79.12
256.823	79.12
257.056	83.12
257.289	73.12
257.521	78.12
257.754	76.12
257.987	76.12
258.22	73.12
258.452	80.12
258.685	67.12
258.918	77.12
259.151	89.12
259.383	85.12
259.616	63.12
259.849	84.12
260.081	76.12
260.314	88.12
260.547	74.12
260.779	84.12
261.012	65.12
261.244	69.12
261.477	86.12
261.71	70.12
261.942	81.12
262.175	87.12
262.407	86.12
262.64	89.12
262.872	75.12
263.105	84.12
263.337	71.12
263.57	63.12
263.802	82.12
264.035	86.12
264.267	84.12
264.499	82.12
264.732	80.12
264.964	77.12
265.197	76.12
265.429	87.12
265.661	75.12
265.894	84.12
266.126	73.12
266.358	86.12
266.591	76.12
266.823	91.12
267.055	81.12
267.287	81.12
267.52	73.12
267.752	62.12
267.984	81.12
268.216	71.12
268.448	86.12
268.681	78.12
268.913	84.12
269.145	73.12
269.377	77.12
269.609	92.12
269.841	87.12
270.073	93.12
270.306	83.12
270.538	83.12
270.77	79.12
271.002	82.12
271.234	76.12
271.466	72.12
271.698	75.12
271.93	77.12
272.162	74.12
272.394	80.12
272.626	85.12
272.858	82.12
273.09	82.12
273.322	69.12
273.553	75.12
273.785	68.12
274.017	70.12
274.249	90.12
274.481	72.12
274.713	83.12
274.945	83.12
275.176	79.12
275.408	82.12
275.64	86.12
275.872	74.12
276.104	83.12
276.335	71.12
276.567	76.12
276.799	75.12
277.031	87.12
277.262	83.12
277.494	85.12
277.726	72.12
277.957	74.12
278.189	68.12
278.421	64.12
278.652	87.12
278.884	80.12
279.115	94.12
279.347	82.12
279.579	72.12
279.81	80.12
280.042	87.12
280.273	76.12
280.505	96.12
280.736	75.12
280.968	81.12
281.199	68.12
281.431	78.12
281.662	84.12
281.894	82.12
282.125	89.12
282.356	74.12
282.588	83.12
282.819	70.12
283.051	78.12
283.282	74.12
283.513	81.12
283.745	92.12
283.976	97.12
284.207	90.12
284.439	72.12
284.67	86.12
284.901	77.12
285.132	89.12
285.364	79.12
285.595	82.12
285.826	85.12
286.057	69.12
286.288	77.12
286.52	65.12
286.751	95.12
286.982	81.12
287.213	86.12
287.444	94.12
287.675	89.12
287.906	85.12
288.138	73.12
288.369	80.12
288.6	75.12
288.831	77.12
289.062	84.12
289.293	82.12
289.524	94.12
289.755	93.12
289.986	92.12
290.217	88.12
290.448	85.12
290.679	92.12
290.91	81.12
291.141	62.12
291.371	81.12
291.602	80.12
291.833	70.12
292.064	70.12
292.295	77.12
292.526	89.12
292.757	84.12
292.987	69.12
293.218	90.12
293.449	75.12
293.68	92.12
293.91	68.12
294.141	92.12
294.372	67.12
294.603	88.12
294.833	79.12
295.064	89.12
295.295	83.12
295.525	73.12
295.756	86.12
295.987	79.12
296.217	70.12
296.448	96.12
296.679	78.12
296.909	87.12
297.14	83.12
297.37	86.12
297.601	80.12
297.831	85.12
298.062	88.12
298.292	86.12
298.523	81.12
298.753	90.12
298.984	73.12
299.214	86.12
299.445	78.12
299.675	73.12
299.905	85.12
300.136	81.12
300.366	81.12
300.597	89.12
300.827	72.12
301.057	65.12
301.288	94.12
301.518	78.12
301.748	69.12
301.979	96.12
302.209	92.12
302.439	93.12
302.669	85.12
302.9	93.12
303.13	82.12
303.36	78.12
303.59	81.12
303.82	81.12
304.051	98.12
304.281	93.12
304.511	89.12
304.741	88.12
304.971	83.12
305.201	80.12
305.431	92.12
305.661	83.12
305.891	80.12
306.121	79.12
306.352	97.12
306.582	90.12
306.812	83.12
307.042	74.12
307.272	92.12
307.502	85.12
307.731	75.12
307.961	83.12
308.191	87.12
308.421	74.12
308.651	80.12
308.881	82.12
309.111	77.12
309.341	83.12
309.571	79.12
309.8	74.12
310.03	89.12
310.26	78.12
310.49	101.12
310.72	79.12
310.949	90.12
311.179	72.12
311.409	78.12
311.639	102.12
311.868	83.12
312.098	84.12
312.328	82.12
312.557	73.12
312.787	69.12
313.017	89.12
313.246	81.12
313.476	82.12
313.706	60.12
313.935	61.12
314.165	69.12
314.394	81.12
314.624	78.12
314.853	85.12
315.083	78.12
315.312	79.12
315.542	101.12
315.771	80.12
316.001	98.12
316.23	88.12
316.46	82.12
316.689	75.12
316.919	80.12
317.148	64.12
317.377	81.12
317.607	76.12
317.836	83.12
318.065	79.12
318.295	83.12
318.524	81.12
318.753	80.12
318.983	92.12
319.212	80.12
319.441	83.12
319.67	85.12
319.9	87.12
320.129	75.12
320.358	88.12
320.587	81.12
320.816	81.12
321.046	94.12
321.275	90.12
321.504	78.12
321.733	90.12
321.962	84.12
322.191	74.12
322.42	94.12
322.649	98.12
322.878	89.12
323.108	94.12
323.337	88.12
323.566	84.12
323.795	84.12
324.024	86.12
324.253	77.12
324.482	93.12
324.71	77.12
324.939	88.12
325.168	93.12
325.397	92.12
325.626	88.12
325.855	64.12
326.084	67.12
326.313	82.12
326.542	83.12
326.77	70.12
326.999	74.12
327.228	83.12
327.457	77.12
327.686	88.12
327.914	72.12
328.143	88.12
328.372	70.12
328.6	78.12
328.829	102.12
329.058	94.12
329.287	96.12
329.515	102.12
329.744	87.12
329.972	94.12
330.201	85.12
330.43	77.12
330.658	84.12
330.887	82.12
331.115	76.12
331.344	90.12
331.572	75.12
331.801	83.12
332.03	93.12
332.258	78.12
332.486	75.12
332.715	74.12
332.943	71.12
333.172	71.12
333.4	79.12
333.629	80.12
333.857	78.12
334.085	84.12
334.314	84.12
334.542	80.12
334.771	81.12
334.999	82.12
335.227	86.12
335.455	100.12
335.684	82.12
335.912	80.12
336.14	80.12
336.369	82.12
336.597	85.12
336.825	80.12
337.053	86.12
337.281	90.12
337.51	92.12
337.738	72.12
337.966	78.12
338.194	86.12
338.422	87.12
338.65	74.12
338.878	90.12
339.106	71.12
339.334	88.12
339.562	84.12
339.79	88.12
340.018	73.12
340.246	98.12
340.474	82.12
340.702	83.12
340.93	85.12
341.158	84.12
341.386	98.12
341.614	74.12
341.842	73.12
342.07	74.12
342.298	73.12
342.526	98.12
342.754	89.12
342.981	87.12
343.209	62.12
343.437	90.12
343.665	84.12
343.893	79.12
344.12	84.12
344.348	81.12
344.576	82.12
344.804	77.12
345.031	97.12
345.259	77.12
345.487	72.12
345.714	88.12
345.942	80.12
346.17	86.12
346.397	96.12
346.625	80.12
346.853	79.12
347.08	72.12
347.308	94.12
347.535	93.12
347.763	95.12
347.99	73.12
348.218	86.12
348.445	76.12
348.673	82.12
348.9	100.12
349.128	92.12
349.355	77.12
349.583	88.12
349.81	72.12
350.037	71.12
350.265	88.12
350.492	81.12
350.72	88.12
350.947	80.12
351.174	87.12
351.402	79.12
351.629	86.12
351.856	78.12
352.083	92.12
352.311	98.12
352.538	79.12
352.765	75.12
352.992	91.12
353.22	78.12
353.447	75.12
353.674	99.12
353.901	89.12
354.128	88.12
354.355	83.12
354.583	84.12
354.81	82.12
355.037	96.12
355.264	86.12
355.491	93.12
355.718	84.12
355.945	96.12
356.172	100.12
356.399	94.12
356.626	86.12
356.853	82.12
357.08	91.12
357.307	64.12
357.534	83.12
357.761	92.12
357.988	94.12
358.215	73.12
358.441	91.12
358.668	95.12
358.895	80.12
359.122	88.12
359.349	92.12
359.576	81.12
359.802	85.12
360.029	77.12
360.256	89.12
360.483	81.12
360.709	84.12
360.936	95.12
361.163	75.12
361.39	82.12
361.616	83.12
361.843	76.12
362.07	81.12
362.296	74.12
362.523	74.12
362.749	74.12
362.976	94.12
363.203	100.12
363.429	94.12
363.656	94.12
363.882	69.12
364.109	104.12
364.335	92.12
364.562	88.12
364.788	82.12
365.015	80.12
365.241	93.12
365.468	84.12
365.694	78.12
365.92	77.12
366.147	78.12
366.373	78.12
366.599	85.12
366.826	72.12
367.052	76.12
367.278	84.12
367.505	82.12
367.731	83.12
367.957	81.12
368.184	78.12
368.41	76.12
368.636	82.12
368.862	85.12
369.089	73.12
369.315	74.12
369.541	81.12
369.767	66.12
369.993	78.12
370.219	76.12
370.445	76.12
370.672	90.12
370.898	90.12
371.124	88.12
371.35	90.12
371.576	83.12
371.802	80.12
372.028	90.12
372.254	86.12
372.48	71.12
372.706	92.12
372.932	85.12
373.158	92.12
373.384	96.12
373.61	86.12
373.835	94.12
374.061	85.12
374.287	83.12
374.513	88.12
374.739	77.12
374.965	86.12
375.191	69.12
375.416	90.12
375.642	89.12
375.868	80.12
376.094	66.12
376.319	81.12
376.545	89.12
376.771	75.12
376.997	80.12
377.222	76.12
377.448	88.12
377.674	81.12
377.899	84.12
378.125	93.12
378.35	88.12
378.576	82.12
378.802	86.12
379.027	82.12
379.253	80.12
379.478	69.12
379.704	78.12
379.929	87.12
380.155	86.12
380.38	69.12
380.606	85.12
380.831	88.12
381.057	81.12
381.282	78.12
381.507	75.12
381.733	85.12
381.958	66.12
382.184	88.12
382.409	83.12
382.634	83.12
382.86	81.12
383.085	84.12
383.31	93.12
383.535	89.12
383.761	89.12
383.986	92.12
384.211	90.12
384.436	90.12
384.662	81.12
384.887	87.12
385.112	86.12
385.337	73.12
385.562	87.12
385.787	79.12
386.013	77.12
386.238	82.12
386.463	81.12
386.688	99.12
386.913	92.12
387.138	71.12
387.363	94.12
387.588	73.12
387.813	77.12
388.038	84.12
388.263	72.12
388.488	77.12
388.713	86.12
388.938	83.12
389.163	77.12
389.387	91.12
389.612	82.12
389.837	78.12
390.062	81.12
390.287	95.12
390.512	82.12
390.736	78.12
390.961	80.12
391.186	81.12
391.411	74.12
391.636	73.12
391.86	87.12
392.085	94.12
392.31	88.12
392.534	89.12
392.759	91.12
392.984	108.12
393.208	113.12
393.433	148.12
393.658	120.12
393.882	91.12
394.107	76.12
394.331	89.12
394.556	85.12
394.78	87.12
395.005	82.12
395.229	89.12
395.454	92.12
395.678	85.12
395.903	88.12
396.127	90.12
396.352	101.12
396.576	98.12
396.801	126.12
397.025	125.12
397.249	92.12
397.474	104.12
397.698	102.12
397.922	86.12
398.147	88.12
398.371	98.12
398.595	102.12
398.82	97.12
399.044	78.12
399.268	72.12
399.492	92.12
399.717	79.12
399.941	87.12
400.165	78.12
400.389	72.12
400.613	84.12
400.837	79.12
401.062	75.12
401.286	83.12
401.51	79.12
401.734	72.12
401.958	70.12
402.182	71.12
402.406	103.12
402.63	87.12
402.854	74.12
403.078	79.12
403.302	81.12
403.526	76.12
403.75	86.12
403.974	71.12
404.198	86.12
404.422	89.12
404.645	80.12
404.869	89.12
405.093	73.12
405.317	85.12
405.541	71.12
405.765	92.12
405.988	91.12
406.212	92.12
406.436	75.12
406.66	87.12
406.883	79.12
407.107	90.12
407.331	78.12
407.555	75.12
407.778	72.12
408.002	87.12
408.226	86.12
408.449	71.12
408.673	64.12
408.896	79.12
409.12	80.12
409.344	82.12
409.567	88.12
409.791	84.12
410.014	85.12
410.238	91.12
410.461	96.12
410.685	89.12
410.908	78.12
411.132	79.12
411.355	80.12
411.578	81.12
411.802	86.12
412.025	80.12
412.249	75.12
412.472	105.12
412.695	79.12
412.919	103.12
413.142	85.12
413.365	96.12
413.589	83.12
413.812	87.12
414.035	74.12
414.258	83.12
414.482	71.12
414.705	77.12
414.928	91.12
415.151	68.12
415.374	77.12
415.597	80.12
415.821	74.12
416.044	97.12
416.267	85.12
416.49	82.12
416.713	90.12
416.936	86.12
417.159	82.12
417.382	68.12
417.605	74.12
417.828	86.12
418.051	85.12
418.274	86.12
418.497	93.12
418.72	105.12
418.943	85.12
419.166	82.12
419.389	79.12
419.611	79.12
419.834	82.12
420.057	82.12
420.28	79.12
420.503	83.12
420.726	83.12
420.948	90.12
421.171	78.12
421.394	87.12
421.617	86.12
421.839	85.12
422.062	87.12
422.285	120.12
422.507	137.12
422.73	193.12
422.953	168.12
423.175	114.12
423.398	90.12
423.621	83.12
423.843	80.12
424.066	91.12
424.288	85.12
424.511	64.12
424.733	85.12
424.956	85.12
425.178	87.12
425.401	82.12
425.623	81.12
425.846	81.12
426.068	75.12
426.291	87.12
426.513	95.12
426.735	87.12
426.958	85.12
427.18	84.12
427.402	70.12
427.625	70.12
427.847	83.12
428.069	66.12
428.292	91.12
428.514	104.12
428.736	82.12
428.958	87.12
429.181	96.12
429.403	74.12
429.625	103.12
429.847	84.12
430.069	125.12
430.292	124.12
430.514	110.12
430.736	96.12
430.958	108.12
431.18	85.12
431.402	67.12
431.624	89.12
431.846	89.12
432.068	96.12
432.29	103.12
432.512	78.12
432.734	77.12
432.956	83.12
433.178	80.12
433.4	94.12
433.622	77.12
433.844	84.12
434.066	84.12
434.287	82.12
434.509	80.12
434.731	89.12
434.953	81.12
435.175	89.12
435.397	86.12
435.618	77.12
435.84	91.12
436.062	85.12
436.284	84.12
436.505	74.12
436.727	93.12
436.949	87.12
437.17	87.12
437.392	98.12
437.614	79.12
437.835	78.12
438.057	80.12
438.278	68.12
438.5	79.12
438.721	89.12
438.943	86.12
439.165	78.12
439.386	89.12
439.608	81.12
439.829	88.12
440.05	81.12
440.272	82.12
440.493	84.12
440.715	85.12
440.936	80.12
441.158	93.12
441.379	97.12
441.6	73.12
441.822	85.12
442.043	97.12
442.264	79.12
442.486	103.12
442.707	104.12
442.928	84.12
443.149	80.12
443.371	101.12
443.592	128.12
443.813	124.12
444.034	82.12
444.255	80.12
444.476	72.12
444.698	98.12
444.919	103.12
445.14	161.12
445.361	145.12
445.582	151.12
445.803	148.12
446.024	103.12
446.245	96.12
446.466	88.12
446.687	88.12
446.908	79.12
447.129	90.12
447.35	90.12
447.571	92.12
447.792	93.12
448.013	87.12
448.234	94.12
448.455	74.12
448.675	65.12
448.896	72.12
449.117	92.12
449.338	82.12
449.559	69.12
449.779	96.12
450	84.12
450.221	94.12
450.442	83.12
450.662	91.12
450.883	77.12
451.104	81.12
451.324	61.12
451.545	80.12
451.766	92.12
451.986	76.12
452.207	69.12
452.428	71.12
452.648	88.12
452.869	97.12
453.089	74.12
453.31	90.12
453.53	70.12
453.751	73.12
453.971	72.12
454.192	68.12
454.412	89.12
454.633	101.12
454.853	83.12
455.073	77.12
455.294	83.12
455.514	72.12
455.734	77.12
455.955	80.12
456.175	79.12
456.395	84.12
456.616	82.12
456.836	78.12
457.056	79.12
457.276	87.12
457.497	74.12
457.717	96.12
457.937	78.12
458.157	86.12
458.377	97.12
458.598	80.12
458.818	105.12
459.038	82.12
459.258	85.12
459.478	74.12
459.698	79.12
459.918	78.12
460.138	74.12
460.358	85.12
460.578	78.12
460.798	87.12
461.018	92.12
461.238	82.12
461.458	82.12
461.678	86.12
461.898	80.12
462.118	82.12
462.338	79.12
462.558	76.12
462.777	65.12
462.997	99.12
463.217	82.12
463.437	89.12
463.657	72.12
463.876	81.12
464.096	72.12
464.316	79.12
464.536	92.12
464.755	97.12
464.975	72.12
465.195	77.12
465.414	88.12
465.634	69.12
465.854	69.12
466.073	78.12
466.293	85.12
466.512	73.12
466.732	74.12
466.951	65.12
467.171	94.12
467.391	71.12
467.61	80.12
467.829	81.12
468.049	82.12
468.268	82.12
468.488	66.12
468.707	70.12
468.927	83.12
469.146	67.12
469.365	78.12
469.585	81.12
469.804	81.12
470.023	78.12
470.243	88.12
470.462	73.12
470.681	66.12
470.901	73.12
471.12	69.12
471.339	76.12
471.558	88.12
471.777	81.12
471.997	85.12
472.216	73.12
472.435	71.12
472.654	83.12
472.873	89.12
473.092	75.12
473.311	77.12
473.53	92.12
473.749	81.12
473.968	75.12
474.187	75.12
474.406	96.12
474.625	75.12
474.844	69.12
475.063	84.12
475.282	81.12
475.501	94.12
475.72	75.12
475.939	90.12
476.158	81.12
476.377	98.12
476.596	93.12
476.814	81.12
477.033	82.12
477.252	85.12
477.471	75.12
477.69	81.12
477.908	86.12
478.127	66.12
478.346	91.12
478.564	72.12
478.783	82.12
479.002	82.12
479.22	86.12
479.439	90.12
479.658	81.12
479.876	71.12
480.095	84.12
480.313	72.12
480.532	80.12
480.751	86.12
480.969	69.12
481.188	85.12
481.406	81.12
481.624	73.12
481.843	82.12
482.061	87.12
482.28	70.12
482.498	80.12
482.717	85.12
482.935	82.12
483.153	82.12
483.372	75.12
483.59	83.12
483.808	87.12
484.027	86.12
484.245	80.12
484.463	77.12
484.681	92.12
484.9	101.12
485.118	93.12
485.336	91.12
485.554	74.12
485.772	78.12
485.99	78.12
486.209	96.12
486.427	81.12
486.645	87.12
486.863	76.12
487.081	84.12
487.299	79.12
487.517	86.12
487.735	101.12
487.953	106.12
488.171	97.12
488.389	82.12
488.607	95.12
488.825	74.12
489.043	74.12
489.261	79.12
489.479	81.12
489.696	74.12
489.914	64.12
490.132	94.12
490.35	92.12
490.568	86.12
490.786	82.12
491.003	100.12
491.221	79.12
491.439	74.12
491.657	78.12
491.874	68.12
492.092	81.12
492.31	84.12
492.527	90.12
492.745	73.12
492.963	71.12
493.18	70.12
493.398	80.12
493.615	85.12
493.833	79.12
494.05	70.12
494.268	87.12
494.485	94.12
494.703	94.12
494.92	80.12
495.138	77.12
495.355	70.12
495.573	90.12
495.79	63.12
496.008	89.12
496.225	81.12
496.442	82.12
496.66	96.12
496.877	92.12
497.094	80.12
497.312	82.12
497.529	78.12
497.746	78.12
497.963	81.12
498.181	66.12
498.398	80.12
498.615	87.12
498.832	93.12
499.049	88.12
499.267	88.12
499.484	75.12
499.701	84.12
499.918	97.12
500.135	92.12
500.352	80.12
500.569	89.12
500.786	78.12
501.003	84.12
501.22	90.12
501.437	86.12
501.654	83.12
501.871	88.12
502.088	87.12
502.305	83.12
502.522	82.12
502.739	86.12
502.956	85.12
503.172	88.12
503.389	92.12
503.606	88.12
503.823	94.12
504.04	86.12
504.256	90.12
504.473	98.12
504.69	83.12
504.907	80.12
505.123	81.12
505.34	95.12
505.557	83.12
505.773	87.12
505.99	84.12
506.207	74.12
506.423	78.12
506.64	86.12
506.856	85.12
507.073	92.12
507.289	86.12
507.506	80.12
507.722	84.12
507.939	90.12
508.155	87.12
508.372	88.12
508.588	97.12
508.805	95.12
509.021	70.12
509.238	60.12
509.454	79.12
509.67	86.12
509.887	84.12
510.103	77.12
510.319	84.12
510.536	88.12
510.752	77.12
510.968	92.12
511.184	77.12
511.401	84.12
511.617	72.12
511.833	68.12
512.049	93.12
512.265	89.12
512.481	82.12
512.698	95.12
512.914	75.12
513.13	84.12
513.346	78.12
513.562	74.12
513.778	86.12
513.994	86.12
514.21	80.12
514.426	81.12
514.642	79.12
514.858	88.12
515.074	75.12
515.29	89.12
515.506	85.12
515.721	89.12
515.937	80.12
516.153	100.12
516.369	95.12
516.585	86.12
516.801	90.12
517.016	70.12
517.232	81.12
517.448	80.12
517.664	86.12
517.879	83.12
518.095	62.12
518.311	66.12
518.527	68.12
518.742	84.12
518.958	104.12
519.173	101.12
519.389	102.12
519.605	89.12
