Data from CBS_1_HRD10591_00047.txt Node
Date: Mon Jan 19 14:04:12 EST 2026
User: Yrep
Spectrometer: HR+D1059
Trigger mode: 1
Integration Time (sec): 1.000000E-1
Scans to average: 1
Electric dark correction enabled: true
Nonlinearity correction enabled: false
Boxcar width: 0
XAxis mode: Wavelengths
Number of Pixels in Spectrum: 2048
>>>>>Begin Spectral Data<<<<<
223.165	-18.88
223.4	-18.88
223.635	-18.88
223.869	-27.88
224.104	-13.88
224.338	-20.88
224.573	-9.88
224.808	-13.88
225.042	-13.88
225.277	0.12
225.511	7.12
225.746	8.12
225.98	6.12
226.215	12.12
226.449	20.12
226.683	18.12
226.918	22.12
227.152	25.12
227.387	44.12
227.621	57.12
227.856	41.12
228.09	57.12
228.324	56.12
228.559	51.12
228.793	82.12
229.027	62.12
229.262	74.12
229.496	80.12
229.73	65.12
229.964	71.12
230.199	82.12
230.433	74.12
230.667	82.12
230.901	88.12
231.136	74.12
231.37	82.12
231.604	79.12
231.838	84.12
232.072	92.12
232.306	86.12
232.541	84.12
232.775	89.12
233.009	87.12
233.243	69.12
233.477	76.12
233.711	87.12
233.945	89.12
234.179	79.12
234.413	82.12
234.647	74.12
234.881	84.12
235.115	75.12
235.349	67.12
235.583	77.12
235.817	74.12
236.051	104.12
236.285	82.12
236.519	90.12
236.753	81.12
236.987	68.12
237.221	66.12
237.455	71.12
237.689	72.12
237.922	75.12
238.156	72.12
238.39	83.12
238.624	66.12
238.858	84.12
239.091	64.12
239.325	70.12
239.559	71.12
239.793	60.12
240.027	75.12
240.26	90.12
240.494	74.12
240.728	86.12
240.961	70.12
241.195	77.12
241.429	83.12
241.662	65.12
241.896	76.12
242.13	73.12
242.363	80.12
242.597	82.12
242.83	71.12
243.064	86.12
243.298	78.12
243.531	80.12
243.765	67.12
243.998	75.12
244.232	80.12
244.465	74.12
244.699	99.12
244.932	89.12
245.166	77.12
245.399	73.12
245.633	72.12
245.866	78.12
246.099	83.12
246.333	76.12
246.566	90.12
246.8	90.12
247.033	75.12
247.266	74.12
247.5	80.12
247.733	68.12
247.966	74.12
248.2	80.12
248.433	83.12
248.666	73.12
248.899	84.12
249.133	73.12
249.366	104.12
249.599	90.12
249.832	87.12
250.066	77.12
250.299	84.12
250.532	82.12
250.765	91.12
250.998	85.12
251.231	81.12
251.465	90.12
251.698	74.12
251.931	78.12
252.164	84.12
252.397	77.12
252.63	77.12
252.863	77.12
253.096	74.12
253.329	80.12
253.562	74.12
253.795	71.12
254.028	72.12
254.261	79.12
254.494	75.12
254.727	74.12
254.96	76.12
255.193	84.12
255.426	80.12
255.659	94.12
255.892	89.12
256.124	73.12
256.357	64.12
256.59	76.12
256.823	75.12
257.056	85.12
257.289	87.12
257.521	83.12
257.754	77.12
257.987	88.12
258.22	104.12
258.452	86.12
258.685	95.12
258.918	79.12
259.151	74.12
259.383	84.12
259.616	91.12
259.849	85.12
260.081	88.12
260.314	76.12
260.547	80.12
260.779	84.12
261.012	85.12
261.244	68.12
261.477	86.12
261.71	92.12
261.942	72.12
262.175	86.12
262.407	83.12
262.64	88.12
262.872	76.12
263.105	88.12
263.337	90.12
263.57	86.12
263.802	86.12
264.035	84.12
264.267	82.12
264.499	79.12
264.732	83.12
264.964	88.12
265.197	76.12
265.429	79.12
265.661	89.12
265.894	85.12
266.126	92.12
266.358	79.12
266.591	79.12
266.823	86.12
267.055	89.12
267.287	75.12
267.52	75.12
267.752	103.12
267.984	77.12
268.216	75.12
268.448	88.12
268.681	90.12
268.913	87.12
269.145	83.12
269.377	68.12
269.609	80.12
269.841	86.12
270.073	87.12
270.306	97.12
270.538	84.12
270.77	88.12
271.002	101.12
271.234	85.12
271.466	88.12
271.698	90.12
271.93	89.12
272.162	84.12
272.394	83.12
272.626	79.12
272.858	77.12
273.09	87.12
273.322	78.12
273.553	75.12
273.785	90.12
274.017	83.12
274.249	88.12
274.481	102.12
274.713	93.12
274.945	81.12
275.176	76.12
275.408	77.12
275.64	80.12
275.872	87.12
276.104	94.12
276.335	89.12
276.567	84.12
276.799	82.12
277.031	71.12
277.262	80.12
277.494	81.12
277.726	116.12
277.957	83.12
278.189	92.12
278.421	90.12
278.652	77.12
278.884	77.12
279.115	86.12
279.347	84.12
279.579	88.12
279.81	83.12
280.042	94.12
280.273	92.12
280.505	90.12
280.736	87.12
280.968	73.12
281.199	84.12
281.431	86.12
281.662	82.12
281.894	83.12
282.125	90.12
282.356	96.12
282.588	70.12
282.819	80.12
283.051	91.12
283.282	92.12
283.513	84.12
283.745	80.12
283.976	80.12
284.207	92.12
284.439	96.12
284.67	87.12
284.901	103.12
285.132	80.12
285.364	88.12
285.595	91.12
285.826	77.12
286.057	82.12
286.288	83.12
286.52	73.12
286.751	92.12
286.982	87.12
287.213	88.12
287.444	91.12
287.675	83.12
287.906	79.12
288.138	89.12
288.369	77.12
288.6	82.12
288.831	75.12
289.062	80.12
289.293	86.12
289.524	82.12
289.755	90.12
289.986	90.12
290.217	91.12
290.448	101.12
290.679	68.12
290.91	82.12
291.141	92.12
291.371	91.12
291.602	91.12
291.833	71.12
292.064	87.12
292.295	81.12
292.526	91.12
292.757	85.12
292.987	83.12
293.218	88.12
293.449	87.12
293.68	88.12
293.91	91.12
294.141	89.12
294.372	90.12
294.603	102.12
294.833	92.12
295.064	72.12
295.295	84.12
295.525	82.12
295.756	91.12
295.987	86.12
296.217	94.12
296.448	88.12
296.679	93.12
296.909	82.12
297.14	80.12
297.37	84.12
297.601	90.12
297.831	72.12
298.062	88.12
298.292	92.12
298.523	92.12
298.753	89.12
298.984	77.12
299.214	92.12
299.445	90.12
299.675	91.12
299.905	94.12
300.136	90.12
300.366	85.12
300.597	82.12
300.827	76.12
301.057	86.12
301.288	93.12
301.518	98.12
301.748	87.12
301.979	107.12
302.209	82.12
302.439	84.12
302.669	81.12
302.9	87.12
303.13	91.12
303.36	110.12
303.59	88.12
303.82	102.12
304.051	91.12
304.281	80.12
304.511	89.12
304.741	81.12
304.971	89.12
305.201	77.12
305.431	78.12
305.661	76.12
305.891	75.12
306.121	76.12
306.352	95.12
306.582	97.12
306.812	92.12
307.042	95.12
307.272	79.12
307.502	86.12
307.731	85.12
307.961	87.12
308.191	88.12
308.421	80.12
308.651	76.12
308.881	102.12
309.111	91.12
309.341	88.12
309.571	78.12
309.8	73.12
310.03	68.12
310.26	88.12
310.49	86.12
310.72	83.12
310.949	99.12
311.179	87.12
311.409	76.12
311.639	84.12
311.868	78.12
312.098	82.12
312.328	89.12
312.557	87.12
312.787	71.12
313.017	84.12
313.246	94.12
313.476	89.12
313.706	88.12
313.935	77.12
314.165	90.12
314.394	97.12
314.624	98.12
314.853	93.12
315.083	96.12
315.312	83.12
315.542	91.12
315.771	91.12
316.001	76.12
316.23	101.12
316.46	78.12
316.689	88.12
316.919	83.12
317.148	94.12
317.377	88.12
317.607	68.12
317.836	92.12
318.065	99.12
318.295	97.12
318.524	78.12
318.753	102.12
318.983	91.12
319.212	103.12
319.441	93.12
319.67	82.12
319.9	75.12
320.129	82.12
320.358	80.12
320.587	91.12
320.816	83.12
321.046	89.12
321.275	86.12
321.504	97.12
321.733	91.12
321.962	80.12
322.191	89.12
322.42	92.12
322.649	87.12
322.878	82.12
323.108	83.12
323.337	86.12
323.566	94.12
323.795	73.12
324.024	100.12
324.253	80.12
324.482	86.12
324.71	84.12
324.939	102.12
325.168	79.12
325.397	93.12
325.626	88.12
325.855	91.12
326.084	82.12
326.313	74.12
326.542	80.12
326.77	92.12
326.999	93.12
327.228	94.12
327.457	81.12
327.686	92.12
327.914	81.12
328.143	75.12
328.372	85.12
328.6	85.12
328.829	91.12
329.058	67.12
329.287	87.12
329.515	90.12
329.744	90.12
329.972	92.12
330.201	86.12
330.43	86.12
330.658	82.12
330.887	91.12
331.115	86.12
331.344	84.12
331.572	74.12
331.801	81.12
332.03	88.12
332.258	89.12
332.486	71.12
332.715	82.12
332.943	94.12
333.172	99.12
333.4	82.12
333.629	80.12
333.857	100.12
334.085	85.12
334.314	102.12
334.542	84.12
334.771	75.12
334.999	86.12
335.227	88.12
335.455	95.12
335.684	95.12
335.912	86.12
336.14	91.12
336.369	85.12
336.597	106.12
336.825	80.12
337.053	79.12
337.281	95.12
337.51	86.12
337.738	84.12
337.966	85.12
338.194	80.12
338.422	84.12
338.65	95.12
338.878	68.12
339.106	88.12
339.334	84.12
339.562	98.12
339.79	76.12
340.018	82.12
340.246	76.12
340.474	92.12
340.702	88.12
340.93	102.12
341.158	89.12
341.386	77.12
341.614	86.12
341.842	97.12
342.07	65.12
342.298	88.12
342.526	97.12
342.754	75.12
342.981	98.12
343.209	84.12
343.437	101.12
343.665	86.12
343.893	93.12
344.12	78.12
344.348	80.12
344.576	87.12
344.804	102.12
345.031	83.12
345.259	74.12
345.487	78.12
345.714	99.12
345.942	82.12
346.17	88.12
346.397	92.12
346.625	92.12
346.853	81.12
347.08	88.12
347.308	72.12
347.535	89.12
347.763	90.12
347.99	91.12
348.218	81.12
348.445	94.12
348.673	89.12
348.9	74.12
349.128	86.12
349.355	94.12
349.583	85.12
349.81	88.12
350.037	77.12
350.265	92.12
350.492	99.12
350.72	77.12
350.947	90.12
351.174	91.12
351.402	82.12
351.629	82.12
351.856	85.12
352.083	92.12
352.311	80.12
352.538	72.12
352.765	92.12
352.992	83.12
353.22	82.12
353.447	95.12
353.674	84.12
353.901	90.12
354.128	93.12
354.355	72.12
354.583	86.12
354.81	82.12
355.037	76.12
355.264	92.12
355.491	90.12
355.718	80.12
355.945	71.12
356.172	82.12
356.399	90.12
356.626	91.12
356.853	71.12
357.08	90.12
357.307	86.12
357.534	91.12
357.761	84.12
357.988	87.12
358.215	85.12
358.441	85.12
358.668	90.12
358.895	90.12
359.122	79.12
359.349	92.12
359.576	94.12
359.802	82.12
360.029	74.12
360.256	87.12
360.483	91.12
360.709	87.12
360.936	73.12
361.163	86.12
361.39	102.12
361.616	92.12
361.843	80.12
362.07	82.12
362.296	89.12
362.523	103.12
362.749	89.12
362.976	112.12
363.203	93.12
363.429	82.12
363.656	97.12
363.882	97.12
364.109	106.12
364.335	113.12
364.562	118.12
364.788	94.12
365.015	82.12
365.241	91.12
365.468	73.12
365.694	86.12
365.92	91.12
366.147	80.12
366.373	96.12
366.599	70.12
366.826	92.12
367.052	76.12
367.278	89.12
367.505	83.12
367.731	87.12
367.957	86.12
368.184	94.12
368.41	91.12
368.636	86.12
368.862	73.12
369.089	72.12
369.315	76.12
369.541	81.12
369.767	87.12
369.993	92.12
370.219	85.12
370.445	99.12
370.672	89.12
370.898	78.12
371.124	85.12
371.35	96.12
371.576	91.12
371.802	71.12
372.028	80.12
372.254	78.12
372.48	77.12
372.706	77.12
372.932	94.12
373.158	86.12
373.384	82.12
373.61	100.12
373.835	85.12
374.061	86.12
374.287	88.12
374.513	99.12
374.739	91.12
374.965	90.12
375.191	85.12
375.416	85.12
375.642	89.12
375.868	98.12
376.094	80.12
376.319	75.12
376.545	82.12
376.771	87.12
376.997	78.12
377.222	78.12
377.448	91.12
377.674	80.12
377.899	65.12
378.125	68.12
378.35	86.12
378.576	84.12
378.802	84.12
379.027	84.12
379.253	88.12
379.478	88.12
379.704	98.12
379.929	83.12
380.155	92.12
380.38	75.12
380.606	86.12
380.831	90.12
381.057	91.12
381.282	91.12
381.507	82.12
381.733	92.12
381.958	87.12
382.184	87.12
382.409	83.12
382.634	77.12
382.86	88.12
383.085	79.12
383.31	92.12
383.535	80.12
383.761	96.12
383.986	92.12
384.211	99.12
384.436	97.12
384.662	80.12
384.887	92.12
385.112	78.12
385.337	86.12
385.562	85.12
385.787	90.12
386.013	82.12
386.238	89.12
386.463	90.12
386.688	104.12
386.913	84.12
387.138	94.12
387.363	92.12
387.588	105.12
387.813	90.12
388.038	102.12
388.263	77.12
388.488	100.12
388.713	89.12
388.938	99.12
389.163	91.12
389.387	86.12
389.612	89.12
389.837	99.12
390.062	88.12
390.287	84.12
390.512	81.12
390.736	93.12
390.961	90.12
391.186	75.12
391.411	80.12
391.636	99.12
391.86	92.12
392.085	106.12
392.31	79.12
392.534	91.12
392.759	106.12
392.984	142.12
393.208	180.12
393.433	238.12
393.658	184.12
393.882	126.12
394.107	112.12
394.331	97.12
394.556	98.12
394.78	91.12
395.005	89.12
395.229	87.12
395.454	91.12
395.678	90.12
395.903	104.12
396.127	110.12
396.352	106.12
396.576	126.12
396.801	166.12
397.025	189.12
397.249	121.12
397.474	118.12
397.698	89.12
397.922	92.12
398.147	80.12
398.371	82.12
398.595	80.12
398.82	90.12
399.044	84.12
399.268	84.12
399.492	75.12
399.717	94.12
399.941	82.12
400.165	82.12
400.389	85.12
400.613	77.12
400.837	85.12
401.062	91.12
401.286	88.12
401.51	83.12
401.734	87.12
401.958	97.12
402.182	82.12
402.406	89.12
402.63	76.12
402.854	72.12
403.078	80.12
403.302	86.12
403.526	82.12
403.75	84.12
403.974	79.12
404.198	75.12
404.422	94.12
404.645	93.12
404.869	91.12
405.093	79.12
405.317	87.12
405.541	66.12
405.765	84.12
405.988	71.12
406.212	76.12
406.436	84.12
406.66	84.12
406.883	97.12
407.107	87.12
407.331	98.12
407.555	90.12
407.778	99.12
408.002	95.12
408.226	99.12
408.449	81.12
408.673	82.12
408.896	75.12
409.12	73.12
409.344	89.12
409.567	102.12
409.791	96.12
410.014	78.12
410.238	89.12
410.461	93.12
410.685	98.12
410.908	75.12
411.132	81.12
411.355	96.12
411.578	73.12
411.802	89.12
412.025	85.12
412.249	89.12
412.472	79.12
412.695	68.12
412.919	82.12
413.142	85.12
413.365	85.12
413.589	83.12
413.812	94.12
414.035	87.12
414.258	82.12
414.482	70.12
414.705	85.12
414.928	78.12
415.151	84.12
415.374	84.12
415.597	95.12
415.821	75.12
416.044	94.12
416.267	80.12
416.49	86.12
416.713	71.12
416.936	82.12
417.159	87.12
417.382	85.12
417.605	88.12
417.828	87.12
418.051	86.12
418.274	93.12
418.497	89.12
418.72	79.12
418.943	90.12
419.166	91.12
419.389	83.12
419.611	102.12
419.834	80.12
420.057	90.12
420.28	88.12
420.503	95.12
420.726	83.12
420.948	83.12
421.171	82.12
421.394	94.12
421.617	107.12
421.839	104.12
422.062	120.12
422.285	137.12
422.507	232.12
422.73	290.12
422.953	290.12
423.175	170.12
423.398	105.12
423.621	112.12
423.843	90.12
424.066	88.12
424.288	75.12
424.511	89.12
424.733	83.12
424.956	80.12
425.178	90.12
425.401	75.12
425.623	79.12
425.846	89.12
426.068	81.12
426.291	87.12
426.513	87.12
426.735	81.12
426.958	84.12
427.18	92.12
427.402	82.12
427.625	99.12
427.847	82.12
428.069	87.12
428.292	114.12
428.514	111.12
428.736	94.12
428.958	122.12
429.181	112.12
429.403	85.12
429.625	92.12
429.847	105.12
430.069	134.12
430.292	150.12
430.514	128.12
430.736	114.12
430.958	135.12
431.18	112.12
431.402	95.12
431.624	95.12
431.846	101.12
432.068	135.12
432.29	98.12
432.512	74.12
432.734	86.12
432.956	83.12
433.178	76.12
433.4	89.12
433.622	86.12
433.844	91.12
434.066	85.12
434.287	84.12
434.509	85.12
434.731	82.12
434.953	76.12
435.175	80.12
435.397	86.12
435.618	96.12
435.84	100.12
436.062	90.12
436.284	84.12
436.505	82.12
436.727	92.12
436.949	91.12
437.17	86.12
437.392	78.12
437.614	77.12
437.835	68.12
438.057	101.12
438.278	86.12
438.5	76.12
438.721	83.12
438.943	90.12
439.165	70.12
439.386	88.12
439.608	71.12
439.829	74.12
440.05	99.12
440.272	92.12
440.493	79.12
440.715	74.12
440.936	86.12
441.158	82.12
441.379	88.12
441.6	79.12
441.822	101.12
442.043	92.12
442.264	86.12
442.486	114.12
442.707	142.12
442.928	121.12
443.149	97.12
443.371	122.12
443.592	200.12
443.813	175.12
444.034	92.12
444.255	80.12
444.476	75.12
444.698	76.12
444.919	75.12
445.14	168.12
445.361	188.12
445.582	225.12
445.803	210.12
446.024	92.12
446.245	79.12
446.466	89.12
446.687	86.12
446.908	96.12
447.129	77.12
447.35	82.12
447.571	94.12
447.792	78.12
448.013	62.12
448.234	83.12
448.455	77.12
448.675	96.12
448.896	86.12
449.117	96.12
449.338	76.12
449.559	75.12
449.779	89.12
450	86.12
450.221	83.12
450.442	82.12
450.662	87.12
450.883	72.12
451.104	74.12
451.324	86.12
451.545	82.12
451.766	99.12
451.986	82.12
452.207	82.12
452.428	79.12
452.648	84.12
452.869	87.12
453.089	83.12
453.31	75.12
453.53	80.12
453.751	90.12
453.971	89.12
454.192	82.12
454.412	86.12
454.633	86.12
454.853	92.12
455.073	66.12
455.294	84.12
455.514	81.12
455.734	66.12
455.955	89.12
456.175	81.12
456.395	74.12
456.616	98.12
456.836	100.12
457.056	77.12
457.276	90.12
457.497	73.12
457.717	84.12
457.937	110.12
458.157	116.12
458.377	125.12
458.598	108.12
458.818	117.12
459.038	90.12
459.258	82.12
459.478	83.12
459.698	84.12
459.918	78.12
460.138	87.12
460.358	74.12
460.578	94.12
460.798	106.12
461.018	98.12
461.238	83.12
461.458	88.12
461.678	91.12
461.898	87.12
462.118	83.12
462.338	90.12
462.558	95.12
462.777	74.12
462.997	81.12
463.217	72.12
463.437	85.12
463.657	81.12
463.876	85.12
464.096	84.12
464.316	82.12
464.536	90.12
464.755	84.12
464.975	83.12
465.195	86.12
465.414	101.12
465.634	84.12
465.854	70.12
466.073	87.12
466.293	76.12
466.512	91.12
466.732	99.12
466.951	88.12
467.171	89.12
467.391	91.12
467.61	74.12
467.829	89.12
468.049	96.12
468.268	89.12
468.488	86.12
468.707	82.12
468.927	80.12
469.146	82.12
469.365	87.12
469.585	82.12
469.804	76.12
470.023	96.12
470.243	79.12
470.462	71.12
470.681	85.12
470.901	76.12
471.12	75.12
471.339	80.12
471.558	71.12
471.777	87.12
471.997	96.12
472.216	98.12
472.435	87.12
472.654	70.12
472.873	77.12
473.092	84.12
473.311	74.12
473.53	84.12
473.749	83.12
473.968	90.12
474.187	92.12
474.406	83.12
474.625	79.12
474.844	80.12
475.063	83.12
475.282	86.12
475.501	89.12
475.72	78.12
475.939	79.12
476.158	82.12
476.377	96.12
476.596	81.12
476.814	83.12
477.033	90.12
477.252	74.12
477.471	86.12
477.69	60.12
477.908	80.12
478.127	88.12
478.346	88.12
478.564	79.12
478.783	88.12
479.002	82.12
479.22	74.12
479.439	90.12
479.658	83.12
479.876	88.12
480.095	90.12
480.313	92.12
480.532	82.12
480.751	85.12
480.969	73.12
481.188	83.12
481.406	70.12
481.624	66.12
481.843	88.12
482.061	87.12
482.28	94.12
482.498	98.12
482.717	86.12
482.935	76.12
483.153	89.12
483.372	75.12
483.59	81.12
483.808	96.12
484.027	97.12
484.245	76.12
484.463	86.12
484.681	84.12
484.9	85.12
485.118	90.12
485.336	72.12
485.554	72.12
485.772	82.12
485.99	86.12
486.209	83.12
486.427	76.12
486.645	96.12
486.863	85.12
487.081	84.12
487.299	86.12
487.517	96.12
487.735	104.12
487.953	150.12
488.171	122.12
488.389	91.12
488.607	80.12
488.825	94.12
489.043	75.12
489.261	82.12
489.479	82.12
489.696	83.12
489.914	97.12
490.132	84.12
490.35	84.12
490.568	79.12
490.786	80.12
491.003	78.12
491.221	75.12
491.439	89.12
491.657	73.12
491.874	84.12
492.092	81.12
492.31	88.12
492.527	91.12
492.745	90.12
492.963	102.12
493.18	90.12
493.398	77.12
493.615	96.12
493.833	80.12
494.05	75.12
494.268	74.12
494.485	87.12
494.703	93.12
494.92	96.12
495.138	93.12
495.355	84.12
495.573	87.12
495.79	77.12
496.008	103.12
496.225	90.12
496.442	84.12
496.66	93.12
496.877	87.12
497.094	86.12
497.312	75.12
497.529	96.12
497.746	95.12
497.963	84.12
498.181	83.12
498.398	90.12
498.615	96.12
498.832	82.12
499.049	91.12
499.267	99.12
499.484	87.12
499.701	99.12
499.918	87.12
500.135	79.12
500.352	78.12
500.569	92.12
500.786	82.12
501.003	83.12
501.22	94.12
501.437	71.12
501.654	88.12
501.871	91.12
502.088	82.12
502.305	92.12
502.522	86.12
502.739	94.12
502.956	87.12
503.172	96.12
503.389	90.12
503.606	94.12
503.823	96.12
504.04	106.12
504.256	120.12
504.473	122.12
504.69	86.12
504.907	99.12
505.123	91.12
505.34	79.12
505.557	91.12
505.773	74.12
505.99	94.12
506.207	94.12
506.423	88.12
506.64	90.12
506.856	77.12
507.073	82.12
507.289	90.12
507.506	87.12
507.722	75.12
507.939	80.12
508.155	99.12
508.372	85.12
508.588	100.12
508.805	89.12
509.021	74.12
509.238	89.12
509.454	68.12
509.67	70.12
509.887	84.12
510.103	92.12
510.319	101.12
510.536	82.12
510.752	94.12
510.968	87.12
511.184	92.12
511.401	85.12
511.617	83.12
511.833	91.12
512.049	97.12
512.265	96.12
512.481	92.12
512.698	88.12
512.914	81.12
513.13	88.12
513.346	83.12
513.562	85.12
513.778	90.12
513.994	91.12
514.21	88.12
514.426	96.12
514.642	90.12
514.858	76.12
515.074	94.12
515.29	80.12
515.506	84.12
515.721	95.12
515.937	83.12
516.153	77.12
516.369	76.12
516.585	88.12
516.801	86.12
517.016	82.12
517.232	84.12
517.448	92.12
517.664	76.12
517.879	76.12
518.095	98.12
518.311	72.12
518.527	92.12
518.742	101.12
