Data from CBS_1_HRD10591_00020.txt Node
Date: Mon Jan 19 14:03:58 EST 2026
User: Yrep
Spectrometer: HR+D1059
Trigger mode: 1
Integration Time (sec): 1.000000E-1
Scans to average: 1
Electric dark correction enabled: true
Nonlinearity correction enabled: false
Boxcar width: 0
XAxis mode: Wavelengths
Number of Pixels in Spectrum: 2048
>>>>>Begin Spectral Data<<<<<
223.165	-16.38
223.4	-16.38
223.635	-16.38
223.869	-15.38
224.104	-15.38
224.338	-11.38
224.573	-11.38
224.808	-12.38
225.042	-12.38
225.277	-11.38
225.511	-8.38
225.746	10.62
225.98	7.62
226.215	6.62
226.449	23.62
226.683	18.62
226.918	20.62
227.152	26.62
227.387	47.62
227.621	38.62
227.856	64.62
228.09	47.62
228.324	60.62
228.559	55.62
228.793	63.62
229.027	75.62
229.262	73.62
229.496	61.62
229.73	83.62
229.964	79.62
230.199	71.62
230.433	87.62
230.667	79.62
230.901	90.62
231.136	74.62
231.37	70.62
231.604	75.62
231.838	83.62
232.072	81.62
232.306	81.62
232.541	71.62
232.775	77.62
233.009	98.62
233.243	65.62
233.477	93.62
233.711	89.62
233.945	80.62
234.179	77.62
234.413	77.62
234.647	89.62
234.881	97.62
235.115	83.62
235.349	85.62
235.583	70.62
235.817	87.62
236.051	77.62
236.285	79.62
236.519	77.62
236.753	84.62
236.987	74.62
237.221	91.62
237.455	66.62
237.689	72.62
237.922	71.62
238.156	73.62
238.39	78.62
238.624	71.62
238.858	93.62
239.091	79.62
239.325	73.62
239.559	91.62
239.793	82.62
240.027	83.62
240.26	73.62
240.494	67.62
240.728	82.62
240.961	84.62
241.195	86.62
241.429	91.62
241.662	71.62
241.896	79.62
242.13	81.62
242.363	85.62
242.597	87.62
242.83	79.62
243.064	72.62
243.298	73.62
243.531	80.62
243.765	76.62
243.998	83.62
244.232	76.62
244.465	77.62
244.699	77.62
244.932	76.62
245.166	86.62
245.399	87.62
245.633	77.62
245.866	81.62
246.099	78.62
246.333	74.62
246.566	98.62
246.8	85.62
247.033	97.62
247.266	75.62
247.5	73.62
247.733	85.62
247.966	80.62
248.2	74.62
248.433	75.62
248.666	82.62
248.899	73.62
249.133	84.62
249.366	87.62
249.599	82.62
249.832	80.62
250.066	93.62
250.299	77.62
250.532	69.62
250.765	77.62
250.998	81.62
251.231	81.62
251.465	76.62
251.698	82.62
251.931	76.62
252.164	79.62
252.397	88.62
252.63	77.62
252.863	88.62
253.096	82.62
253.329	83.62
253.562	75.62
253.795	72.62
254.028	85.62
254.261	71.62
254.494	81.62
254.727	99.62
254.96	90.62
255.193	95.62
255.426	98.62
255.659	83.62
255.892	75.62
256.124	83.62
256.357	80.62
256.59	94.62
256.823	77.62
257.056	89.62
257.289	83.62
257.521	88.62
257.754	75.62
257.987	80.62
258.22	93.62
258.452	83.62
258.685	75.62
258.918	65.62
259.151	78.62
259.383	74.62
259.616	75.62
259.849	86.62
260.081	83.62
260.314	75.62
260.547	84.62
260.779	99.62
261.012	76.62
261.244	90.62
261.477	85.62
261.71	65.62
261.942	73.62
262.175	85.62
262.407	85.62
262.64	72.62
262.872	75.62
263.105	93.62
263.337	80.62
263.57	89.62
263.802	91.62
264.035	86.62
264.267	74.62
264.499	67.62
264.732	95.62
264.964	93.62
265.197	86.62
265.429	78.62
265.661	76.62
265.894	73.62
266.126	89.62
266.358	87.62
266.591	83.62
266.823	77.62
267.055	91.62
267.287	79.62
267.52	91.62
267.752	77.62
267.984	90.62
268.216	83.62
268.448	70.62
268.681	101.62
268.913	83.62
269.145	77.62
269.377	75.62
269.609	75.62
269.841	86.62
270.073	77.62
270.306	79.62
270.538	87.62
270.77	95.62
271.002	75.62
271.234	75.62
271.466	89.62
271.698	81.62
271.93	73.62
272.162	85.62
272.394	87.62
272.626	94.62
272.858	76.62
273.09	91.62
273.322	81.62
273.553	103.62
273.785	84.62
274.017	89.62
274.249	81.62
274.481	89.62
274.713	75.62
274.945	94.62
275.176	86.62
275.408	83.62
275.64	96.62
275.872	79.62
276.104	81.62
276.335	81.62
276.567	77.62
276.799	85.62
277.031	88.62
277.262	92.62
277.494	83.62
277.726	98.62
277.957	100.62
278.189	77.62
278.421	84.62
278.652	81.62
278.884	95.62
279.115	86.62
279.347	91.62
279.579	83.62
279.81	78.62
280.042	85.62
280.273	85.62
280.505	75.62
280.736	85.62
280.968	80.62
281.199	77.62
281.431	93.62
281.662	87.62
281.894	95.62
282.125	82.62
282.356	82.62
282.588	90.62
282.819	89.62
283.051	77.62
283.282	87.62
283.513	86.62
283.745	86.62
283.976	89.62
284.207	84.62
284.439	89.62
284.67	92.62
284.901	86.62
285.132	101.62
285.364	99.62
285.595	85.62
285.826	89.62
286.057	97.62
286.288	89.62
286.52	85.62
286.751	99.62
286.982	79.62
287.213	81.62
287.444	90.62
287.675	88.62
287.906	97.62
288.138	105.62
288.369	97.62
288.6	89.62
288.831	87.62
289.062	98.62
289.293	95.62
289.524	81.62
289.755	93.62
289.986	102.62
290.217	89.62
290.448	79.62
290.679	83.62
290.91	95.62
291.141	66.62
291.371	88.62
291.602	91.62
291.833	85.62
292.064	80.62
292.295	76.62
292.526	88.62
292.757	94.62
292.987	87.62
293.218	76.62
293.449	90.62
293.68	99.62
293.91	81.62
294.141	89.62
294.372	87.62
294.603	85.62
294.833	96.62
295.064	89.62
295.295	87.62
295.525	89.62
295.756	82.62
295.987	89.62
296.217	79.62
296.448	75.62
296.679	91.62
296.909	93.62
297.14	79.62
297.37	93.62
297.601	88.62
297.831	89.62
298.062	85.62
298.292	73.62
298.523	91.62
298.753	81.62
298.984	100.62
299.214	85.62
299.445	79.62
299.675	103.62
299.905	89.62
300.136	99.62
300.366	85.62
300.597	87.62
300.827	95.62
301.057	88.62
301.288	77.62
301.518	89.62
301.748	108.62
301.979	92.62
302.209	89.62
302.439	95.62
302.669	93.62
302.9	79.62
303.13	67.62
303.36	80.62
303.59	84.62
303.82	93.62
304.051	89.62
304.281	94.62
304.511	105.62
304.741	81.62
304.971	74.62
305.201	80.62
305.431	89.62
305.661	67.62
305.891	87.62
306.121	87.62
306.352	86.62
306.582	91.62
306.812	78.62
307.042	80.62
307.272	111.62
307.502	76.62
307.731	97.62
307.961	83.62
308.191	104.62
308.421	87.62
308.651	81.62
308.881	97.62
309.111	100.62
309.341	95.62
309.571	103.62
309.8	96.62
310.03	88.62
310.26	89.62
310.49	109.62
310.72	88.62
310.949	96.62
311.179	80.62
311.409	83.62
311.639	83.62
311.868	97.62
312.098	91.62
312.328	98.62
312.557	92.62
312.787	87.62
313.017	96.62
313.246	96.62
313.476	92.62
313.706	86.62
313.935	83.62
314.165	88.62
314.394	83.62
314.624	87.62
314.853	90.62
315.083	99.62
315.312	84.62
315.542	93.62
315.771	85.62
316.001	94.62
316.23	85.62
316.46	85.62
316.689	94.62
316.919	93.62
317.148	91.62
317.377	92.62
317.607	100.62
317.836	85.62
318.065	98.62
318.295	100.62
318.524	93.62
318.753	81.62
318.983	93.62
319.212	96.62
319.441	89.62
319.67	90.62
319.9	83.62
320.129	89.62
320.358	85.62
320.587	73.62
320.816	87.62
321.046	88.62
321.275	99.62
321.504	92.62
321.733	92.62
321.962	88.62
322.191	92.62
322.42	92.62
322.649	91.62
322.878	87.62
323.108	80.62
323.337	95.62
323.566	86.62
323.795	88.62
324.024	84.62
324.253	88.62
324.482	92.62
324.71	88.62
324.939	95.62
325.168	93.62
325.397	92.62
325.626	92.62
325.855	80.62
326.084	89.62
326.313	101.62
326.542	82.62
326.77	87.62
326.999	77.62
327.228	104.62
327.457	85.62
327.686	98.62
327.914	75.62
328.143	83.62
328.372	94.62
328.6	102.62
328.829	98.62
329.058	108.62
329.287	81.62
329.515	97.62
329.744	103.62
329.972	93.62
330.201	101.62
330.43	96.62
330.658	112.62
330.887	95.62
331.115	95.62
331.344	87.62
331.572	84.62
331.801	91.62
332.03	82.62
332.258	92.62
332.486	88.62
332.715	89.62
332.943	84.62
333.172	75.62
333.4	95.62
333.629	98.62
333.857	91.62
334.085	92.62
334.314	78.62
334.542	97.62
334.771	97.62
334.999	106.62
335.227	87.62
335.455	80.62
335.684	98.62
335.912	102.62
336.14	107.62
336.369	100.62
336.597	98.62
336.825	97.62
337.053	79.62
337.281	89.62
337.51	92.62
337.738	86.62
337.966	85.62
338.194	87.62
338.422	90.62
338.65	86.62
338.878	100.62
339.106	91.62
339.334	85.62
339.562	84.62
339.79	77.62
340.018	84.62
340.246	95.62
340.474	88.62
340.702	84.62
340.93	100.62
341.158	93.62
341.386	92.62
341.614	87.62
341.842	105.62
342.07	77.62
342.298	73.62
342.526	85.62
342.754	99.62
342.981	89.62
343.209	91.62
343.437	118.62
343.665	83.62
343.893	89.62
344.12	86.62
344.348	81.62
344.576	93.62
344.804	93.62
345.031	82.62
345.259	100.62
345.487	79.62
345.714	84.62
345.942	80.62
346.17	97.62
346.397	93.62
346.625	71.62
346.853	88.62
347.08	91.62
347.308	78.62
347.535	88.62
347.763	91.62
347.99	83.62
348.218	87.62
348.445	86.62
348.673	99.62
348.9	101.62
349.128	73.62
349.355	80.62
349.583	87.62
349.81	84.62
350.037	93.62
350.265	81.62
350.492	86.62
350.72	91.62
350.947	95.62
351.174	83.62
351.402	90.62
351.629	81.62
351.856	90.62
352.083	85.62
352.311	86.62
352.538	86.62
352.765	85.62
352.992	98.62
353.22	85.62
353.447	86.62
353.674	81.62
353.901	84.62
354.128	77.62
354.355	101.62
354.583	80.62
354.81	86.62
355.037	81.62
355.264	96.62
355.491	86.62
355.718	84.62
355.945	85.62
356.172	88.62
356.399	95.62
356.626	78.62
356.853	95.62
357.08	87.62
357.307	81.62
357.534	96.62
357.761	82.62
357.988	101.62
358.215	95.62
358.441	92.62
358.668	90.62
358.895	98.62
359.122	86.62
359.349	94.62
359.576	94.62
359.802	91.62
360.029	109.62
360.256	81.62
360.483	72.62
360.709	99.62
360.936	85.62
361.163	92.62
361.39	85.62
361.616	90.62
361.843	89.62
362.07	100.62
362.296	107.62
362.523	88.62
362.749	107.62
362.976	108.62
363.203	108.62
363.429	97.62
363.656	110.62
363.882	99.62
364.109	117.62
364.335	134.62
364.562	128.62
364.788	119.62
365.015	93.62
365.241	77.62
365.468	93.62
365.694	86.62
365.92	103.62
366.147	88.62
366.373	72.62
366.599	107.62
366.826	98.62
367.052	96.62
367.278	88.62
367.505	93.62
367.731	101.62
367.957	92.62
368.184	92.62
368.41	92.62
368.636	89.62
368.862	95.62
369.089	87.62
369.315	96.62
369.541	91.62
369.767	95.62
369.993	87.62
370.219	92.62
370.445	86.62
370.672	75.62
370.898	92.62
371.124	102.62
371.35	87.62
371.576	97.62
371.802	103.62
372.028	92.62
372.254	93.62
372.48	96.62
372.706	87.62
372.932	88.62
373.158	93.62
373.384	93.62
373.61	96.62
373.835	79.62
374.061	88.62
374.287	96.62
374.513	90.62
374.739	89.62
374.965	100.62
375.191	96.62
375.416	88.62
375.642	105.62
375.868	94.62
376.094	81.62
376.319	86.62
376.545	87.62
376.771	81.62
376.997	96.62
377.222	82.62
377.448	93.62
377.674	88.62
377.899	90.62
378.125	90.62
378.35	99.62
378.576	95.62
378.802	87.62
379.027	86.62
379.253	82.62
379.478	88.62
379.704	97.62
379.929	79.62
380.155	88.62
380.38	94.62
380.606	79.62
380.831	86.62
381.057	87.62
381.282	76.62
381.507	88.62
381.733	79.62
381.958	87.62
382.184	71.62
382.409	86.62
382.634	103.62
382.86	97.62
383.085	95.62
383.31	100.62
383.535	90.62
383.761	108.62
383.986	95.62
384.211	67.62
384.436	80.62
384.662	87.62
384.887	87.62
385.112	80.62
385.337	89.62
385.562	81.62
385.787	91.62
386.013	98.62
386.238	94.62
386.463	88.62
386.688	92.62
386.913	103.62
387.138	80.62
387.363	114.62
387.588	102.62
387.813	90.62
388.038	97.62
388.263	87.62
388.488	71.62
388.713	83.62
388.938	96.62
389.163	96.62
389.387	75.62
389.612	105.62
389.837	79.62
390.062	85.62
390.287	87.62
390.512	91.62
390.736	81.62
390.961	83.62
391.186	81.62
391.411	92.62
391.636	84.62
391.86	105.62
392.085	102.62
392.31	96.62
392.534	81.62
392.759	113.62
392.984	132.62
393.208	181.62
393.433	234.62
393.658	205.62
393.882	131.62
394.107	115.62
394.331	97.62
394.556	112.62
394.78	113.62
395.005	102.62
395.229	108.62
395.454	87.62
395.678	99.62
395.903	111.62
396.127	109.62
396.352	135.62
396.576	135.62
396.801	178.62
397.025	201.62
397.249	145.62
397.474	109.62
397.698	95.62
397.922	87.62
398.147	87.62
398.371	83.62
398.595	95.62
398.82	83.62
399.044	91.62
399.268	71.62
399.492	88.62
399.717	91.62
399.941	96.62
400.165	89.62
400.389	85.62
400.613	77.62
400.837	95.62
401.062	96.62
401.286	83.62
401.51	90.62
401.734	91.62
401.958	100.62
402.182	87.62
402.406	80.62
402.63	91.62
402.854	84.62
403.078	99.62
403.302	105.62
403.526	87.62
403.75	88.62
403.974	89.62
404.198	101.62
404.422	125.62
404.645	117.62
404.869	107.62
405.093	97.62
405.317	113.62
405.541	105.62
405.765	86.62
405.988	94.62
406.212	100.62
406.436	91.62
406.66	83.62
406.883	85.62
407.107	75.62
407.331	72.62
407.555	99.62
407.778	91.62
408.002	109.62
408.226	109.62
408.449	92.62
408.673	85.62
408.896	97.62
409.12	95.62
409.344	93.62
409.567	115.62
409.791	92.62
410.014	115.62
410.238	107.62
410.461	111.62
410.685	90.62
410.908	84.62
411.132	87.62
411.355	83.62
411.578	96.62
411.802	83.62
412.025	93.62
412.249	89.62
412.472	91.62
412.695	94.62
412.919	104.62
413.142	81.62
413.365	87.62
413.589	84.62
413.812	87.62
414.035	86.62
414.258	90.62
414.482	91.62
414.705	86.62
414.928	87.62
415.151	86.62
415.374	89.62
415.597	86.62
415.821	96.62
416.044	87.62
416.267	98.62
416.49	109.62
416.713	86.62
416.936	85.62
417.159	83.62
417.382	91.62
417.605	103.62
417.828	73.62
418.051	93.62
418.274	86.62
418.497	88.62
418.72	81.62
418.943	91.62
419.166	91.62
419.389	88.62
419.611	90.62
419.834	89.62
420.057	94.62
420.28	107.62
420.503	106.62
420.726	80.62
420.948	89.62
421.171	104.62
421.394	102.62
421.617	112.62
421.839	100.62
422.062	146.62
422.285	199.62
422.507	264.62
422.73	331.62
422.953	305.62
423.175	228.62
423.398	178.62
423.621	137.62
423.843	115.62
424.066	109.62
424.288	116.62
424.511	108.62
424.733	106.62
424.956	106.62
425.178	92.62
425.401	85.62
425.623	73.62
425.846	90.62
426.068	87.62
426.291	98.62
426.513	91.62
426.735	86.62
426.958	71.62
427.18	88.62
427.402	101.62
427.625	114.62
427.847	105.62
428.069	114.62
428.292	127.62
428.514	142.62
428.736	121.62
428.958	104.62
429.181	122.62
429.403	101.62
429.625	105.62
429.847	115.62
430.069	159.62
430.292	183.62
430.514	152.62
430.736	132.62
430.958	146.62
431.18	113.62
431.402	105.62
431.624	101.62
431.846	109.62
432.068	123.62
432.29	111.62
432.512	85.62
432.734	97.62
432.956	75.62
433.178	86.62
433.4	86.62
433.622	87.62
433.844	90.62
434.066	86.62
434.287	106.62
434.509	77.62
434.731	84.62
434.953	79.62
435.175	81.62
435.397	92.62
435.618	99.62
435.84	82.62
436.062	89.62
436.284	87.62
436.505	90.62
436.727	86.62
436.949	88.62
437.17	103.62
437.392	73.62
437.614	85.62
437.835	92.62
438.057	91.62
438.278	96.62
438.5	84.62
438.721	95.62
438.943	97.62
439.165	87.62
439.386	89.62
439.608	90.62
439.829	81.62
440.05	86.62
440.272	89.62
440.493	98.62
440.715	98.62
440.936	92.62
441.158	92.62
441.379	80.62
441.6	92.62
441.822	86.62
442.043	91.62
442.264	101.62
442.486	136.62
442.707	169.62
442.928	125.62
443.149	107.62
443.371	159.62
443.592	230.62
443.813	200.62
444.034	120.62
444.255	93.62
444.476	93.62
444.698	98.62
444.919	97.62
445.14	204.62
445.361	193.62
445.582	263.62
445.803	243.62
446.024	117.62
446.245	97.62
446.466	96.62
446.687	81.62
446.908	90.62
447.129	90.62
447.35	73.62
447.571	87.62
447.792	83.62
448.013	86.62
448.234	87.62
448.455	86.62
448.675	80.62
448.896	85.62
449.117	98.62
449.338	79.62
449.559	65.62
449.779	83.62
450	88.62
450.221	76.62
450.442	84.62
450.662	82.62
450.883	97.62
451.104	78.62
451.324	83.62
451.545	64.62
451.766	80.62
451.986	77.62
452.207	86.62
452.428	91.62
452.648	103.62
452.869	104.62
453.089	98.62
453.31	86.62
453.53	90.62
453.751	97.62
453.971	85.62
454.192	92.62
454.412	92.62
454.633	69.62
454.853	74.62
455.073	62.62
455.294	93.62
455.514	97.62
455.734	104.62
455.955	85.62
456.175	85.62
456.395	86.62
456.616	78.62
456.836	78.62
457.056	83.62
457.276	97.62
457.497	93.62
457.717	97.62
457.937	123.62
458.157	121.62
458.377	132.62
458.598	128.62
458.818	140.62
459.038	103.62
459.258	95.62
459.478	90.62
459.698	102.62
459.918	95.62
460.138	96.62
460.358	92.62
460.578	103.62
460.798	126.62
461.018	133.62
461.238	91.62
461.458	98.62
461.678	95.62
461.898	74.62
462.118	81.62
462.338	108.62
462.558	88.62
462.777	77.62
462.997	91.62
463.217	86.62
463.437	101.62
463.657	76.62
463.876	96.62
464.096	77.62
464.316	90.62
464.536	94.62
464.755	79.62
464.975	89.62
465.195	92.62
465.414	74.62
465.634	80.62
465.854	93.62
466.073	77.62
466.293	80.62
466.512	84.62
466.732	90.62
466.951	90.62
467.171	77.62
467.391	76.62
467.61	86.62
467.829	92.62
468.049	87.62
468.268	96.62
468.488	75.62
468.707	97.62
468.927	95.62
469.146	77.62
469.365	90.62
469.585	107.62
469.804	87.62
470.023	98.62
470.243	89.62
470.462	85.62
470.681	92.62
470.901	89.62
471.12	88.62
471.339	89.62
471.558	99.62
471.777	92.62
471.997	96.62
472.216	89.62
472.435	95.62
472.654	80.62
472.873	81.62
473.092	87.62
473.311	86.62
473.53	84.62
473.749	89.62
473.968	107.62
474.187	99.62
474.406	91.62
474.625	89.62
474.844	84.62
475.063	96.62
475.282	82.62
475.501	99.62
475.72	99.62
475.939	101.62
476.158	98.62
476.377	85.62
476.596	88.62
476.814	89.62
477.033	83.62
477.252	101.62
477.471	84.62
477.69	79.62
477.908	87.62
478.127	78.62
478.346	72.62
478.564	83.62
478.783	99.62
479.002	89.62
479.22	91.62
479.439	92.62
479.658	71.62
479.876	97.62
480.095	75.62
480.313	96.62
480.532	95.62
480.751	106.62
480.969	87.62
481.188	99.62
481.406	99.62
481.624	100.62
481.843	73.62
482.061	82.62
482.28	103.62
482.498	86.62
482.717	101.62
482.935	97.62
483.153	103.62
483.372	92.62
483.59	87.62
483.808	75.62
484.027	87.62
484.245	91.62
484.463	86.62
484.681	104.62
484.9	87.62
485.118	92.62
485.336	91.62
485.554	97.62
485.772	95.62
485.99	93.62
486.209	88.62
486.427	97.62
486.645	87.62
486.863	91.62
487.081	87.62
487.299	85.62
487.517	100.62
487.735	123.62
487.953	183.62
488.171	162.62
488.389	113.62
488.607	100.62
488.825	91.62
489.043	84.62
489.261	90.62
489.479	88.62
489.696	97.62
489.914	101.62
490.132	90.62
490.35	89.62
490.568	81.62
490.786	93.62
491.003	115.62
491.221	95.62
491.439	79.62
491.657	107.62
491.874	95.62
492.092	87.62
492.31	81.62
492.527	75.62
492.745	90.62
492.963	97.62
493.18	89.62
493.398	87.62
493.615	85.62
493.833	94.62
494.05	87.62
494.268	92.62
494.485	84.62
494.703	81.62
494.92	104.62
495.138	97.62
495.355	91.62
495.573	115.62
495.79	80.62
496.008	91.62
496.225	101.62
496.442	101.62
496.66	84.62
496.877	106.62
497.094	84.62
497.312	80.62
497.529	89.62
497.746	97.62
497.963	86.62
498.181	93.62
498.398	92.62
498.615	92.62
498.832	68.62
499.049	87.62
499.267	100.62
499.484	85.62
499.701	78.62
499.918	89.62
500.135	84.62
500.352	84.62
500.569	100.62
500.786	91.62
501.003	92.62
501.22	89.62
501.437	89.62
501.654	89.62
501.871	81.62
502.088	81.62
502.305	102.62
502.522	93.62
502.739	103.62
502.956	85.62
503.172	91.62
503.389	104.62
503.606	95.62
503.823	90.62
504.04	107.62
504.256	141.62
504.473	153.62
504.69	111.62
504.907	109.62
505.123	91.62
505.34	78.62
505.557	96.62
505.773	92.62
505.99	90.62
506.207	89.62
506.423	83.62
506.64	95.62
506.856	101.62
507.073	95.62
507.289	95.62
507.506	78.62
507.722	88.62
507.939	97.62
508.155	99.62
508.372	74.62
508.588	96.62
508.805	96.62
509.021	90.62
509.238	89.62
509.454	84.62
509.67	91.62
509.887	92.62
510.103	101.62
510.319	98.62
510.536	94.62
510.752	72.62
510.968	83.62
511.184	90.62
511.401	89.62
511.617	99.62
511.833	98.62
512.049	83.62
512.265	83.62
512.481	100.62
512.698	83.62
512.914	100.62
513.13	97.62
513.346	85.62
513.562	76.62
513.778	91.62
513.994	91.62
514.21	102.62
514.426	85.62
514.642	97.62
514.858	97.62
515.074	91.62
515.29	98.62
515.506	92.62
515.721	89.62
515.937	83.62
516.153	99.62
516.369	95.62
516.585	97.62
516.801	81.62
517.016	91.62
517.232	75.62
