Data from CBS_1_HRD10591_00037.txt Node
Date: Mon Jan 19 14:04:07 EST 2026
User: Yrep
Spectrometer: HR+D1059
Trigger mode: 1
Integration Time (sec): 1.000000E-1
Scans to average: 1
Electric dark correction enabled: true
Nonlinearity correction enabled: false
Boxcar width: 0
XAxis mode: Wavelengths
Number of Pixels in Spectrum: 2048
>>>>>Begin Spectral Data<<<<<
223.165	-25.88
223.4	-25.88
223.635	-25.88
223.869	-7.88
224.104	-8.88
224.338	-13.88
224.573	-27.88
224.808	-19.88
225.042	-2.88
225.277	-6.88
225.511	10.12
225.746	-1.88
225.98	1.12
226.215	19.12
226.449	21.12
226.683	13.12
226.918	26.12
227.152	25.12
227.387	33.12
227.621	22.12
227.856	37.12
228.09	52.12
228.324	35.12
228.559	60.12
228.793	52.12
229.027	52.12
229.262	59.12
229.496	66.12
229.73	64.12
229.964	69.12
230.199	68.12
230.433	70.12
230.667	71.12
230.901	67.12
231.136	65.12
231.37	78.12
231.604	88.12
231.838	79.12
232.072	68.12
232.306	77.12
232.541	86.12
232.775	85.12
233.009	81.12
233.243	79.12
233.477	88.12
233.711	91.12
233.945	78.12
234.179	80.12
234.413	82.12
234.647	73.12
234.881	72.12
235.115	77.12
235.349	85.12
235.583	93.12
235.817	71.12
236.051	60.12
236.285	79.12
236.519	76.12
236.753	73.12
236.987	62.12
237.221	68.12
237.455	67.12
237.689	73.12
237.922	96.12
238.156	73.12
238.39	75.12
238.624	76.12
238.858	70.12
239.091	82.12
239.325	82.12
239.559	85.12
239.793	73.12
240.027	69.12
240.26	85.12
240.494	68.12
240.728	72.12
240.961	86.12
241.195	74.12
241.429	90.12
241.662	72.12
241.896	72.12
242.13	78.12
242.363	72.12
242.597	77.12
242.83	72.12
243.064	72.12
243.298	66.12
243.531	71.12
243.765	74.12
243.998	67.12
244.232	74.12
244.465	78.12
244.699	75.12
244.932	89.12
245.166	72.12
245.399	74.12
245.633	82.12
245.866	69.12
246.099	71.12
246.333	56.12
246.566	48.12
246.8	71.12
247.033	78.12
247.266	48.12
247.5	63.12
247.733	75.12
247.966	71.12
248.2	72.12
248.433	84.12
248.666	78.12
248.899	94.12
249.133	72.12
249.366	89.12
249.599	74.12
249.832	80.12
250.066	73.12
250.299	74.12
250.532	74.12
250.765	78.12
250.998	75.12
251.231	89.12
251.465	74.12
251.698	67.12
251.931	74.12
252.164	68.12
252.397	79.12
252.63	70.12
252.863	86.12
253.096	73.12
253.329	85.12
253.562	78.12
253.795	96.12
254.028	70.12
254.261	86.12
254.494	78.12
254.727	76.12
254.96	72.12
255.193	67.12
255.426	60.12
255.659	79.12
255.892	72.12
256.124	70.12
256.357	82.12
256.59	79.12
256.823	66.12
257.056	73.12
257.289	79.12
257.521	81.12
257.754	73.12
257.987	91.12
258.22	93.12
258.452	64.12
258.685	88.12
258.918	76.12
259.151	74.12
259.383	75.12
259.616	72.12
259.849	73.12
260.081	76.12
260.314	72.12
260.547	68.12
260.779	87.12
261.012	89.12
261.244	74.12
261.477	89.12
261.71	86.12
261.942	81.12
262.175	82.12
262.407	73.12
262.64	82.12
262.872	79.12
263.105	73.12
263.337	72.12
263.57	87.12
263.802	78.12
264.035	69.12
264.267	75.12
264.499	85.12
264.732	75.12
264.964	86.12
265.197	80.12
265.429	78.12
265.661	68.12
265.894	89.12
266.126	78.12
266.358	78.12
266.591	77.12
266.823	76.12
267.055	83.12
267.287	95.12
267.52	71.12
267.752	80.12
267.984	58.12
268.216	77.12
268.448	87.12
268.681	89.12
268.913	73.12
269.145	87.12
269.377	88.12
269.609	69.12
269.841	80.12
270.073	83.12
270.306	93.12
270.538	87.12
270.77	72.12
271.002	79.12
271.234	84.12
271.466	68.12
271.698	79.12
271.93	75.12
272.162	74.12
272.394	93.12
272.626	75.12
272.858	85.12
273.09	88.12
273.322	83.12
273.553	77.12
273.785	86.12
274.017	75.12
274.249	84.12
274.481	77.12
274.713	78.12
274.945	78.12
275.176	87.12
275.408	71.12
275.64	71.12
275.872	78.12
276.104	88.12
276.335	78.12
276.567	66.12
276.799	87.12
277.031	87.12
277.262	88.12
277.494	83.12
277.726	69.12
277.957	85.12
278.189	85.12
278.421	76.12
278.652	72.12
278.884	66.12
279.115	83.12
279.347	70.12
279.579	92.12
279.81	81.12
280.042	87.12
280.273	73.12
280.505	81.12
280.736	93.12
280.968	77.12
281.199	81.12
281.431	80.12
281.662	68.12
281.894	93.12
282.125	83.12
282.356	70.12
282.588	70.12
282.819	75.12
283.051	90.12
283.282	96.12
283.513	100.12
283.745	94.12
283.976	78.12
284.207	81.12
284.439	81.12
284.67	95.12
284.901	94.12
285.132	82.12
285.364	92.12
285.595	84.12
285.826	86.12
286.057	78.12
286.288	67.12
286.52	99.12
286.751	79.12
286.982	70.12
287.213	65.12
287.444	66.12
287.675	74.12
287.906	82.12
288.138	80.12
288.369	80.12
288.6	74.12
288.831	78.12
289.062	82.12
289.293	89.12
289.524	89.12
289.755	79.12
289.986	84.12
290.217	85.12
290.448	84.12
290.679	84.12
290.91	72.12
291.141	89.12
291.371	72.12
291.602	87.12
291.833	78.12
292.064	77.12
292.295	91.12
292.526	71.12
292.757	80.12
292.987	88.12
293.218	85.12
293.449	76.12
293.68	93.12
293.91	80.12
294.141	90.12
294.372	73.12
294.603	92.12
294.833	80.12
295.064	85.12
295.295	84.12
295.525	84.12
295.756	79.12
295.987	89.12
296.217	85.12
296.448	88.12
296.679	85.12
296.909	80.12
297.14	76.12
297.37	81.12
297.601	94.12
297.831	74.12
298.062	91.12
298.292	85.12
298.523	89.12
298.753	86.12
298.984	86.12
299.214	79.12
299.445	89.12
299.675	101.12
299.905	90.12
300.136	88.12
300.366	87.12
300.597	96.12
300.827	84.12
301.057	97.12
301.288	83.12
301.518	94.12
301.748	80.12
301.979	92.12
302.209	93.12
302.439	75.12
302.669	83.12
302.9	92.12
303.13	87.12
303.36	66.12
303.59	74.12
303.82	83.12
304.051	76.12
304.281	82.12
304.511	81.12
304.741	78.12
304.971	77.12
305.201	79.12
305.431	88.12
305.661	77.12
305.891	84.12
306.121	75.12
306.352	85.12
306.582	79.12
306.812	80.12
307.042	94.12
307.272	88.12
307.502	83.12
307.731	85.12
307.961	72.12
308.191	76.12
308.421	83.12
308.651	79.12
308.881	81.12
309.111	84.12
309.341	83.12
309.571	85.12
309.8	80.12
310.03	73.12
310.26	75.12
310.49	91.12
310.72	82.12
310.949	84.12
311.179	81.12
311.409	83.12
311.639	71.12
311.868	74.12
312.098	78.12
312.328	82.12
312.557	92.12
312.787	80.12
313.017	80.12
313.246	111.12
313.476	76.12
313.706	81.12
313.935	96.12
314.165	100.12
314.394	81.12
314.624	92.12
314.853	79.12
315.083	89.12
315.312	81.12
315.542	86.12
315.771	67.12
316.001	80.12
316.23	88.12
316.46	77.12
316.689	93.12
316.919	82.12
317.148	75.12
317.377	87.12
317.607	94.12
317.836	80.12
318.065	74.12
318.295	90.12
318.524	78.12
318.753	83.12
318.983	83.12
319.212	87.12
319.441	89.12
319.67	74.12
319.9	75.12
320.129	82.12
320.358	76.12
320.587	89.12
320.816	78.12
321.046	86.12
321.275	81.12
321.504	89.12
321.733	87.12
321.962	78.12
322.191	78.12
322.42	81.12
322.649	96.12
322.878	92.12
323.108	81.12
323.337	71.12
323.566	71.12
323.795	78.12
324.024	87.12
324.253	81.12
324.482	81.12
324.71	82.12
324.939	95.12
325.168	83.12
325.397	78.12
325.626	87.12
325.855	95.12
326.084	95.12
326.313	80.12
326.542	74.12
326.77	87.12
326.999	83.12
327.228	75.12
327.457	87.12
327.686	83.12
327.914	81.12
328.143	88.12
328.372	78.12
328.6	82.12
328.829	84.12
329.058	73.12
329.287	82.12
329.515	89.12
329.744	88.12
329.972	77.12
330.201	78.12
330.43	79.12
330.658	73.12
330.887	78.12
331.115	75.12
331.344	93.12
331.572	69.12
331.801	89.12
332.03	82.12
332.258	85.12
332.486	88.12
332.715	94.12
332.943	83.12
333.172	82.12
333.4	86.12
333.629	84.12
333.857	83.12
334.085	98.12
334.314	81.12
334.542	88.12
334.771	78.12
334.999	90.12
335.227	90.12
335.455	91.12
335.684	95.12
335.912	99.12
336.14	86.12
336.369	79.12
336.597	92.12
336.825	86.12
337.053	78.12
337.281	77.12
337.51	71.12
337.738	92.12
337.966	102.12
338.194	89.12
338.422	84.12
338.65	84.12
338.878	92.12
339.106	76.12
339.334	88.12
339.562	80.12
339.79	88.12
340.018	77.12
340.246	81.12
340.474	85.12
340.702	80.12
340.93	89.12
341.158	86.12
341.386	84.12
341.614	79.12
341.842	86.12
342.07	82.12
342.298	87.12
342.526	89.12
342.754	84.12
342.981	73.12
343.209	68.12
343.437	92.12
343.665	84.12
343.893	79.12
344.12	92.12
344.348	68.12
344.576	93.12
344.804	76.12
345.031	98.12
345.259	101.12
345.487	96.12
345.714	81.12
345.942	95.12
346.17	77.12
346.397	87.12
346.625	92.12
346.853	78.12
347.08	84.12
347.308	86.12
347.535	90.12
347.763	100.12
347.99	92.12
348.218	82.12
348.445	82.12
348.673	93.12
348.9	85.12
349.128	74.12
349.355	93.12
349.583	80.12
349.81	82.12
350.037	86.12
350.265	79.12
350.492	86.12
350.72	90.12
350.947	83.12
351.174	82.12
351.402	91.12
351.629	88.12
351.856	87.12
352.083	75.12
352.311	72.12
352.538	87.12
352.765	76.12
352.992	95.12
353.22	88.12
353.447	100.12
353.674	76.12
353.901	79.12
354.128	88.12
354.355	82.12
354.583	71.12
354.81	82.12
355.037	84.12
355.264	90.12
355.491	85.12
355.718	85.12
355.945	88.12
356.172	78.12
356.399	86.12
356.626	72.12
356.853	77.12
357.08	100.12
357.307	92.12
357.534	93.12
357.761	78.12
357.988	93.12
358.215	89.12
358.441	97.12
358.668	92.12
358.895	98.12
359.122	78.12
359.349	81.12
359.576	95.12
359.802	84.12
360.029	92.12
360.256	76.12
360.483	89.12
360.709	102.12
360.936	93.12
361.163	81.12
361.39	90.12
361.616	78.12
361.843	79.12
362.07	89.12
362.296	82.12
362.523	99.12
362.749	87.12
362.976	116.12
363.203	108.12
363.429	96.12
363.656	100.12
363.882	90.12
364.109	101.12
364.335	113.12
364.562	122.12
364.788	88.12
365.015	92.12
365.241	99.12
365.468	93.12
365.694	87.12
365.92	80.12
366.147	69.12
366.373	82.12
366.599	74.12
366.826	77.12
367.052	81.12
367.278	78.12
367.505	89.12
367.731	85.12
367.957	88.12
368.184	99.12
368.41	93.12
368.636	94.12
368.862	91.12
369.089	88.12
369.315	94.12
369.541	80.12
369.767	90.12
369.993	74.12
370.219	88.12
370.445	87.12
370.672	82.12
370.898	88.12
371.124	64.12
371.35	82.12
371.576	89.12
371.802	94.12
372.028	88.12
372.254	86.12
372.48	94.12
372.706	78.12
372.932	77.12
373.158	90.12
373.384	91.12
373.61	102.12
373.835	89.12
374.061	87.12
374.287	85.12
374.513	84.12
374.739	85.12
374.965	97.12
375.191	94.12
375.416	92.12
375.642	85.12
375.868	84.12
376.094	84.12
376.319	90.12
376.545	85.12
376.771	85.12
376.997	93.12
377.222	85.12
377.448	84.12
377.674	85.12
377.899	86.12
378.125	84.12
378.35	89.12
378.576	61.12
378.802	85.12
379.027	89.12
379.253	95.12
379.478	69.12
379.704	80.12
379.929	74.12
380.155	91.12
380.38	81.12
380.606	82.12
380.831	76.12
381.057	87.12
381.282	83.12
381.507	81.12
381.733	84.12
381.958	75.12
382.184	83.12
382.409	105.12
382.634	85.12
382.86	91.12
383.085	87.12
383.31	99.12
383.535	84.12
383.761	86.12
383.986	83.12
384.211	89.12
384.436	69.12
384.662	81.12
384.887	94.12
385.112	85.12
385.337	88.12
385.562	104.12
385.787	72.12
386.013	89.12
386.238	93.12
386.463	89.12
386.688	99.12
386.913	92.12
387.138	99.12
387.363	80.12
387.588	98.12
387.813	89.12
388.038	92.12
388.263	90.12
388.488	96.12
388.713	86.12
388.938	94.12
389.163	80.12
389.387	84.12
389.612	86.12
389.837	83.12
390.062	79.12
390.287	92.12
390.512	72.12
390.736	76.12
390.961	91.12
391.186	79.12
391.411	81.12
391.636	78.12
391.86	90.12
392.085	97.12
392.31	102.12
392.534	107.12
392.759	106.12
392.984	130.12
393.208	189.12
393.433	277.12
393.658	218.12
393.882	133.12
394.107	104.12
394.331	96.12
394.556	98.12
394.78	88.12
395.005	98.12
395.229	97.12
395.454	105.12
395.678	96.12
395.903	117.12
396.127	112.12
396.352	109.12
396.576	142.12
396.801	198.12
397.025	229.12
397.249	152.12
397.474	131.12
397.698	104.12
397.922	82.12
398.147	83.12
398.371	99.12
398.595	75.12
398.82	93.12
399.044	98.12
399.268	98.12
399.492	75.12
399.717	80.12
399.941	98.12
400.165	87.12
400.389	87.12
400.613	88.12
400.837	81.12
401.062	69.12
401.286	85.12
401.51	75.12
401.734	87.12
401.958	88.12
402.182	73.12
402.406	84.12
402.63	78.12
402.854	92.12
403.078	97.12
403.302	98.12
403.526	96.12
403.75	96.12
403.974	101.12
404.198	82.12
404.422	94.12
404.645	93.12
404.869	94.12
405.093	84.12
405.317	78.12
405.541	83.12
405.765	62.12
405.988	81.12
406.212	88.12
406.436	89.12
406.66	88.12
406.883	74.12
407.107	92.12
407.331	92.12
407.555	103.12
407.778	86.12
408.002	81.12
408.226	88.12
408.449	77.12
408.673	89.12
408.896	82.12
409.12	78.12
409.344	89.12
409.567	100.12
409.791	104.12
410.014	100.12
410.238	96.12
410.461	82.12
410.685	78.12
410.908	82.12
411.132	98.12
411.355	72.12
411.578	83.12
411.802	82.12
412.025	84.12
412.249	93.12
412.472	76.12
412.695	72.12
412.919	86.12
413.142	89.12
413.365	101.12
413.589	86.12
413.812	81.12
414.035	82.12
414.258	90.12
414.482	90.12
414.705	80.12
414.928	84.12
415.151	93.12
415.374	82.12
415.597	74.12
415.821	79.12
416.044	86.12
416.267	80.12
416.49	89.12
416.713	86.12
416.936	76.12
417.159	92.12
417.382	86.12
417.605	90.12
417.828	72.12
418.051	81.12
418.274	90.12
418.497	79.12
418.72	73.12
418.943	77.12
419.166	72.12
419.389	92.12
419.611	77.12
419.834	89.12
420.057	90.12
420.28	88.12
420.503	95.12
420.726	94.12
420.948	88.12
421.171	94.12
421.394	99.12
421.617	115.12
421.839	109.12
422.062	104.12
422.285	152.12
422.507	247.12
422.73	293.12
422.953	289.12
423.175	196.12
423.398	145.12
423.621	120.12
423.843	110.12
424.066	95.12
424.288	82.12
424.511	85.12
424.733	81.12
424.956	82.12
425.178	90.12
425.401	88.12
425.623	73.12
425.846	84.12
426.068	90.12
426.291	80.12
426.513	84.12
426.735	96.12
426.958	83.12
427.18	87.12
427.402	89.12
427.625	86.12
427.847	90.12
428.069	97.12
428.292	107.12
428.514	134.12
428.736	110.12
428.958	130.12
429.181	113.12
429.403	84.12
429.625	94.12
429.847	107.12
430.069	148.12
430.292	156.12
430.514	169.12
430.736	130.12
430.958	127.12
431.18	94.12
431.402	89.12
431.624	93.12
431.846	110.12
432.068	118.12
432.29	96.12
432.512	93.12
432.734	97.12
432.956	79.12
433.178	87.12
433.4	95.12
433.622	78.12
433.844	92.12
434.066	82.12
434.287	80.12
434.509	78.12
434.731	99.12
434.953	88.12
435.175	79.12
435.397	74.12
435.618	81.12
435.84	86.12
436.062	89.12
436.284	74.12
436.505	86.12
436.727	77.12
436.949	100.12
437.17	84.12
437.392	77.12
437.614	96.12
437.835	83.12
438.057	80.12
438.278	64.12
438.5	97.12
438.721	82.12
438.943	88.12
439.165	77.12
439.386	83.12
439.608	89.12
439.829	89.12
440.05	93.12
440.272	74.12
440.493	98.12
440.715	89.12
440.936	75.12
441.158	89.12
441.379	68.12
441.6	77.12
441.822	87.12
442.043	86.12
442.264	92.12
442.486	117.12
442.707	159.12
442.928	114.12
443.149	111.12
443.371	124.12
443.592	207.12
443.813	200.12
444.034	106.12
444.255	86.12
444.476	93.12
444.698	105.12
444.919	86.12
445.14	195.12
445.361	189.12
445.582	251.12
445.803	223.12
446.024	105.12
446.245	97.12
446.466	85.12
446.687	81.12
446.908	92.12
447.129	84.12
447.35	71.12
447.571	74.12
447.792	79.12
448.013	89.12
448.234	82.12
448.455	90.12
448.675	74.12
448.896	91.12
449.117	83.12
449.338	84.12
449.559	90.12
449.779	82.12
450	71.12
450.221	66.12
450.442	90.12
450.662	80.12
450.883	95.12
451.104	85.12
451.324	79.12
451.545	76.12
451.766	85.12
451.986	81.12
452.207	76.12
452.428	98.12
452.648	93.12
452.869	104.12
453.089	88.12
453.31	79.12
453.53	84.12
453.751	82.12
453.971	88.12
454.192	93.12
454.412	93.12
454.633	80.12
454.853	80.12
455.073	85.12
455.294	80.12
455.514	87.12
455.734	97.12
455.955	85.12
456.175	83.12
456.395	78.12
456.616	79.12
456.836	84.12
457.056	86.12
457.276	91.12
457.497	94.12
457.717	97.12
457.937	104.12
458.157	118.12
458.377	130.12
458.598	128.12
458.818	133.12
459.038	110.12
459.258	77.12
459.478	96.12
459.698	89.12
459.918	89.12
460.138	84.12
460.358	92.12
460.578	100.12
460.798	105.12
461.018	118.12
461.238	82.12
461.458	82.12
461.678	85.12
461.898	81.12
462.118	84.12
462.338	78.12
462.558	102.12
462.777	80.12
462.997	78.12
463.217	67.12
463.437	74.12
463.657	79.12
463.876	76.12
464.096	91.12
464.316	82.12
464.536	80.12
464.755	83.12
464.975	76.12
465.195	77.12
465.414	72.12
465.634	76.12
465.854	88.12
466.073	90.12
466.293	78.12
466.512	76.12
466.732	74.12
466.951	82.12
467.171	85.12
467.391	90.12
467.61	67.12
467.829	86.12
468.049	85.12
468.268	85.12
468.488	79.12
468.707	85.12
468.927	95.12
469.146	86.12
469.365	77.12
469.585	93.12
469.804	77.12
470.023	73.12
470.243	77.12
470.462	70.12
470.681	74.12
470.901	91.12
471.12	82.12
471.339	72.12
471.558	62.12
471.777	83.12
471.997	88.12
472.216	79.12
472.435	80.12
472.654	84.12
472.873	92.12
473.092	94.12
473.311	82.12
473.53	68.12
473.749	97.12
473.968	87.12
474.187	84.12
474.406	92.12
474.625	92.12
474.844	83.12
475.063	86.12
475.282	77.12
475.501	74.12
475.72	95.12
475.939	82.12
476.158	75.12
476.377	73.12
476.596	80.12
476.814	88.12
477.033	80.12
477.252	89.12
477.471	81.12
477.69	97.12
477.908	72.12
478.127	75.12
478.346	84.12
478.564	84.12
478.783	91.12
479.002	86.12
479.22	76.12
479.439	91.12
479.658	78.12
479.876	99.12
480.095	94.12
480.313	84.12
480.532	69.12
480.751	85.12
480.969	82.12
481.188	93.12
481.406	96.12
481.624	78.12
481.843	76.12
482.061	74.12
482.28	92.12
482.498	79.12
482.717	85.12
482.935	85.12
483.153	78.12
483.372	74.12
483.59	85.12
483.808	83.12
484.027	83.12
484.245	86.12
484.463	88.12
484.681	84.12
484.9	113.12
485.118	104.12
485.336	60.12
485.554	84.12
485.772	73.12
485.99	89.12
486.209	90.12
486.427	88.12
486.645	94.12
486.863	89.12
487.081	89.12
487.299	81.12
487.517	98.12
487.735	121.12
487.953	185.12
488.171	135.12
488.389	84.12
488.607	83.12
488.825	93.12
489.043	89.12
489.261	84.12
489.479	81.12
489.696	81.12
489.914	78.12
490.132	85.12
490.35	79.12
490.568	89.12
490.786	101.12
491.003	87.12
491.221	90.12
491.439	86.12
491.657	85.12
491.874	90.12
492.092	90.12
492.31	69.12
492.527	72.12
492.745	90.12
492.963	89.12
493.18	95.12
493.398	86.12
493.615	69.12
493.833	91.12
494.05	78.12
494.268	85.12
494.485	90.12
494.703	86.12
494.92	90.12
495.138	82.12
495.355	85.12
495.573	102.12
495.79	98.12
496.008	95.12
496.225	77.12
496.442	77.12
496.66	77.12
496.877	77.12
497.094	79.12
497.312	84.12
497.529	95.12
497.746	72.12
497.963	89.12
498.181	84.12
498.398	91.12
498.615	81.12
498.832	85.12
499.049	87.12
499.267	94.12
499.484	86.12
499.701	91.12
499.918	83.12
500.135	81.12
500.352	85.12
500.569	80.12
500.786	81.12
501.003	81.12
501.22	89.12
501.437	86.12
501.654	72.12
501.871	88.12
502.088	91.12
502.305	92.12
502.522	99.12
502.739	86.12
502.956	84.12
503.172	88.12
503.389	102.12
503.606	90.12
503.823	94.12
504.04	97.12
504.256	130.12
504.473	133.12
504.69	110.12
504.907	96.12
505.123	85.12
505.34	91.12
505.557	81.12
505.773	77.12
505.99	85.12
506.207	92.12
506.423	92.12
506.64	99.12
506.856	80.12
507.073	69.12
507.289	78.12
507.506	78.12
507.722	85.12
507.939	84.12
508.155	87.12
508.372	72.12
508.588	97.12
508.805	84.12
509.021	87.12
509.238	90.12
509.454	89.12
509.67	83.12
509.887	89.12
510.103	74.12
510.319	84.12
510.536	96.12
510.752	92.12
510.968	76.12
511.184	89.12
511.401	94.12
511.617	77.12
511.833	86.12
512.049	88.12
512.265	81.12
512.481	79.12
512.698	85.12
512.914	88.12
513.13	80.12
513.346	79.12
513.562	90.12
513.778	88.12
513.994	85.12
514.21	84.12
514.426	85.12
514.642	77.12
514.858	108.12
515.074	72.12
515.29	87.12
515.506	86.12
515.721	94.12
515.937	98.12
516.153	86.12
516.369	79.12
516.585	93.12
516.801	92.12
517.016	74.12
517.232	78.12
517.448	83.12
517.664	92.12
517.879	85.12
518.095	86.12
518.311	98.12
518.527	93.12
518.742	106.12
