Data from CBS_1_HRD10591_00025.txt Node
Date: Mon Jan 19 14:04:01 EST 2026
User: Yrep
Spectrometer: HR+D1059
Trigger mode: 1
Integration Time (sec): 1.000000E-1
Scans to average: 1
Electric dark correction enabled: true
Nonlinearity correction enabled: false
Boxcar width: 0
XAxis mode: Wavelengths
Number of Pixels in Spectrum: 2048
>>>>>Begin Spectral Data<<<<<
223.165	-16.5
223.4	-16.5
223.635	-16.5
223.869	-14.5
224.104	-13.5
224.338	-18.5
224.573	-6.5
224.808	-9.5
225.042	-12.5
225.277	-6.5
225.511	-10.5
225.746	-1.5
225.98	1.5
226.215	8.5
226.449	12.5
226.683	16.5
226.918	36.5
227.152	34.5
227.387	39.5
227.621	43.5
227.856	49.5
228.09	39.5
228.324	59.5
228.559	58.5
228.793	58.5
229.027	57.5
229.262	57.5
229.496	63.5
229.73	64.5
229.964	62.5
230.199	67.5
230.433	69.5
230.667	75.5
230.901	76.5
231.136	87.5
231.37	70.5
231.604	81.5
231.838	67.5
232.072	73.5
232.306	83.5
232.541	77.5
232.775	91.5
233.009	82.5
233.243	81.5
233.477	99.5
233.711	79.5
233.945	77.5
234.179	69.5
234.413	79.5
234.647	90.5
234.881	75.5
235.115	81.5
235.349	89.5
235.583	88.5
235.817	81.5
236.051	86.5
236.285	73.5
236.519	79.5
236.753	67.5
236.987	70.5
237.221	60.5
237.455	72.5
237.689	70.5
237.922	80.5
238.156	79.5
238.39	79.5
238.624	73.5
238.858	75.5
239.091	71.5
239.325	66.5
239.559	76.5
239.793	68.5
240.027	96.5
240.26	70.5
240.494	75.5
240.728	87.5
240.961	65.5
241.195	67.5
241.429	64.5
241.662	69.5
241.896	74.5
242.13	79.5
242.363	61.5
242.597	73.5
242.83	71.5
243.064	86.5
243.298	84.5
243.531	76.5
243.765	83.5
243.998	64.5
244.232	64.5
244.465	82.5
244.699	95.5
244.932	77.5
245.166	67.5
245.399	75.5
245.633	64.5
245.866	79.5
246.099	78.5
246.333	76.5
246.566	65.5
246.8	86.5
247.033	65.5
247.266	68.5
247.5	74.5
247.733	78.5
247.966	81.5
248.2	85.5
248.433	80.5
248.666	64.5
248.899	61.5
249.133	67.5
249.366	83.5
249.599	71.5
249.832	67.5
250.066	70.5
250.299	93.5
250.532	81.5
250.765	91.5
250.998	72.5
251.231	70.5
251.465	54.5
251.698	75.5
251.931	85.5
252.164	77.5
252.397	63.5
252.63	70.5
252.863	74.5
253.096	74.5
253.329	62.5
253.562	75.5
253.795	86.5
254.028	86.5
254.261	66.5
254.494	64.5
254.727	79.5
254.96	69.5
255.193	89.5
255.426	74.5
255.659	74.5
255.892	56.5
256.124	79.5
256.357	72.5
256.59	92.5
256.823	80.5
257.056	78.5
257.289	94.5
257.521	77.5
257.754	71.5
257.987	73.5
258.22	80.5
258.452	72.5
258.685	71.5
258.918	85.5
259.151	80.5
259.383	71.5
259.616	88.5
259.849	74.5
260.081	77.5
260.314	73.5
260.547	94.5
260.779	91.5
261.012	87.5
261.244	78.5
261.477	79.5
261.71	83.5
261.942	85.5
262.175	65.5
262.407	65.5
262.64	73.5
262.872	74.5
263.105	81.5
263.337	88.5
263.57	82.5
263.802	79.5
264.035	70.5
264.267	79.5
264.499	85.5
264.732	79.5
264.964	66.5
265.197	65.5
265.429	71.5
265.661	74.5
265.894	71.5
266.126	69.5
266.358	87.5
266.591	78.5
266.823	84.5
267.055	76.5
267.287	84.5
267.52	78.5
267.752	75.5
267.984	78.5
268.216	71.5
268.448	84.5
268.681	77.5
268.913	79.5
269.145	86.5
269.377	67.5
269.609	72.5
269.841	93.5
270.073	83.5
270.306	80.5
270.538	86.5
270.77	77.5
271.002	84.5
271.234	74.5
271.466	79.5
271.698	71.5
271.93	69.5
272.162	72.5
272.394	91.5
272.626	87.5
272.858	81.5
273.09	73.5
273.322	89.5
273.553	85.5
273.785	74.5
274.017	75.5
274.249	75.5
274.481	76.5
274.713	72.5
274.945	83.5
275.176	75.5
275.408	91.5
275.64	84.5
275.872	85.5
276.104	77.5
276.335	80.5
276.567	78.5
276.799	83.5
277.031	85.5
277.262	88.5
277.494	86.5
277.726	81.5
277.957	86.5
278.189	88.5
278.421	85.5
278.652	79.5
278.884	86.5
279.115	63.5
279.347	87.5
279.579	77.5
279.81	85.5
280.042	78.5
280.273	85.5
280.505	80.5
280.736	78.5
280.968	88.5
281.199	89.5
281.431	79.5
281.662	91.5
281.894	88.5
282.125	85.5
282.356	81.5
282.588	83.5
282.819	75.5
283.051	80.5
283.282	74.5
283.513	81.5
283.745	73.5
283.976	93.5
284.207	79.5
284.439	86.5
284.67	80.5
284.901	70.5
285.132	76.5
285.364	81.5
285.595	79.5
285.826	97.5
286.057	84.5
286.288	92.5
286.52	79.5
286.751	85.5
286.982	71.5
287.213	76.5
287.444	79.5
287.675	78.5
287.906	81.5
288.138	85.5
288.369	82.5
288.6	69.5
288.831	91.5
289.062	91.5
289.293	82.5
289.524	82.5
289.755	64.5
289.986	79.5
290.217	84.5
290.448	83.5
290.679	80.5
290.91	79.5
291.141	70.5
291.371	70.5
291.602	79.5
291.833	77.5
292.064	93.5
292.295	88.5
292.526	85.5
292.757	86.5
292.987	62.5
293.218	90.5
293.449	79.5
293.68	85.5
293.91	79.5
294.141	79.5
294.372	83.5
294.603	71.5
294.833	87.5
295.064	92.5
295.295	79.5
295.525	78.5
295.756	81.5
295.987	88.5
296.217	83.5
296.448	87.5
296.679	76.5
296.909	87.5
297.14	75.5
297.37	70.5
297.601	77.5
297.831	79.5
298.062	80.5
298.292	83.5
298.523	71.5
298.753	79.5
298.984	67.5
299.214	94.5
299.445	84.5
299.675	84.5
299.905	93.5
300.136	95.5
300.366	81.5
300.597	88.5
300.827	81.5
301.057	87.5
301.288	91.5
301.518	85.5
301.748	79.5
301.979	99.5
302.209	70.5
302.439	90.5
302.669	72.5
302.9	88.5
303.13	89.5
303.36	87.5
303.59	77.5
303.82	87.5
304.051	91.5
304.281	79.5
304.511	87.5
304.741	79.5
304.971	84.5
305.201	74.5
305.431	79.5
305.661	95.5
305.891	83.5
306.121	93.5
306.352	74.5
306.582	77.5
306.812	77.5
307.042	78.5
307.272	87.5
307.502	95.5
307.731	72.5
307.961	79.5
308.191	97.5
308.421	83.5
308.651	79.5
308.881	86.5
309.111	85.5
309.341	97.5
309.571	81.5
309.8	70.5
310.03	98.5
310.26	78.5
310.49	98.5
310.72	76.5
310.949	87.5
311.179	81.5
311.409	74.5
311.639	86.5
311.868	95.5
312.098	87.5
312.328	89.5
312.557	82.5
312.787	97.5
313.017	83.5
313.246	84.5
313.476	99.5
313.706	81.5
313.935	79.5
314.165	84.5
314.394	85.5
314.624	68.5
314.853	90.5
315.083	81.5
315.312	81.5
315.542	85.5
315.771	83.5
316.001	86.5
316.23	98.5
316.46	94.5
316.689	80.5
316.919	69.5
317.148	97.5
317.377	83.5
317.607	73.5
317.836	85.5
318.065	79.5
318.295	89.5
318.524	81.5
318.753	75.5
318.983	79.5
319.212	90.5
319.441	71.5
319.67	85.5
319.9	96.5
320.129	87.5
320.358	83.5
320.587	83.5
320.816	95.5
321.046	102.5
321.275	80.5
321.504	75.5
321.733	86.5
321.962	87.5
322.191	92.5
322.42	71.5
322.649	89.5
322.878	79.5
323.108	87.5
323.337	84.5
323.566	80.5
323.795	87.5
324.024	89.5
324.253	90.5
324.482	85.5
324.71	89.5
324.939	67.5
325.168	88.5
325.397	80.5
325.626	83.5
325.855	73.5
326.084	82.5
326.313	93.5
326.542	75.5
326.77	77.5
326.999	76.5
327.228	77.5
327.457	92.5
327.686	78.5
327.914	76.5
328.143	88.5
328.372	69.5
328.6	88.5
328.829	80.5
329.058	92.5
329.287	88.5
329.515	91.5
329.744	94.5
329.972	70.5
330.201	91.5
330.43	82.5
330.658	100.5
330.887	91.5
331.115	83.5
331.344	81.5
331.572	87.5
331.801	94.5
332.03	81.5
332.258	81.5
332.486	84.5
332.715	81.5
332.943	73.5
333.172	96.5
333.4	81.5
333.629	85.5
333.857	94.5
334.085	98.5
334.314	78.5
334.542	84.5
334.771	85.5
334.999	98.5
335.227	85.5
335.455	88.5
335.684	103.5
335.912	91.5
336.14	92.5
336.369	85.5
336.597	92.5
336.825	79.5
337.053	83.5
337.281	76.5
337.51	91.5
337.738	79.5
337.966	89.5
338.194	85.5
338.422	86.5
338.65	91.5
338.878	86.5
339.106	99.5
339.334	92.5
339.562	92.5
339.79	85.5
340.018	81.5
340.246	93.5
340.474	83.5
340.702	84.5
340.93	79.5
341.158	72.5
341.386	80.5
341.614	101.5
341.842	86.5
342.07	87.5
342.298	83.5
342.526	82.5
342.754	88.5
342.981	79.5
343.209	89.5
343.437	89.5
343.665	78.5
343.893	76.5
344.12	86.5
344.348	79.5
344.576	88.5
344.804	86.5
345.031	74.5
345.259	98.5
345.487	92.5
345.714	83.5
345.942	77.5
346.17	75.5
346.397	94.5
346.625	83.5
346.853	84.5
347.08	80.5
347.308	91.5
347.535	89.5
347.763	107.5
347.99	75.5
348.218	77.5
348.445	87.5
348.673	83.5
348.9	99.5
349.128	89.5
349.355	73.5
349.583	82.5
349.81	82.5
350.037	81.5
350.265	76.5
350.492	83.5
350.72	79.5
350.947	84.5
351.174	79.5
351.402	100.5
351.629	80.5
351.856	83.5
352.083	89.5
352.311	83.5
352.538	76.5
352.765	80.5
352.992	101.5
353.22	85.5
353.447	79.5
353.674	91.5
353.901	84.5
354.128	88.5
354.355	94.5
354.583	93.5
354.81	84.5
355.037	82.5
355.264	70.5
355.491	70.5
355.718	79.5
355.945	87.5
356.172	83.5
356.399	86.5
356.626	69.5
356.853	72.5
357.08	73.5
357.307	85.5
357.534	90.5
357.761	100.5
357.988	89.5
358.215	85.5
358.441	90.5
358.668	93.5
358.895	77.5
359.122	71.5
359.349	84.5
359.576	92.5
359.802	96.5
360.029	82.5
360.256	80.5
360.483	71.5
360.709	83.5
360.936	95.5
361.163	89.5
361.39	87.5
361.616	81.5
361.843	92.5
362.07	87.5
362.296	86.5
362.523	95.5
362.749	86.5
362.976	108.5
363.203	105.5
363.429	85.5
363.656	100.5
363.882	107.5
364.109	93.5
364.335	107.5
364.562	129.5
364.788	101.5
365.015	91.5
365.241	93.5
365.468	87.5
365.694	91.5
365.92	81.5
366.147	79.5
366.373	99.5
366.599	79.5
366.826	83.5
367.052	85.5
367.278	88.5
367.505	83.5
367.731	88.5
367.957	79.5
368.184	69.5
368.41	69.5
368.636	96.5
368.862	89.5
369.089	80.5
369.315	81.5
369.541	99.5
369.767	73.5
369.993	72.5
370.219	79.5
370.445	99.5
370.672	87.5
370.898	85.5
371.124	82.5
371.35	81.5
371.576	85.5
371.802	88.5
372.028	94.5
372.254	91.5
372.48	73.5
372.706	92.5
372.932	75.5
373.158	87.5
373.384	88.5
373.61	84.5
373.835	90.5
374.061	88.5
374.287	77.5
374.513	100.5
374.739	95.5
374.965	79.5
375.191	91.5
375.416	75.5
375.642	88.5
375.868	80.5
376.094	82.5
376.319	86.5
376.545	92.5
376.771	95.5
376.997	91.5
377.222	94.5
377.448	86.5
377.674	83.5
377.899	91.5
378.125	77.5
378.35	79.5
378.576	96.5
378.802	79.5
379.027	89.5
379.253	89.5
379.478	87.5
379.704	91.5
379.929	93.5
380.155	91.5
380.38	79.5
380.606	72.5
380.831	72.5
381.057	67.5
381.282	92.5
381.507	91.5
381.733	87.5
381.958	76.5
382.184	85.5
382.409	71.5
382.634	76.5
382.86	91.5
383.085	79.5
383.31	83.5
383.535	97.5
383.761	88.5
383.986	99.5
384.211	80.5
384.436	76.5
384.662	87.5
384.887	85.5
385.112	74.5
385.337	93.5
385.562	81.5
385.787	91.5
386.013	83.5
386.238	72.5
386.463	79.5
386.688	93.5
386.913	98.5
387.138	78.5
387.363	84.5
387.588	88.5
387.813	102.5
388.038	87.5
388.263	91.5
388.488	93.5
388.713	94.5
388.938	79.5
389.163	90.5
389.387	91.5
389.612	81.5
389.837	89.5
390.062	85.5
390.287	81.5
390.512	73.5
390.736	97.5
390.961	95.5
391.186	81.5
391.411	95.5
391.636	85.5
391.86	79.5
392.085	87.5
392.31	91.5
392.534	93.5
392.759	118.5
392.984	109.5
393.208	164.5
393.433	224.5
393.658	171.5
393.882	111.5
394.107	96.5
394.331	107.5
394.556	113.5
394.78	100.5
395.005	95.5
395.229	95.5
395.454	99.5
395.678	95.5
395.903	107.5
396.127	109.5
396.352	110.5
396.576	147.5
396.801	195.5
397.025	198.5
397.249	124.5
397.474	107.5
397.698	96.5
397.922	79.5
398.147	93.5
398.371	88.5
398.595	89.5
398.82	83.5
399.044	79.5
399.268	77.5
399.492	73.5
399.717	70.5
399.941	95.5
400.165	90.5
400.389	93.5
400.613	97.5
400.837	80.5
401.062	81.5
401.286	84.5
401.51	71.5
401.734	83.5
401.958	83.5
402.182	90.5
402.406	70.5
402.63	85.5
402.854	85.5
403.078	81.5
403.302	89.5
403.526	99.5
403.75	70.5
403.974	79.5
404.198	82.5
404.422	85.5
404.645	96.5
404.869	87.5
405.093	75.5
405.317	75.5
405.541	88.5
405.765	81.5
405.988	77.5
406.212	94.5
406.436	78.5
406.66	85.5
406.883	77.5
407.107	89.5
407.331	91.5
407.555	81.5
407.778	78.5
408.002	90.5
408.226	94.5
408.449	87.5
408.673	85.5
408.896	93.5
409.12	74.5
409.344	87.5
409.567	103.5
409.791	95.5
410.014	88.5
410.238	92.5
410.461	97.5
410.685	86.5
410.908	93.5
411.132	99.5
411.355	64.5
411.578	82.5
411.802	71.5
412.025	72.5
412.249	88.5
412.472	90.5
412.695	92.5
412.919	87.5
413.142	90.5
413.365	75.5
413.589	81.5
413.812	91.5
414.035	83.5
414.258	84.5
414.482	83.5
414.705	78.5
414.928	95.5
415.151	70.5
415.374	69.5
415.597	77.5
415.821	69.5
416.044	79.5
416.267	87.5
416.49	92.5
416.713	89.5
416.936	79.5
417.159	78.5
417.382	78.5
417.605	82.5
417.828	87.5
418.051	75.5
418.274	88.5
418.497	93.5
418.72	96.5
418.943	93.5
419.166	81.5
419.389	95.5
419.611	91.5
419.834	83.5
420.057	86.5
420.28	87.5
420.503	76.5
420.726	92.5
420.948	86.5
421.171	89.5
421.394	105.5
421.617	109.5
421.839	108.5
422.062	128.5
422.285	139.5
422.507	204.5
422.73	277.5
422.953	264.5
423.175	195.5
423.398	142.5
423.621	117.5
423.843	103.5
424.066	93.5
424.288	85.5
424.511	75.5
424.733	107.5
424.956	82.5
425.178	87.5
425.401	102.5
425.623	94.5
425.846	94.5
426.068	95.5
426.291	94.5
426.513	86.5
426.735	103.5
426.958	84.5
427.18	97.5
427.402	95.5
427.625	81.5
427.847	79.5
428.069	91.5
428.292	109.5
428.514	116.5
428.736	107.5
428.958	111.5
429.181	104.5
429.403	97.5
429.625	87.5
429.847	115.5
430.069	139.5
430.292	156.5
430.514	134.5
430.736	116.5
430.958	112.5
431.18	104.5
431.402	81.5
431.624	73.5
431.846	111.5
432.068	112.5
432.29	82.5
432.512	81.5
432.734	96.5
432.956	85.5
433.178	85.5
433.4	84.5
433.622	67.5
433.844	102.5
434.066	89.5
434.287	95.5
434.509	78.5
434.731	90.5
434.953	81.5
435.175	97.5
435.397	82.5
435.618	86.5
435.84	88.5
436.062	79.5
436.284	71.5
436.505	86.5
436.727	89.5
436.949	77.5
437.17	79.5
437.392	87.5
437.614	83.5
437.835	90.5
438.057	84.5
438.278	61.5
438.5	83.5
438.721	75.5
438.943	86.5
439.165	77.5
439.386	88.5
439.608	77.5
439.829	97.5
440.05	79.5
440.272	72.5
440.493	92.5
440.715	87.5
440.936	93.5
441.158	81.5
441.379	82.5
441.6	92.5
441.822	93.5
442.043	83.5
442.264	87.5
442.486	113.5
442.707	132.5
442.928	118.5
443.149	125.5
443.371	136.5
443.592	200.5
443.813	178.5
444.034	102.5
444.255	83.5
444.476	90.5
444.698	84.5
444.919	72.5
445.14	194.5
445.361	192.5
445.582	207.5
445.803	203.5
446.024	107.5
446.245	93.5
446.466	80.5
446.687	64.5
446.908	79.5
447.129	92.5
447.35	91.5
447.571	90.5
447.792	87.5
448.013	76.5
448.234	76.5
448.455	100.5
448.675	79.5
448.896	67.5
449.117	91.5
449.338	71.5
449.559	93.5
449.779	87.5
450	92.5
450.221	71.5
450.442	86.5
450.662	83.5
450.883	79.5
451.104	91.5
451.324	73.5
451.545	94.5
451.766	79.5
451.986	89.5
452.207	80.5
452.428	75.5
452.648	94.5
452.869	98.5
453.089	91.5
453.31	90.5
453.53	80.5
453.751	90.5
453.971	86.5
454.192	81.5
454.412	86.5
454.633	100.5
454.853	81.5
455.073	80.5
455.294	79.5
455.514	81.5
455.734	83.5
455.955	79.5
456.175	86.5
456.395	68.5
456.616	82.5
456.836	69.5
457.056	80.5
457.276	91.5
457.497	79.5
457.717	85.5
457.937	102.5
458.157	121.5
458.377	116.5
458.598	116.5
458.818	138.5
459.038	94.5
459.258	80.5
459.478	79.5
459.698	80.5
459.918	86.5
460.138	79.5
460.358	65.5
460.578	95.5
460.798	99.5
461.018	108.5
461.238	93.5
461.458	91.5
461.678	78.5
461.898	85.5
462.118	88.5
462.338	95.5
462.558	83.5
462.777	93.5
462.997	84.5
463.217	84.5
463.437	75.5
463.657	94.5
463.876	84.5
464.096	77.5
464.316	73.5
464.536	71.5
464.755	79.5
464.975	82.5
465.195	103.5
465.414	78.5
465.634	96.5
465.854	82.5
466.073	83.5
466.293	77.5
466.512	81.5
466.732	83.5
466.951	89.5
467.171	88.5
467.391	80.5
467.61	77.5
467.829	92.5
468.049	80.5
468.268	84.5
468.488	84.5
468.707	86.5
468.927	86.5
469.146	86.5
469.365	95.5
469.585	86.5
469.804	82.5
470.023	85.5
470.243	93.5
470.462	80.5
470.681	85.5
470.901	79.5
471.12	71.5
471.339	84.5
471.558	89.5
471.777	84.5
471.997	82.5
472.216	79.5
472.435	69.5
472.654	71.5
472.873	95.5
473.092	77.5
473.311	84.5
473.53	80.5
473.749	89.5
473.968	81.5
474.187	78.5
474.406	73.5
474.625	81.5
474.844	83.5
475.063	88.5
475.282	88.5
475.501	87.5
475.72	96.5
475.939	99.5
476.158	91.5
476.377	82.5
476.596	75.5
476.814	90.5
477.033	79.5
477.252	77.5
477.471	92.5
477.69	84.5
477.908	87.5
478.127	94.5
478.346	85.5
478.564	86.5
478.783	82.5
479.002	72.5
479.22	98.5
479.439	88.5
479.658	81.5
479.876	86.5
480.095	84.5
480.313	87.5
480.532	83.5
480.751	80.5
480.969	79.5
481.188	82.5
481.406	82.5
481.624	87.5
481.843	97.5
482.061	78.5
482.28	89.5
482.498	91.5
482.717	91.5
482.935	82.5
483.153	89.5
483.372	101.5
483.59	102.5
483.808	92.5
484.027	86.5
484.245	69.5
484.463	91.5
484.681	87.5
484.9	83.5
485.118	77.5
485.336	81.5
485.554	90.5
485.772	94.5
485.99	87.5
486.209	74.5
486.427	86.5
486.645	87.5
486.863	89.5
487.081	95.5
487.299	87.5
487.517	88.5
487.735	107.5
487.953	148.5
488.171	141.5
488.389	104.5
488.607	83.5
488.825	79.5
489.043	79.5
489.261	85.5
489.479	85.5
489.696	77.5
489.914	81.5
490.132	76.5
490.35	78.5
490.568	85.5
490.786	86.5
491.003	85.5
491.221	87.5
491.439	91.5
491.657	94.5
491.874	88.5
492.092	99.5
492.31	85.5
492.527	80.5
492.745	85.5
492.963	85.5
493.18	80.5
493.398	77.5
493.615	88.5
493.833	92.5
494.05	81.5
494.268	87.5
494.485	100.5
494.703	82.5
494.92	85.5
495.138	81.5
495.355	78.5
495.573	89.5
495.79	84.5
496.008	89.5
496.225	80.5
496.442	91.5
496.66	98.5
496.877	80.5
497.094	98.5
497.312	89.5
497.529	79.5
497.746	73.5
497.963	81.5
498.181	83.5
498.398	72.5
498.615	80.5
498.832	88.5
499.049	79.5
499.267	104.5
499.484	75.5
499.701	91.5
499.918	89.5
500.135	83.5
500.352	84.5
500.569	92.5
500.786	88.5
501.003	81.5
501.22	87.5
501.437	91.5
501.654	94.5
501.871	86.5
502.088	74.5
502.305	86.5
502.522	86.5
502.739	87.5
502.956	86.5
503.172	86.5
503.389	85.5
503.606	83.5
503.823	88.5
504.04	99.5
504.256	124.5
504.473	131.5
504.69	79.5
504.907	86.5
505.123	77.5
505.34	87.5
505.557	94.5
505.773	90.5
505.99	94.5
506.207	81.5
506.423	79.5
506.64	79.5
506.856	86.5
507.073	87.5
507.289	87.5
507.506	69.5
507.722	64.5
507.939	92.5
508.155	86.5
508.372	73.5
508.588	78.5
508.805	78.5
509.021	89.5
509.238	79.5
509.454	84.5
509.67	82.5
509.887	85.5
510.103	87.5
510.319	79.5
510.536	87.5
510.752	84.5
510.968	79.5
511.184	77.5
511.401	84.5
511.617	83.5
511.833	91.5
512.049	84.5
512.265	72.5
512.481	71.5
512.698	74.5
512.914	73.5
513.13	71.5
513.346	86.5
513.562	100.5
513.778	89.5
513.994	79.5
514.21	85.5
514.426	93.5
514.642	72.5
514.858	84.5
515.074	82.5
515.29	99.5
515.506	84.5
515.721	88.5
515.937	96.5
516.153	83.5
516.369	84.5
516.585	81.5
516.801	93.5
517.016	76.5
517.232	83.5
517.448	105.5
517.664	88.5
517.879	81.5
518.095	79.5
518.311	80.5
518.527	91.5
518.742	90.5
518.958	141.5
519.173	152.5
519.389	113.5
519.605	91.5
519.82	73.5
520.036	76.5
520.251	90.5
520.467	82.5
520.682	88.5
520.898	88.5
521.113	81.5
521.329	88.5
521.544	79.5
521.76	96.5
521.975	79.5
522.19	87.5
522.406	78.5
522.621	91.5
522.836	87.5
523.052	83.5
523.267	71.5
523.482	99.5
523.698	84.5
523.913	85.5
524.128	92.5
524.343	87.5
524.559	92.5
524.774	73.5
524.989	83.5
525.204	100.5
525.419	97.5
525.634	85.5
525.849	97.5
526.064	101.5
526.28	191.5
526.495	253.5
526.71	264.5
526.925	188.5
527.14	227.5
527.355	207.5
527.57	111.5
527.785	92.5
527.999	89.5
528.214	91.5
528.429	87.5
528.644	86.5
528.859	88.5
529.074	103.5
529.289	97.5
529.503	98.5
529.718	92.5
529.933	80.5
530.148	99.5
530.363	103.5
530.577	76.5
530.792	91.5
531.007	95.5
531.221	96.5
531.436	83.5
531.651	102.5
531.865	95.5
532.08	87.5
532.295	99.5
532.509	115.5
532.724	91.5
532.938	94.5
533.153	93.5
533.367	85.5
533.582	95.5
533.796	104.5
534.011	111.5
534.225	126.5
534.44	93.5
534.654	100.5
534.868	113.5
535.083	163.5
535.297	134.5
535.511	104.5
535.726	104.5
535.94	90.5
536.154	98.5
536.369	88.5
536.583	98.5
536.797	108.5
537.011	104.5
537.225	87.5
537.44	97.5
537.654	101.5
537.868	93.5
538.082	93.5
538.296	111.5
538.51	94.5
538.724	85.5
