Data from CBS_1_HRD10591_00042.txt Node
Date: Mon Jan 19 14:04:09 EST 2026
User: Yrep
Spectrometer: HR+D1059
Trigger mode: 1
Integration Time (sec): 1.000000E-1
Scans to average: 1
Electric dark correction enabled: true
Nonlinearity correction enabled: false
Boxcar width: 0
XAxis mode: Wavelengths
Number of Pixels in Spectrum: 2048
>>>>>Begin Spectral Data<<<<<
223.165	-17.56
223.4	-17.56
223.635	-17.56
223.869	-23.56
224.104	-19.56
224.338	-12.56
224.573	-16.56
224.808	-17.56
225.042	-1.56
225.277	-3.56
225.511	4.44
225.746	2.44
225.98	6.44
226.215	17.44
226.449	18.44
226.683	23.44
226.918	11.44
227.152	28.44
227.387	51.44
227.621	34.44
227.856	52.44
228.09	27.44
228.324	54.44
228.559	62.44
228.793	56.44
229.027	75.44
229.262	71.44
229.496	59.44
229.73	75.44
229.964	68.44
230.199	68.44
230.433	70.44
230.667	70.44
230.901	80.44
231.136	78.44
231.37	58.44
231.604	70.44
231.838	73.44
232.072	71.44
232.306	83.44
232.541	71.44
232.775	79.44
233.009	65.44
233.243	78.44
233.477	62.44
233.711	79.44
233.945	76.44
234.179	66.44
234.413	72.44
234.647	79.44
234.881	70.44
235.115	80.44
235.349	70.44
235.583	90.44
235.817	83.44
236.051	87.44
236.285	80.44
236.519	76.44
236.753	65.44
236.987	78.44
237.221	90.44
237.455	89.44
237.689	67.44
237.922	81.44
238.156	78.44
238.39	69.44
238.624	79.44
238.858	72.44
239.091	68.44
239.325	89.44
239.559	78.44
239.793	82.44
240.027	76.44
240.26	69.44
240.494	78.44
240.728	70.44
240.961	69.44
241.195	64.44
241.429	79.44
241.662	85.44
241.896	75.44
242.13	74.44
242.363	66.44
242.597	77.44
242.83	66.44
243.064	84.44
243.298	78.44
243.531	63.44
243.765	91.44
243.998	80.44
244.232	84.44
244.465	80.44
244.699	78.44
244.932	78.44
245.166	69.44
245.399	87.44
245.633	87.44
245.866	92.44
246.099	73.44
246.333	84.44
246.566	77.44
246.8	73.44
247.033	78.44
247.266	59.44
247.5	77.44
247.733	76.44
247.966	72.44
248.2	74.44
248.433	78.44
248.666	72.44
248.899	65.44
249.133	77.44
249.366	84.44
249.599	80.44
249.832	81.44
250.066	66.44
250.299	83.44
250.532	87.44
250.765	79.44
250.998	92.44
251.231	73.44
251.465	72.44
251.698	72.44
251.931	77.44
252.164	72.44
252.397	77.44
252.63	79.44
252.863	70.44
253.096	81.44
253.329	88.44
253.562	71.44
253.795	91.44
254.028	81.44
254.261	63.44
254.494	88.44
254.727	72.44
254.96	68.44
255.193	78.44
255.426	82.44
255.659	67.44
255.892	66.44
256.124	69.44
256.357	74.44
256.59	82.44
256.823	90.44
257.056	70.44
257.289	76.44
257.521	84.44
257.754	63.44
257.987	71.44
258.22	73.44
258.452	73.44
258.685	81.44
258.918	69.44
259.151	85.44
259.383	74.44
259.616	87.44
259.849	59.44
260.081	82.44
260.314	79.44
260.547	84.44
260.779	83.44
261.012	86.44
261.244	76.44
261.477	95.44
261.71	80.44
261.942	67.44
262.175	77.44
262.407	74.44
262.64	82.44
262.872	82.44
263.105	90.44
263.337	82.44
263.57	80.44
263.802	68.44
264.035	71.44
264.267	87.44
264.499	80.44
264.732	84.44
264.964	97.44
265.197	81.44
265.429	73.44
265.661	86.44
265.894	59.44
266.126	75.44
266.358	86.44
266.591	84.44
266.823	85.44
267.055	91.44
267.287	68.44
267.52	71.44
267.752	90.44
267.984	83.44
268.216	80.44
268.448	83.44
268.681	80.44
268.913	66.44
269.145	92.44
269.377	65.44
269.609	71.44
269.841	95.44
270.073	87.44
270.306	70.44
270.538	72.44
270.77	69.44
271.002	76.44
271.234	85.44
271.466	76.44
271.698	66.44
271.93	74.44
272.162	86.44
272.394	76.44
272.626	81.44
272.858	87.44
273.09	78.44
273.322	74.44
273.553	72.44
273.785	80.44
274.017	79.44
274.249	82.44
274.481	86.44
274.713	82.44
274.945	62.44
275.176	66.44
275.408	87.44
275.64	76.44
275.872	77.44
276.104	84.44
276.335	83.44
276.567	68.44
276.799	88.44
277.031	75.44
277.262	81.44
277.494	73.44
277.726	87.44
277.957	77.44
278.189	78.44
278.421	95.44
278.652	85.44
278.884	94.44
279.115	77.44
279.347	75.44
279.579	86.44
279.81	78.44
280.042	84.44
280.273	83.44
280.505	88.44
280.736	81.44
280.968	70.44
281.199	78.44
281.431	88.44
281.662	83.44
281.894	86.44
282.125	83.44
282.356	82.44
282.588	86.44
282.819	82.44
283.051	79.44
283.282	82.44
283.513	78.44
283.745	71.44
283.976	78.44
284.207	82.44
284.439	86.44
284.67	86.44
284.901	89.44
285.132	79.44
285.364	92.44
285.595	99.44
285.826	84.44
286.057	84.44
286.288	63.44
286.52	82.44
286.751	84.44
286.982	72.44
287.213	78.44
287.444	84.44
287.675	79.44
287.906	80.44
288.138	93.44
288.369	86.44
288.6	86.44
288.831	79.44
289.062	95.44
289.293	83.44
289.524	75.44
289.755	87.44
289.986	69.44
290.217	82.44
290.448	89.44
290.679	83.44
290.91	86.44
291.141	86.44
291.371	97.44
291.602	81.44
291.833	84.44
292.064	82.44
292.295	86.44
292.526	79.44
292.757	87.44
292.987	72.44
293.218	88.44
293.449	79.44
293.68	73.44
293.91	78.44
294.141	78.44
294.372	82.44
294.603	82.44
294.833	82.44
295.064	80.44
295.295	85.44
295.525	87.44
295.756	76.44
295.987	90.44
296.217	95.44
296.448	82.44
296.679	82.44
296.909	76.44
297.14	86.44
297.37	94.44
297.601	87.44
297.831	93.44
298.062	78.44
298.292	88.44
298.523	92.44
298.753	79.44
298.984	88.44
299.214	78.44
299.445	86.44
299.675	85.44
299.905	71.44
300.136	80.44
300.366	103.44
300.597	88.44
300.827	79.44
301.057	69.44
301.288	74.44
301.518	76.44
301.748	70.44
301.979	83.44
302.209	91.44
302.439	60.44
302.669	84.44
302.9	86.44
303.13	77.44
303.36	96.44
303.59	82.44
303.82	77.44
304.051	73.44
304.281	78.44
304.511	82.44
304.741	74.44
304.971	94.44
305.201	87.44
305.431	73.44
305.661	83.44
305.891	77.44
306.121	87.44
306.352	79.44
306.582	76.44
306.812	88.44
307.042	77.44
307.272	94.44
307.502	78.44
307.731	84.44
307.961	99.44
308.191	87.44
308.421	80.44
308.651	75.44
308.881	87.44
309.111	75.44
309.341	82.44
309.571	80.44
309.8	82.44
310.03	80.44
310.26	94.44
310.49	90.44
310.72	82.44
310.949	92.44
311.179	97.44
311.409	76.44
311.639	92.44
311.868	87.44
312.098	91.44
312.328	78.44
312.557	81.44
312.787	71.44
313.017	91.44
313.246	74.44
313.476	86.44
313.706	78.44
313.935	72.44
314.165	96.44
314.394	72.44
314.624	77.44
314.853	94.44
315.083	83.44
315.312	97.44
315.542	90.44
315.771	97.44
316.001	96.44
316.23	103.44
316.46	90.44
316.689	76.44
316.919	87.44
317.148	70.44
317.377	80.44
317.607	92.44
317.836	84.44
318.065	108.44
318.295	103.44
318.524	92.44
318.753	79.44
318.983	64.44
319.212	87.44
319.441	83.44
319.67	80.44
319.9	103.44
320.129	92.44
320.358	97.44
320.587	96.44
320.816	87.44
321.046	78.44
321.275	81.44
321.504	106.44
321.733	79.44
321.962	84.44
322.191	83.44
322.42	76.44
322.649	87.44
322.878	73.44
323.108	62.44
323.337	81.44
323.566	92.44
323.795	84.44
324.024	73.44
324.253	81.44
324.482	79.44
324.71	83.44
324.939	76.44
325.168	66.44
325.397	84.44
325.626	74.44
325.855	79.44
326.084	79.44
326.313	95.44
326.542	78.44
326.77	90.44
326.999	66.44
327.228	67.44
327.457	88.44
327.686	93.44
327.914	82.44
328.143	92.44
328.372	84.44
328.6	79.44
328.829	91.44
329.058	85.44
329.287	68.44
329.515	75.44
329.744	84.44
329.972	83.44
330.201	85.44
330.43	76.44
330.658	69.44
330.887	85.44
331.115	81.44
331.344	74.44
331.572	79.44
331.801	76.44
332.03	72.44
332.258	90.44
332.486	84.44
332.715	87.44
332.943	75.44
333.172	77.44
333.4	86.44
333.629	82.44
333.857	77.44
334.085	89.44
334.314	79.44
334.542	82.44
334.771	94.44
334.999	93.44
335.227	86.44
335.455	91.44
335.684	106.44
335.912	75.44
336.14	101.44
336.369	92.44
336.597	78.44
336.825	79.44
337.053	79.44
337.281	100.44
337.51	86.44
337.738	82.44
337.966	94.44
338.194	77.44
338.422	71.44
338.65	90.44
338.878	93.44
339.106	94.44
339.334	91.44
339.562	71.44
339.79	90.44
340.018	74.44
340.246	71.44
340.474	95.44
340.702	92.44
340.93	88.44
341.158	79.44
341.386	68.44
341.614	88.44
341.842	78.44
342.07	85.44
342.298	74.44
342.526	71.44
342.754	87.44
342.981	87.44
343.209	101.44
343.437	99.44
343.665	78.44
343.893	72.44
344.12	80.44
344.348	73.44
344.576	76.44
344.804	74.44
345.031	75.44
345.259	86.44
345.487	96.44
345.714	68.44
345.942	90.44
346.17	82.44
346.397	90.44
346.625	82.44
346.853	69.44
347.08	86.44
347.308	96.44
347.535	84.44
347.763	76.44
347.99	82.44
348.218	74.44
348.445	97.44
348.673	80.44
348.9	86.44
349.128	73.44
349.355	79.44
349.583	81.44
349.81	75.44
350.037	85.44
350.265	88.44
350.492	88.44
350.72	92.44
350.947	73.44
351.174	81.44
351.402	76.44
351.629	72.44
351.856	86.44
352.083	84.44
352.311	84.44
352.538	86.44
352.765	75.44
352.992	87.44
353.22	82.44
353.447	90.44
353.674	84.44
353.901	76.44
354.128	94.44
354.355	94.44
354.583	84.44
354.81	89.44
355.037	85.44
355.264	81.44
355.491	82.44
355.718	79.44
355.945	90.44
356.172	78.44
356.399	84.44
356.626	74.44
356.853	92.44
357.08	86.44
357.307	97.44
357.534	98.44
357.761	88.44
357.988	78.44
358.215	85.44
358.441	77.44
358.668	86.44
358.895	75.44
359.122	78.44
359.349	76.44
359.576	84.44
359.802	76.44
360.029	72.44
360.256	95.44
360.483	72.44
360.709	100.44
360.936	96.44
361.163	82.44
361.39	88.44
361.616	87.44
361.843	78.44
362.07	93.44
362.296	99.44
362.523	104.44
362.749	100.44
362.976	109.44
363.203	123.44
363.429	102.44
363.656	92.44
363.882	88.44
364.109	116.44
364.335	129.44
364.562	147.44
364.788	94.44
365.015	84.44
365.241	95.44
365.468	80.44
365.694	81.44
365.92	70.44
366.147	70.44
366.373	84.44
366.599	86.44
366.826	83.44
367.052	92.44
367.278	78.44
367.505	86.44
367.731	104.44
367.957	78.44
368.184	80.44
368.41	88.44
368.636	78.44
368.862	78.44
369.089	86.44
369.315	85.44
369.541	73.44
369.767	91.44
369.993	78.44
370.219	98.44
370.445	92.44
370.672	88.44
370.898	93.44
371.124	75.44
371.35	65.44
371.576	101.44
371.802	83.44
372.028	70.44
372.254	96.44
372.48	87.44
372.706	82.44
372.932	76.44
373.158	86.44
373.384	80.44
373.61	100.44
373.835	90.44
374.061	90.44
374.287	81.44
374.513	92.44
374.739	101.44
374.965	88.44
375.191	82.44
375.416	93.44
375.642	86.44
375.868	77.44
376.094	77.44
376.319	89.44
376.545	89.44
376.771	75.44
376.997	68.44
377.222	73.44
377.448	86.44
377.674	96.44
377.899	81.44
378.125	87.44
378.35	70.44
378.576	84.44
378.802	99.44
379.027	83.44
379.253	74.44
379.478	72.44
379.704	100.44
379.929	87.44
380.155	79.44
380.38	88.44
380.606	86.44
380.831	90.44
381.057	81.44
381.282	93.44
381.507	86.44
381.733	107.44
381.958	106.44
382.184	94.44
382.409	94.44
382.634	80.44
382.86	87.44
383.085	86.44
383.31	72.44
383.535	84.44
383.761	82.44
383.986	93.44
384.211	70.44
384.436	94.44
384.662	83.44
384.887	101.44
385.112	81.44
385.337	93.44
385.562	96.44
385.787	83.44
386.013	84.44
386.238	85.44
386.463	94.44
386.688	109.44
386.913	94.44
387.138	86.44
387.363	84.44
387.588	100.44
387.813	95.44
388.038	79.44
388.263	92.44
388.488	82.44
388.713	92.44
388.938	89.44
389.163	83.44
389.387	98.44
389.612	90.44
389.837	84.44
390.062	86.44
390.287	91.44
390.512	73.44
390.736	90.44
390.961	83.44
391.186	78.44
391.411	82.44
391.636	88.44
391.86	95.44
392.085	99.44
392.31	103.44
392.534	90.44
392.759	123.44
392.984	184.44
393.208	326.44
393.433	485.44
393.658	372.44
393.882	163.44
394.107	92.44
394.331	111.44
394.556	120.44
394.78	99.44
395.005	102.44
395.229	78.44
395.454	84.44
395.678	106.44
395.903	119.44
396.127	132.44
396.352	152.44
396.576	199.44
396.801	333.44
397.025	386.44
397.249	200.44
397.474	137.44
397.698	94.44
397.922	89.44
398.147	90.44
398.371	110.44
398.595	95.44
398.82	79.44
399.044	82.44
399.268	84.44
399.492	87.44
399.717	102.44
399.941	84.44
400.165	74.44
400.389	73.44
400.613	91.44
400.837	76.44
401.062	70.44
401.286	87.44
401.51	93.44
401.734	81.44
401.958	88.44
402.182	81.44
402.406	75.44
402.63	79.44
402.854	90.44
403.078	76.44
403.302	84.44
403.526	64.44
403.75	85.44
403.974	89.44
404.198	80.44
404.422	88.44
404.645	88.44
404.869	100.44
405.093	88.44
405.317	80.44
405.541	80.44
405.765	83.44
405.988	91.44
406.212	87.44
406.436	79.44
406.66	84.44
406.883	79.44
407.107	86.44
407.331	83.44
407.555	89.44
407.778	98.44
408.002	107.44
408.226	87.44
408.449	90.44
408.673	92.44
408.896	80.44
409.12	87.44
409.344	88.44
409.567	82.44
409.791	109.44
410.014	110.44
410.238	92.44
410.461	94.44
410.685	80.44
410.908	87.44
411.132	99.44
411.355	88.44
411.578	83.44
411.802	81.44
412.025	88.44
412.249	85.44
412.472	80.44
412.695	81.44
412.919	78.44
413.142	84.44
413.365	90.44
413.589	86.44
413.812	88.44
414.035	88.44
414.258	80.44
414.482	84.44
414.705	75.44
414.928	92.44
415.151	79.44
415.374	78.44
415.597	78.44
415.821	102.44
416.044	81.44
416.267	77.44
416.49	90.44
416.713	87.44
416.936	71.44
417.159	94.44
417.382	90.44
417.605	75.44
417.828	77.44
418.051	75.44
418.274	89.44
418.497	86.44
418.72	73.44
418.943	66.44
419.166	84.44
419.389	86.44
419.611	70.44
419.834	106.44
420.057	82.44
420.28	67.44
420.503	79.44
420.726	102.44
420.948	94.44
421.171	104.44
421.394	104.44
421.617	118.44
421.839	112.44
422.062	127.44
422.285	165.44
422.507	312.44
422.73	507.44
422.953	440.44
423.175	214.44
423.398	130.44
423.621	96.44
423.843	106.44
424.066	88.44
424.288	100.44
424.511	95.44
424.733	79.44
424.956	79.44
425.178	87.44
425.401	90.44
425.623	92.44
425.846	82.44
426.068	81.44
426.291	99.44
426.513	75.44
426.735	70.44
426.958	88.44
427.18	91.44
427.402	92.44
427.625	94.44
427.847	82.44
428.069	106.44
428.292	118.44
428.514	152.44
428.736	120.44
428.958	130.44
429.181	130.44
429.403	103.44
429.625	100.44
429.847	117.44
430.069	166.44
430.292	213.44
430.514	186.44
430.736	126.44
430.958	142.44
431.18	110.44
431.402	95.44
431.624	86.44
431.846	147.44
432.068	148.44
432.29	97.44
432.512	81.44
432.734	88.44
432.956	84.44
433.178	90.44
433.4	83.44
433.622	73.44
433.844	72.44
434.066	85.44
434.287	83.44
434.509	82.44
434.731	86.44
434.953	77.44
435.175	88.44
435.397	100.44
435.618	82.44
435.84	84.44
436.062	81.44
436.284	86.44
436.505	78.44
436.727	82.44
436.949	85.44
437.17	76.44
437.392	91.44
437.614	92.44
437.835	79.44
438.057	78.44
438.278	87.44
438.5	104.44
438.721	88.44
438.943	81.44
439.165	94.44
439.386	84.44
439.608	70.44
439.829	82.44
440.05	68.44
440.272	76.44
440.493	65.44
440.715	87.44
440.936	87.44
441.158	93.44
441.379	93.44
441.6	91.44
441.822	84.44
442.043	91.44
442.264	99.44
442.486	129.44
442.707	179.44
442.928	131.44
443.149	107.44
443.371	136.44
443.592	271.44
443.813	257.44
444.034	112.44
444.255	87.44
444.476	80.44
444.698	95.44
444.919	87.44
445.14	191.44
445.361	204.44
445.582	320.44
445.803	285.44
446.024	120.44
446.245	102.44
446.466	90.44
446.687	75.44
446.908	94.44
447.129	91.44
447.35	84.44
447.571	99.44
447.792	75.44
448.013	90.44
448.234	57.44
448.455	96.44
448.675	78.44
448.896	66.44
449.117	74.44
449.338	80.44
449.559	90.44
449.779	78.44
450	73.44
450.221	80.44
450.442	86.44
450.662	88.44
450.883	93.44
451.104	92.44
451.324	100.44
451.545	89.44
451.766	97.44
451.986	91.44
452.207	86.44
452.428	80.44
452.648	97.44
452.869	106.44
453.089	99.44
453.31	86.44
453.53	85.44
453.751	82.44
453.971	72.44
454.192	78.44
454.412	92.44
454.633	73.44
454.853	63.44
455.073	96.44
455.294	86.44
455.514	86.44
455.734	68.44
455.955	86.44
456.175	80.44
456.395	79.44
456.616	82.44
456.836	82.44
457.056	80.44
457.276	90.44
457.497	94.44
457.717	101.44
457.937	114.44
458.157	127.44
458.377	138.44
458.598	121.44
458.818	130.44
459.038	85.44
459.258	80.44
459.478	92.44
459.698	81.44
459.918	86.44
460.138	83.44
460.358	71.44
460.578	83.44
460.798	97.44
461.018	124.44
461.238	94.44
461.458	80.44
461.678	86.44
461.898	72.44
462.118	76.44
462.338	96.44
462.558	84.44
462.777	78.44
462.997	76.44
463.217	79.44
463.437	76.44
463.657	78.44
463.876	87.44
464.096	82.44
464.316	83.44
464.536	90.44
464.755	83.44
464.975	84.44
465.195	83.44
465.414	77.44
465.634	89.44
465.854	81.44
466.073	77.44
466.293	79.44
466.512	79.44
466.732	91.44
466.951	86.44
467.171	82.44
467.391	75.44
467.61	66.44
467.829	75.44
468.049	86.44
468.268	81.44
468.488	80.44
468.707	88.44
468.927	77.44
469.146	73.44
469.365	76.44
469.585	83.44
469.804	77.44
470.023	76.44
470.243	78.44
470.462	78.44
470.681	97.44
470.901	77.44
471.12	86.44
471.339	92.44
471.558	82.44
471.777	76.44
471.997	76.44
472.216	98.44
472.435	93.44
472.654	77.44
472.873	80.44
473.092	76.44
473.311	85.44
473.53	74.44
473.749	78.44
473.968	97.44
474.187	87.44
474.406	75.44
474.625	83.44
474.844	69.44
475.063	76.44
475.282	88.44
475.501	70.44
475.72	88.44
475.939	82.44
476.158	80.44
476.377	81.44
476.596	77.44
476.814	92.44
477.033	80.44
477.252	76.44
477.471	86.44
477.69	82.44
477.908	88.44
478.127	92.44
478.346	81.44
478.564	86.44
478.783	78.44
479.002	95.44
479.22	86.44
479.439	83.44
479.658	82.44
479.876	73.44
480.095	76.44
480.313	99.44
480.532	77.44
480.751	79.44
480.969	81.44
481.188	87.44
481.406	80.44
481.624	83.44
481.843	75.44
482.061	95.44
482.28	83.44
482.498	89.44
482.717	83.44
482.935	87.44
483.153	86.44
483.372	81.44
483.59	97.44
483.808	95.44
484.027	102.44
484.245	87.44
484.463	90.44
484.681	84.44
484.9	90.44
485.118	85.44
485.336	103.44
485.554	83.44
485.772	92.44
485.99	88.44
486.209	92.44
486.427	77.44
486.645	80.44
486.863	86.44
487.081	87.44
487.299	79.44
487.517	95.44
487.735	117.44
487.953	179.44
488.171	157.44
488.389	106.44
488.607	89.44
488.825	93.44
489.043	70.44
489.261	100.44
489.479	92.44
489.696	96.44
489.914	92.44
490.132	91.44
490.35	99.44
490.568	101.44
490.786	80.44
491.003	98.44
491.221	84.44
491.439	80.44
491.657	80.44
491.874	80.44
492.092	79.44
492.31	74.44
492.527	78.44
492.745	90.44
492.963	79.44
493.18	94.44
493.398	86.44
493.615	91.44
493.833	90.44
494.05	81.44
494.268	85.44
494.485	91.44
494.703	98.44
494.92	89.44
495.138	98.44
495.355	89.44
495.573	86.44
495.79	83.44
496.008	93.44
496.225	78.44
496.442	88.44
496.66	85.44
496.877	80.44
497.094	101.44
497.312	94.44
497.529	81.44
497.746	82.44
497.963	103.44
498.181	93.44
498.398	86.44
498.615	80.44
498.832	72.44
499.049	88.44
499.267	98.44
499.484	92.44
499.701	77.44
499.918	98.44
500.135	94.44
500.352	85.44
500.569	108.44
500.786	86.44
501.003	78.44
501.22	81.44
501.437	93.44
501.654	94.44
501.871	66.44
502.088	80.44
502.305	98.44
502.522	91.44
502.739	88.44
502.956	71.44
503.172	95.44
503.389	93.44
503.606	90.44
503.823	88.44
504.04	87.44
504.256	140.44
504.473	152.44
504.69	83.44
504.907	82.44
505.123	85.44
505.34	92.44
505.557	82.44
505.773	88.44
505.99	95.44
506.207	101.44
506.423	94.44
506.64	87.44
506.856	67.44
507.073	90.44
507.289	97.44
507.506	80.44
507.722	88.44
507.939	80.44
508.155	79.44
508.372	86.44
508.588	84.44
508.805	84.44
509.021	100.44
509.238	91.44
509.454	73.44
509.67	88.44
509.887	86.44
510.103	83.44
510.319	88.44
510.536	77.44
510.752	68.44
510.968	86.44
511.184	83.44
511.401	92.44
511.617	92.44
511.833	86.44
512.049	82.44
512.265	80.44
512.481	90.44
512.698	94.44
512.914	86.44
513.13	81.44
513.346	89.44
513.562	87.44
513.778	77.44
513.994	87.44
514.21	82.44
514.426	92.44
514.642	84.44
514.858	101.44
515.074	104.44
515.29	85.44
515.506	80.44
515.721	95.44
515.937	93.44
516.153	88.44
516.369	93.44
516.585	80.44
516.801	91.44
517.016	94.44
517.232	98.44
517.448	98.44
517.664	93.44
517.879	79.44
518.095	88.44
518.311	91.44
518.527	98.44
