Data from CBS_1_HRD10591_00010.txt Node
Date: Mon Jan 19 14:03:53 EST 2026
User: Yrep
Spectrometer: HR+D1059
Trigger mode: 1
Integration Time (sec): 1.000000E-1
Scans to average: 1
Electric dark correction enabled: true
Nonlinearity correction enabled: false
Boxcar width: 0
XAxis mode: Wavelengths
Number of Pixels in Spectrum: 2048
>>>>>Begin Spectral Data<<<<<
223.165	-13.5
223.4	-13.5
223.635	-13.5
223.869	-24.5
224.104	-28.5
224.338	-12.5
224.573	-16.5
224.808	-16.5
225.042	-2.5
225.277	3.5
225.511	-3.5
225.746	13.5
225.98	3.5
226.215	16.5
226.449	18.5
226.683	24.5
226.918	8.5
227.152	29.5
227.387	49.5
227.621	51.5
227.856	50.5
228.09	48.5
228.324	48.5
228.559	56.5
228.793	71.5
229.027	55.5
229.262	63.5
229.496	59.5
229.73	70.5
229.964	65.5
230.199	56.5
230.433	65.5
230.667	75.5
230.901	80.5
231.136	64.5
231.37	76.5
231.604	77.5
231.838	96.5
232.072	83.5
232.306	85.5
232.541	86.5
232.775	72.5
233.009	76.5
233.243	81.5
233.477	88.5
233.711	80.5
233.945	74.5
234.179	89.5
234.413	74.5
234.647	81.5
234.881	73.5
235.115	68.5
235.349	89.5
235.583	79.5
235.817	69.5
236.051	57.5
236.285	79.5
236.519	93.5
236.753	72.5
236.987	67.5
237.221	85.5
237.455	61.5
237.689	75.5
237.922	76.5
238.156	86.5
238.39	72.5
238.624	61.5
238.858	82.5
239.091	67.5
239.325	75.5
239.559	83.5
239.793	79.5
240.027	73.5
240.26	70.5
240.494	73.5
240.728	73.5
240.961	79.5
241.195	78.5
241.429	68.5
241.662	75.5
241.896	72.5
242.13	64.5
242.363	87.5
242.597	73.5
242.83	81.5
243.064	76.5
243.298	76.5
243.531	76.5
243.765	74.5
243.998	65.5
244.232	81.5
244.465	69.5
244.699	80.5
244.932	72.5
245.166	79.5
245.399	67.5
245.633	76.5
245.866	76.5
246.099	82.5
246.333	71.5
246.566	79.5
246.8	73.5
247.033	69.5
247.266	78.5
247.5	71.5
247.733	70.5
247.966	81.5
248.2	81.5
248.433	86.5
248.666	66.5
248.899	82.5
249.133	70.5
249.366	90.5
249.599	65.5
249.832	69.5
250.066	70.5
250.299	87.5
250.532	76.5
250.765	84.5
250.998	79.5
251.231	71.5
251.465	87.5
251.698	91.5
251.931	69.5
252.164	78.5
252.397	74.5
252.63	89.5
252.863	83.5
253.096	78.5
253.329	76.5
253.562	77.5
253.795	92.5
254.028	75.5
254.261	79.5
254.494	80.5
254.727	83.5
254.96	67.5
255.193	89.5
255.426	92.5
255.659	79.5
255.892	65.5
256.124	65.5
256.357	63.5
256.59	82.5
256.823	90.5
257.056	79.5
257.289	78.5
257.521	81.5
257.754	69.5
257.987	75.5
258.22	85.5
258.452	85.5
258.685	78.5
258.918	89.5
259.151	71.5
259.383	79.5
259.616	93.5
259.849	84.5
260.081	74.5
260.314	75.5
260.547	81.5
260.779	84.5
261.012	71.5
261.244	87.5
261.477	73.5
261.71	92.5
261.942	85.5
262.175	98.5
262.407	67.5
262.64	79.5
262.872	87.5
263.105	70.5
263.337	85.5
263.57	80.5
263.802	97.5
264.035	81.5
264.267	91.5
264.499	86.5
264.732	75.5
264.964	88.5
265.197	63.5
265.429	72.5
265.661	85.5
265.894	70.5
266.126	86.5
266.358	84.5
266.591	89.5
266.823	77.5
267.055	73.5
267.287	82.5
267.52	82.5
267.752	73.5
267.984	91.5
268.216	76.5
268.448	72.5
268.681	87.5
268.913	98.5
269.145	72.5
269.377	80.5
269.609	81.5
269.841	79.5
270.073	87.5
270.306	78.5
270.538	94.5
270.77	67.5
271.002	81.5
271.234	90.5
271.466	76.5
271.698	88.5
271.93	87.5
272.162	83.5
272.394	101.5
272.626	99.5
272.858	76.5
273.09	88.5
273.322	90.5
273.553	78.5
273.785	79.5
274.017	91.5
274.249	96.5
274.481	83.5
274.713	63.5
274.945	86.5
275.176	82.5
275.408	92.5
275.64	86.5
275.872	88.5
276.104	85.5
276.335	89.5
276.567	85.5
276.799	85.5
277.031	72.5
277.262	79.5
277.494	85.5
277.726	77.5
277.957	85.5
278.189	77.5
278.421	82.5
278.652	96.5
278.884	71.5
279.115	108.5
279.347	90.5
279.579	58.5
279.81	88.5
280.042	90.5
280.273	92.5
280.505	66.5
280.736	71.5
280.968	88.5
281.199	81.5
281.431	75.5
281.662	77.5
281.894	83.5
282.125	78.5
282.356	91.5
282.588	78.5
282.819	77.5
283.051	93.5
283.282	85.5
283.513	68.5
283.745	83.5
283.976	85.5
284.207	73.5
284.439	82.5
284.67	87.5
284.901	76.5
285.132	87.5
285.364	79.5
285.595	80.5
285.826	84.5
286.057	96.5
286.288	82.5
286.52	81.5
286.751	78.5
286.982	103.5
287.213	82.5
287.444	87.5
287.675	72.5
287.906	87.5
288.138	89.5
288.369	78.5
288.6	90.5
288.831	88.5
289.062	82.5
289.293	81.5
289.524	84.5
289.755	72.5
289.986	94.5
290.217	87.5
290.448	78.5
290.679	75.5
290.91	82.5
291.141	87.5
291.371	90.5
291.602	82.5
291.833	87.5
292.064	83.5
292.295	80.5
292.526	87.5
292.757	83.5
292.987	84.5
293.218	83.5
293.449	71.5
293.68	83.5
293.91	89.5
294.141	91.5
294.372	85.5
294.603	90.5
294.833	78.5
295.064	73.5
295.295	95.5
295.525	95.5
295.756	91.5
295.987	79.5
296.217	84.5
296.448	86.5
296.679	96.5
296.909	91.5
297.14	75.5
297.37	90.5
297.601	74.5
297.831	73.5
298.062	88.5
298.292	77.5
298.523	89.5
298.753	74.5
298.984	79.5
299.214	83.5
299.445	95.5
299.675	87.5
299.905	88.5
300.136	88.5
300.366	74.5
300.597	81.5
300.827	89.5
301.057	70.5
301.288	86.5
301.518	88.5
301.748	75.5
301.979	110.5
302.209	83.5
302.439	73.5
302.669	93.5
302.9	74.5
303.13	79.5
303.36	87.5
303.59	92.5
303.82	89.5
304.051	84.5
304.281	81.5
304.511	93.5
304.741	76.5
304.971	84.5
305.201	73.5
305.431	88.5
305.661	61.5
305.891	75.5
306.121	87.5
306.352	93.5
306.582	72.5
306.812	91.5
307.042	81.5
307.272	80.5
307.502	84.5
307.731	83.5
307.961	84.5
308.191	99.5
308.421	86.5
308.651	68.5
308.881	89.5
309.111	82.5
309.341	70.5
309.571	76.5
309.8	86.5
310.03	96.5
310.26	85.5
310.49	84.5
310.72	72.5
310.949	78.5
311.179	81.5
311.409	80.5
311.639	79.5
311.868	89.5
312.098	73.5
312.328	105.5
312.557	82.5
312.787	73.5
313.017	87.5
313.246	84.5
313.476	95.5
313.706	81.5
313.935	86.5
314.165	67.5
314.394	86.5
314.624	82.5
314.853	89.5
315.083	75.5
315.312	88.5
315.542	95.5
315.771	83.5
316.001	88.5
316.23	79.5
316.46	79.5
316.689	83.5
316.919	83.5
317.148	85.5
317.377	83.5
317.607	89.5
317.836	102.5
318.065	81.5
318.295	89.5
318.524	74.5
318.753	85.5
318.983	83.5
319.212	79.5
319.441	78.5
319.67	88.5
319.9	94.5
320.129	83.5
320.358	79.5
320.587	91.5
320.816	87.5
321.046	89.5
321.275	92.5
321.504	75.5
321.733	87.5
321.962	93.5
322.191	70.5
322.42	96.5
322.649	95.5
322.878	77.5
323.108	72.5
323.337	87.5
323.566	82.5
323.795	89.5
324.024	82.5
324.253	75.5
324.482	81.5
324.71	83.5
324.939	96.5
325.168	96.5
325.397	82.5
325.626	70.5
325.855	78.5
326.084	81.5
326.313	70.5
326.542	86.5
326.77	86.5
326.999	86.5
327.228	81.5
327.457	98.5
327.686	89.5
327.914	95.5
328.143	90.5
328.372	82.5
328.6	66.5
328.829	67.5
329.058	87.5
329.287	83.5
329.515	87.5
329.744	85.5
329.972	74.5
330.201	87.5
330.43	77.5
330.658	77.5
330.887	79.5
331.115	76.5
331.344	80.5
331.572	99.5
331.801	64.5
332.03	74.5
332.258	76.5
332.486	98.5
332.715	69.5
332.943	72.5
333.172	71.5
333.4	86.5
333.629	81.5
333.857	82.5
334.085	96.5
334.314	79.5
334.542	75.5
334.771	74.5
334.999	93.5
335.227	84.5
335.455	88.5
335.684	85.5
335.912	90.5
336.14	70.5
336.369	81.5
336.597	71.5
336.825	72.5
337.053	79.5
337.281	85.5
337.51	82.5
337.738	84.5
337.966	85.5
338.194	97.5
338.422	77.5
338.65	90.5
338.878	93.5
339.106	94.5
339.334	85.5
339.562	85.5
339.79	99.5
340.018	90.5
340.246	67.5
340.474	83.5
340.702	79.5
340.93	87.5
341.158	78.5
341.386	87.5
341.614	93.5
341.842	71.5
342.07	71.5
342.298	80.5
342.526	80.5
342.754	90.5
342.981	69.5
343.209	77.5
343.437	90.5
343.665	94.5
343.893	89.5
344.12	74.5
344.348	80.5
344.576	88.5
344.804	88.5
345.031	80.5
345.259	92.5
345.487	83.5
345.714	73.5
345.942	81.5
346.17	81.5
346.397	82.5
346.625	86.5
346.853	75.5
347.08	76.5
347.308	85.5
347.535	84.5
347.763	95.5
347.99	97.5
348.218	86.5
348.445	75.5
348.673	73.5
348.9	77.5
349.128	86.5
349.355	74.5
349.583	83.5
349.81	100.5
350.037	81.5
350.265	84.5
350.492	95.5
350.72	89.5
350.947	85.5
351.174	73.5
351.402	81.5
351.629	93.5
351.856	81.5
352.083	74.5
352.311	85.5
352.538	100.5
352.765	85.5
352.992	80.5
353.22	81.5
353.447	75.5
353.674	90.5
353.901	91.5
354.128	78.5
354.355	93.5
354.583	85.5
354.81	83.5
355.037	89.5
355.264	91.5
355.491	86.5
355.718	71.5
355.945	88.5
356.172	79.5
356.399	97.5
356.626	87.5
356.853	76.5
357.08	96.5
357.307	91.5
357.534	71.5
357.761	79.5
357.988	82.5
358.215	83.5
358.441	83.5
358.668	96.5
358.895	74.5
359.122	78.5
359.349	86.5
359.576	86.5
359.802	89.5
360.029	90.5
360.256	83.5
360.483	72.5
360.709	84.5
360.936	93.5
361.163	89.5
361.39	83.5
361.616	82.5
361.843	82.5
362.07	91.5
362.296	86.5
362.523	88.5
362.749	86.5
362.976	78.5
363.203	90.5
363.429	70.5
363.656	87.5
363.882	92.5
364.109	98.5
364.335	93.5
364.562	99.5
364.788	89.5
365.015	85.5
365.241	79.5
365.468	73.5
365.694	68.5
365.92	81.5
366.147	89.5
366.373	79.5
366.599	89.5
366.826	76.5
367.052	82.5
367.278	74.5
367.505	79.5
367.731	89.5
367.957	76.5
368.184	84.5
368.41	74.5
368.636	90.5
368.862	80.5
369.089	82.5
369.315	90.5
369.541	83.5
369.767	94.5
369.993	65.5
370.219	79.5
370.445	93.5
370.672	74.5
370.898	76.5
371.124	75.5
371.35	81.5
371.576	88.5
371.802	67.5
372.028	63.5
372.254	94.5
372.48	86.5
372.706	101.5
372.932	94.5
373.158	90.5
373.384	82.5
373.61	87.5
373.835	90.5
374.061	87.5
374.287	90.5
374.513	78.5
374.739	94.5
374.965	90.5
375.191	93.5
375.416	79.5
375.642	74.5
375.868	83.5
376.094	91.5
376.319	110.5
376.545	85.5
376.771	73.5
376.997	81.5
377.222	82.5
377.448	83.5
377.674	85.5
377.899	88.5
378.125	72.5
378.35	97.5
378.576	75.5
378.802	93.5
379.027	98.5
379.253	81.5
379.478	80.5
379.704	68.5
379.929	77.5
380.155	85.5
380.38	83.5
380.606	82.5
380.831	74.5
381.057	79.5
381.282	91.5
381.507	74.5
381.733	83.5
381.958	87.5
382.184	70.5
382.409	75.5
382.634	96.5
382.86	96.5
383.085	88.5
383.31	76.5
383.535	99.5
383.761	93.5
383.986	89.5
384.211	79.5
384.436	81.5
384.662	84.5
384.887	95.5
385.112	84.5
385.337	87.5
385.562	88.5
385.787	87.5
386.013	85.5
386.238	86.5
386.463	94.5
386.688	83.5
386.913	93.5
387.138	110.5
387.363	86.5
387.588	80.5
387.813	87.5
388.038	79.5
388.263	83.5
388.488	81.5
388.713	86.5
388.938	90.5
389.163	82.5
389.387	78.5
389.612	71.5
389.837	88.5
390.062	89.5
390.287	87.5
390.512	72.5
390.736	71.5
390.961	92.5
391.186	97.5
391.411	85.5
391.636	84.5
391.86	76.5
392.085	91.5
392.31	95.5
392.534	92.5
392.759	93.5
392.984	99.5
393.208	101.5
393.433	131.5
393.658	105.5
393.882	101.5
394.107	81.5
394.331	87.5
394.556	96.5
394.78	77.5
395.005	85.5
395.229	89.5
395.454	98.5
395.678	88.5
395.903	86.5
396.127	97.5
396.352	95.5
396.576	99.5
396.801	91.5
397.025	99.5
397.249	102.5
397.474	96.5
397.698	78.5
397.922	81.5
398.147	91.5
398.371	93.5
398.595	97.5
398.82	93.5
399.044	90.5
399.268	89.5
399.492	90.5
399.717	99.5
399.941	79.5
400.165	95.5
400.389	71.5
400.613	80.5
400.837	101.5
401.062	79.5
401.286	81.5
401.51	76.5
401.734	69.5
401.958	82.5
402.182	98.5
402.406	93.5
402.63	68.5
402.854	87.5
403.078	86.5
403.302	88.5
403.526	74.5
403.75	89.5
403.974	82.5
404.198	76.5
404.422	93.5
404.645	91.5
404.869	83.5
405.093	74.5
405.317	85.5
405.541	80.5
405.765	76.5
405.988	72.5
406.212	88.5
406.436	93.5
406.66	79.5
406.883	94.5
407.107	83.5
407.331	84.5
407.555	84.5
407.778	75.5
408.002	82.5
408.226	81.5
408.449	80.5
408.673	88.5
408.896	95.5
409.12	89.5
409.344	88.5
409.567	86.5
409.791	82.5
410.014	75.5
410.238	71.5
410.461	78.5
410.685	75.5
410.908	75.5
411.132	81.5
411.355	86.5
411.578	74.5
411.802	94.5
412.025	71.5
412.249	80.5
412.472	95.5
412.695	89.5
412.919	100.5
413.142	71.5
413.365	84.5
413.589	94.5
413.812	90.5
414.035	82.5
414.258	78.5
414.482	84.5
414.705	85.5
414.928	89.5
415.151	73.5
415.374	77.5
415.597	96.5
415.821	88.5
416.044	85.5
416.267	91.5
416.49	91.5
416.713	86.5
416.936	83.5
417.159	74.5
417.382	85.5
417.605	86.5
417.828	96.5
418.051	77.5
418.274	74.5
418.497	83.5
418.72	80.5
418.943	85.5
419.166	90.5
419.389	81.5
419.611	68.5
419.834	91.5
420.057	81.5
420.28	86.5
420.503	98.5
420.726	82.5
420.948	81.5
421.171	79.5
421.394	94.5
421.617	83.5
421.839	95.5
422.062	105.5
422.285	123.5
422.507	147.5
422.73	156.5
422.953	153.5
423.175	120.5
423.398	91.5
423.621	106.5
423.843	93.5
424.066	90.5
424.288	95.5
424.511	81.5
424.733	85.5
424.956	91.5
425.178	106.5
425.401	77.5
425.623	85.5
425.846	79.5
426.068	87.5
426.291	82.5
426.513	78.5
426.735	90.5
426.958	83.5
427.18	95.5
427.402	82.5
427.625	77.5
427.847	76.5
428.069	94.5
428.292	106.5
428.514	85.5
428.736	82.5
428.958	86.5
429.181	94.5
429.403	82.5
429.625	73.5
429.847	101.5
430.069	90.5
430.292	125.5
430.514	107.5
430.736	89.5
430.958	89.5
431.18	78.5
431.402	87.5
431.624	71.5
431.846	92.5
432.068	98.5
432.29	83.5
432.512	83.5
432.734	90.5
432.956	95.5
433.178	85.5
433.4	76.5
433.622	69.5
433.844	82.5
434.066	75.5
434.287	88.5
434.509	81.5
434.731	77.5
434.953	73.5
435.175	87.5
435.397	92.5
435.618	83.5
435.84	87.5
436.062	82.5
436.284	84.5
436.505	88.5
436.727	90.5
436.949	86.5
437.17	80.5
437.392	74.5
437.614	84.5
437.835	87.5
438.057	85.5
438.278	85.5
438.5	88.5
438.721	96.5
438.943	85.5
439.165	71.5
439.386	79.5
439.608	89.5
439.829	70.5
440.05	90.5
440.272	78.5
440.493	96.5
440.715	85.5
440.936	81.5
441.158	74.5
441.379	84.5
441.6	93.5
441.822	71.5
442.043	94.5
442.264	87.5
442.486	87.5
442.707	114.5
442.928	96.5
443.149	87.5
443.371	99.5
443.592	137.5
443.813	115.5
444.034	79.5
444.255	86.5
444.476	86.5
444.698	88.5
444.919	85.5
445.14	169.5
445.361	141.5
445.582	127.5
445.803	118.5
446.024	103.5
446.245	79.5
446.466	81.5
446.687	81.5
446.908	99.5
447.129	81.5
447.35	101.5
447.571	91.5
447.792	93.5
448.013	88.5
448.234	75.5
448.455	89.5
448.675	85.5
448.896	85.5
449.117	80.5
449.338	88.5
449.559	82.5
449.779	87.5
450	88.5
450.221	81.5
450.442	79.5
450.662	92.5
450.883	91.5
451.104	72.5
451.324	84.5
451.545	72.5
451.766	82.5
451.986	72.5
452.207	95.5
452.428	91.5
452.648	85.5
452.869	81.5
453.089	89.5
453.31	71.5
453.53	73.5
453.751	78.5
453.971	93.5
454.192	89.5
454.412	77.5
454.633	69.5
454.853	79.5
455.073	90.5
455.294	80.5
455.514	97.5
455.734	88.5
455.955	83.5
456.175	78.5
456.395	79.5
456.616	82.5
456.836	76.5
457.056	95.5
457.276	85.5
457.497	80.5
457.717	82.5
457.937	86.5
458.157	91.5
458.377	85.5
458.598	85.5
458.818	106.5
459.038	86.5
459.258	79.5
459.478	82.5
459.698	81.5
459.918	81.5
460.138	86.5
460.358	78.5
460.578	95.5
460.798	102.5
461.018	89.5
461.238	89.5
461.458	74.5
461.678	71.5
461.898	85.5
462.118	75.5
462.338	82.5
462.558	93.5
462.777	82.5
462.997	75.5
463.217	76.5
463.437	77.5
463.657	89.5
463.876	82.5
464.096	86.5
464.316	74.5
464.536	93.5
464.755	83.5
464.975	88.5
465.195	91.5
465.414	79.5
465.634	87.5
465.854	93.5
466.073	98.5
466.293	88.5
466.512	74.5
466.732	82.5
466.951	70.5
467.171	69.5
467.391	67.5
467.61	78.5
467.829	77.5
468.049	60.5
468.268	91.5
468.488	100.5
468.707	75.5
468.927	85.5
469.146	75.5
469.365	77.5
469.585	73.5
469.804	81.5
470.023	79.5
470.243	74.5
470.462	88.5
470.681	85.5
470.901	80.5
471.12	87.5
471.339	84.5
471.558	81.5
471.777	88.5
471.997	87.5
472.216	86.5
472.435	87.5
472.654	87.5
472.873	82.5
473.092	73.5
473.311	86.5
473.53	77.5
473.749	86.5
473.968	74.5
474.187	84.5
474.406	65.5
474.625	101.5
474.844	72.5
475.063	76.5
475.282	75.5
475.501	75.5
475.72	82.5
475.939	71.5
476.158	86.5
476.377	85.5
476.596	89.5
476.814	87.5
477.033	94.5
477.252	93.5
477.471	79.5
477.69	70.5
477.908	82.5
478.127	83.5
478.346	87.5
478.564	79.5
478.783	85.5
479.002	71.5
479.22	74.5
479.439	95.5
479.658	96.5
479.876	85.5
480.095	76.5
480.313	86.5
480.532	83.5
480.751	88.5
480.969	84.5
481.188	80.5
481.406	78.5
481.624	74.5
481.843	89.5
482.061	102.5
482.28	95.5
482.498	91.5
482.717	91.5
482.935	77.5
483.153	78.5
483.372	91.5
483.59	102.5
483.808	92.5
484.027	96.5
484.245	77.5
484.463	82.5
484.681	93.5
484.9	82.5
485.118	81.5
485.336	79.5
485.554	75.5
485.772	94.5
485.99	92.5
486.209	98.5
486.427	85.5
486.645	87.5
486.863	80.5
487.081	97.5
487.299	86.5
487.517	78.5
487.735	99.5
487.953	107.5
488.171	108.5
488.389	93.5
488.607	97.5
488.825	89.5
489.043	89.5
489.261	73.5
489.479	78.5
489.696	83.5
489.914	88.5
490.132	89.5
490.35	86.5
490.568	82.5
490.786	82.5
491.003	88.5
491.221	76.5
491.439	81.5
491.657	87.5
491.874	99.5
492.092	68.5
492.31	89.5
492.527	86.5
492.745	82.5
492.963	90.5
493.18	80.5
493.398	76.5
493.615	83.5
493.833	75.5
494.05	83.5
494.268	84.5
494.485	87.5
494.703	74.5
494.92	78.5
495.138	83.5
495.355	91.5
495.573	79.5
495.79	96.5
496.008	93.5
496.225	89.5
496.442	91.5
496.66	93.5
496.877	110.5
497.094	98.5
497.312	79.5
497.529	96.5
497.746	77.5
497.963	79.5
498.181	82.5
498.398	95.5
498.615	82.5
498.832	89.5
499.049	74.5
499.267	89.5
499.484	84.5
499.701	88.5
499.918	87.5
500.135	81.5
500.352	85.5
500.569	89.5
500.786	82.5
501.003	85.5
501.22	79.5
501.437	93.5
501.654	90.5
501.871	81.5
502.088	85.5
502.305	90.5
502.522	97.5
502.739	94.5
502.956	95.5
503.172	90.5
503.389	85.5
503.606	88.5
503.823	90.5
504.04	98.5
504.256	102.5
504.473	106.5
504.69	84.5
504.907	97.5
505.123	67.5
505.34	83.5
505.557	87.5
505.773	86.5
505.99	81.5
506.207	93.5
506.423	78.5
506.64	100.5
506.856	81.5
507.073	87.5
507.289	89.5
507.506	81.5
507.722	81.5
507.939	83.5
508.155	93.5
508.372	89.5
508.588	75.5
508.805	83.5
509.021	66.5
509.238	78.5
509.454	82.5
509.67	82.5
509.887	83.5
510.103	75.5
510.319	78.5
510.536	90.5
510.752	88.5
510.968	94.5
511.184	93.5
511.401	95.5
511.617	85.5
511.833	95.5
512.049	89.5
512.265	84.5
512.481	82.5
512.698	90.5
512.914	74.5
513.13	98.5
513.346	83.5
513.562	79.5
513.778	87.5
513.994	75.5
514.21	80.5
514.426	92.5
514.642	85.5
514.858	89.5
515.074	89.5
515.29	97.5
515.506	90.5
515.721	88.5
515.937	73.5
516.153	89.5
516.369	83.5
516.585	100.5
516.801	88.5
517.016	73.5
517.232	69.5
517.448	81.5
517.664	84.5
517.879	86.5
518.095	91.5
518.311	86.5
518.527	94.5
518.742	97.5
518.958	97.5
519.173	112.5
519.389	89.5
519.605	88.5
519.82	87.5
520.036	83.5
520.251	93.5
520.467	75.5
520.682	78.5
520.898	83.5
521.113	93.5
521.329	89.5
521.544	77.5
521.76	91.5
521.975	77.5
522.19	95.5
522.406	89.5
522.621	81.5
522.836	94.5
523.052	96.5
523.267	75.5
523.482	80.5
523.698	103.5
523.913	92.5
524.128	73.5
524.343	89.5
524.559	97.5
524.774	82.5
524.989	81.5
525.204	94.5
525.419	83.5
525.634	95.5
525.849	98.5
526.064	112.5
526.28	125.5
526.495	138.5
526.71	162.5
526.925	135.5
527.14	147.5
527.355	134.5
527.57	97.5
527.785	89.5
527.999	100.5
528.214	89.5
528.429	86.5
528.644	92.5
528.859	89.5
529.074	84.5
529.289	82.5
529.503	73.5
529.718	72.5
529.933	87.5
530.148	96.5
530.363	99.5
530.577	101.5
530.792	82.5
531.007	93.5
531.221	87.5
531.436	89.5
531.651	89.5
531.865	99.5
532.08	68.5
532.295	105.5
532.509	100.5
532.724	76.5
532.938	113.5
533.153	98.5
533.367	89.5
533.582	93.5
533.796	99.5
534.011	97.5
534.225	94.5
534.44	88.5
534.654	92.5
534.868	104.5
535.083	112.5
535.297	116.5
535.511	107.5
535.726	110.5
535.94	93.5
536.154	87.5
536.369	94.5
536.583	87.5
536.797	96.5
537.011	103.5
537.225	93.5
537.44	83.5
537.654	85.5
537.868	95.5
538.082	81.5
538.296	77.5
538.51	96.5
538.724	76.5
538.938	87.5
539.153	90.5
539.367	103.5
539.581	101.5
