Data from CBS_1_HRD10591_00003.txt Node
Date: Mon Jan 19 14:03:50 EST 2026
User: Yrep
Spectrometer: HR+D1059
Trigger mode: 1
Integration Time (sec): 1.000000E-1
Scans to average: 1
Electric dark correction enabled: true
Nonlinearity correction enabled: false
Boxcar width: 0
XAxis mode: Wavelengths
Number of Pixels in Spectrum: 2048
>>>>>Begin Spectral Data<<<<<
223.165	-21.19
223.4	-21.19
223.635	-21.19
223.869	-14.19
224.104	-30.19
224.338	-15.19
224.573	-9.19
224.808	-10.19
225.042	-12.19
225.277	-9.19
225.511	5.81
225.746	-1.19
225.98	6.81
226.215	14.81
226.449	11.81
226.683	22.81
226.918	21.81
227.152	38.81
227.387	44.81
227.621	36.81
227.856	39.81
228.09	39.81
228.324	65.81
228.559	61.81
228.793	67.81
229.027	56.81
229.262	65.81
229.496	69.81
229.73	58.81
229.964	72.81
230.199	65.81
230.433	83.81
230.667	66.81
230.901	79.81
231.136	80.81
231.37	68.81
231.604	64.81
231.838	77.81
232.072	67.81
232.306	78.81
232.541	84.81
232.775	93.81
233.009	82.81
233.243	66.81
233.477	84.81
233.711	98.81
233.945	72.81
234.179	87.81
234.413	83.81
234.647	86.81
234.881	69.81
235.115	85.81
235.349	73.81
235.583	77.81
235.817	76.81
236.051	72.81
236.285	71.81
236.519	71.81
236.753	64.81
236.987	89.81
237.221	86.81
237.455	63.81
237.689	86.81
237.922	76.81
238.156	66.81
238.39	82.81
238.624	77.81
238.858	67.81
239.091	83.81
239.325	55.81
239.559	72.81
239.793	78.81
240.027	99.81
240.26	82.81
240.494	75.81
240.728	71.81
240.961	82.81
241.195	74.81
241.429	60.81
241.662	74.81
241.896	73.81
242.13	79.81
242.363	77.81
242.597	64.81
242.83	72.81
243.064	74.81
243.298	78.81
243.531	91.81
243.765	72.81
243.998	84.81
244.232	75.81
244.465	71.81
244.699	82.81
244.932	74.81
245.166	71.81
245.399	82.81
245.633	77.81
245.866	71.81
246.099	74.81
246.333	77.81
246.566	70.81
246.8	78.81
247.033	76.81
247.266	73.81
247.5	73.81
247.733	77.81
247.966	74.81
248.2	70.81
248.433	82.81
248.666	82.81
248.899	88.81
249.133	87.81
249.366	87.81
249.599	72.81
249.832	73.81
250.066	61.81
250.299	82.81
250.532	86.81
250.765	73.81
250.998	70.81
251.231	78.81
251.465	90.81
251.698	80.81
251.931	94.81
252.164	78.81
252.397	81.81
252.63	82.81
252.863	89.81
253.096	79.81
253.329	85.81
253.562	75.81
253.795	80.81
254.028	72.81
254.261	90.81
254.494	96.81
254.727	72.81
254.96	63.81
255.193	70.81
255.426	98.81
255.659	84.81
255.892	82.81
256.124	84.81
256.357	82.81
256.59	73.81
256.823	82.81
257.056	85.81
257.289	83.81
257.521	75.81
257.754	84.81
257.987	82.81
258.22	89.81
258.452	72.81
258.685	75.81
258.918	76.81
259.151	82.81
259.383	82.81
259.616	77.81
259.849	66.81
260.081	73.81
260.314	76.81
260.547	72.81
260.779	92.81
261.012	78.81
261.244	71.81
261.477	85.81
261.71	85.81
261.942	79.81
262.175	91.81
262.407	95.81
262.64	78.81
262.872	90.81
263.105	87.81
263.337	92.81
263.57	70.81
263.802	90.81
264.035	88.81
264.267	71.81
264.499	78.81
264.732	88.81
264.964	82.81
265.197	79.81
265.429	76.81
265.661	81.81
265.894	82.81
266.126	85.81
266.358	81.81
266.591	90.81
266.823	92.81
267.055	67.81
267.287	78.81
267.52	85.81
267.752	84.81
267.984	99.81
268.216	89.81
268.448	98.81
268.681	97.81
268.913	96.81
269.145	88.81
269.377	71.81
269.609	84.81
269.841	82.81
270.073	68.81
270.306	81.81
270.538	93.81
270.77	79.81
271.002	83.81
271.234	86.81
271.466	84.81
271.698	82.81
271.93	89.81
272.162	88.81
272.394	92.81
272.626	82.81
272.858	84.81
273.09	84.81
273.322	84.81
273.553	72.81
273.785	88.81
274.017	82.81
274.249	88.81
274.481	94.81
274.713	104.81
274.945	89.81
275.176	82.81
275.408	78.81
275.64	70.81
275.872	92.81
276.104	83.81
276.335	73.81
276.567	80.81
276.799	90.81
277.031	79.81
277.262	82.81
277.494	74.81
277.726	78.81
277.957	79.81
278.189	73.81
278.421	83.81
278.652	82.81
278.884	78.81
279.115	83.81
279.347	90.81
279.579	86.81
279.81	84.81
280.042	97.81
280.273	93.81
280.505	81.81
280.736	94.81
280.968	82.81
281.199	77.81
281.431	85.81
281.662	66.81
281.894	79.81
282.125	88.81
282.356	91.81
282.588	71.81
282.819	104.81
283.051	83.81
283.282	88.81
283.513	94.81
283.745	78.81
283.976	99.81
284.207	94.81
284.439	82.81
284.67	77.81
284.901	74.81
285.132	92.81
285.364	86.81
285.595	94.81
285.826	90.81
286.057	99.81
286.288	79.81
286.52	94.81
286.751	80.81
286.982	97.81
287.213	84.81
287.444	92.81
287.675	87.81
287.906	97.81
288.138	73.81
288.369	96.81
288.6	85.81
288.831	96.81
289.062	88.81
289.293	85.81
289.524	97.81
289.755	95.81
289.986	105.81
290.217	84.81
290.448	86.81
290.679	84.81
290.91	85.81
291.141	84.81
291.371	69.81
291.602	89.81
291.833	95.81
292.064	87.81
292.295	85.81
292.526	88.81
292.757	92.81
292.987	81.81
293.218	95.81
293.449	90.81
293.68	88.81
293.91	79.81
294.141	78.81
294.372	81.81
294.603	74.81
294.833	86.81
295.064	86.81
295.295	96.81
295.525	82.81
295.756	99.81
295.987	90.81
296.217	74.81
296.448	83.81
296.679	86.81
296.909	83.81
297.14	88.81
297.37	99.81
297.601	78.81
297.831	74.81
298.062	98.81
298.292	84.81
298.523	88.81
298.753	81.81
298.984	96.81
299.214	99.81
299.445	92.81
299.675	106.81
299.905	102.81
300.136	91.81
300.366	103.81
300.597	107.81
300.827	96.81
301.057	88.81
301.288	109.81
301.518	76.81
301.748	94.81
301.979	109.81
302.209	85.81
302.439	80.81
302.669	84.81
302.9	90.81
303.13	98.81
303.36	82.81
303.59	91.81
303.82	88.81
304.051	79.81
304.281	98.81
304.511	101.81
304.741	84.81
304.971	96.81
305.201	87.81
305.431	94.81
305.661	75.81
305.891	86.81
306.121	100.81
306.352	85.81
306.582	88.81
306.812	96.81
307.042	92.81
307.272	88.81
307.502	94.81
307.731	88.81
307.961	94.81
308.191	77.81
308.421	105.81
308.651	110.81
308.881	98.81
309.111	101.81
309.341	87.81
309.571	100.81
309.8	89.81
310.03	90.81
310.26	97.81
310.49	83.81
310.72	86.81
310.949	79.81
311.179	92.81
311.409	100.81
311.639	97.81
311.868	96.81
312.098	84.81
312.328	80.81
312.557	86.81
312.787	88.81
313.017	88.81
313.246	93.81
313.476	83.81
313.706	113.81
313.935	81.81
314.165	84.81
314.394	83.81
314.624	97.81
314.853	93.81
315.083	98.81
315.312	85.81
315.542	98.81
315.771	105.81
316.001	128.81
316.23	106.81
316.46	98.81
316.689	99.81
316.919	85.81
317.148	89.81
317.377	108.81
317.607	105.81
317.836	126.81
318.065	126.81
318.295	123.81
318.524	102.81
318.753	94.81
318.983	89.81
319.212	93.81
319.441	91.81
319.67	89.81
319.9	78.81
320.129	95.81
320.358	95.81
320.587	89.81
320.816	91.81
321.046	103.81
321.275	102.81
321.504	89.81
321.733	110.81
321.962	96.81
322.191	100.81
322.42	96.81
322.649	111.81
322.878	97.81
323.108	105.81
323.337	94.81
323.566	105.81
323.795	99.81
324.024	92.81
324.253	91.81
324.482	89.81
324.71	101.81
324.939	81.81
325.168	82.81
325.397	96.81
325.626	82.81
325.855	89.81
326.084	93.81
326.313	73.81
326.542	79.81
326.77	82.81
326.999	82.81
327.228	101.81
327.457	97.81
327.686	92.81
327.914	99.81
328.143	96.81
328.372	100.81
328.6	88.81
328.829	103.81
329.058	87.81
329.287	88.81
329.515	86.81
329.744	94.81
329.972	90.81
330.201	100.81
330.43	108.81
330.658	100.81
330.887	90.81
331.115	81.81
331.344	79.81
331.572	88.81
331.801	84.81
332.03	94.81
332.258	88.81
332.486	99.81
332.715	92.81
332.943	76.81
333.172	108.81
333.4	101.81
333.629	92.81
333.857	97.81
334.085	102.81
334.314	115.81
334.542	115.81
334.771	121.81
334.999	110.81
335.227	108.81
335.455	100.81
335.684	122.81
335.912	120.81
336.14	131.81
336.369	129.81
336.597	106.81
336.825	109.81
337.053	98.81
337.281	109.81
337.51	96.81
337.738	96.81
337.966	97.81
338.194	88.81
338.422	97.81
338.65	104.81
338.878	90.81
339.106	81.81
339.334	105.81
339.562	92.81
339.79	88.81
340.018	105.81
340.246	96.81
340.474	96.81
340.702	89.81
340.93	94.81
341.158	95.81
341.386	100.81
341.614	84.81
341.842	93.81
342.07	93.81
342.298	88.81
342.526	90.81
342.754	86.81
342.981	103.81
343.209	81.81
343.437	103.81
343.665	96.81
343.893	96.81
344.12	98.81
344.348	91.81
344.576	88.81
344.804	80.81
345.031	86.81
345.259	81.81
345.487	81.81
345.714	89.81
345.942	95.81
346.17	94.81
346.397	88.81
346.625	107.81
346.853	110.81
347.08	100.81
347.308	97.81
347.535	92.81
347.763	97.81
347.99	88.81
348.218	98.81
348.445	112.81
348.673	97.81
348.9	109.81
349.128	102.81
349.355	98.81
349.583	106.81
349.81	98.81
350.037	88.81
350.265	74.81
350.492	90.81
350.72	102.81
350.947	97.81
351.174	88.81
351.402	86.81
351.629	98.81
351.856	91.81
352.083	94.81
352.311	108.81
352.538	102.81
352.765	97.81
352.992	92.81
353.22	88.81
353.447	95.81
353.674	86.81
353.901	94.81
354.128	98.81
354.355	89.81
354.583	108.81
354.81	84.81
355.037	86.81
355.264	85.81
355.491	97.81
355.718	100.81
355.945	87.81
356.172	90.81
356.399	92.81
356.626	105.81
356.853	96.81
357.08	104.81
357.307	91.81
357.534	88.81
357.761	95.81
357.988	112.81
358.215	105.81
358.441	114.81
358.668	104.81
358.895	101.81
359.122	92.81
359.349	92.81
359.576	86.81
359.802	92.81
360.029	109.81
360.256	92.81
360.483	94.81
360.709	88.81
360.936	102.81
361.163	96.81
361.39	100.81
361.616	93.81
361.843	111.81
362.07	130.81
362.296	145.81
362.523	158.81
362.749	195.81
362.976	206.81
363.203	228.81
363.429	148.81
363.656	148.81
363.882	144.81
364.109	184.81
364.335	264.81
364.562	293.81
364.788	178.81
365.015	108.81
365.241	95.81
365.468	102.81
365.694	105.81
365.92	86.81
366.147	110.81
366.373	97.81
366.599	99.81
366.826	122.81
367.052	97.81
367.278	110.81
367.505	90.81
367.731	106.81
367.957	95.81
368.184	107.81
368.41	95.81
368.636	108.81
368.862	120.81
369.089	87.81
369.315	95.81
369.541	106.81
369.767	110.81
369.993	98.81
370.219	87.81
370.445	110.81
370.672	126.81
370.898	117.81
371.124	108.81
371.35	99.81
371.576	92.81
371.802	90.81
372.028	98.81
372.254	97.81
372.48	104.81
372.706	108.81
372.932	101.81
373.158	95.81
373.384	123.81
373.61	148.81
373.835	153.81
374.061	115.81
374.287	104.81
374.513	101.81
374.739	97.81
374.965	104.81
375.191	114.81
375.416	123.81
375.642	101.81
375.868	113.81
376.094	116.81
376.319	110.81
376.545	109.81
376.771	109.81
376.997	96.81
377.222	93.81
377.448	88.81
377.674	110.81
377.899	91.81
378.125	88.81
378.35	101.81
378.576	84.81
378.802	82.81
379.027	95.81
379.253	100.81
379.478	100.81
379.704	109.81
379.929	86.81
380.155	84.81
380.38	93.81
380.606	115.81
380.831	98.81
381.057	113.81
381.282	96.81
381.507	97.81
381.733	110.81
381.958	106.81
382.184	108.81
382.409	111.81
382.634	122.81
382.86	104.81
383.085	115.81
383.31	128.81
383.535	114.81
383.761	117.81
383.986	117.81
384.211	102.81
384.436	121.81
384.662	108.81
384.887	101.81
385.112	102.81
385.337	116.81
385.562	125.81
385.787	123.81
386.013	119.81
386.238	116.81
386.463	122.81
386.688	119.81
386.913	120.81
387.138	125.81
387.363	134.81
387.588	129.81
387.813	133.81
388.038	128.81
388.263	120.81
388.488	110.81
388.713	120.81
388.938	117.81
389.163	101.81
389.387	98.81
389.612	98.81
389.837	100.81
390.062	116.81
390.287	119.81
390.512	116.81
390.736	105.81
390.961	112.81
391.186	108.81
391.411	101.81
391.636	110.81
391.86	110.81
392.085	132.81
392.31	144.81
392.534	186.81
392.759	231.81
392.984	348.81
393.208	610.81
393.433	850.81
393.658	687.81
393.882	335.81
394.107	218.81
394.331	202.81
394.556	191.81
394.78	174.81
395.005	151.81
395.229	140.81
395.454	148.81
395.678	171.81
395.903	230.81
396.127	235.81
396.352	312.81
396.576	389.81
396.801	606.81
397.025	699.81
397.249	409.81
397.474	238.81
397.698	188.81
397.922	154.81
398.147	124.81
398.371	114.81
398.595	117.81
398.82	108.81
399.044	100.81
399.268	109.81
399.492	104.81
399.717	118.81
399.941	93.81
400.165	120.81
400.389	102.81
400.613	108.81
400.837	98.81
401.062	108.81
401.286	101.81
401.51	103.81
401.734	92.81
401.958	101.81
402.182	101.81
402.406	104.81
402.63	92.81
402.854	100.81
403.078	114.81
403.302	113.81
403.526	114.81
403.75	121.81
403.974	93.81
404.198	101.81
404.422	116.81
404.645	124.81
404.869	111.81
405.093	89.81
405.317	96.81
405.541	103.81
405.765	89.81
405.988	105.81
406.212	103.81
406.436	90.81
406.66	105.81
406.883	88.81
407.107	101.81
407.331	115.81
407.555	120.81
407.778	171.81
408.002	172.81
408.226	125.81
408.449	88.81
408.673	103.81
408.896	109.81
409.12	117.81
409.344	131.81
409.567	156.81
409.791	177.81
410.014	153.81
410.238	151.81
410.461	128.81
410.685	110.81
410.908	104.81
411.132	122.81
411.355	104.81
411.578	101.81
411.802	116.81
412.025	113.81
412.249	111.81
412.472	76.81
412.695	98.81
412.919	108.81
413.142	115.81
413.365	91.81
413.589	87.81
413.812	87.81
414.035	85.81
414.258	101.81
414.482	101.81
414.705	104.81
414.928	84.81
415.151	78.81
415.374	101.81
415.597	92.81
415.821	99.81
416.044	96.81
416.267	99.81
416.49	102.81
416.713	95.81
416.936	108.81
417.159	100.81
417.382	95.81
417.605	100.81
417.828	104.81
418.051	103.81
418.274	93.81
418.497	95.81
418.72	85.81
418.943	105.81
419.166	102.81
419.389	113.81
419.611	96.81
419.834	95.81
420.057	101.81
420.28	108.81
420.503	112.81
420.726	124.81
420.948	134.81
421.171	132.81
421.394	157.81
421.617	213.81
421.839	222.81
422.062	278.81
422.285	405.81
422.507	659.81
422.73	868.81
422.953	782.81
423.175	528.81
423.398	322.81
423.621	203.81
423.843	158.81
424.066	153.81
424.288	159.81
424.511	134.81
424.733	120.81
424.956	130.81
425.178	111.81
425.401	111.81
425.623	124.81
425.846	105.81
426.068	112.81
426.291	105.81
426.513	105.81
426.735	105.81
426.958	109.81
427.18	99.81
427.402	100.81
427.625	118.81
427.847	128.81
428.069	148.81
428.292	230.81
428.514	273.81
428.736	179.81
428.958	240.81
429.181	232.81
429.403	148.81
429.625	134.81
429.847	232.81
430.069	346.81
430.292	403.81
430.514	370.81
430.736	256.81
430.958	272.81
431.18	150.81
431.402	122.81
431.624	125.81
431.846	213.81
432.068	272.81
432.29	156.81
432.512	108.81
432.734	113.81
432.956	100.81
433.178	82.81
433.4	92.81
433.622	96.81
433.844	99.81
434.066	94.81
434.287	91.81
434.509	81.81
434.731	95.81
434.953	113.81
435.175	110.81
435.397	115.81
435.618	126.81
435.84	138.81
436.062	110.81
436.284	101.81
436.505	106.81
436.727	102.81
436.949	93.81
437.17	80.81
437.392	89.81
437.614	98.81
437.835	101.81
438.057	103.81
438.278	108.81
438.5	108.81
438.721	84.81
438.943	102.81
439.165	92.81
439.386	105.81
439.608	98.81
439.829	108.81
440.05	87.81
440.272	91.81
440.493	102.81
440.715	97.81
440.936	96.81
441.158	98.81
441.379	108.81
441.6	101.81
441.822	108.81
442.043	122.81
442.264	158.81
442.486	262.81
442.707	399.81
442.928	255.81
443.149	203.81
443.371	332.81
443.592	642.81
443.813	533.81
444.034	193.81
444.255	145.81
444.476	117.81
444.698	116.81
444.919	136.81
445.14	242.81
445.361	428.81
445.582	759.81
445.803	649.81
446.024	257.81
446.245	150.81
446.466	100.81
446.687	100.81
446.908	96.81
447.129	110.81
447.35	97.81
447.571	99.81
447.792	86.81
448.013	87.81
448.234	97.81
448.455	100.81
448.675	91.81
448.896	92.81
449.117	85.81
449.338	95.81
449.559	92.81
449.779	76.81
450	83.81
450.221	89.81
450.442	100.81
450.662	84.81
450.883	102.81
451.104	98.81
451.324	100.81
451.545	103.81
451.766	96.81
451.986	93.81
452.207	116.81
452.428	103.81
452.648	120.81
452.869	168.81
453.089	141.81
453.31	112.81
453.53	105.81
453.751	122.81
453.971	104.81
454.192	82.81
454.412	92.81
454.633	95.81
454.853	100.81
455.073	87.81
455.294	93.81
455.514	89.81
455.734	88.81
455.955	97.81
456.175	77.81
456.395	97.81
456.616	94.81
456.836	93.81
457.056	89.81
457.276	104.81
457.497	116.81
457.717	130.81
457.937	200.81
458.157	294.81
458.377	287.81
458.598	264.81
458.818	297.81
459.038	154.81
459.258	121.81
459.478	82.81
459.698	87.81
459.918	106.81
460.138	84.81
460.358	100.81
460.578	114.81
460.798	178.81
461.018	156.81
461.238	108.81
461.458	87.81
461.678	85.81
461.898	81.81
462.118	97.81
462.338	97.81
462.558	92.81
462.777	95.81
462.997	103.81
463.217	91.81
463.437	87.81
463.657	80.81
463.876	69.81
464.096	83.81
464.316	98.81
464.536	94.81
464.755	102.81
464.975	111.81
465.195	100.81
465.414	97.81
465.634	87.81
465.854	93.81
466.073	104.81
466.293	87.81
466.512	89.81
466.732	78.81
466.951	94.81
467.171	94.81
467.391	90.81
467.61	102.81
467.829	96.81
468.049	101.81
468.268	92.81
468.488	105.81
468.707	120.81
468.927	88.81
469.146	95.81
469.365	85.81
469.585	103.81
469.804	89.81
470.023	112.81
470.243	96.81
470.462	98.81
470.681	94.81
470.901	85.81
471.12	103.81
471.339	86.81
471.558	80.81
471.777	96.81
471.997	115.81
472.216	102.81
472.435	96.81
472.654	104.81
472.873	96.81
473.092	101.81
473.311	83.81
473.53	83.81
473.749	80.81
473.968	92.81
474.187	99.81
474.406	104.81
474.625	100.81
474.844	77.81
475.063	100.81
475.282	99.81
475.501	89.81
475.72	98.81
475.939	102.81
476.158	95.81
476.377	96.81
476.596	79.81
476.814	81.81
477.033	101.81
477.252	102.81
477.471	78.81
477.69	100.81
477.908	88.81
478.127	93.81
478.346	90.81
478.564	88.81
478.783	90.81
479.002	79.81
479.22	96.81
479.439	88.81
479.658	79.81
479.876	97.81
480.095	102.81
480.313	94.81
480.532	102.81
480.751	103.81
480.969	99.81
481.188	99.81
481.406	107.81
481.624	93.81
481.843	96.81
482.061	94.81
482.28	101.81
482.498	98.81
482.717	92.81
482.935	99.81
483.153	96.81
483.372	113.81
483.59	110.81
483.808	109.81
484.027	118.81
484.245	109.81
484.463	102.81
484.681	120.81
484.9	121.81
485.118	108.81
485.336	112.81
485.554	96.81
485.772	101.81
485.99	102.81
486.209	102.81
486.427	116.81
486.645	103.81
486.863	79.81
487.081	104.81
487.299	116.81
487.517	137.81
487.735	224.81
487.953	464.81
488.171	395.81
488.389	152.81
488.607	130.81
488.825	101.81
489.043	108.81
489.261	100.81
489.479	99.81
489.696	105.81
489.914	110.81
490.132	100.81
490.35	114.81
490.568	99.81
490.786	104.81
491.003	112.81
491.221	96.81
491.439	100.81
491.657	98.81
491.874	100.81
492.092	105.81
492.31	106.81
492.527	97.81
492.745	106.81
492.963	103.81
493.18	93.81
493.398	96.81
493.615	103.81
493.833	97.81
494.05	93.81
494.268	94.81
494.485	85.81
494.703	110.81
494.92	105.81
495.138	92.81
495.355	98.81
495.573	97.81
495.79	102.81
496.008	92.81
496.225	112.81
496.442	119.81
496.66	102.81
496.877	119.81
497.094	109.81
497.312	92.81
497.529	91.81
497.746	102.81
497.963	111.81
498.181	108.81
498.398	113.81
498.615	98.81
498.832	95.81
499.049	97.81
499.267	120.81
499.484	101.81
499.701	105.81
499.918	99.81
500.135	110.81
500.352	110.81
500.569	103.81
500.786	96.81
501.003	105.81
501.22	95.81
501.437	103.81
501.654	120.81
501.871	83.81
502.088	101.81
502.305	86.81
502.522	108.81
502.739	112.81
502.956	91.81
503.172	110.81
503.389	120.81
503.606	113.81
503.823	114.81
504.04	158.81
504.256	303.81
504.473	354.81
504.69	165.81
504.907	120.81
505.123	100.81
505.34	104.81
505.557	116.81
505.773	84.81
505.99	86.81
506.207	97.81
506.423	97.81
506.64	100.81
506.856	94.81
507.073	97.81
507.289	93.81
507.506	96.81
507.722	83.81
507.939	93.81
508.155	100.81
508.372	89.81
508.588	93.81
508.805	94.81
509.021	93.81
509.238	85.81
509.454	89.81
509.67	99.81
509.887	88.81
510.103	94.81
510.319	104.81
510.536	101.81
510.752	93.81
510.968	101.81
511.184	106.81
511.401	94.81
511.617	105.81
511.833	94.81
512.049	112.81
512.265	95.81
512.481	90.81
512.698	90.81
