Data from CBS_1_HRD10591_00030.txt Node
Date: Mon Jan 19 14:04:03 EST 2026
User: Yrep
Spectrometer: HR+D1059
Trigger mode: 1
Integration Time (sec): 1.000000E-1
Scans to average: 1
Electric dark correction enabled: true
Nonlinearity correction enabled: false
Boxcar width: 0
XAxis mode: Wavelengths
Number of Pixels in Spectrum: 2048
>>>>>Begin Spectral Data<<<<<
223.165	-20.25
223.4	-20.25
223.635	-20.25
223.869	-18.25
224.104	-17.25
224.338	-14.25
224.573	-21.25
224.808	-17.25
225.042	-6.25
225.277	-13.25
225.511	2.75
225.746	10.75
225.98	-1.25
226.215	5.75
226.449	24.75
226.683	18.75
226.918	26.75
227.152	39.75
227.387	32.75
227.621	53.75
227.856	48.75
228.09	32.75
228.324	54.75
228.559	49.75
228.793	60.75
229.027	50.75
229.262	71.75
229.496	70.75
229.73	69.75
229.964	72.75
230.199	73.75
230.433	70.75
230.667	68.75
230.901	60.75
231.136	75.75
231.37	95.75
231.604	82.75
231.838	82.75
232.072	70.75
232.306	71.75
232.541	68.75
232.775	77.75
233.009	74.75
233.243	92.75
233.477	77.75
233.711	69.75
233.945	69.75
234.179	82.75
234.413	64.75
234.647	74.75
234.881	74.75
235.115	79.75
235.349	78.75
235.583	68.75
235.817	81.75
236.051	64.75
236.285	72.75
236.519	76.75
236.753	71.75
236.987	75.75
237.221	70.75
237.455	71.75
237.689	78.75
237.922	81.75
238.156	78.75
238.39	81.75
238.624	77.75
238.858	68.75
239.091	62.75
239.325	66.75
239.559	81.75
239.793	66.75
240.027	97.75
240.26	80.75
240.494	68.75
240.728	73.75
240.961	72.75
241.195	63.75
241.429	80.75
241.662	77.75
241.896	71.75
242.13	63.75
242.363	70.75
242.597	79.75
242.83	79.75
243.064	73.75
243.298	81.75
243.531	57.75
243.765	65.75
243.998	74.75
244.232	64.75
244.465	64.75
244.699	62.75
244.932	68.75
245.166	80.75
245.399	74.75
245.633	65.75
245.866	63.75
246.099	67.75
246.333	78.75
246.566	73.75
246.8	80.75
247.033	74.75
247.266	81.75
247.5	73.75
247.733	84.75
247.966	76.75
248.2	73.75
248.433	78.75
248.666	73.75
248.899	72.75
249.133	63.75
249.366	73.75
249.599	69.75
249.832	79.75
250.066	74.75
250.299	88.75
250.532	85.75
250.765	76.75
250.998	65.75
251.231	68.75
251.465	85.75
251.698	57.75
251.931	66.75
252.164	78.75
252.397	78.75
252.63	72.75
252.863	86.75
253.096	60.75
253.329	72.75
253.562	71.75
253.795	93.75
254.028	82.75
254.261	78.75
254.494	69.75
254.727	67.75
254.96	77.75
255.193	82.75
255.426	72.75
255.659	62.75
255.892	50.75
256.124	72.75
256.357	75.75
256.59	82.75
256.823	68.75
257.056	91.75
257.289	76.75
257.521	82.75
257.754	71.75
257.987	72.75
258.22	82.75
258.452	68.75
258.685	82.75
258.918	88.75
259.151	81.75
259.383	83.75
259.616	71.75
259.849	71.75
260.081	62.75
260.314	72.75
260.547	66.75
260.779	82.75
261.012	86.75
261.244	94.75
261.477	85.75
261.71	89.75
261.942	82.75
262.175	80.75
262.407	72.75
262.64	89.75
262.872	62.75
263.105	78.75
263.337	79.75
263.57	77.75
263.802	77.75
264.035	83.75
264.267	83.75
264.499	87.75
264.732	75.75
264.964	77.75
265.197	93.75
265.429	84.75
265.661	76.75
265.894	78.75
266.126	97.75
266.358	76.75
266.591	68.75
266.823	81.75
267.055	82.75
267.287	83.75
267.52	87.75
267.752	74.75
267.984	76.75
268.216	73.75
268.448	90.75
268.681	75.75
268.913	72.75
269.145	85.75
269.377	90.75
269.609	75.75
269.841	91.75
270.073	72.75
270.306	80.75
270.538	84.75
270.77	94.75
271.002	78.75
271.234	72.75
271.466	71.75
271.698	70.75
271.93	82.75
272.162	88.75
272.394	69.75
272.626	66.75
272.858	82.75
273.09	80.75
273.322	79.75
273.553	97.75
273.785	77.75
274.017	80.75
274.249	81.75
274.481	73.75
274.713	85.75
274.945	85.75
275.176	71.75
275.408	74.75
275.64	76.75
275.872	80.75
276.104	93.75
276.335	76.75
276.567	78.75
276.799	94.75
277.031	82.75
277.262	75.75
277.494	72.75
277.726	87.75
277.957	84.75
278.189	92.75
278.421	90.75
278.652	87.75
278.884	85.75
279.115	71.75
279.347	81.75
279.579	82.75
279.81	66.75
280.042	87.75
280.273	83.75
280.505	88.75
280.736	75.75
280.968	80.75
281.199	92.75
281.431	87.75
281.662	88.75
281.894	82.75
282.125	82.75
282.356	92.75
282.588	72.75
282.819	86.75
283.051	83.75
283.282	83.75
283.513	79.75
283.745	87.75
283.976	98.75
284.207	84.75
284.439	77.75
284.67	73.75
284.901	88.75
285.132	89.75
285.364	84.75
285.595	86.75
285.826	74.75
286.057	86.75
286.288	92.75
286.52	78.75
286.751	91.75
286.982	71.75
287.213	79.75
287.444	94.75
287.675	75.75
287.906	78.75
288.138	70.75
288.369	78.75
288.6	84.75
288.831	80.75
289.062	90.75
289.293	79.75
289.524	94.75
289.755	92.75
289.986	90.75
290.217	69.75
290.448	90.75
290.679	83.75
290.91	77.75
291.141	85.75
291.371	95.75
291.602	91.75
291.833	70.75
292.064	71.75
292.295	77.75
292.526	60.75
292.757	76.75
292.987	72.75
293.218	82.75
293.449	84.75
293.68	84.75
293.91	73.75
294.141	92.75
294.372	97.75
294.603	82.75
294.833	86.75
295.064	87.75
295.295	77.75
295.525	89.75
295.756	79.75
295.987	86.75
296.217	89.75
296.448	83.75
296.679	81.75
296.909	94.75
297.14	74.75
297.37	80.75
297.601	75.75
297.831	91.75
298.062	79.75
298.292	93.75
298.523	80.75
298.753	90.75
298.984	78.75
299.214	83.75
299.445	93.75
299.675	103.75
299.905	95.75
300.136	80.75
300.366	92.75
300.597	96.75
300.827	93.75
301.057	85.75
301.288	86.75
301.518	87.75
301.748	84.75
301.979	95.75
302.209	78.75
302.439	79.75
302.669	96.75
302.9	85.75
303.13	92.75
303.36	87.75
303.59	73.75
303.82	79.75
304.051	94.75
304.281	99.75
304.511	106.75
304.741	88.75
304.971	77.75
305.201	85.75
305.431	87.75
305.661	84.75
305.891	75.75
306.121	68.75
306.352	85.75
306.582	71.75
306.812	77.75
307.042	79.75
307.272	83.75
307.502	72.75
307.731	79.75
307.961	72.75
308.191	77.75
308.421	88.75
308.651	87.75
308.881	84.75
309.111	74.75
309.341	96.75
309.571	84.75
309.8	88.75
310.03	80.75
310.26	85.75
310.49	83.75
310.72	86.75
310.949	65.75
311.179	74.75
311.409	92.75
311.639	83.75
311.868	90.75
312.098	97.75
312.328	71.75
312.557	78.75
312.787	78.75
313.017	84.75
313.246	89.75
313.476	82.75
313.706	80.75
313.935	78.75
314.165	82.75
314.394	77.75
314.624	83.75
314.853	67.75
315.083	94.75
315.312	80.75
315.542	91.75
315.771	87.75
316.001	94.75
316.23	96.75
316.46	75.75
316.689	66.75
316.919	80.75
317.148	65.75
317.377	82.75
317.607	98.75
317.836	87.75
318.065	74.75
318.295	100.75
318.524	72.75
318.753	75.75
318.983	86.75
319.212	74.75
319.441	79.75
319.67	74.75
319.9	80.75
320.129	86.75
320.358	84.75
320.587	104.75
320.816	68.75
321.046	72.75
321.275	96.75
321.504	87.75
321.733	86.75
321.962	82.75
322.191	86.75
322.42	78.75
322.649	81.75
322.878	81.75
323.108	82.75
323.337	61.75
323.566	75.75
323.795	77.75
324.024	86.75
324.253	64.75
324.482	84.75
324.71	69.75
324.939	89.75
325.168	78.75
325.397	74.75
325.626	60.75
325.855	90.75
326.084	70.75
326.313	89.75
326.542	84.75
326.77	90.75
326.999	94.75
327.228	74.75
327.457	74.75
327.686	78.75
327.914	86.75
328.143	96.75
328.372	92.75
328.6	80.75
328.829	80.75
329.058	82.75
329.287	74.75
329.515	70.75
329.744	74.75
329.972	68.75
330.201	79.75
330.43	89.75
330.658	92.75
330.887	88.75
331.115	88.75
331.344	79.75
331.572	80.75
331.801	97.75
332.03	81.75
332.258	78.75
332.486	86.75
332.715	92.75
332.943	96.75
333.172	84.75
333.4	90.75
333.629	75.75
333.857	81.75
334.085	82.75
334.314	72.75
334.542	84.75
334.771	78.75
334.999	84.75
335.227	94.75
335.455	84.75
335.684	73.75
335.912	86.75
336.14	98.75
336.369	93.75
336.597	92.75
336.825	82.75
337.053	81.75
337.281	83.75
337.51	84.75
337.738	85.75
337.966	85.75
338.194	72.75
338.422	78.75
338.65	80.75
338.878	93.75
339.106	89.75
339.334	88.75
339.562	67.75
339.79	74.75
340.018	84.75
340.246	89.75
340.474	82.75
340.702	83.75
340.93	83.75
341.158	75.75
341.386	79.75
341.614	81.75
341.842	88.75
342.07	78.75
342.298	68.75
342.526	78.75
342.754	87.75
342.981	80.75
343.209	75.75
343.437	99.75
343.665	74.75
343.893	78.75
344.12	95.75
344.348	93.75
344.576	79.75
344.804	93.75
345.031	72.75
345.259	79.75
345.487	81.75
345.714	80.75
345.942	71.75
346.17	80.75
346.397	71.75
346.625	83.75
346.853	68.75
347.08	87.75
347.308	86.75
347.535	81.75
347.763	87.75
347.99	81.75
348.218	99.75
348.445	76.75
348.673	81.75
348.9	84.75
349.128	78.75
349.355	81.75
349.583	78.75
349.81	85.75
350.037	79.75
350.265	92.75
350.492	84.75
350.72	85.75
350.947	90.75
351.174	85.75
351.402	88.75
351.629	71.75
351.856	81.75
352.083	79.75
352.311	94.75
352.538	83.75
352.765	78.75
352.992	82.75
353.22	86.75
353.447	87.75
353.674	101.75
353.901	88.75
354.128	90.75
354.355	70.75
354.583	70.75
354.81	80.75
355.037	80.75
355.264	77.75
355.491	87.75
355.718	92.75
355.945	75.75
356.172	77.75
356.399	85.75
356.626	77.75
356.853	78.75
357.08	69.75
357.307	77.75
357.534	92.75
357.761	95.75
357.988	92.75
358.215	86.75
358.441	100.75
358.668	70.75
358.895	77.75
359.122	75.75
359.349	72.75
359.576	78.75
359.802	86.75
360.029	81.75
360.256	71.75
360.483	81.75
360.709	82.75
360.936	76.75
361.163	85.75
361.39	78.75
361.616	92.75
361.843	74.75
362.07	89.75
362.296	96.75
362.523	83.75
362.749	82.75
362.976	104.75
363.203	96.75
363.429	88.75
363.656	71.75
363.882	87.75
364.109	71.75
364.335	89.75
364.562	95.75
364.788	101.75
365.015	88.75
365.241	95.75
365.468	89.75
365.694	84.75
365.92	86.75
366.147	79.75
366.373	94.75
366.599	77.75
366.826	84.75
367.052	90.75
367.278	78.75
367.505	93.75
367.731	79.75
367.957	88.75
368.184	90.75
368.41	89.75
368.636	82.75
368.862	87.75
369.089	80.75
369.315	81.75
369.541	84.75
369.767	92.75
369.993	82.75
370.219	84.75
370.445	86.75
370.672	82.75
370.898	79.75
371.124	79.75
371.35	83.75
371.576	92.75
371.802	92.75
372.028	86.75
372.254	88.75
372.48	93.75
372.706	76.75
372.932	94.75
373.158	81.75
373.384	79.75
373.61	96.75
373.835	74.75
374.061	88.75
374.287	87.75
374.513	86.75
374.739	68.75
374.965	73.75
375.191	89.75
375.416	72.75
375.642	74.75
375.868	80.75
376.094	93.75
376.319	72.75
376.545	91.75
376.771	89.75
376.997	90.75
377.222	63.75
377.448	76.75
377.674	82.75
377.899	88.75
378.125	93.75
378.35	75.75
378.576	83.75
378.802	91.75
379.027	75.75
379.253	79.75
379.478	88.75
379.704	87.75
379.929	80.75
380.155	72.75
380.38	104.75
380.606	97.75
380.831	75.75
381.057	98.75
381.282	84.75
381.507	82.75
381.733	79.75
381.958	85.75
382.184	81.75
382.409	89.75
382.634	73.75
382.86	75.75
383.085	86.75
383.31	83.75
383.535	77.75
383.761	65.75
383.986	70.75
384.211	77.75
384.436	78.75
384.662	88.75
384.887	92.75
385.112	80.75
385.337	82.75
385.562	78.75
385.787	71.75
386.013	90.75
386.238	90.75
386.463	72.75
386.688	87.75
386.913	86.75
387.138	83.75
387.363	84.75
387.588	75.75
387.813	90.75
388.038	76.75
388.263	80.75
388.488	83.75
388.713	77.75
388.938	83.75
389.163	86.75
389.387	87.75
389.612	70.75
389.837	70.75
390.062	73.75
390.287	87.75
390.512	84.75
390.736	90.75
390.961	66.75
391.186	77.75
391.411	88.75
391.636	88.75
391.86	82.75
392.085	76.75
392.31	78.75
392.534	83.75
392.759	106.75
392.984	118.75
393.208	134.75
393.433	165.75
393.658	129.75
393.882	92.75
394.107	90.75
394.331	94.75
394.556	99.75
394.78	80.75
395.005	74.75
395.229	77.75
395.454	90.75
395.678	93.75
395.903	95.75
396.127	89.75
396.352	104.75
396.576	102.75
396.801	131.75
397.025	149.75
397.249	97.75
397.474	93.75
397.698	73.75
397.922	82.75
398.147	81.75
398.371	84.75
398.595	78.75
398.82	75.75
399.044	85.75
399.268	83.75
399.492	69.75
399.717	70.75
399.941	82.75
400.165	82.75
400.389	69.75
400.613	82.75
400.837	82.75
401.062	93.75
401.286	90.75
401.51	77.75
401.734	78.75
401.958	94.75
402.182	71.75
402.406	93.75
402.63	87.75
402.854	80.75
403.078	72.75
403.302	84.75
403.526	81.75
403.75	85.75
403.974	77.75
404.198	81.75
404.422	73.75
404.645	86.75
404.869	79.75
405.093	82.75
405.317	99.75
405.541	86.75
405.765	77.75
405.988	70.75
406.212	80.75
406.436	88.75
406.66	73.75
406.883	96.75
407.107	86.75
407.331	69.75
407.555	85.75
407.778	95.75
408.002	85.75
408.226	79.75
408.449	82.75
408.673	94.75
408.896	78.75
409.12	98.75
409.344	84.75
409.567	110.75
409.791	71.75
410.014	83.75
410.238	87.75
410.461	83.75
410.685	91.75
410.908	80.75
411.132	81.75
411.355	86.75
411.578	72.75
411.802	90.75
412.025	76.75
412.249	75.75
412.472	82.75
412.695	82.75
412.919	86.75
413.142	82.75
413.365	82.75
413.589	86.75
413.812	73.75
414.035	77.75
414.258	90.75
414.482	81.75
414.705	78.75
414.928	78.75
415.151	93.75
415.374	80.75
415.597	74.75
415.821	92.75
416.044	78.75
416.267	78.75
416.49	88.75
416.713	80.75
416.936	93.75
417.159	72.75
417.382	78.75
417.605	73.75
417.828	66.75
418.051	74.75
418.274	67.75
418.497	74.75
418.72	76.75
418.943	78.75
419.166	77.75
419.389	83.75
419.611	86.75
419.834	79.75
420.057	93.75
420.28	95.75
420.503	80.75
420.726	96.75
420.948	86.75
421.171	94.75
421.394	99.75
421.617	93.75
421.839	104.75
422.062	109.75
422.285	108.75
422.507	156.75
422.73	180.75
422.953	183.75
423.175	124.75
423.398	98.75
423.621	96.75
423.843	93.75
424.066	112.75
424.288	84.75
424.511	86.75
424.733	66.75
424.956	90.75
425.178	99.75
425.401	83.75
425.623	91.75
425.846	86.75
426.068	72.75
426.291	75.75
426.513	70.75
426.735	88.75
426.958	82.75
427.18	88.75
427.402	100.75
427.625	87.75
427.847	81.75
428.069	77.75
428.292	95.75
428.514	112.75
428.736	102.75
428.958	106.75
429.181	115.75
429.403	78.75
429.625	79.75
429.847	83.75
430.069	114.75
430.292	116.75
430.514	104.75
430.736	112.75
430.958	94.75
431.18	77.75
431.402	88.75
431.624	99.75
431.846	93.75
432.068	87.75
432.29	82.75
432.512	80.75
432.734	79.75
432.956	80.75
433.178	82.75
433.4	80.75
433.622	81.75
433.844	84.75
434.066	86.75
434.287	71.75
434.509	92.75
434.731	88.75
434.953	82.75
435.175	91.75
435.397	86.75
435.618	80.75
435.84	92.75
436.062	74.75
436.284	82.75
436.505	76.75
436.727	87.75
436.949	74.75
437.17	85.75
437.392	78.75
437.614	86.75
437.835	85.75
438.057	79.75
438.278	84.75
438.5	93.75
438.721	101.75
438.943	87.75
439.165	88.75
439.386	81.75
439.608	85.75
439.829	84.75
440.05	76.75
440.272	93.75
440.493	87.75
440.715	85.75
440.936	71.75
441.158	90.75
441.379	78.75
441.6	80.75
441.822	77.75
442.043	74.75
442.264	74.75
442.486	108.75
442.707	98.75
442.928	86.75
443.149	95.75
443.371	121.75
443.592	135.75
443.813	136.75
444.034	76.75
444.255	82.75
444.476	81.75
444.698	75.75
444.919	95.75
445.14	161.75
445.361	172.75
445.582	158.75
445.803	153.75
446.024	95.75
446.245	89.75
446.466	96.75
446.687	81.75
446.908	80.75
447.129	85.75
447.35	92.75
447.571	88.75
447.792	92.75
448.013	80.75
448.234	92.75
448.455	81.75
448.675	81.75
448.896	82.75
449.117	87.75
449.338	92.75
449.559	79.75
449.779	69.75
450	85.75
450.221	85.75
450.442	80.75
450.662	80.75
450.883	83.75
451.104	92.75
451.324	89.75
451.545	72.75
451.766	72.75
451.986	73.75
452.207	79.75
452.428	93.75
452.648	82.75
452.869	72.75
453.089	105.75
453.31	83.75
453.53	89.75
453.751	83.75
453.971	75.75
454.192	59.75
454.412	70.75
454.633	76.75
454.853	76.75
455.073	72.75
455.294	81.75
455.514	84.75
455.734	86.75
455.955	86.75
456.175	90.75
456.395	80.75
456.616	83.75
456.836	81.75
457.056	73.75
457.276	74.75
457.497	81.75
457.717	71.75
457.937	95.75
458.157	108.75
458.377	90.75
458.598	84.75
458.818	98.75
459.038	81.75
459.258	82.75
459.478	70.75
459.698	88.75
459.918	80.75
460.138	89.75
460.358	80.75
460.578	75.75
460.798	90.75
461.018	92.75
461.238	70.75
461.458	74.75
461.678	76.75
461.898	84.75
462.118	95.75
462.338	77.75
462.558	82.75
462.777	86.75
462.997	74.75
463.217	90.75
463.437	74.75
463.657	69.75
463.876	62.75
464.096	82.75
464.316	80.75
464.536	79.75
464.755	73.75
464.975	83.75
465.195	88.75
465.414	88.75
465.634	77.75
465.854	77.75
466.073	82.75
466.293	75.75
466.512	80.75
466.732	78.75
466.951	77.75
467.171	79.75
467.391	76.75
467.61	76.75
467.829	77.75
468.049	88.75
468.268	68.75
468.488	86.75
468.707	83.75
468.927	83.75
469.146	85.75
469.365	82.75
469.585	77.75
469.804	81.75
470.023	84.75
470.243	86.75
470.462	68.75
470.681	83.75
470.901	89.75
471.12	94.75
471.339	88.75
471.558	70.75
471.777	74.75
471.997	81.75
472.216	76.75
472.435	72.75
472.654	82.75
472.873	87.75
473.092	87.75
473.311	92.75
473.53	75.75
473.749	66.75
473.968	80.75
474.187	77.75
474.406	68.75
474.625	68.75
474.844	80.75
475.063	76.75
475.282	74.75
475.501	71.75
475.72	88.75
475.939	83.75
476.158	91.75
476.377	79.75
476.596	81.75
476.814	72.75
477.033	84.75
477.252	91.75
477.471	91.75
477.69	96.75
477.908	80.75
478.127	96.75
478.346	75.75
478.564	82.75
478.783	74.75
479.002	73.75
479.22	80.75
479.439	82.75
479.658	87.75
479.876	86.75
480.095	65.75
480.313	71.75
480.532	82.75
480.751	88.75
480.969	74.75
481.188	90.75
481.406	79.75
481.624	93.75
481.843	97.75
482.061	70.75
482.28	87.75
482.498	78.75
482.717	84.75
482.935	83.75
483.153	83.75
483.372	72.75
483.59	80.75
483.808	84.75
484.027	89.75
484.245	89.75
484.463	88.75
484.681	78.75
484.9	86.75
485.118	93.75
485.336	93.75
485.554	92.75
485.772	78.75
485.99	76.75
486.209	74.75
486.427	80.75
486.645	71.75
486.863	74.75
487.081	72.75
487.299	84.75
487.517	92.75
487.735	93.75
487.953	130.75
488.171	116.75
488.389	86.75
488.607	94.75
488.825	80.75
489.043	77.75
489.261	99.75
489.479	78.75
489.696	84.75
489.914	86.75
490.132	98.75
490.35	87.75
490.568	82.75
490.786	76.75
491.003	71.75
491.221	80.75
491.439	79.75
491.657	90.75
491.874	72.75
492.092	105.75
492.31	93.75
492.527	79.75
492.745	82.75
492.963	75.75
493.18	78.75
493.398	84.75
493.615	91.75
493.833	91.75
494.05	77.75
494.268	88.75
494.485	93.75
494.703	92.75
494.92	79.75
495.138	86.75
495.355	89.75
495.573	84.75
495.79	61.75
496.008	90.75
496.225	81.75
496.442	73.75
496.66	78.75
496.877	80.75
497.094	94.75
497.312	85.75
497.529	81.75
497.746	87.75
497.963	78.75
498.181	75.75
498.398	82.75
498.615	79.75
498.832	93.75
499.049	69.75
499.267	82.75
499.484	79.75
499.701	84.75
499.918	88.75
500.135	83.75
500.352	79.75
500.569	81.75
500.786	74.75
501.003	88.75
501.22	84.75
501.437	62.75
501.654	84.75
501.871	79.75
502.088	88.75
502.305	93.75
502.522	74.75
502.739	80.75
502.956	71.75
503.172	88.75
503.389	73.75
503.606	72.75
503.823	86.75
504.04	85.75
504.256	106.75
504.473	101.75
504.69	81.75
504.907	87.75
505.123	74.75
505.34	90.75
505.557	80.75
505.773	70.75
505.99	84.75
506.207	76.75
506.423	79.75
506.64	88.75
506.856	84.75
507.073	94.75
507.289	94.75
507.506	85.75
507.722	73.75
507.939	75.75
508.155	87.75
508.372	82.75
508.588	86.75
508.805	80.75
509.021	69.75
509.238	80.75
509.454	88.75
509.67	90.75
509.887	97.75
510.103	84.75
510.319	84.75
510.536	76.75
510.752	79.75
510.968	74.75
511.184	102.75
511.401	80.75
511.617	75.75
511.833	77.75
512.049	89.75
512.265	88.75
512.481	72.75
512.698	81.75
512.914	86.75
513.13	80.75
513.346	67.75
513.562	97.75
513.778	84.75
513.994	82.75
514.21	63.75
514.426	84.75
514.642	82.75
514.858	84.75
515.074	98.75
515.29	81.75
515.506	90.75
515.721	82.75
515.937	88.75
516.153	89.75
516.369	78.75
516.585	92.75
516.801	79.75
517.016	91.75
517.232	82.75
517.448	81.75
517.664	89.75
517.879	85.75
518.095	82.75
518.311	79.75
518.527	71.75
518.742	101.75
518.958	120.75
519.173	124.75
519.389	101.75
