Data from CBS_1_HRD10591_00024.txt Node
Date: Mon Jan 19 14:04:00 EST 2026
User: Yrep
Spectrometer: HR+D1059
Trigger mode: 1
Integration Time (sec): 1.000000E-1
Scans to average: 1
Electric dark correction enabled: true
Nonlinearity correction enabled: false
Boxcar width: 0
XAxis mode: Wavelengths
Number of Pixels in Spectrum: 2048
>>>>>Begin Spectral Data<<<<<
223.165	-12.88
223.4	-12.88
223.635	-12.88
223.869	-23.88
224.104	-19.88
224.338	-15.88
224.573	-17.88
224.808	-11.88
225.042	-17.88
225.277	-8.88
225.511	6.12
225.746	1.12
225.98	10.12
226.215	3.12
226.449	8.12
226.683	28.12
226.918	31.12
227.152	41.12
227.387	28.12
227.621	29.12
227.856	35.12
228.09	53.12
228.324	54.12
228.559	61.12
228.793	51.12
229.027	64.12
229.262	66.12
229.496	74.12
229.73	80.12
229.964	70.12
230.199	69.12
230.433	57.12
230.667	81.12
230.901	82.12
231.136	77.12
231.37	72.12
231.604	74.12
231.838	81.12
232.072	96.12
232.306	82.12
232.541	85.12
232.775	86.12
233.009	81.12
233.243	85.12
233.477	80.12
233.711	74.12
233.945	70.12
234.179	66.12
234.413	80.12
234.647	82.12
234.881	79.12
235.115	73.12
235.349	82.12
235.583	80.12
235.817	76.12
236.051	78.12
236.285	70.12
236.519	71.12
236.753	75.12
236.987	67.12
237.221	92.12
237.455	77.12
237.689	68.12
237.922	63.12
238.156	85.12
238.39	69.12
238.624	78.12
238.858	97.12
239.091	72.12
239.325	88.12
239.559	80.12
239.793	74.12
240.027	82.12
240.26	86.12
240.494	78.12
240.728	65.12
240.961	68.12
241.195	92.12
241.429	87.12
241.662	81.12
241.896	74.12
242.13	68.12
242.363	82.12
242.597	75.12
242.83	79.12
243.064	74.12
243.298	85.12
243.531	74.12
243.765	72.12
243.998	66.12
244.232	68.12
244.465	72.12
244.699	75.12
244.932	69.12
245.166	78.12
245.399	86.12
245.633	86.12
245.866	70.12
246.099	69.12
246.333	83.12
246.566	57.12
246.8	66.12
247.033	77.12
247.266	66.12
247.5	72.12
247.733	74.12
247.966	89.12
248.2	64.12
248.433	79.12
248.666	60.12
248.899	66.12
249.133	94.12
249.366	78.12
249.599	92.12
249.832	69.12
250.066	82.12
250.299	75.12
250.532	78.12
250.765	70.12
250.998	90.12
251.231	68.12
251.465	77.12
251.698	78.12
251.931	76.12
252.164	90.12
252.397	75.12
252.63	78.12
252.863	69.12
253.096	69.12
253.329	72.12
253.562	80.12
253.795	81.12
254.028	83.12
254.261	66.12
254.494	73.12
254.727	80.12
254.96	86.12
255.193	78.12
255.426	72.12
255.659	76.12
255.892	78.12
256.124	81.12
256.357	75.12
256.59	82.12
256.823	79.12
257.056	82.12
257.289	75.12
257.521	83.12
257.754	68.12
257.987	83.12
258.22	89.12
258.452	79.12
258.685	77.12
258.918	74.12
259.151	67.12
259.383	87.12
259.616	87.12
259.849	72.12
260.081	82.12
260.314	83.12
260.547	74.12
260.779	90.12
261.012	93.12
261.244	85.12
261.477	64.12
261.71	74.12
261.942	70.12
262.175	95.12
262.407	72.12
262.64	77.12
262.872	73.12
263.105	76.12
263.337	85.12
263.57	71.12
263.802	81.12
264.035	84.12
264.267	76.12
264.499	89.12
264.732	63.12
264.964	80.12
265.197	77.12
265.429	74.12
265.661	72.12
265.894	81.12
266.126	80.12
266.358	79.12
266.591	92.12
266.823	80.12
267.055	76.12
267.287	99.12
267.52	70.12
267.752	83.12
267.984	87.12
268.216	75.12
268.448	81.12
268.681	81.12
268.913	91.12
269.145	79.12
269.377	78.12
269.609	70.12
269.841	86.12
270.073	80.12
270.306	77.12
270.538	84.12
270.77	87.12
271.002	80.12
271.234	86.12
271.466	82.12
271.698	90.12
271.93	91.12
272.162	68.12
272.394	73.12
272.626	78.12
272.858	84.12
273.09	85.12
273.322	89.12
273.553	84.12
273.785	88.12
274.017	69.12
274.249	92.12
274.481	81.12
274.713	94.12
274.945	84.12
275.176	84.12
275.408	73.12
275.64	79.12
275.872	86.12
276.104	92.12
276.335	79.12
276.567	64.12
276.799	70.12
277.031	82.12
277.262	78.12
277.494	88.12
277.726	97.12
277.957	69.12
278.189	73.12
278.421	96.12
278.652	76.12
278.884	85.12
279.115	94.12
279.347	92.12
279.579	89.12
279.81	84.12
280.042	81.12
280.273	84.12
280.505	91.12
280.736	62.12
280.968	92.12
281.199	84.12
281.431	95.12
281.662	96.12
281.894	69.12
282.125	91.12
282.356	84.12
282.588	86.12
282.819	78.12
283.051	89.12
283.282	92.12
283.513	84.12
283.745	76.12
283.976	86.12
284.207	94.12
284.439	79.12
284.67	72.12
284.901	72.12
285.132	84.12
285.364	80.12
285.595	93.12
285.826	72.12
286.057	89.12
286.288	82.12
286.52	94.12
286.751	74.12
286.982	91.12
287.213	82.12
287.444	84.12
287.675	80.12
287.906	87.12
288.138	94.12
288.369	74.12
288.6	81.12
288.831	84.12
289.062	60.12
289.293	99.12
289.524	90.12
289.755	84.12
289.986	84.12
290.217	84.12
290.448	88.12
290.679	89.12
290.91	84.12
291.141	74.12
291.371	73.12
291.602	74.12
291.833	78.12
292.064	86.12
292.295	84.12
292.526	98.12
292.757	84.12
292.987	80.12
293.218	74.12
293.449	81.12
293.68	93.12
293.91	91.12
294.141	100.12
294.372	89.12
294.603	84.12
294.833	86.12
295.064	88.12
295.295	88.12
295.525	79.12
295.756	82.12
295.987	89.12
296.217	90.12
296.448	84.12
296.679	100.12
296.909	81.12
297.14	87.12
297.37	84.12
297.601	85.12
297.831	84.12
298.062	79.12
298.292	81.12
298.523	78.12
298.753	82.12
298.984	89.12
299.214	64.12
299.445	84.12
299.675	104.12
299.905	107.12
300.136	80.12
300.366	107.12
300.597	82.12
300.827	81.12
301.057	89.12
301.288	79.12
301.518	87.12
301.748	84.12
301.979	87.12
302.209	97.12
302.439	78.12
302.669	80.12
302.9	80.12
303.13	86.12
303.36	97.12
303.59	84.12
303.82	73.12
304.051	92.12
304.281	84.12
304.511	89.12
304.741	87.12
304.971	86.12
305.201	102.12
305.431	81.12
305.661	82.12
305.891	82.12
306.121	79.12
306.352	79.12
306.582	96.12
306.812	69.12
307.042	83.12
307.272	92.12
307.502	80.12
307.731	91.12
307.961	94.12
308.191	90.12
308.421	84.12
308.651	87.12
308.881	79.12
309.111	95.12
309.341	86.12
309.571	86.12
309.8	92.12
310.03	90.12
310.26	66.12
310.49	100.12
310.72	83.12
310.949	79.12
311.179	90.12
311.409	86.12
311.639	83.12
311.868	92.12
312.098	90.12
312.328	84.12
312.557	89.12
312.787	76.12
313.017	85.12
313.246	84.12
313.476	90.12
313.706	86.12
313.935	93.12
314.165	89.12
314.394	85.12
314.624	82.12
314.853	89.12
315.083	80.12
315.312	80.12
315.542	85.12
315.771	95.12
316.001	90.12
316.23	103.12
316.46	74.12
316.689	76.12
316.919	76.12
317.148	90.12
317.377	80.12
317.607	90.12
317.836	96.12
318.065	100.12
318.295	93.12
318.524	93.12
318.753	78.12
318.983	77.12
319.212	89.12
319.441	80.12
319.67	94.12
319.9	94.12
320.129	86.12
320.358	102.12
320.587	85.12
320.816	78.12
321.046	74.12
321.275	90.12
321.504	89.12
321.733	98.12
321.962	88.12
322.191	82.12
322.42	96.12
322.649	88.12
322.878	89.12
323.108	82.12
323.337	87.12
323.566	78.12
323.795	77.12
324.024	87.12
324.253	90.12
324.482	78.12
324.71	79.12
324.939	80.12
325.168	87.12
325.397	84.12
325.626	101.12
325.855	80.12
326.084	94.12
326.313	93.12
326.542	96.12
326.77	78.12
326.999	94.12
327.228	83.12
327.457	89.12
327.686	81.12
327.914	78.12
328.143	81.12
328.372	90.12
328.6	85.12
328.829	73.12
329.058	80.12
329.287	93.12
329.515	75.12
329.744	80.12
329.972	94.12
330.201	80.12
330.43	96.12
330.658	93.12
330.887	84.12
331.115	93.12
331.344	89.12
331.572	79.12
331.801	79.12
332.03	86.12
332.258	84.12
332.486	77.12
332.715	84.12
332.943	79.12
333.172	93.12
333.4	83.12
333.629	77.12
333.857	95.12
334.085	92.12
334.314	104.12
334.542	81.12
334.771	109.12
334.999	107.12
335.227	96.12
335.455	106.12
335.684	88.12
335.912	102.12
336.14	120.12
336.369	106.12
336.597	92.12
336.825	83.12
337.053	81.12
337.281	82.12
337.51	87.12
337.738	82.12
337.966	99.12
338.194	84.12
338.422	86.12
338.65	89.12
338.878	77.12
339.106	77.12
339.334	86.12
339.562	95.12
339.79	89.12
340.018	88.12
340.246	81.12
340.474	86.12
340.702	82.12
340.93	95.12
341.158	95.12
341.386	83.12
341.614	77.12
341.842	91.12
342.07	78.12
342.298	89.12
342.526	82.12
342.754	84.12
342.981	77.12
343.209	76.12
343.437	86.12
343.665	81.12
343.893	80.12
344.12	103.12
344.348	84.12
344.576	83.12
344.804	93.12
345.031	86.12
345.259	82.12
345.487	94.12
345.714	79.12
345.942	95.12
346.17	87.12
346.397	82.12
346.625	84.12
346.853	92.12
347.08	97.12
347.308	86.12
347.535	94.12
347.763	105.12
347.99	87.12
348.218	78.12
348.445	86.12
348.673	83.12
348.9	90.12
349.128	89.12
349.355	78.12
349.583	85.12
349.81	81.12
350.037	101.12
350.265	84.12
350.492	81.12
350.72	87.12
350.947	84.12
351.174	82.12
351.402	91.12
351.629	93.12
351.856	92.12
352.083	65.12
352.311	82.12
352.538	102.12
352.765	92.12
352.992	105.12
353.22	80.12
353.447	85.12
353.674	84.12
353.901	87.12
354.128	89.12
354.355	72.12
354.583	86.12
354.81	85.12
355.037	85.12
355.264	89.12
355.491	88.12
355.718	86.12
355.945	82.12
356.172	81.12
356.399	88.12
356.626	83.12
356.853	83.12
357.08	89.12
357.307	94.12
357.534	93.12
357.761	79.12
357.988	88.12
358.215	97.12
358.441	108.12
358.668	84.12
358.895	80.12
359.122	94.12
359.349	65.12
359.576	85.12
359.802	75.12
360.029	94.12
360.256	95.12
360.483	85.12
360.709	97.12
360.936	95.12
361.163	94.12
361.39	90.12
361.616	88.12
361.843	97.12
362.07	97.12
362.296	120.12
362.523	124.12
362.749	122.12
362.976	142.12
363.203	150.12
363.429	114.12
363.656	92.12
363.882	105.12
364.109	112.12
364.335	147.12
364.562	172.12
364.788	137.12
365.015	92.12
365.241	82.12
365.468	88.12
365.694	88.12
365.92	94.12
366.147	89.12
366.373	82.12
366.599	85.12
366.826	90.12
367.052	90.12
367.278	91.12
367.505	92.12
367.731	91.12
367.957	103.12
368.184	80.12
368.41	103.12
368.636	80.12
368.862	72.12
369.089	84.12
369.315	90.12
369.541	101.12
369.767	101.12
369.993	82.12
370.219	72.12
370.445	96.12
370.672	80.12
370.898	94.12
371.124	90.12
371.35	82.12
371.576	88.12
371.802	74.12
372.028	89.12
372.254	91.12
372.48	82.12
372.706	82.12
372.932	84.12
373.158	75.12
373.384	87.12
373.61	95.12
373.835	106.12
374.061	84.12
374.287	92.12
374.513	77.12
374.739	101.12
374.965	84.12
375.191	88.12
375.416	86.12
375.642	93.12
375.868	93.12
376.094	87.12
376.319	89.12
376.545	74.12
376.771	78.12
376.997	95.12
377.222	97.12
377.448	91.12
377.674	92.12
377.899	99.12
378.125	90.12
378.35	85.12
378.576	92.12
378.802	75.12
379.027	74.12
379.253	82.12
379.478	81.12
379.704	81.12
379.929	98.12
380.155	78.12
380.38	85.12
380.606	78.12
380.831	97.12
381.057	92.12
381.282	96.12
381.507	110.12
381.733	89.12
381.958	85.12
382.184	96.12
382.409	90.12
382.634	98.12
382.86	105.12
383.085	110.12
383.31	104.12
383.535	89.12
383.761	89.12
383.986	101.12
384.211	88.12
384.436	100.12
384.662	76.12
384.887	93.12
385.112	89.12
385.337	108.12
385.562	96.12
385.787	94.12
386.013	88.12
386.238	95.12
386.463	92.12
386.688	86.12
386.913	89.12
387.138	96.12
387.363	99.12
387.588	96.12
387.813	112.12
388.038	95.12
388.263	94.12
388.488	92.12
388.713	103.12
388.938	113.12
389.163	96.12
389.387	92.12
389.612	98.12
389.837	101.12
390.062	88.12
390.287	84.12
390.512	85.12
390.736	92.12
390.961	94.12
391.186	92.12
391.411	95.12
391.636	98.12
391.86	94.12
392.085	89.12
392.31	110.12
392.534	120.12
392.759	133.12
392.984	183.12
393.208	318.12
393.433	462.12
393.658	364.12
393.882	180.12
394.107	128.12
394.331	120.12
394.556	135.12
394.78	105.12
395.005	97.12
395.229	120.12
395.454	99.12
395.678	108.12
395.903	141.12
396.127	156.12
396.352	163.12
396.576	205.12
396.801	308.12
397.025	374.12
397.249	212.12
397.474	160.12
397.698	118.12
397.922	111.12
398.147	96.12
398.371	109.12
398.595	92.12
398.82	88.12
399.044	76.12
399.268	102.12
399.492	101.12
399.717	100.12
399.941	85.12
400.165	93.12
400.389	83.12
400.613	92.12
400.837	84.12
401.062	94.12
401.286	71.12
401.51	89.12
401.734	87.12
401.958	93.12
402.182	95.12
402.406	87.12
402.63	73.12
402.854	82.12
403.078	79.12
403.302	100.12
403.526	97.12
403.75	91.12
403.974	85.12
404.198	97.12
404.422	86.12
404.645	93.12
404.869	101.12
405.093	89.12
405.317	84.12
405.541	78.12
405.765	86.12
405.988	99.12
406.212	83.12
406.436	95.12
406.66	92.12
406.883	90.12
407.107	87.12
407.331	94.12
407.555	94.12
407.778	112.12
408.002	122.12
408.226	104.12
408.449	86.12
408.673	77.12
408.896	97.12
409.12	95.12
409.344	103.12
409.567	114.12
409.791	133.12
410.014	136.12
410.238	118.12
410.461	90.12
410.685	96.12
410.908	80.12
411.132	84.12
411.355	80.12
411.578	88.12
411.802	86.12
412.025	97.12
412.249	85.12
412.472	96.12
412.695	82.12
412.919	68.12
413.142	76.12
413.365	80.12
413.589	80.12
413.812	100.12
414.035	77.12
414.258	84.12
414.482	88.12
414.705	73.12
414.928	84.12
415.151	86.12
415.374	78.12
415.597	84.12
415.821	87.12
416.044	84.12
416.267	73.12
416.49	90.12
416.713	92.12
416.936	79.12
417.159	78.12
417.382	90.12
417.605	84.12
417.828	90.12
418.051	93.12
418.274	92.12
418.497	80.12
418.72	97.12
418.943	103.12
419.166	92.12
419.389	75.12
419.611	83.12
419.834	87.12
420.057	84.12
420.28	97.12
420.503	90.12
420.726	95.12
420.948	98.12
421.171	113.12
421.394	112.12
421.617	148.12
421.839	155.12
422.062	149.12
422.285	253.12
422.507	388.12
422.73	558.12
422.953	514.12
423.175	295.12
423.398	180.12
423.621	137.12
423.843	121.12
424.066	117.12
424.288	100.12
424.511	105.12
424.733	95.12
424.956	93.12
425.178	105.12
425.401	96.12
425.623	89.12
425.846	88.12
426.068	95.12
426.291	86.12
426.513	97.12
426.735	88.12
426.958	102.12
427.18	102.12
427.402	89.12
427.625	86.12
427.847	100.12
428.069	105.12
428.292	167.12
428.514	176.12
428.736	128.12
428.958	164.12
429.181	151.12
429.403	97.12
429.625	104.12
429.847	147.12
430.069	208.12
430.292	227.12
430.514	233.12
430.736	156.12
430.958	185.12
431.18	124.12
431.402	100.12
431.624	99.12
431.846	141.12
432.068	180.12
432.29	112.12
432.512	96.12
432.734	92.12
432.956	84.12
433.178	96.12
433.4	84.12
433.622	81.12
433.844	73.12
434.066	89.12
434.287	80.12
434.509	78.12
434.731	97.12
434.953	94.12
435.175	87.12
435.397	89.12
435.618	101.12
435.84	98.12
436.062	103.12
436.284	97.12
436.505	96.12
436.727	88.12
436.949	80.12
437.17	99.12
437.392	96.12
437.614	78.12
437.835	82.12
438.057	83.12
438.278	84.12
438.5	73.12
438.721	80.12
438.943	89.12
439.165	85.12
439.386	85.12
439.608	84.12
439.829	94.12
440.05	93.12
440.272	77.12
440.493	88.12
440.715	92.12
440.936	95.12
441.158	98.12
441.379	97.12
441.6	86.12
441.822	92.12
442.043	93.12
442.264	101.12
442.486	161.12
442.707	236.12
442.928	161.12
443.149	137.12
443.371	217.12
443.592	372.12
443.813	323.12
444.034	147.12
444.255	118.12
444.476	91.12
444.698	95.12
444.919	112.12
445.14	221.12
445.361	279.12
445.582	465.12
445.803	380.12
446.024	160.12
446.245	107.12
446.466	105.12
446.687	89.12
446.908	97.12
447.129	86.12
447.35	80.12
447.571	93.12
447.792	78.12
448.013	86.12
448.234	68.12
448.455	84.12
448.675	80.12
448.896	78.12
449.117	79.12
449.338	102.12
449.559	95.12
449.779	78.12
450	88.12
450.221	78.12
450.442	82.12
450.662	91.12
450.883	86.12
451.104	75.12
451.324	96.12
451.545	76.12
451.766	83.12
451.986	68.12
452.207	92.12
452.428	89.12
452.648	100.12
452.869	126.12
453.089	96.12
453.31	88.12
453.53	92.12
453.751	80.12
453.971	81.12
454.192	80.12
454.412	89.12
454.633	83.12
454.853	90.12
455.073	81.12
455.294	89.12
455.514	80.12
455.734	82.12
455.955	110.12
456.175	94.12
456.395	88.12
456.616	84.12
456.836	98.12
457.056	87.12
457.276	86.12
457.497	101.12
457.717	102.12
457.937	138.12
458.157	179.12
458.377	173.12
458.598	146.12
458.818	188.12
459.038	119.12
459.258	101.12
459.478	80.12
459.698	94.12
459.918	65.12
460.138	91.12
460.358	85.12
460.578	94.12
460.798	118.12
461.018	133.12
461.238	95.12
461.458	98.12
461.678	90.12
461.898	91.12
462.118	88.12
462.338	79.12
462.558	79.12
462.777	89.12
462.997	99.12
463.217	82.12
463.437	94.12
463.657	84.12
463.876	82.12
464.096	96.12
464.316	89.12
464.536	80.12
464.755	92.12
464.975	97.12
465.195	90.12
465.414	74.12
465.634	76.12
465.854	94.12
466.073	90.12
466.293	87.12
466.512	62.12
466.732	88.12
466.951	84.12
467.171	77.12
467.391	90.12
467.61	78.12
467.829	90.12
468.049	87.12
468.268	94.12
468.488	98.12
468.707	92.12
468.927	81.12
469.146	85.12
469.365	79.12
469.585	84.12
469.804	86.12
470.023	89.12
470.243	80.12
470.462	100.12
470.681	89.12
470.901	72.12
471.12	96.12
471.339	95.12
471.558	86.12
471.777	70.12
471.997	79.12
472.216	75.12
472.435	81.12
472.654	82.12
472.873	79.12
473.092	68.12
473.311	86.12
473.53	74.12
473.749	87.12
473.968	85.12
474.187	94.12
474.406	84.12
474.625	89.12
474.844	82.12
475.063	71.12
475.282	80.12
475.501	73.12
475.72	90.12
475.939	89.12
476.158	76.12
476.377	82.12
476.596	93.12
476.814	81.12
477.033	86.12
477.252	90.12
477.471	97.12
477.69	82.12
477.908	98.12
478.127	92.12
478.346	87.12
478.564	98.12
478.783	81.12
479.002	96.12
479.22	98.12
479.439	84.12
479.658	90.12
479.876	88.12
480.095	83.12
480.313	87.12
480.532	108.12
480.751	83.12
480.969	87.12
481.188	88.12
481.406	111.12
481.624	85.12
481.843	76.12
482.061	83.12
482.28	105.12
482.498	92.12
482.717	82.12
482.935	85.12
483.153	101.12
483.372	88.12
483.59	92.12
483.808	83.12
484.027	88.12
484.245	88.12
484.463	105.12
484.681	88.12
484.9	72.12
485.118	100.12
485.336	94.12
485.554	101.12
485.772	104.12
485.99	86.12
486.209	105.12
486.427	89.12
486.645	99.12
486.863	104.12
487.081	88.12
487.299	110.12
487.517	105.12
487.735	149.12
487.953	271.12
488.171	225.12
488.389	118.12
488.607	83.12
488.825	87.12
489.043	90.12
489.261	101.12
489.479	95.12
489.696	93.12
489.914	93.12
490.132	88.12
490.35	100.12
490.568	100.12
490.786	93.12
491.003	96.12
491.221	89.12
491.439	96.12
491.657	99.12
491.874	92.12
492.092	87.12
492.31	104.12
492.527	88.12
492.745	93.12
492.963	78.12
493.18	88.12
493.398	96.12
493.615	98.12
493.833	81.12
494.05	89.12
494.268	89.12
494.485	82.12
494.703	109.12
494.92	105.12
495.138	94.12
495.355	88.12
495.573	97.12
495.79	103.12
496.008	95.12
496.225	72.12
496.442	99.12
496.66	92.12
496.877	104.12
497.094	89.12
497.312	90.12
497.529	93.12
497.746	94.12
497.963	87.12
498.181	92.12
498.398	92.12
498.615	89.12
498.832	86.12
499.049	92.12
499.267	89.12
499.484	87.12
499.701	88.12
499.918	100.12
500.135	73.12
500.352	98.12
500.569	90.12
500.786	97.12
501.003	82.12
501.22	95.12
501.437	80.12
501.654	85.12
501.871	79.12
502.088	80.12
502.305	89.12
502.522	95.12
502.739	103.12
502.956	97.12
503.172	79.12
503.389	87.12
503.606	85.12
503.823	98.12
504.04	120.12
504.256	184.12
504.473	201.12
504.69	110.12
504.907	94.12
505.123	102.12
505.34	96.12
505.557	82.12
505.773	97.12
505.99	94.12
506.207	97.12
506.423	87.12
506.64	95.12
506.856	99.12
507.073	88.12
507.289	93.12
507.506	64.12
507.722	90.12
507.939	84.12
508.155	77.12
508.372	83.12
508.588	82.12
508.805	83.12
509.021	104.12
509.238	91.12
509.454	86.12
509.67	101.12
509.887	67.12
510.103	87.12
510.319	87.12
510.536	85.12
510.752	91.12
510.968	89.12
511.184	102.12
511.401	93.12
511.617	81.12
511.833	105.12
512.049	91.12
512.265	80.12
512.481	101.12
512.698	90.12
512.914	98.12
513.13	84.12
513.346	82.12
513.562	83.12
513.778	86.12
513.994	82.12
514.21	95.12
514.426	101.12
514.642	99.12
514.858	96.12
515.074	103.12
515.29	91.12
515.506	85.12
515.721	92.12
515.937	95.12
516.153	80.12
516.369	96.12
516.585	101.12
516.801	103.12
517.016	79.12
517.232	95.12
517.448	96.12
