Data from CBS_1_HRD10591_00038.txt Node
Date: Mon Jan 19 14:04:07 EST 2026
User: Yrep
Spectrometer: HR+D1059
Trigger mode: 1
Integration Time (sec): 1.000000E-1
Scans to average: 1
Electric dark correction enabled: true
Nonlinearity correction enabled: false
Boxcar width: 0
XAxis mode: Wavelengths
Number of Pixels in Spectrum: 2048
>>>>>Begin Spectral Data<<<<<
223.165	-14.5
223.4	-14.5
223.635	-14.5
223.869	-17.5
224.104	-24.5
224.338	-14.5
224.573	-27.5
224.808	-0.5
225.042	-16.5
225.277	2.5
225.511	0.5
225.746	9.5
225.98	-4.5
226.215	14.5
226.449	13.5
226.683	21.5
226.918	31.5
227.152	26.5
227.387	29.5
227.621	41.5
227.856	44.5
228.09	44.5
228.324	50.5
228.559	62.5
228.793	51.5
229.027	68.5
229.262	68.5
229.496	77.5
229.73	61.5
229.964	61.5
230.199	70.5
230.433	70.5
230.667	87.5
230.901	78.5
231.136	65.5
231.37	77.5
231.604	69.5
231.838	86.5
232.072	90.5
232.306	77.5
232.541	84.5
232.775	72.5
233.009	80.5
233.243	77.5
233.477	77.5
233.711	82.5
233.945	82.5
234.179	72.5
234.413	82.5
234.647	74.5
234.881	106.5
235.115	93.5
235.349	73.5
235.583	88.5
235.817	82.5
236.051	68.5
236.285	74.5
236.519	60.5
236.753	79.5
236.987	66.5
237.221	75.5
237.455	84.5
237.689	77.5
237.922	71.5
238.156	80.5
238.39	54.5
238.624	80.5
238.858	60.5
239.091	84.5
239.325	72.5
239.559	69.5
239.793	77.5
240.027	73.5
240.26	87.5
240.494	73.5
240.728	72.5
240.961	76.5
241.195	87.5
241.429	82.5
241.662	94.5
241.896	82.5
242.13	76.5
242.363	78.5
242.597	88.5
242.83	76.5
243.064	86.5
243.298	74.5
243.531	83.5
243.765	74.5
243.998	90.5
244.232	68.5
244.465	65.5
244.699	81.5
244.932	79.5
245.166	78.5
245.399	76.5
245.633	68.5
245.866	86.5
246.099	65.5
246.333	75.5
246.566	77.5
246.8	95.5
247.033	78.5
247.266	84.5
247.5	87.5
247.733	74.5
247.966	78.5
248.2	68.5
248.433	82.5
248.666	77.5
248.899	83.5
249.133	80.5
249.366	80.5
249.599	85.5
249.832	84.5
250.066	82.5
250.299	94.5
250.532	70.5
250.765	75.5
250.998	75.5
251.231	78.5
251.465	70.5
251.698	81.5
251.931	92.5
252.164	80.5
252.397	72.5
252.63	84.5
252.863	78.5
253.096	78.5
253.329	91.5
253.562	84.5
253.795	79.5
254.028	78.5
254.261	92.5
254.494	82.5
254.727	71.5
254.96	80.5
255.193	71.5
255.426	70.5
255.659	66.5
255.892	89.5
256.124	85.5
256.357	78.5
256.59	78.5
256.823	71.5
257.056	63.5
257.289	72.5
257.521	75.5
257.754	84.5
257.987	70.5
258.22	85.5
258.452	88.5
258.685	94.5
258.918	81.5
259.151	94.5
259.383	87.5
259.616	71.5
259.849	79.5
260.081	77.5
260.314	82.5
260.547	75.5
260.779	83.5
261.012	89.5
261.244	72.5
261.477	68.5
261.71	82.5
261.942	80.5
262.175	71.5
262.407	82.5
262.64	76.5
262.872	81.5
263.105	76.5
263.337	82.5
263.57	88.5
263.802	76.5
264.035	69.5
264.267	96.5
264.499	74.5
264.732	77.5
264.964	86.5
265.197	73.5
265.429	85.5
265.661	87.5
265.894	86.5
266.126	81.5
266.358	74.5
266.591	83.5
266.823	80.5
267.055	87.5
267.287	76.5
267.52	85.5
267.752	78.5
267.984	64.5
268.216	64.5
268.448	82.5
268.681	89.5
268.913	75.5
269.145	74.5
269.377	75.5
269.609	84.5
269.841	76.5
270.073	65.5
270.306	86.5
270.538	78.5
270.77	79.5
271.002	65.5
271.234	77.5
271.466	62.5
271.698	71.5
271.93	66.5
272.162	71.5
272.394	87.5
272.626	87.5
272.858	77.5
273.09	77.5
273.322	78.5
273.553	77.5
273.785	82.5
274.017	67.5
274.249	81.5
274.481	75.5
274.713	82.5
274.945	86.5
275.176	85.5
275.408	70.5
275.64	85.5
275.872	80.5
276.104	91.5
276.335	73.5
276.567	86.5
276.799	80.5
277.031	71.5
277.262	80.5
277.494	74.5
277.726	79.5
277.957	82.5
278.189	79.5
278.421	85.5
278.652	81.5
278.884	75.5
279.115	74.5
279.347	94.5
279.579	91.5
279.81	63.5
280.042	80.5
280.273	89.5
280.505	88.5
280.736	69.5
280.968	87.5
281.199	84.5
281.431	82.5
281.662	92.5
281.894	87.5
282.125	87.5
282.356	77.5
282.588	96.5
282.819	68.5
283.051	85.5
283.282	88.5
283.513	87.5
283.745	81.5
283.976	88.5
284.207	77.5
284.439	72.5
284.67	72.5
284.901	82.5
285.132	97.5
285.364	78.5
285.595	84.5
285.826	78.5
286.057	104.5
286.288	86.5
286.52	70.5
286.751	89.5
286.982	91.5
287.213	78.5
287.444	82.5
287.675	69.5
287.906	74.5
288.138	90.5
288.369	93.5
288.6	71.5
288.831	78.5
289.062	92.5
289.293	71.5
289.524	84.5
289.755	96.5
289.986	78.5
290.217	81.5
290.448	78.5
290.679	79.5
290.91	89.5
291.141	85.5
291.371	75.5
291.602	94.5
291.833	84.5
292.064	83.5
292.295	98.5
292.526	88.5
292.757	74.5
292.987	87.5
293.218	99.5
293.449	84.5
293.68	93.5
293.91	87.5
294.141	93.5
294.372	84.5
294.603	70.5
294.833	86.5
295.064	88.5
295.295	69.5
295.525	85.5
295.756	84.5
295.987	91.5
296.217	90.5
296.448	85.5
296.679	72.5
296.909	88.5
297.14	82.5
297.37	77.5
297.601	76.5
297.831	79.5
298.062	88.5
298.292	87.5
298.523	86.5
298.753	73.5
298.984	66.5
299.214	87.5
299.445	89.5
299.675	71.5
299.905	84.5
300.136	77.5
300.366	85.5
300.597	89.5
300.827	76.5
301.057	83.5
301.288	91.5
301.518	88.5
301.748	76.5
301.979	80.5
302.209	74.5
302.439	81.5
302.669	81.5
302.9	73.5
303.13	94.5
303.36	80.5
303.59	74.5
303.82	85.5
304.051	73.5
304.281	68.5
304.511	69.5
304.741	88.5
304.971	91.5
305.201	96.5
305.431	87.5
305.661	94.5
305.891	78.5
306.121	83.5
306.352	78.5
306.582	91.5
306.812	90.5
307.042	88.5
307.272	87.5
307.502	82.5
307.731	64.5
307.961	77.5
308.191	76.5
308.421	93.5
308.651	86.5
308.881	97.5
309.111	72.5
309.341	78.5
309.571	79.5
309.8	85.5
310.03	78.5
310.26	79.5
310.49	78.5
310.72	71.5
310.949	83.5
311.179	75.5
311.409	86.5
311.639	84.5
311.868	76.5
312.098	84.5
312.328	86.5
312.557	82.5
312.787	84.5
313.017	88.5
313.246	78.5
313.476	84.5
313.706	70.5
313.935	86.5
314.165	84.5
314.394	81.5
314.624	80.5
314.853	88.5
315.083	80.5
315.312	80.5
315.542	77.5
315.771	73.5
316.001	79.5
316.23	75.5
316.46	76.5
316.689	72.5
316.919	77.5
317.148	92.5
317.377	91.5
317.607	77.5
317.836	86.5
318.065	85.5
318.295	84.5
318.524	85.5
318.753	90.5
318.983	89.5
319.212	82.5
319.441	72.5
319.67	89.5
319.9	64.5
320.129	82.5
320.358	78.5
320.587	70.5
320.816	84.5
321.046	86.5
321.275	82.5
321.504	93.5
321.733	74.5
321.962	87.5
322.191	79.5
322.42	85.5
322.649	85.5
322.878	86.5
323.108	82.5
323.337	78.5
323.566	92.5
323.795	65.5
324.024	81.5
324.253	78.5
324.482	75.5
324.71	75.5
324.939	79.5
325.168	73.5
325.397	72.5
325.626	80.5
325.855	105.5
326.084	82.5
326.313	79.5
326.542	78.5
326.77	83.5
326.999	90.5
327.228	87.5
327.457	87.5
327.686	73.5
327.914	75.5
328.143	72.5
328.372	69.5
328.6	89.5
328.829	79.5
329.058	67.5
329.287	68.5
329.515	78.5
329.744	82.5
329.972	84.5
330.201	75.5
330.43	72.5
330.658	82.5
330.887	79.5
331.115	79.5
331.344	81.5
331.572	86.5
331.801	69.5
332.03	66.5
332.258	81.5
332.486	78.5
332.715	97.5
332.943	76.5
333.172	75.5
333.4	77.5
333.629	79.5
333.857	84.5
334.085	81.5
334.314	85.5
334.542	81.5
334.771	69.5
334.999	78.5
335.227	92.5
335.455	87.5
335.684	105.5
335.912	80.5
336.14	78.5
336.369	90.5
336.597	74.5
336.825	66.5
337.053	90.5
337.281	66.5
337.51	71.5
337.738	75.5
337.966	87.5
338.194	82.5
338.422	80.5
338.65	87.5
338.878	88.5
339.106	78.5
339.334	89.5
339.562	72.5
339.79	86.5
340.018	84.5
340.246	85.5
340.474	80.5
340.702	80.5
340.93	86.5
341.158	81.5
341.386	68.5
341.614	83.5
341.842	86.5
342.07	85.5
342.298	83.5
342.526	80.5
342.754	72.5
342.981	77.5
343.209	82.5
343.437	88.5
343.665	64.5
343.893	87.5
344.12	80.5
344.348	73.5
344.576	84.5
344.804	93.5
345.031	74.5
345.259	81.5
345.487	88.5
345.714	81.5
345.942	84.5
346.17	60.5
346.397	82.5
346.625	88.5
346.853	86.5
347.08	73.5
347.308	66.5
347.535	75.5
347.763	86.5
347.99	106.5
348.218	90.5
348.445	82.5
348.673	81.5
348.9	79.5
349.128	87.5
349.355	89.5
349.583	96.5
349.81	79.5
350.037	89.5
350.265	81.5
350.492	90.5
350.72	66.5
350.947	77.5
351.174	80.5
351.402	83.5
351.629	93.5
351.856	69.5
352.083	72.5
352.311	91.5
352.538	92.5
352.765	87.5
352.992	75.5
353.22	85.5
353.447	81.5
353.674	87.5
353.901	87.5
354.128	73.5
354.355	78.5
354.583	84.5
354.81	87.5
355.037	86.5
355.264	85.5
355.491	73.5
355.718	97.5
355.945	88.5
356.172	68.5
356.399	80.5
356.626	83.5
356.853	70.5
357.08	79.5
357.307	76.5
357.534	63.5
357.761	79.5
357.988	80.5
358.215	84.5
358.441	78.5
358.668	77.5
358.895	91.5
359.122	89.5
359.349	74.5
359.576	73.5
359.802	87.5
360.029	82.5
360.256	87.5
360.483	82.5
360.709	74.5
360.936	94.5
361.163	81.5
361.39	78.5
361.616	85.5
361.843	87.5
362.07	85.5
362.296	80.5
362.523	77.5
362.749	86.5
362.976	78.5
363.203	93.5
363.429	79.5
363.656	80.5
363.882	75.5
364.109	85.5
364.335	81.5
364.562	102.5
364.788	90.5
365.015	85.5
365.241	84.5
365.468	75.5
365.694	80.5
365.92	79.5
366.147	85.5
366.373	84.5
366.599	84.5
366.826	92.5
367.052	82.5
367.278	90.5
367.505	87.5
367.731	81.5
367.957	83.5
368.184	72.5
368.41	73.5
368.636	76.5
368.862	78.5
369.089	85.5
369.315	79.5
369.541	78.5
369.767	69.5
369.993	70.5
370.219	72.5
370.445	87.5
370.672	72.5
370.898	86.5
371.124	87.5
371.35	68.5
371.576	92.5
371.802	82.5
372.028	75.5
372.254	77.5
372.48	78.5
372.706	84.5
372.932	85.5
373.158	87.5
373.384	84.5
373.61	92.5
373.835	86.5
374.061	92.5
374.287	81.5
374.513	82.5
374.739	96.5
374.965	90.5
375.191	78.5
375.416	81.5
375.642	84.5
375.868	81.5
376.094	76.5
376.319	78.5
376.545	71.5
376.771	94.5
376.997	82.5
377.222	85.5
377.448	72.5
377.674	80.5
377.899	87.5
378.125	79.5
378.35	70.5
378.576	81.5
378.802	81.5
379.027	83.5
379.253	76.5
379.478	84.5
379.704	59.5
379.929	72.5
380.155	86.5
380.38	68.5
380.606	79.5
380.831	89.5
381.057	87.5
381.282	87.5
381.507	87.5
381.733	91.5
381.958	91.5
382.184	85.5
382.409	77.5
382.634	92.5
382.86	84.5
383.085	87.5
383.31	70.5
383.535	101.5
383.761	85.5
383.986	79.5
384.211	72.5
384.436	72.5
384.662	83.5
384.887	86.5
385.112	68.5
385.337	78.5
385.562	92.5
385.787	69.5
386.013	92.5
386.238	80.5
386.463	79.5
386.688	98.5
386.913	80.5
387.138	91.5
387.363	97.5
387.588	93.5
387.813	76.5
388.038	85.5
388.263	60.5
388.488	59.5
388.713	71.5
388.938	86.5
389.163	86.5
389.387	90.5
389.612	88.5
389.837	89.5
390.062	79.5
390.287	75.5
390.512	87.5
390.736	75.5
390.961	73.5
391.186	71.5
391.411	92.5
391.636	68.5
391.86	74.5
392.085	74.5
392.31	78.5
392.534	73.5
392.759	89.5
392.984	92.5
393.208	89.5
393.433	118.5
393.658	98.5
393.882	87.5
394.107	88.5
394.331	71.5
394.556	86.5
394.78	86.5
395.005	84.5
395.229	72.5
395.454	85.5
395.678	73.5
395.903	77.5
396.127	68.5
396.352	78.5
396.576	80.5
396.801	91.5
397.025	100.5
397.249	101.5
397.474	97.5
397.698	87.5
397.922	80.5
398.147	78.5
398.371	100.5
398.595	81.5
398.82	98.5
399.044	93.5
399.268	88.5
399.492	84.5
399.717	93.5
399.941	84.5
400.165	87.5
400.389	68.5
400.613	64.5
400.837	89.5
401.062	87.5
401.286	83.5
401.51	92.5
401.734	82.5
401.958	80.5
402.182	76.5
402.406	84.5
402.63	58.5
402.854	76.5
403.078	69.5
403.302	91.5
403.526	77.5
403.75	79.5
403.974	70.5
404.198	84.5
404.422	72.5
404.645	67.5
404.869	85.5
405.093	98.5
405.317	89.5
405.541	83.5
405.765	75.5
405.988	78.5
406.212	99.5
406.436	83.5
406.66	74.5
406.883	83.5
407.107	77.5
407.331	86.5
407.555	95.5
407.778	78.5
408.002	84.5
408.226	72.5
408.449	69.5
408.673	94.5
408.896	97.5
409.12	73.5
409.344	88.5
409.567	82.5
409.791	80.5
410.014	98.5
410.238	85.5
410.461	76.5
410.685	69.5
410.908	84.5
411.132	92.5
411.355	90.5
411.578	81.5
411.802	86.5
412.025	97.5
412.249	75.5
412.472	74.5
412.695	87.5
412.919	77.5
413.142	82.5
413.365	84.5
413.589	87.5
413.812	68.5
414.035	83.5
414.258	94.5
414.482	98.5
414.705	84.5
414.928	81.5
415.151	84.5
415.374	73.5
415.597	82.5
415.821	64.5
416.044	75.5
416.267	87.5
416.49	87.5
416.713	71.5
416.936	79.5
417.159	70.5
417.382	78.5
417.605	82.5
417.828	92.5
418.051	75.5
418.274	67.5
418.497	69.5
418.72	68.5
418.943	67.5
419.166	74.5
419.389	94.5
419.611	82.5
419.834	88.5
420.057	77.5
420.28	89.5
420.503	86.5
420.726	80.5
420.948	79.5
421.171	87.5
421.394	73.5
421.617	68.5
421.839	76.5
422.062	83.5
422.285	95.5
422.507	111.5
422.73	134.5
422.953	123.5
423.175	88.5
423.398	89.5
423.621	83.5
423.843	86.5
424.066	82.5
424.288	85.5
424.511	88.5
424.733	77.5
424.956	91.5
425.178	84.5
425.401	76.5
425.623	71.5
425.846	75.5
426.068	77.5
426.291	72.5
426.513	75.5
426.735	81.5
426.958	90.5
427.18	84.5
427.402	87.5
427.625	81.5
427.847	88.5
428.069	79.5
428.292	69.5
428.514	81.5
428.736	84.5
428.958	90.5
429.181	75.5
429.403	101.5
429.625	89.5
429.847	80.5
430.069	104.5
430.292	89.5
430.514	101.5
430.736	97.5
430.958	87.5
431.18	72.5
431.402	76.5
431.624	75.5
431.846	81.5
432.068	85.5
432.29	74.5
432.512	72.5
432.734	86.5
432.956	79.5
433.178	65.5
433.4	77.5
433.622	82.5
433.844	87.5
434.066	85.5
434.287	78.5
434.509	86.5
434.731	65.5
434.953	92.5
435.175	79.5
435.397	80.5
435.618	72.5
435.84	78.5
436.062	78.5
436.284	88.5
436.505	66.5
436.727	73.5
436.949	83.5
437.17	80.5
437.392	89.5
437.614	90.5
437.835	90.5
438.057	81.5
438.278	71.5
438.5	73.5
438.721	87.5
438.943	82.5
439.165	78.5
439.386	87.5
439.608	68.5
439.829	72.5
440.05	89.5
440.272	79.5
440.493	82.5
440.715	85.5
440.936	87.5
441.158	82.5
441.379	81.5
441.6	82.5
441.822	86.5
442.043	72.5
442.264	79.5
442.486	76.5
442.707	95.5
442.928	84.5
443.149	73.5
443.371	99.5
443.592	100.5
443.813	95.5
444.034	83.5
444.255	76.5
444.476	84.5
444.698	88.5
444.919	93.5
445.14	165.5
445.361	132.5
445.582	113.5
445.803	106.5
446.024	93.5
446.245	88.5
446.466	95.5
446.687	95.5
446.908	89.5
447.129	89.5
447.35	77.5
447.571	80.5
447.792	83.5
448.013	71.5
448.234	82.5
448.455	82.5
448.675	80.5
448.896	66.5
449.117	79.5
449.338	83.5
449.559	78.5
449.779	68.5
450	78.5
450.221	80.5
450.442	86.5
450.662	94.5
450.883	76.5
451.104	81.5
451.324	92.5
451.545	69.5
451.766	74.5
451.986	73.5
452.207	82.5
452.428	80.5
452.648	75.5
452.869	81.5
453.089	63.5
453.31	73.5
453.53	70.5
453.751	83.5
453.971	76.5
454.192	67.5
454.412	87.5
454.633	84.5
454.853	81.5
455.073	83.5
455.294	72.5
455.514	78.5
455.734	69.5
455.955	70.5
456.175	69.5
456.395	74.5
456.616	80.5
456.836	88.5
457.056	82.5
457.276	80.5
457.497	81.5
457.717	73.5
457.937	72.5
458.157	97.5
458.377	83.5
458.598	92.5
458.818	91.5
459.038	83.5
459.258	87.5
459.478	72.5
459.698	67.5
459.918	77.5
460.138	84.5
460.358	98.5
460.578	103.5
460.798	93.5
461.018	92.5
461.238	77.5
461.458	72.5
461.678	81.5
461.898	92.5
462.118	73.5
462.338	85.5
462.558	83.5
462.777	64.5
462.997	85.5
463.217	78.5
463.437	83.5
463.657	64.5
463.876	69.5
464.096	81.5
464.316	80.5
464.536	82.5
464.755	82.5
464.975	96.5
465.195	83.5
465.414	88.5
465.634	81.5
465.854	84.5
466.073	72.5
466.293	88.5
466.512	78.5
466.732	73.5
466.951	82.5
467.171	75.5
467.391	76.5
467.61	87.5
467.829	75.5
468.049	73.5
468.268	78.5
468.488	76.5
468.707	85.5
468.927	79.5
469.146	93.5
469.365	86.5
469.585	76.5
469.804	94.5
470.023	71.5
470.243	85.5
470.462	76.5
470.681	90.5
470.901	80.5
471.12	81.5
471.339	80.5
471.558	94.5
471.777	79.5
471.997	84.5
472.216	95.5
472.435	84.5
472.654	70.5
472.873	86.5
473.092	94.5
473.311	85.5
473.53	80.5
473.749	74.5
473.968	84.5
474.187	80.5
474.406	61.5
474.625	84.5
474.844	85.5
475.063	85.5
475.282	77.5
475.501	85.5
475.72	75.5
475.939	75.5
476.158	85.5
476.377	89.5
476.596	75.5
476.814	80.5
477.033	86.5
477.252	87.5
477.471	78.5
477.69	77.5
477.908	78.5
478.127	85.5
478.346	71.5
478.564	79.5
478.783	60.5
479.002	88.5
479.22	80.5
479.439	90.5
479.658	84.5
479.876	70.5
480.095	82.5
480.313	97.5
480.532	83.5
480.751	85.5
480.969	81.5
481.188	82.5
481.406	88.5
481.624	78.5
481.843	65.5
482.061	87.5
482.28	70.5
482.498	74.5
482.717	77.5
482.935	88.5
483.153	84.5
483.372	86.5
483.59	87.5
483.808	75.5
484.027	71.5
484.245	80.5
484.463	86.5
484.681	83.5
484.9	83.5
485.118	71.5
485.336	77.5
485.554	89.5
485.772	96.5
485.99	81.5
486.209	87.5
486.427	87.5
486.645	71.5
486.863	79.5
487.081	77.5
487.299	88.5
487.517	82.5
487.735	81.5
487.953	106.5
488.171	102.5
488.389	78.5
488.607	78.5
488.825	78.5
489.043	82.5
489.261	100.5
489.479	92.5
489.696	86.5
489.914	89.5
490.132	83.5
490.35	92.5
490.568	78.5
490.786	82.5
491.003	89.5
491.221	86.5
491.439	78.5
491.657	74.5
491.874	87.5
492.092	100.5
492.31	84.5
492.527	85.5
492.745	80.5
492.963	81.5
493.18	79.5
493.398	99.5
493.615	85.5
493.833	82.5
494.05	92.5
494.268	100.5
494.485	83.5
494.703	91.5
494.92	73.5
495.138	86.5
495.355	76.5
495.573	77.5
495.79	72.5
496.008	77.5
496.225	89.5
496.442	92.5
496.66	88.5
496.877	92.5
497.094	90.5
497.312	90.5
497.529	82.5
497.746	77.5
497.963	77.5
498.181	75.5
498.398	85.5
498.615	87.5
498.832	92.5
499.049	89.5
499.267	70.5
499.484	95.5
499.701	87.5
499.918	84.5
500.135	83.5
500.352	89.5
500.569	77.5
500.786	86.5
501.003	74.5
501.22	83.5
501.437	101.5
501.654	77.5
501.871	90.5
502.088	73.5
502.305	70.5
502.522	89.5
502.739	86.5
502.956	87.5
503.172	85.5
503.389	83.5
503.606	78.5
503.823	90.5
504.04	80.5
504.256	95.5
504.473	97.5
504.69	82.5
504.907	101.5
505.123	92.5
505.34	96.5
505.557	76.5
505.773	73.5
505.99	89.5
506.207	69.5
506.423	79.5
506.64	92.5
506.856	68.5
507.073	78.5
507.289	87.5
507.506	97.5
507.722	88.5
507.939	85.5
508.155	81.5
508.372	103.5
508.588	92.5
508.805	85.5
509.021	81.5
509.238	88.5
509.454	73.5
509.67	95.5
509.887	82.5
510.103	81.5
510.319	89.5
510.536	87.5
510.752	77.5
510.968	75.5
511.184	83.5
511.401	83.5
511.617	80.5
511.833	84.5
512.049	78.5
512.265	79.5
512.481	81.5
512.698	85.5
512.914	98.5
513.13	89.5
513.346	68.5
513.562	73.5
513.778	81.5
513.994	66.5
514.21	86.5
514.426	91.5
514.642	90.5
514.858	70.5
515.074	86.5
515.29	85.5
515.506	66.5
515.721	74.5
515.937	72.5
516.153	79.5
516.369	84.5
516.585	92.5
516.801	69.5
517.016	86.5
517.232	83.5
517.448	88.5
517.664	82.5
517.879	89.5
518.095	84.5
518.311	72.5
518.527	80.5
518.742	92.5
518.958	99.5
519.173	85.5
519.389	74.5
519.605	88.5
519.82	93.5
520.036	74.5
520.251	72.5
520.467	82.5
520.682	67.5
520.898	81.5
521.113	73.5
521.329	74.5
521.544	76.5
521.76	94.5
521.975	85.5
522.19	79.5
522.406	77.5
522.621	84.5
522.836	89.5
523.052	85.5
523.267	75.5
523.482	81.5
523.698	89.5
523.913	99.5
524.128	86.5
524.343	85.5
524.559	82.5
524.774	87.5
524.989	70.5
525.204	74.5
525.419	74.5
525.634	81.5
525.849	82.5
526.064	86.5
526.28	94.5
526.495	107.5
526.71	122.5
526.925	95.5
527.14	112.5
527.355	98.5
527.57	80.5
527.785	84.5
527.999	92.5
528.214	94.5
528.429	89.5
528.644	78.5
528.859	72.5
529.074	76.5
529.289	82.5
529.503	87.5
529.718	95.5
529.933	71.5
530.148	85.5
530.363	82.5
530.577	84.5
530.792	81.5
531.007	78.5
531.221	85.5
531.436	85.5
531.651	82.5
531.865	78.5
532.08	91.5
532.295	87.5
532.509	68.5
532.724	82.5
532.938	83.5
533.153	78.5
533.367	82.5
533.582	94.5
533.796	68.5
534.011	76.5
534.225	82.5
534.44	83.5
534.654	75.5
534.868	82.5
535.083	84.5
535.297	89.5
535.511	96.5
535.726	89.5
535.94	98.5
536.154	83.5
536.369	94.5
536.583	76.5
536.797	88.5
537.011	84.5
537.225	83.5
537.44	92.5
537.654	84.5
537.868	74.5
538.082	80.5
538.296	96.5
538.51	84.5
538.724	90.5
538.938	97.5
539.153	84.5
539.367	85.5
539.581	88.5
539.795	93.5
540.009	82.5
540.222	77.5
