Data from CBS_1_HRD10591_00004.txt Node
Date: Mon Jan 19 14:03:50 EST 2026
User: Yrep
Spectrometer: HR+D1059
Trigger mode: 1
Integration Time (sec): 1.000000E-1
Scans to average: 1
Electric dark correction enabled: true
Nonlinearity correction enabled: false
Boxcar width: 0
XAxis mode: Wavelengths
Number of Pixels in Spectrum: 2048
>>>>>Begin Spectral Data<<<<<
223.165	-21.94
223.4	-21.94
223.635	-21.94
223.869	-25.94
224.104	-12.94
224.338	-12.94
224.573	-15.94
224.808	-11.94
225.042	-25.94
225.277	1.06
225.511	5.06
225.746	17.06
225.98	8.06
226.215	1.06
226.449	26.06
226.683	13.06
226.918	26.06
227.152	30.06
227.387	42.06
227.621	34.06
227.856	64.06
228.09	49.06
228.324	40.06
228.559	61.06
228.793	55.06
229.027	71.06
229.262	83.06
229.496	58.06
229.73	71.06
229.964	82.06
230.199	76.06
230.433	69.06
230.667	76.06
230.901	69.06
231.136	69.06
231.37	75.06
231.604	72.06
231.838	82.06
232.072	93.06
232.306	81.06
232.541	66.06
232.775	91.06
233.009	79.06
233.243	79.06
233.477	75.06
233.711	79.06
233.945	83.06
234.179	73.06
234.413	75.06
234.647	75.06
234.881	90.06
235.115	88.06
235.349	89.06
235.583	69.06
235.817	87.06
236.051	71.06
236.285	82.06
236.519	69.06
236.753	75.06
236.987	88.06
237.221	75.06
237.455	74.06
237.689	69.06
237.922	83.06
238.156	74.06
238.39	74.06
238.624	58.06
238.858	69.06
239.091	68.06
239.325	63.06
239.559	83.06
239.793	81.06
240.027	84.06
240.26	91.06
240.494	74.06
240.728	67.06
240.961	74.06
241.195	85.06
241.429	74.06
241.662	85.06
241.896	73.06
242.13	82.06
242.363	73.06
242.597	83.06
242.83	80.06
243.064	72.06
243.298	83.06
243.531	81.06
243.765	77.06
243.998	89.06
244.232	80.06
244.465	85.06
244.699	88.06
244.932	75.06
245.166	63.06
245.399	77.06
245.633	89.06
245.866	73.06
246.099	81.06
246.333	75.06
246.566	84.06
246.8	85.06
247.033	72.06
247.266	88.06
247.5	97.06
247.733	75.06
247.966	87.06
248.2	81.06
248.433	83.06
248.666	93.06
248.899	71.06
249.133	83.06
249.366	81.06
249.599	69.06
249.832	81.06
250.066	88.06
250.299	74.06
250.532	85.06
250.765	87.06
250.998	75.06
251.231	85.06
251.465	75.06
251.698	87.06
251.931	76.06
252.164	85.06
252.397	78.06
252.63	88.06
252.863	79.06
253.096	74.06
253.329	75.06
253.562	73.06
253.795	69.06
254.028	71.06
254.261	75.06
254.494	94.06
254.727	77.06
254.96	78.06
255.193	92.06
255.426	81.06
255.659	81.06
255.892	75.06
256.124	83.06
256.357	86.06
256.59	88.06
256.823	83.06
257.056	80.06
257.289	87.06
257.521	83.06
257.754	73.06
257.987	78.06
258.22	93.06
258.452	81.06
258.685	77.06
258.918	87.06
259.151	66.06
259.383	93.06
259.616	87.06
259.849	83.06
260.081	80.06
260.314	63.06
260.547	61.06
260.779	87.06
261.012	89.06
261.244	89.06
261.477	95.06
261.71	86.06
261.942	72.06
262.175	69.06
262.407	82.06
262.64	77.06
262.872	94.06
263.105	89.06
263.337	81.06
263.57	87.06
263.802	106.06
264.035	96.06
264.267	89.06
264.499	89.06
264.732	86.06
264.964	104.06
265.197	79.06
265.429	65.06
265.661	77.06
265.894	94.06
266.126	95.06
266.358	69.06
266.591	73.06
266.823	98.06
267.055	79.06
267.287	110.06
267.52	77.06
267.752	98.06
267.984	94.06
268.216	79.06
268.448	95.06
268.681	86.06
268.913	77.06
269.145	86.06
269.377	87.06
269.609	78.06
269.841	89.06
270.073	77.06
270.306	77.06
270.538	94.06
270.77	71.06
271.002	73.06
271.234	67.06
271.466	76.06
271.698	84.06
271.93	79.06
272.162	84.06
272.394	93.06
272.626	80.06
272.858	83.06
273.09	82.06
273.322	73.06
273.553	92.06
273.785	84.06
274.017	77.06
274.249	101.06
274.481	91.06
274.713	75.06
274.945	89.06
275.176	88.06
275.408	89.06
275.64	89.06
275.872	95.06
276.104	85.06
276.335	91.06
276.567	73.06
276.799	74.06
277.031	89.06
277.262	80.06
277.494	77.06
277.726	99.06
277.957	80.06
278.189	76.06
278.421	87.06
278.652	81.06
278.884	71.06
279.115	74.06
279.347	79.06
279.579	89.06
279.81	91.06
280.042	91.06
280.273	93.06
280.505	75.06
280.736	84.06
280.968	65.06
281.199	76.06
281.431	84.06
281.662	85.06
281.894	91.06
282.125	78.06
282.356	86.06
282.588	87.06
282.819	77.06
283.051	79.06
283.282	85.06
283.513	104.06
283.745	89.06
283.976	80.06
284.207	89.06
284.439	86.06
284.67	83.06
284.901	102.06
285.132	97.06
285.364	92.06
285.595	86.06
285.826	77.06
286.057	79.06
286.288	83.06
286.52	94.06
286.751	85.06
286.982	95.06
287.213	79.06
287.444	87.06
287.675	97.06
287.906	84.06
288.138	84.06
288.369	82.06
288.6	89.06
288.831	72.06
289.062	75.06
289.293	83.06
289.524	77.06
289.755	72.06
289.986	83.06
290.217	87.06
290.448	80.06
290.679	83.06
290.91	82.06
291.141	111.06
291.371	77.06
291.602	87.06
291.833	85.06
292.064	85.06
292.295	80.06
292.526	80.06
292.757	81.06
292.987	79.06
293.218	91.06
293.449	87.06
293.68	97.06
293.91	80.06
294.141	87.06
294.372	91.06
294.603	86.06
294.833	78.06
295.064	84.06
295.295	88.06
295.525	84.06
295.756	93.06
295.987	94.06
296.217	87.06
296.448	93.06
296.679	89.06
296.909	92.06
297.14	87.06
297.37	83.06
297.601	95.06
297.831	88.06
298.062	94.06
298.292	63.06
298.523	87.06
298.753	87.06
298.984	95.06
299.214	97.06
299.445	79.06
299.675	99.06
299.905	102.06
300.136	102.06
300.366	88.06
300.597	112.06
300.827	122.06
301.057	102.06
301.288	95.06
301.518	86.06
301.748	88.06
301.979	103.06
302.209	88.06
302.439	81.06
302.669	83.06
302.9	93.06
303.13	73.06
303.36	88.06
303.59	75.06
303.82	90.06
304.051	85.06
304.281	92.06
304.511	103.06
304.741	96.06
304.971	87.06
305.201	85.06
305.431	98.06
305.661	89.06
305.891	95.06
306.121	90.06
306.352	78.06
306.582	88.06
306.812	91.06
307.042	94.06
307.272	69.06
307.502	72.06
307.731	82.06
307.961	81.06
308.191	83.06
308.421	99.06
308.651	84.06
308.881	102.06
309.111	106.06
309.341	96.06
309.571	98.06
309.8	74.06
310.03	77.06
310.26	98.06
310.49	83.06
310.72	74.06
310.949	81.06
311.179	89.06
311.409	83.06
311.639	84.06
311.868	90.06
312.098	81.06
312.328	88.06
312.557	97.06
312.787	93.06
313.017	89.06
313.246	82.06
313.476	83.06
313.706	83.06
313.935	89.06
314.165	88.06
314.394	89.06
314.624	87.06
314.853	87.06
315.083	101.06
315.312	105.06
315.542	90.06
315.771	104.06
316.001	103.06
316.23	92.06
316.46	85.06
316.689	93.06
316.919	80.06
317.148	86.06
317.377	95.06
317.607	87.06
317.836	89.06
318.065	111.06
318.295	101.06
318.524	83.06
318.753	94.06
318.983	79.06
319.212	95.06
319.441	81.06
319.67	83.06
319.9	99.06
320.129	101.06
320.358	90.06
320.587	90.06
320.816	94.06
321.046	90.06
321.275	115.06
321.504	101.06
321.733	109.06
321.962	93.06
322.191	96.06
322.42	92.06
322.649	98.06
322.878	98.06
323.108	86.06
323.337	89.06
323.566	92.06
323.795	85.06
324.024	85.06
324.253	98.06
324.482	78.06
324.71	87.06
324.939	98.06
325.168	74.06
325.397	94.06
325.626	84.06
325.855	68.06
326.084	93.06
326.313	85.06
326.542	82.06
326.77	94.06
326.999	84.06
327.228	96.06
327.457	86.06
327.686	93.06
327.914	89.06
328.143	89.06
328.372	88.06
328.6	89.06
328.829	100.06
329.058	67.06
329.287	96.06
329.515	83.06
329.744	77.06
329.972	91.06
330.201	91.06
330.43	81.06
330.658	94.06
330.887	87.06
331.115	88.06
331.344	86.06
331.572	87.06
331.801	86.06
332.03	87.06
332.258	93.06
332.486	87.06
332.715	84.06
332.943	84.06
333.172	97.06
333.4	93.06
333.629	83.06
333.857	99.06
334.085	76.06
334.314	102.06
334.542	106.06
334.771	125.06
334.999	121.06
335.227	95.06
335.455	101.06
335.684	104.06
335.912	121.06
336.14	115.06
336.369	108.06
336.597	98.06
336.825	96.06
337.053	104.06
337.281	100.06
337.51	89.06
337.738	87.06
337.966	95.06
338.194	85.06
338.422	90.06
338.65	89.06
338.878	80.06
339.106	92.06
339.334	92.06
339.562	87.06
339.79	86.06
340.018	88.06
340.246	94.06
340.474	84.06
340.702	96.06
340.93	85.06
341.158	87.06
341.386	83.06
341.614	101.06
341.842	96.06
342.07	81.06
342.298	85.06
342.526	98.06
342.754	82.06
342.981	93.06
343.209	76.06
343.437	102.06
343.665	82.06
343.893	88.06
344.12	91.06
344.348	86.06
344.576	94.06
344.804	81.06
345.031	89.06
345.259	80.06
345.487	98.06
345.714	92.06
345.942	92.06
346.17	95.06
346.397	91.06
346.625	96.06
346.853	90.06
347.08	92.06
347.308	98.06
347.535	86.06
347.763	93.06
347.99	95.06
348.218	100.06
348.445	89.06
348.673	95.06
348.9	99.06
349.128	105.06
349.355	89.06
349.583	76.06
349.81	99.06
350.037	77.06
350.265	90.06
350.492	79.06
350.72	95.06
350.947	84.06
351.174	88.06
351.402	90.06
351.629	83.06
351.856	94.06
352.083	77.06
352.311	84.06
352.538	100.06
352.765	93.06
352.992	91.06
353.22	88.06
353.447	90.06
353.674	90.06
353.901	80.06
354.128	80.06
354.355	90.06
354.583	100.06
354.81	86.06
355.037	89.06
355.264	88.06
355.491	86.06
355.718	86.06
355.945	97.06
356.172	97.06
356.399	74.06
356.626	96.06
356.853	84.06
357.08	91.06
357.307	73.06
357.534	86.06
357.761	104.06
357.988	93.06
358.215	85.06
358.441	89.06
358.668	106.06
358.895	88.06
359.122	91.06
359.349	98.06
359.576	105.06
359.802	101.06
360.029	99.06
360.256	79.06
360.483	90.06
360.709	80.06
360.936	95.06
361.163	101.06
361.39	91.06
361.616	98.06
361.843	109.06
362.07	117.06
362.296	137.06
362.523	149.06
362.749	143.06
362.976	198.06
363.203	185.06
363.429	146.06
363.656	102.06
363.882	109.06
364.109	168.06
364.335	203.06
364.562	230.06
364.788	149.06
365.015	95.06
365.241	99.06
365.468	99.06
365.694	82.06
365.92	89.06
366.147	81.06
366.373	90.06
366.599	90.06
366.826	87.06
367.052	100.06
367.278	99.06
367.505	93.06
367.731	105.06
367.957	98.06
368.184	90.06
368.41	100.06
368.636	89.06
368.862	87.06
369.089	84.06
369.315	92.06
369.541	104.06
369.767	85.06
369.993	90.06
370.219	96.06
370.445	95.06
370.672	98.06
370.898	95.06
371.124	98.06
371.35	79.06
371.576	94.06
371.802	86.06
372.028	113.06
372.254	100.06
372.48	85.06
372.706	90.06
372.932	92.06
373.158	95.06
373.384	101.06
373.61	123.06
373.835	126.06
374.061	103.06
374.287	87.06
374.513	83.06
374.739	94.06
374.965	90.06
375.191	100.06
375.416	97.06
375.642	100.06
375.868	96.06
376.094	94.06
376.319	90.06
376.545	100.06
376.771	98.06
376.997	88.06
377.222	101.06
377.448	115.06
377.674	106.06
377.899	99.06
378.125	94.06
378.35	96.06
378.576	92.06
378.802	93.06
379.027	95.06
379.253	81.06
379.478	101.06
379.704	84.06
379.929	83.06
380.155	82.06
380.38	88.06
380.606	76.06
380.831	91.06
381.057	116.06
381.282	86.06
381.507	83.06
381.733	100.06
381.958	105.06
382.184	109.06
382.409	101.06
382.634	99.06
382.86	117.06
383.085	93.06
383.31	87.06
383.535	93.06
383.761	117.06
383.986	111.06
384.211	121.06
384.436	113.06
384.662	98.06
384.887	85.06
385.112	95.06
385.337	111.06
385.562	110.06
385.787	98.06
386.013	107.06
386.238	113.06
386.463	101.06
386.688	105.06
386.913	100.06
387.138	95.06
387.363	112.06
387.588	109.06
387.813	105.06
388.038	101.06
388.263	106.06
388.488	99.06
388.713	102.06
388.938	97.06
389.163	99.06
389.387	86.06
389.612	90.06
389.837	116.06
390.062	99.06
390.287	95.06
390.512	100.06
390.736	100.06
390.961	104.06
391.186	110.06
391.411	95.06
391.636	104.06
391.86	106.06
392.085	126.06
392.31	139.06
392.534	130.06
392.759	167.06
392.984	255.06
393.208	394.06
393.433	575.06
393.658	438.06
393.882	229.06
394.107	151.06
394.331	151.06
394.556	161.06
394.78	133.06
395.005	118.06
395.229	125.06
395.454	114.06
395.678	129.06
395.903	162.06
396.127	191.06
396.352	224.06
396.576	276.06
396.801	419.06
397.025	465.06
397.249	274.06
397.474	190.06
397.698	153.06
397.922	102.06
398.147	111.06
398.371	104.06
398.595	102.06
398.82	101.06
399.044	99.06
399.268	77.06
399.492	95.06
399.717	104.06
399.941	87.06
400.165	90.06
400.389	93.06
400.613	95.06
400.837	83.06
401.062	93.06
401.286	85.06
401.51	79.06
401.734	93.06
401.958	93.06
402.182	87.06
402.406	92.06
402.63	87.06
402.854	101.06
403.078	109.06
403.302	108.06
403.526	106.06
403.75	98.06
403.974	89.06
404.198	90.06
404.422	112.06
404.645	109.06
404.869	110.06
405.093	116.06
405.317	84.06
405.541	85.06
405.765	86.06
405.988	91.06
406.212	92.06
406.436	85.06
406.66	98.06
406.883	99.06
407.107	90.06
407.331	96.06
407.555	119.06
407.778	136.06
408.002	124.06
408.226	99.06
408.449	98.06
408.673	104.06
408.896	106.06
409.12	109.06
409.344	129.06
409.567	133.06
409.791	145.06
410.014	153.06
410.238	123.06
410.461	114.06
410.685	106.06
410.908	91.06
411.132	102.06
411.355	87.06
411.578	94.06
411.802	96.06
412.025	86.06
412.249	86.06
412.472	85.06
412.695	89.06
412.919	98.06
413.142	98.06
413.365	91.06
413.589	81.06
413.812	96.06
414.035	75.06
414.258	114.06
414.482	76.06
414.705	89.06
414.928	93.06
415.151	93.06
415.374	83.06
415.597	73.06
415.821	89.06
416.044	85.06
416.267	95.06
416.49	99.06
416.713	94.06
416.936	90.06
417.159	91.06
417.382	106.06
417.605	104.06
417.828	98.06
418.051	76.06
418.274	85.06
418.497	86.06
418.72	88.06
418.943	95.06
419.166	93.06
419.389	95.06
419.611	94.06
419.834	83.06
420.057	107.06
420.28	110.06
420.503	100.06
420.726	99.06
420.948	111.06
421.171	109.06
421.394	155.06
421.617	161.06
421.839	207.06
422.062	237.06
422.285	370.06
422.507	615.06
422.73	835.06
422.953	763.06
423.175	486.06
423.398	284.06
423.621	198.06
423.843	148.06
424.066	147.06
424.288	130.06
424.511	133.06
424.733	123.06
424.956	103.06
425.178	120.06
425.401	105.06
425.623	114.06
425.846	104.06
426.068	99.06
426.291	94.06
426.513	93.06
426.735	99.06
426.958	105.06
427.18	104.06
427.402	98.06
427.625	110.06
427.847	103.06
428.069	139.06
428.292	190.06
428.514	254.06
428.736	175.06
428.958	222.06
429.181	214.06
429.403	137.06
429.625	138.06
429.847	193.06
430.069	287.06
430.292	348.06
430.514	307.06
430.736	221.06
430.958	245.06
431.18	149.06
431.402	93.06
431.624	118.06
431.846	194.06
432.068	211.06
432.29	126.06
432.512	109.06
432.734	98.06
432.956	103.06
433.178	106.06
433.4	100.06
433.622	82.06
433.844	81.06
434.066	93.06
434.287	95.06
434.509	85.06
434.731	74.06
434.953	97.06
435.175	89.06
435.397	111.06
435.618	123.06
435.84	111.06
436.062	113.06
436.284	101.06
436.505	86.06
436.727	87.06
436.949	94.06
437.17	87.06
437.392	111.06
437.614	86.06
437.835	89.06
438.057	64.06
438.278	82.06
438.5	84.06
438.721	95.06
438.943	92.06
439.165	94.06
439.386	101.06
439.608	100.06
439.829	97.06
440.05	90.06
440.272	95.06
440.493	96.06
440.715	83.06
440.936	91.06
441.158	93.06
441.379	77.06
441.6	93.06
441.822	99.06
442.043	117.06
442.264	141.06
442.486	228.06
442.707	338.06
442.928	196.06
443.149	178.06
443.371	292.06
443.592	537.06
443.813	440.06
444.034	165.06
444.255	122.06
444.476	126.06
444.698	137.06
444.919	136.06
445.14	279.06
445.361	392.06
445.582	637.06
445.803	535.06
446.024	209.06
446.245	121.06
446.466	101.06
446.687	91.06
446.908	97.06
447.129	83.06
447.35	84.06
447.571	101.06
447.792	87.06
448.013	88.06
448.234	87.06
448.455	72.06
448.675	87.06
448.896	89.06
449.117	85.06
449.338	89.06
449.559	89.06
449.779	91.06
450	100.06
450.221	81.06
450.442	93.06
450.662	103.06
450.883	82.06
451.104	94.06
451.324	86.06
451.545	97.06
451.766	90.06
451.986	89.06
452.207	97.06
452.428	106.06
452.648	122.06
452.869	144.06
453.089	121.06
453.31	101.06
453.53	106.06
453.751	88.06
453.971	87.06
454.192	83.06
454.412	90.06
454.633	97.06
454.853	79.06
455.073	96.06
455.294	92.06
455.514	93.06
455.734	78.06
455.955	96.06
456.175	101.06
456.395	69.06
456.616	81.06
456.836	85.06
457.056	102.06
457.276	93.06
457.497	110.06
457.717	119.06
457.937	181.06
458.157	213.06
458.377	231.06
458.598	216.06
458.818	260.06
459.038	146.06
459.258	107.06
459.478	105.06
459.698	97.06
459.918	98.06
460.138	102.06
460.358	102.06
460.578	113.06
460.798	150.06
461.018	162.06
461.238	95.06
461.458	94.06
461.678	85.06
461.898	100.06
462.118	91.06
462.338	85.06
462.558	80.06
462.777	86.06
462.997	101.06
463.217	105.06
463.437	94.06
463.657	88.06
463.876	75.06
464.096	81.06
464.316	79.06
464.536	99.06
464.755	98.06
464.975	86.06
465.195	92.06
465.414	75.06
465.634	85.06
465.854	73.06
466.073	71.06
466.293	82.06
466.512	85.06
466.732	84.06
466.951	88.06
467.171	86.06
467.391	93.06
467.61	90.06
467.829	97.06
468.049	94.06
468.268	98.06
468.488	108.06
468.707	95.06
468.927	104.06
469.146	78.06
469.365	85.06
469.585	83.06
469.804	85.06
470.023	98.06
470.243	106.06
470.462	95.06
470.681	99.06
470.901	85.06
471.12	89.06
471.339	89.06
471.558	86.06
471.777	87.06
471.997	85.06
472.216	94.06
472.435	101.06
472.654	86.06
472.873	103.06
473.092	79.06
473.311	83.06
473.53	93.06
473.749	98.06
473.968	83.06
474.187	88.06
474.406	98.06
474.625	74.06
474.844	95.06
475.063	101.06
475.282	103.06
475.501	92.06
475.72	104.06
475.939	98.06
476.158	82.06
476.377	77.06
476.596	85.06
476.814	95.06
477.033	101.06
477.252	100.06
477.471	87.06
477.69	97.06
477.908	86.06
478.127	90.06
478.346	97.06
478.564	75.06
478.783	89.06
479.002	105.06
479.22	112.06
479.439	98.06
479.658	95.06
479.876	101.06
480.095	99.06
480.313	86.06
480.532	91.06
480.751	88.06
480.969	104.06
481.188	98.06
481.406	113.06
481.624	98.06
481.843	110.06
482.061	92.06
482.28	98.06
482.498	93.06
482.717	95.06
482.935	106.06
483.153	93.06
483.372	96.06
483.59	111.06
483.808	98.06
484.027	95.06
484.245	114.06
484.463	102.06
484.681	99.06
484.9	111.06
485.118	111.06
485.336	97.06
485.554	89.06
485.772	88.06
485.99	96.06
486.209	105.06
486.427	80.06
486.645	104.06
486.863	95.06
487.081	109.06
487.299	97.06
487.517	127.06
487.735	194.06
487.953	392.06
488.171	309.06
488.389	150.06
488.607	113.06
488.825	103.06
489.043	102.06
489.261	112.06
489.479	97.06
489.696	90.06
489.914	89.06
490.132	93.06
490.35	87.06
490.568	83.06
490.786	95.06
491.003	99.06
491.221	103.06
491.439	102.06
491.657	90.06
491.874	84.06
492.092	97.06
492.31	85.06
492.527	99.06
492.745	89.06
492.963	102.06
493.18	101.06
493.398	105.06
493.615	99.06
493.833	92.06
494.05	95.06
494.268	90.06
494.485	99.06
494.703	88.06
494.92	93.06
495.138	96.06
495.355	88.06
495.573	101.06
495.79	101.06
496.008	83.06
496.225	93.06
496.442	99.06
496.66	106.06
496.877	98.06
497.094	119.06
497.312	83.06
497.529	104.06
497.746	99.06
497.963	107.06
498.181	109.06
498.398	109.06
498.615	96.06
498.832	99.06
499.049	91.06
499.267	104.06
499.484	83.06
499.701	96.06
499.918	99.06
500.135	111.06
500.352	100.06
500.569	104.06
500.786	101.06
501.003	112.06
501.22	69.06
501.437	100.06
501.654	109.06
501.871	100.06
502.088	87.06
502.305	93.06
502.522	113.06
502.739	103.06
502.956	91.06
503.172	101.06
503.389	94.06
503.606	114.06
503.823	112.06
504.04	142.06
504.256	271.06
504.473	254.06
504.69	146.06
504.907	119.06
505.123	103.06
505.34	105.06
505.557	99.06
505.773	95.06
505.99	107.06
506.207	102.06
506.423	85.06
506.64	101.06
506.856	90.06
507.073	99.06
507.289	94.06
507.506	91.06
507.722	91.06
507.939	110.06
508.155	100.06
508.372	87.06
508.588	91.06
508.805	105.06
509.021	99.06
509.238	96.06
509.454	108.06
509.67	98.06
509.887	102.06
510.103	89.06
510.319	100.06
510.536	94.06
510.752	89.06
510.968	98.06
511.184	91.06
511.401	87.06
511.617	98.06
511.833	79.06
512.049	75.06
512.265	88.06
512.481	96.06
512.698	95.06
512.914	101.06
513.13	107.06
513.346	86.06
513.562	87.06
513.778	84.06
513.994	97.06
514.21	90.06
514.426	99.06
514.642	100.06
514.858	83.06
515.074	93.06
