Data from CBS_1_HRD10591_00027.txt Node
Date: Mon Jan 19 14:04:02 EST 2026
User: Yrep
Spectrometer: HR+D1059
Trigger mode: 1
Integration Time (sec): 1.000000E-1
Scans to average: 1
Electric dark correction enabled: true
Nonlinearity correction enabled: false
Boxcar width: 0
XAxis mode: Wavelengths
Number of Pixels in Spectrum: 2048
>>>>>Begin Spectral Data<<<<<
223.165	-14.56
223.4	-14.56
223.635	-14.56
223.869	-17.56
224.104	-10.56
224.338	-11.56
224.573	-4.56
224.808	-26.56
225.042	-6.56
225.277	-21.56
225.511	-4.56
225.746	-5.56
225.98	2.44
226.215	12.44
226.449	22.44
226.683	21.44
226.918	26.44
227.152	38.44
227.387	23.44
227.621	50.44
227.856	46.44
228.09	50.44
228.324	49.44
228.559	59.44
228.793	55.44
229.027	57.44
229.262	70.44
229.496	57.44
229.73	82.44
229.964	58.44
230.199	72.44
230.433	72.44
230.667	68.44
230.901	70.44
231.136	68.44
231.37	76.44
231.604	73.44
231.838	83.44
232.072	76.44
232.306	69.44
232.541	82.44
232.775	65.44
233.009	74.44
233.243	73.44
233.477	89.44
233.711	76.44
233.945	85.44
234.179	74.44
234.413	77.44
234.647	91.44
234.881	64.44
235.115	63.44
235.349	79.44
235.583	84.44
235.817	85.44
236.051	84.44
236.285	85.44
236.519	97.44
236.753	83.44
236.987	73.44
237.221	81.44
237.455	74.44
237.689	78.44
237.922	75.44
238.156	90.44
238.39	77.44
238.624	68.44
238.858	67.44
239.091	81.44
239.325	57.44
239.559	80.44
239.793	76.44
240.027	90.44
240.26	87.44
240.494	71.44
240.728	71.44
240.961	80.44
241.195	63.44
241.429	82.44
241.662	77.44
241.896	61.44
242.13	66.44
242.363	78.44
242.597	83.44
242.83	71.44
243.064	88.44
243.298	66.44
243.531	74.44
243.765	73.44
243.998	85.44
244.232	81.44
244.465	73.44
244.699	80.44
244.932	75.44
245.166	74.44
245.399	72.44
245.633	76.44
245.866	73.44
246.099	62.44
246.333	71.44
246.566	74.44
246.8	81.44
247.033	71.44
247.266	70.44
247.5	68.44
247.733	75.44
247.966	74.44
248.2	62.44
248.433	80.44
248.666	73.44
248.899	75.44
249.133	72.44
249.366	74.44
249.599	64.44
249.832	71.44
250.066	95.44
250.299	83.44
250.532	75.44
250.765	69.44
250.998	71.44
251.231	71.44
251.465	67.44
251.698	76.44
251.931	77.44
252.164	71.44
252.397	70.44
252.63	71.44
252.863	82.44
253.096	87.44
253.329	89.44
253.562	81.44
253.795	83.44
254.028	76.44
254.261	63.44
254.494	80.44
254.727	76.44
254.96	81.44
255.193	73.44
255.426	75.44
255.659	72.44
255.892	58.44
256.124	79.44
256.357	82.44
256.59	83.44
256.823	80.44
257.056	67.44
257.289	72.44
257.521	83.44
257.754	79.44
257.987	83.44
258.22	69.44
258.452	89.44
258.685	79.44
258.918	71.44
259.151	83.44
259.383	76.44
259.616	59.44
259.849	78.44
260.081	61.44
260.314	78.44
260.547	87.44
260.779	83.44
261.012	76.44
261.244	93.44
261.477	98.44
261.71	85.44
261.942	76.44
262.175	80.44
262.407	87.44
262.64	91.44
262.872	81.44
263.105	92.44
263.337	73.44
263.57	82.44
263.802	85.44
264.035	74.44
264.267	65.44
264.499	72.44
264.732	71.44
264.964	73.44
265.197	85.44
265.429	79.44
265.661	71.44
265.894	82.44
266.126	87.44
266.358	79.44
266.591	81.44
266.823	90.44
267.055	80.44
267.287	97.44
267.52	81.44
267.752	74.44
267.984	70.44
268.216	69.44
268.448	63.44
268.681	84.44
268.913	86.44
269.145	75.44
269.377	89.44
269.609	89.44
269.841	75.44
270.073	81.44
270.306	87.44
270.538	81.44
270.77	82.44
271.002	91.44
271.234	79.44
271.466	69.44
271.698	80.44
271.93	90.44
272.162	81.44
272.394	65.44
272.626	84.44
272.858	63.44
273.09	69.44
273.322	79.44
273.553	81.44
273.785	81.44
274.017	91.44
274.249	105.44
274.481	80.44
274.713	90.44
274.945	85.44
275.176	79.44
275.408	79.44
275.64	81.44
275.872	82.44
276.104	72.44
276.335	79.44
276.567	90.44
276.799	74.44
277.031	65.44
277.262	75.44
277.494	97.44
277.726	82.44
277.957	89.44
278.189	67.44
278.421	76.44
278.652	85.44
278.884	68.44
279.115	87.44
279.347	81.44
279.579	68.44
279.81	85.44
280.042	74.44
280.273	77.44
280.505	91.44
280.736	80.44
280.968	95.44
281.199	86.44
281.431	83.44
281.662	66.44
281.894	75.44
282.125	87.44
282.356	94.44
282.588	83.44
282.819	79.44
283.051	80.44
283.282	84.44
283.513	94.44
283.745	84.44
283.976	83.44
284.207	85.44
284.439	95.44
284.67	85.44
284.901	73.44
285.132	76.44
285.364	85.44
285.595	91.44
285.826	79.44
286.057	82.44
286.288	84.44
286.52	89.44
286.751	91.44
286.982	96.44
287.213	79.44
287.444	83.44
287.675	79.44
287.906	76.44
288.138	83.44
288.369	65.44
288.6	80.44
288.831	76.44
289.062	69.44
289.293	79.44
289.524	81.44
289.755	81.44
289.986	88.44
290.217	92.44
290.448	76.44
290.679	82.44
290.91	81.44
291.141	77.44
291.371	82.44
291.602	94.44
291.833	91.44
292.064	88.44
292.295	94.44
292.526	87.44
292.757	92.44
292.987	75.44
293.218	66.44
293.449	74.44
293.68	85.44
293.91	78.44
294.141	78.44
294.372	88.44
294.603	89.44
294.833	78.44
295.064	76.44
295.295	84.44
295.525	73.44
295.756	86.44
295.987	77.44
296.217	73.44
296.448	78.44
296.679	85.44
296.909	93.44
297.14	89.44
297.37	79.44
297.601	87.44
297.831	91.44
298.062	74.44
298.292	77.44
298.523	90.44
298.753	69.44
298.984	72.44
299.214	77.44
299.445	86.44
299.675	64.44
299.905	74.44
300.136	72.44
300.366	73.44
300.597	76.44
300.827	87.44
301.057	92.44
301.288	90.44
301.518	79.44
301.748	78.44
301.979	95.44
302.209	86.44
302.439	94.44
302.669	85.44
302.9	76.44
303.13	81.44
303.36	91.44
303.59	79.44
303.82	78.44
304.051	76.44
304.281	93.44
304.511	79.44
304.741	85.44
304.971	87.44
305.201	79.44
305.431	94.44
305.661	84.44
305.891	87.44
306.121	78.44
306.352	87.44
306.582	87.44
306.812	88.44
307.042	93.44
307.272	68.44
307.502	82.44
307.731	77.44
307.961	83.44
308.191	73.44
308.421	76.44
308.651	83.44
308.881	81.44
309.111	74.44
309.341	91.44
309.571	93.44
309.8	81.44
310.03	78.44
310.26	78.44
310.49	73.44
310.72	75.44
310.949	86.44
311.179	99.44
311.409	77.44
311.639	85.44
311.868	84.44
312.098	84.44
312.328	81.44
312.557	88.44
312.787	90.44
313.017	78.44
313.246	83.44
313.476	85.44
313.706	90.44
313.935	81.44
314.165	79.44
314.394	82.44
314.624	76.44
314.853	85.44
315.083	87.44
315.312	73.44
315.542	81.44
315.771	95.44
316.001	81.44
316.23	81.44
316.46	82.44
316.689	76.44
316.919	75.44
317.148	85.44
317.377	93.44
317.607	99.44
317.836	80.44
318.065	80.44
318.295	84.44
318.524	74.44
318.753	85.44
318.983	80.44
319.212	82.44
319.441	91.44
319.67	84.44
319.9	84.44
320.129	91.44
320.358	80.44
320.587	89.44
320.816	75.44
321.046	90.44
321.275	85.44
321.504	82.44
321.733	94.44
321.962	81.44
322.191	72.44
322.42	81.44
322.649	87.44
322.878	96.44
323.108	86.44
323.337	79.44
323.566	87.44
323.795	89.44
324.024	91.44
324.253	90.44
324.482	88.44
324.71	83.44
324.939	92.44
325.168	91.44
325.397	77.44
325.626	81.44
325.855	93.44
326.084	90.44
326.313	75.44
326.542	97.44
326.77	86.44
326.999	81.44
327.228	71.44
327.457	91.44
327.686	73.44
327.914	94.44
328.143	84.44
328.372	79.44
328.6	93.44
328.829	88.44
329.058	82.44
329.287	83.44
329.515	87.44
329.744	87.44
329.972	75.44
330.201	94.44
330.43	79.44
330.658	72.44
330.887	83.44
331.115	92.44
331.344	93.44
331.572	85.44
331.801	98.44
332.03	81.44
332.258	78.44
332.486	81.44
332.715	69.44
332.943	78.44
333.172	78.44
333.4	81.44
333.629	68.44
333.857	85.44
334.085	90.44
334.314	63.44
334.542	83.44
334.771	89.44
334.999	73.44
335.227	79.44
335.455	82.44
335.684	96.44
335.912	78.44
336.14	90.44
336.369	107.44
336.597	97.44
336.825	81.44
337.053	75.44
337.281	83.44
337.51	107.44
337.738	74.44
337.966	86.44
338.194	82.44
338.422	80.44
338.65	88.44
338.878	69.44
339.106	83.44
339.334	87.44
339.562	91.44
339.79	65.44
340.018	81.44
340.246	83.44
340.474	88.44
340.702	85.44
340.93	66.44
341.158	83.44
341.386	89.44
341.614	84.44
341.842	75.44
342.07	78.44
342.298	76.44
342.526	81.44
342.754	73.44
342.981	100.44
343.209	83.44
343.437	101.44
343.665	90.44
343.893	75.44
344.12	84.44
344.348	88.44
344.576	80.44
344.804	76.44
345.031	104.44
345.259	89.44
345.487	91.44
345.714	78.44
345.942	77.44
346.17	84.44
346.397	76.44
346.625	81.44
346.853	88.44
347.08	84.44
347.308	78.44
347.535	89.44
347.763	90.44
347.99	78.44
348.218	87.44
348.445	68.44
348.673	84.44
348.9	96.44
349.128	92.44
349.355	75.44
349.583	69.44
349.81	86.44
350.037	84.44
350.265	80.44
350.492	81.44
350.72	79.44
350.947	89.44
351.174	94.44
351.402	83.44
351.629	97.44
351.856	90.44
352.083	82.44
352.311	89.44
352.538	78.44
352.765	79.44
352.992	82.44
353.22	81.44
353.447	76.44
353.674	83.44
353.901	75.44
354.128	82.44
354.355	90.44
354.583	84.44
354.81	100.44
355.037	94.44
355.264	86.44
355.491	81.44
355.718	86.44
355.945	90.44
356.172	74.44
356.399	86.44
356.626	75.44
356.853	88.44
357.08	88.44
357.307	90.44
357.534	80.44
357.761	85.44
357.988	89.44
358.215	78.44
358.441	81.44
358.668	82.44
358.895	68.44
359.122	94.44
359.349	85.44
359.576	75.44
359.802	78.44
360.029	83.44
360.256	82.44
360.483	86.44
360.709	82.44
360.936	89.44
361.163	86.44
361.39	86.44
361.616	91.44
361.843	88.44
362.07	99.44
362.296	87.44
362.523	91.44
362.749	101.44
362.976	96.44
363.203	90.44
363.429	94.44
363.656	90.44
363.882	78.44
364.109	99.44
364.335	89.44
364.562	93.44
364.788	86.44
365.015	83.44
365.241	89.44
365.468	75.44
365.694	82.44
365.92	76.44
366.147	77.44
366.373	78.44
366.599	84.44
366.826	87.44
367.052	78.44
367.278	93.44
367.505	75.44
367.731	97.44
367.957	86.44
368.184	85.44
368.41	78.44
368.636	76.44
368.862	77.44
369.089	88.44
369.315	99.44
369.541	102.44
369.767	90.44
369.993	75.44
370.219	89.44
370.445	88.44
370.672	101.44
370.898	78.44
371.124	84.44
371.35	89.44
371.576	79.44
371.802	78.44
372.028	70.44
372.254	74.44
372.48	80.44
372.706	82.44
372.932	85.44
373.158	89.44
373.384	93.44
373.61	91.44
373.835	82.44
374.061	79.44
374.287	82.44
374.513	82.44
374.739	85.44
374.965	83.44
375.191	99.44
375.416	78.44
375.642	76.44
375.868	81.44
376.094	89.44
376.319	85.44
376.545	97.44
376.771	87.44
376.997	68.44
377.222	82.44
377.448	101.44
377.674	83.44
377.899	94.44
378.125	86.44
378.35	90.44
378.576	82.44
378.802	102.44
379.027	67.44
379.253	87.44
379.478	71.44
379.704	85.44
379.929	84.44
380.155	85.44
380.38	86.44
380.606	84.44
380.831	89.44
381.057	94.44
381.282	82.44
381.507	82.44
381.733	85.44
381.958	83.44
382.184	79.44
382.409	82.44
382.634	87.44
382.86	85.44
383.085	77.44
383.31	79.44
383.535	83.44
383.761	89.44
383.986	81.44
384.211	72.44
384.436	83.44
384.662	70.44
384.887	78.44
385.112	85.44
385.337	89.44
385.562	82.44
385.787	82.44
386.013	87.44
386.238	89.44
386.463	79.44
386.688	99.44
386.913	88.44
387.138	87.44
387.363	83.44
387.588	83.44
387.813	86.44
388.038	91.44
388.263	86.44
388.488	89.44
388.713	77.44
388.938	84.44
389.163	81.44
389.387	87.44
389.612	75.44
389.837	79.44
390.062	93.44
390.287	85.44
390.512	86.44
390.736	86.44
390.961	80.44
391.186	89.44
391.411	92.44
391.636	85.44
391.86	102.44
392.085	74.44
392.31	79.44
392.534	72.44
392.759	85.44
392.984	98.44
393.208	118.44
393.433	138.44
393.658	130.44
393.882	79.44
394.107	85.44
394.331	69.44
394.556	84.44
394.78	95.44
395.005	81.44
395.229	88.44
395.454	82.44
395.678	86.44
395.903	75.44
396.127	94.44
396.352	109.44
396.576	97.44
396.801	115.44
397.025	117.44
397.249	106.44
397.474	85.44
397.698	85.44
397.922	96.44
398.147	67.44
398.371	69.44
398.595	79.44
398.82	90.44
399.044	80.44
399.268	84.44
399.492	84.44
399.717	87.44
399.941	83.44
400.165	84.44
400.389	85.44
400.613	89.44
400.837	98.44
401.062	82.44
401.286	66.44
401.51	83.44
401.734	74.44
401.958	82.44
402.182	76.44
402.406	84.44
402.63	71.44
402.854	82.44
403.078	85.44
403.302	93.44
403.526	75.44
403.75	82.44
403.974	81.44
404.198	100.44
404.422	87.44
404.645	85.44
404.869	91.44
405.093	81.44
405.317	75.44
405.541	71.44
405.765	71.44
405.988	83.44
406.212	93.44
406.436	82.44
406.66	99.44
406.883	83.44
407.107	81.44
407.331	71.44
407.555	81.44
407.778	76.44
408.002	84.44
408.226	75.44
408.449	73.44
408.673	79.44
408.896	85.44
409.12	94.44
409.344	81.44
409.567	81.44
409.791	85.44
410.014	81.44
410.238	93.44
410.461	87.44
410.685	97.44
410.908	75.44
411.132	87.44
411.355	87.44
411.578	76.44
411.802	81.44
412.025	74.44
412.249	85.44
412.472	85.44
412.695	75.44
412.919	75.44
413.142	57.44
413.365	80.44
413.589	78.44
413.812	62.44
414.035	82.44
414.258	85.44
414.482	85.44
414.705	89.44
414.928	87.44
415.151	91.44
415.374	100.44
415.597	81.44
415.821	74.44
416.044	83.44
416.267	71.44
416.49	84.44
416.713	73.44
416.936	89.44
417.159	76.44
417.382	85.44
417.605	80.44
417.828	74.44
418.051	93.44
418.274	70.44
418.497	85.44
418.72	79.44
418.943	91.44
419.166	80.44
419.389	98.44
419.611	95.44
419.834	80.44
420.057	91.44
420.28	83.44
420.503	94.44
420.726	100.44
420.948	100.44
421.171	100.44
421.394	91.44
421.617	102.44
421.839	95.44
422.062	101.44
422.285	120.44
422.507	144.44
422.73	196.44
422.953	174.44
423.175	123.44
423.398	95.44
423.621	95.44
423.843	90.44
424.066	93.44
424.288	91.44
424.511	83.44
424.733	102.44
424.956	92.44
425.178	81.44
425.401	82.44
425.623	87.44
425.846	71.44
426.068	90.44
426.291	79.44
426.513	94.44
426.735	86.44
426.958	85.44
427.18	83.44
427.402	93.44
427.625	83.44
427.847	83.44
428.069	78.44
428.292	93.44
428.514	104.44
428.736	97.44
428.958	98.44
429.181	103.44
429.403	105.44
429.625	92.44
429.847	71.44
430.069	97.44
430.292	110.44
430.514	109.44
430.736	96.44
430.958	91.44
431.18	89.44
431.402	83.44
431.624	96.44
431.846	83.44
432.068	90.44
432.29	82.44
432.512	85.44
432.734	75.44
432.956	71.44
433.178	85.44
433.4	80.44
433.622	79.44
433.844	78.44
434.066	76.44
434.287	89.44
434.509	75.44
434.731	71.44
434.953	81.44
435.175	86.44
435.397	90.44
435.618	93.44
435.84	86.44
436.062	85.44
436.284	85.44
436.505	81.44
436.727	72.44
436.949	69.44
437.17	76.44
437.392	86.44
437.614	88.44
437.835	80.44
438.057	71.44
438.278	76.44
438.5	82.44
438.721	83.44
438.943	84.44
439.165	71.44
439.386	84.44
439.608	89.44
439.829	67.44
440.05	84.44
440.272	69.44
440.493	70.44
440.715	77.44
440.936	72.44
441.158	82.44
441.379	73.44
441.6	84.44
441.822	86.44
442.043	77.44
442.264	71.44
442.486	99.44
442.707	108.44
442.928	86.44
443.149	101.44
443.371	113.44
443.592	143.44
443.813	106.44
444.034	79.44
444.255	75.44
444.476	91.44
444.698	85.44
444.919	97.44
445.14	167.44
445.361	148.44
445.582	135.44
445.803	119.44
446.024	83.44
446.245	82.44
446.466	82.44
446.687	79.44
446.908	89.44
447.129	80.44
447.35	88.44
447.571	85.44
447.792	81.44
448.013	73.44
448.234	74.44
448.455	86.44
448.675	85.44
448.896	63.44
449.117	95.44
449.338	66.44
449.559	87.44
449.779	93.44
450	77.44
450.221	81.44
450.442	85.44
450.662	89.44
450.883	83.44
451.104	82.44
451.324	80.44
451.545	84.44
451.766	87.44
451.986	82.44
452.207	89.44
452.428	76.44
452.648	82.44
452.869	93.44
453.089	82.44
453.31	77.44
453.53	81.44
453.751	82.44
453.971	81.44
454.192	99.44
454.412	92.44
454.633	79.44
454.853	76.44
455.073	85.44
455.294	76.44
455.514	76.44
455.734	90.44
455.955	72.44
456.175	83.44
456.395	89.44
456.616	90.44
456.836	76.44
457.056	79.44
457.276	85.44
457.497	85.44
457.717	88.44
457.937	96.44
458.157	96.44
458.377	96.44
458.598	87.44
458.818	85.44
459.038	76.44
459.258	93.44
459.478	82.44
459.698	85.44
459.918	86.44
460.138	76.44
460.358	90.44
460.578	92.44
460.798	81.44
461.018	80.44
461.238	79.44
461.458	87.44
461.678	80.44
461.898	86.44
462.118	87.44
462.338	90.44
462.558	69.44
462.777	76.44
462.997	96.44
463.217	93.44
463.437	83.44
463.657	82.44
463.876	85.44
464.096	69.44
464.316	80.44
464.536	68.44
464.755	95.44
464.975	82.44
465.195	77.44
465.414	87.44
465.634	75.44
465.854	87.44
466.073	79.44
466.293	85.44
466.512	81.44
466.732	79.44
466.951	90.44
467.171	74.44
467.391	83.44
467.61	94.44
467.829	73.44
468.049	87.44
468.268	79.44
468.488	69.44
468.707	69.44
468.927	81.44
469.146	93.44
469.365	90.44
469.585	88.44
469.804	70.44
470.023	81.44
470.243	90.44
470.462	89.44
470.681	79.44
470.901	71.44
471.12	85.44
471.339	89.44
471.558	79.44
471.777	97.44
471.997	88.44
472.216	84.44
472.435	63.44
472.654	95.44
472.873	93.44
473.092	76.44
473.311	83.44
473.53	87.44
473.749	97.44
473.968	91.44
474.187	78.44
474.406	69.44
474.625	85.44
474.844	81.44
475.063	79.44
475.282	79.44
475.501	73.44
475.72	71.44
475.939	90.44
476.158	81.44
476.377	77.44
476.596	94.44
476.814	82.44
477.033	74.44
477.252	86.44
477.471	76.44
477.69	83.44
477.908	88.44
478.127	81.44
478.346	71.44
478.564	82.44
478.783	86.44
479.002	87.44
479.22	84.44
479.439	84.44
479.658	91.44
479.876	77.44
480.095	79.44
480.313	89.44
480.532	82.44
480.751	87.44
480.969	92.44
481.188	69.44
481.406	99.44
481.624	84.44
481.843	75.44
482.061	92.44
482.28	67.44
482.498	95.44
482.717	73.44
482.935	70.44
483.153	87.44
483.372	99.44
483.59	78.44
483.808	94.44
484.027	81.44
484.245	81.44
484.463	84.44
484.681	75.44
484.9	88.44
485.118	82.44
485.336	76.44
485.554	84.44
485.772	79.44
485.99	78.44
486.209	87.44
486.427	75.44
486.645	82.44
486.863	89.44
487.081	84.44
487.299	88.44
487.517	79.44
487.735	82.44
487.953	109.44
488.171	93.44
488.389	79.44
488.607	75.44
488.825	76.44
489.043	87.44
489.261	89.44
489.479	82.44
489.696	98.44
489.914	87.44
490.132	84.44
490.35	81.44
490.568	69.44
490.786	67.44
491.003	69.44
491.221	84.44
491.439	79.44
491.657	87.44
491.874	92.44
492.092	87.44
492.31	100.44
492.527	77.44
492.745	80.44
492.963	83.44
493.18	88.44
493.398	87.44
493.615	89.44
493.833	90.44
494.05	81.44
494.268	89.44
494.485	81.44
494.703	88.44
494.92	93.44
495.138	78.44
495.355	70.44
495.573	87.44
495.79	99.44
496.008	77.44
496.225	85.44
496.442	86.44
496.66	76.44
496.877	86.44
497.094	91.44
497.312	89.44
497.529	82.44
497.746	79.44
497.963	99.44
498.181	82.44
498.398	81.44
498.615	84.44
498.832	83.44
499.049	87.44
499.267	80.44
499.484	80.44
499.701	90.44
499.918	84.44
500.135	67.44
500.352	83.44
500.569	88.44
500.786	86.44
501.003	78.44
501.22	90.44
501.437	93.44
501.654	90.44
501.871	97.44
502.088	79.44
502.305	77.44
502.522	89.44
502.739	92.44
502.956	81.44
503.172	94.44
503.389	91.44
503.606	81.44
503.823	97.44
504.04	90.44
504.256	99.44
504.473	95.44
504.69	86.44
504.907	85.44
505.123	88.44
505.34	67.44
505.557	85.44
505.773	83.44
505.99	91.44
506.207	78.44
506.423	95.44
506.64	75.44
506.856	90.44
507.073	93.44
507.289	83.44
507.506	75.44
507.722	86.44
507.939	85.44
508.155	79.44
508.372	84.44
508.588	79.44
508.805	85.44
509.021	89.44
509.238	98.44
509.454	69.44
509.67	83.44
509.887	90.44
510.103	91.44
510.319	76.44
510.536	74.44
510.752	91.44
510.968	82.44
511.184	82.44
511.401	75.44
511.617	81.44
511.833	89.44
512.049	85.44
512.265	83.44
512.481	90.44
512.698	89.44
512.914	95.44
513.13	94.44
513.346	74.44
513.562	76.44
513.778	86.44
513.994	65.44
514.21	81.44
514.426	86.44
514.642	77.44
514.858	87.44
515.074	78.44
515.29	80.44
515.506	73.44
515.721	90.44
515.937	88.44
516.153	95.44
516.369	75.44
516.585	85.44
516.801	75.44
517.016	98.44
517.232	79.44
517.448	79.44
517.664	82.44
517.879	85.44
518.095	87.44
518.311	87.44
518.527	89.44
518.742	98.44
518.958	94.44
519.173	112.44
519.389	100.44
519.605	85.44
