Data from CBS_1_HRD10591_00045.txt Node
Date: Mon Jan 19 14:04:11 EST 2026
User: Yrep
Spectrometer: HR+D1059
Trigger mode: 1
Integration Time (sec): 1.000000E-1
Scans to average: 1
Electric dark correction enabled: true
Nonlinearity correction enabled: false
Boxcar width: 0
XAxis mode: Wavelengths
Number of Pixels in Spectrum: 2048
>>>>>Begin Spectral Data<<<<<
223.165	-13.88
223.4	-13.88
223.635	-13.88
223.869	-14.88
224.104	-12.88
224.338	-27.88
224.573	-30.88
224.808	-5.88
225.042	0.12
225.277	5.12
225.511	16.12
225.746	7.12
225.98	0.12
226.215	16.12
226.449	1.12
226.683	13.12
226.918	26.12
227.152	21.12
227.387	46.12
227.621	37.12
227.856	57.12
228.09	59.12
228.324	41.12
228.559	59.12
228.793	70.12
229.027	58.12
229.262	66.12
229.496	78.12
229.73	79.12
229.964	84.12
230.199	65.12
230.433	65.12
230.667	68.12
230.901	85.12
231.136	76.12
231.37	80.12
231.604	85.12
231.838	93.12
232.072	81.12
232.306	84.12
232.541	83.12
232.775	78.12
233.009	74.12
233.243	69.12
233.477	83.12
233.711	70.12
233.945	89.12
234.179	80.12
234.413	77.12
234.647	85.12
234.881	84.12
235.115	79.12
235.349	81.12
235.583	75.12
235.817	88.12
236.051	77.12
236.285	76.12
236.519	73.12
236.753	69.12
236.987	73.12
237.221	68.12
237.455	72.12
237.689	66.12
237.922	80.12
238.156	74.12
238.39	87.12
238.624	72.12
238.858	79.12
239.091	72.12
239.325	75.12
239.559	80.12
239.793	76.12
240.027	75.12
240.26	71.12
240.494	81.12
240.728	71.12
240.961	80.12
241.195	73.12
241.429	72.12
241.662	73.12
241.896	69.12
242.13	78.12
242.363	67.12
242.597	82.12
242.83	72.12
243.064	86.12
243.298	74.12
243.531	79.12
243.765	78.12
243.998	65.12
244.232	77.12
244.465	72.12
244.699	71.12
244.932	84.12
245.166	73.12
245.399	79.12
245.633	89.12
245.866	76.12
246.099	88.12
246.333	87.12
246.566	85.12
246.8	83.12
247.033	81.12
247.266	90.12
247.5	72.12
247.733	84.12
247.966	82.12
248.2	81.12
248.433	73.12
248.666	87.12
248.899	82.12
249.133	71.12
249.366	79.12
249.599	74.12
249.832	81.12
250.066	90.12
250.299	74.12
250.532	93.12
250.765	75.12
250.998	76.12
251.231	67.12
251.465	82.12
251.698	81.12
251.931	71.12
252.164	69.12
252.397	78.12
252.63	62.12
252.863	84.12
253.096	74.12
253.329	93.12
253.562	83.12
253.795	69.12
254.028	82.12
254.261	75.12
254.494	90.12
254.727	90.12
254.96	79.12
255.193	69.12
255.426	70.12
255.659	75.12
255.892	73.12
256.124	69.12
256.357	84.12
256.59	82.12
256.823	85.12
257.056	62.12
257.289	84.12
257.521	73.12
257.754	70.12
257.987	75.12
258.22	95.12
258.452	81.12
258.685	81.12
258.918	90.12
259.151	78.12
259.383	88.12
259.616	83.12
259.849	82.12
260.081	87.12
260.314	70.12
260.547	70.12
260.779	74.12
261.012	77.12
261.244	74.12
261.477	79.12
261.71	83.12
261.942	93.12
262.175	79.12
262.407	75.12
262.64	71.12
262.872	82.12
263.105	83.12
263.337	77.12
263.57	80.12
263.802	75.12
264.035	81.12
264.267	91.12
264.499	74.12
264.732	74.12
264.964	86.12
265.197	81.12
265.429	91.12
265.661	82.12
265.894	74.12
266.126	63.12
266.358	89.12
266.591	75.12
266.823	85.12
267.055	74.12
267.287	66.12
267.52	75.12
267.752	78.12
267.984	81.12
268.216	74.12
268.448	79.12
268.681	83.12
268.913	86.12
269.145	87.12
269.377	80.12
269.609	83.12
269.841	72.12
270.073	73.12
270.306	94.12
270.538	80.12
270.77	88.12
271.002	73.12
271.234	78.12
271.466	81.12
271.698	76.12
271.93	82.12
272.162	78.12
272.394	92.12
272.626	74.12
272.858	91.12
273.09	86.12
273.322	84.12
273.553	85.12
273.785	74.12
274.017	89.12
274.249	76.12
274.481	72.12
274.713	80.12
274.945	92.12
275.176	81.12
275.408	90.12
275.64	84.12
275.872	78.12
276.104	92.12
276.335	74.12
276.567	90.12
276.799	93.12
277.031	75.12
277.262	85.12
277.494	87.12
277.726	75.12
277.957	97.12
278.189	81.12
278.421	95.12
278.652	82.12
278.884	90.12
279.115	87.12
279.347	83.12
279.579	86.12
279.81	85.12
280.042	70.12
280.273	79.12
280.505	83.12
280.736	109.12
280.968	76.12
281.199	80.12
281.431	69.12
281.662	69.12
281.894	84.12
282.125	74.12
282.356	68.12
282.588	78.12
282.819	77.12
283.051	86.12
283.282	71.12
283.513	84.12
283.745	83.12
283.976	90.12
284.207	86.12
284.439	74.12
284.67	80.12
284.901	75.12
285.132	75.12
285.364	68.12
285.595	89.12
285.826	79.12
286.057	88.12
286.288	84.12
286.52	81.12
286.751	91.12
286.982	102.12
287.213	89.12
287.444	102.12
287.675	75.12
287.906	72.12
288.138	78.12
288.369	85.12
288.6	90.12
288.831	84.12
289.062	90.12
289.293	80.12
289.524	80.12
289.755	76.12
289.986	79.12
290.217	86.12
290.448	98.12
290.679	83.12
290.91	90.12
291.141	73.12
291.371	62.12
291.602	86.12
291.833	83.12
292.064	75.12
292.295	77.12
292.526	90.12
292.757	91.12
292.987	85.12
293.218	85.12
293.449	88.12
293.68	86.12
293.91	87.12
294.141	81.12
294.372	79.12
294.603	76.12
294.833	87.12
295.064	80.12
295.295	72.12
295.525	73.12
295.756	75.12
295.987	74.12
296.217	80.12
296.448	79.12
296.679	85.12
296.909	83.12
297.14	81.12
297.37	84.12
297.601	87.12
297.831	71.12
298.062	75.12
298.292	71.12
298.523	79.12
298.753	99.12
298.984	84.12
299.214	92.12
299.445	79.12
299.675	79.12
299.905	88.12
300.136	85.12
300.366	84.12
300.597	88.12
300.827	93.12
301.057	91.12
301.288	78.12
301.518	93.12
301.748	78.12
301.979	97.12
302.209	75.12
302.439	75.12
302.669	66.12
302.9	83.12
303.13	86.12
303.36	79.12
303.59	94.12
303.82	90.12
304.051	83.12
304.281	98.12
304.511	100.12
304.741	80.12
304.971	76.12
305.201	85.12
305.431	76.12
305.661	79.12
305.891	79.12
306.121	79.12
306.352	88.12
306.582	88.12
306.812	84.12
307.042	82.12
307.272	93.12
307.502	84.12
307.731	79.12
307.961	83.12
308.191	94.12
308.421	94.12
308.651	80.12
308.881	85.12
309.111	81.12
309.341	88.12
309.571	91.12
309.8	76.12
310.03	76.12
310.26	79.12
310.49	84.12
310.72	85.12
310.949	90.12
311.179	82.12
311.409	87.12
311.639	74.12
311.868	90.12
312.098	86.12
312.328	71.12
312.557	98.12
312.787	90.12
313.017	89.12
313.246	80.12
313.476	82.12
313.706	79.12
313.935	76.12
314.165	83.12
314.394	87.12
314.624	93.12
314.853	88.12
315.083	97.12
315.312	82.12
315.542	95.12
315.771	88.12
316.001	97.12
316.23	93.12
316.46	79.12
316.689	90.12
316.919	91.12
317.148	93.12
317.377	85.12
317.607	74.12
317.836	89.12
318.065	100.12
318.295	86.12
318.524	80.12
318.753	86.12
318.983	91.12
319.212	92.12
319.441	75.12
319.67	79.12
319.9	89.12
320.129	91.12
320.358	82.12
320.587	73.12
320.816	85.12
321.046	89.12
321.275	81.12
321.504	81.12
321.733	79.12
321.962	93.12
322.191	91.12
322.42	89.12
322.649	79.12
322.878	79.12
323.108	96.12
323.337	79.12
323.566	93.12
323.795	93.12
324.024	83.12
324.253	77.12
324.482	90.12
324.71	76.12
324.939	84.12
325.168	81.12
325.397	97.12
325.626	87.12
325.855	84.12
326.084	76.12
326.313	103.12
326.542	79.12
326.77	73.12
326.999	78.12
327.228	85.12
327.457	85.12
327.686	84.12
327.914	64.12
328.143	79.12
328.372	73.12
328.6	82.12
328.829	67.12
329.058	84.12
329.287	75.12
329.515	87.12
329.744	76.12
329.972	82.12
330.201	81.12
330.43	95.12
330.658	75.12
330.887	83.12
331.115	86.12
331.344	65.12
331.572	81.12
331.801	83.12
332.03	77.12
332.258	90.12
332.486	78.12
332.715	68.12
332.943	86.12
333.172	80.12
333.4	82.12
333.629	89.12
333.857	79.12
334.085	90.12
334.314	78.12
334.542	86.12
334.771	93.12
334.999	89.12
335.227	94.12
335.455	93.12
335.684	99.12
335.912	82.12
336.14	82.12
336.369	76.12
336.597	83.12
336.825	87.12
337.053	89.12
337.281	92.12
337.51	78.12
337.738	95.12
337.966	87.12
338.194	79.12
338.422	80.12
338.65	90.12
338.878	88.12
339.106	95.12
339.334	96.12
339.562	98.12
339.79	94.12
340.018	92.12
340.246	85.12
340.474	89.12
340.702	110.12
340.93	82.12
341.158	99.12
341.386	78.12
341.614	83.12
341.842	89.12
342.07	73.12
342.298	69.12
342.526	74.12
342.754	75.12
342.981	86.12
343.209	99.12
343.437	103.12
343.665	65.12
343.893	81.12
344.12	76.12
344.348	87.12
344.576	83.12
344.804	82.12
345.031	72.12
345.259	83.12
345.487	81.12
345.714	78.12
345.942	85.12
346.17	83.12
346.397	86.12
346.625	86.12
346.853	86.12
347.08	68.12
347.308	88.12
347.535	100.12
347.763	89.12
347.99	78.12
348.218	91.12
348.445	82.12
348.673	103.12
348.9	78.12
349.128	77.12
349.355	88.12
349.583	75.12
349.81	80.12
350.037	104.12
350.265	73.12
350.492	85.12
350.72	78.12
350.947	69.12
351.174	84.12
351.402	87.12
351.629	90.12
351.856	72.12
352.083	86.12
352.311	86.12
352.538	72.12
352.765	93.12
352.992	74.12
353.22	93.12
353.447	79.12
353.674	98.12
353.901	97.12
354.128	79.12
354.355	94.12
354.583	96.12
354.81	93.12
355.037	86.12
355.264	84.12
355.491	86.12
355.718	86.12
355.945	96.12
356.172	95.12
356.399	88.12
356.626	83.12
356.853	96.12
357.08	75.12
357.307	111.12
357.534	86.12
357.761	87.12
357.988	87.12
358.215	79.12
358.441	72.12
358.668	86.12
358.895	89.12
359.122	70.12
359.349	83.12
359.576	80.12
359.802	74.12
360.029	75.12
360.256	95.12
360.483	73.12
360.709	87.12
360.936	91.12
361.163	86.12
361.39	85.12
361.616	87.12
361.843	90.12
362.07	88.12
362.296	93.12
362.523	89.12
362.749	88.12
362.976	106.12
363.203	103.12
363.429	90.12
363.656	86.12
363.882	87.12
364.109	110.12
364.335	108.12
364.562	104.12
364.788	83.12
365.015	90.12
365.241	87.12
365.468	89.12
365.694	97.12
365.92	74.12
366.147	81.12
366.373	90.12
366.599	86.12
366.826	91.12
367.052	94.12
367.278	83.12
367.505	87.12
367.731	91.12
367.957	82.12
368.184	82.12
368.41	82.12
368.636	89.12
368.862	69.12
369.089	93.12
369.315	71.12
369.541	100.12
369.767	94.12
369.993	91.12
370.219	76.12
370.445	82.12
370.672	84.12
370.898	105.12
371.124	93.12
371.35	88.12
371.576	83.12
371.802	80.12
372.028	77.12
372.254	83.12
372.48	79.12
372.706	86.12
372.932	78.12
373.158	84.12
373.384	92.12
373.61	103.12
373.835	89.12
374.061	110.12
374.287	95.12
374.513	88.12
374.739	86.12
374.965	87.12
375.191	94.12
375.416	76.12
375.642	79.12
375.868	86.12
376.094	90.12
376.319	79.12
376.545	82.12
376.771	81.12
376.997	78.12
377.222	70.12
377.448	89.12
377.674	74.12
377.899	90.12
378.125	96.12
378.35	95.12
378.576	90.12
378.802	90.12
379.027	96.12
379.253	91.12
379.478	73.12
379.704	88.12
379.929	76.12
380.155	79.12
380.38	74.12
380.606	87.12
380.831	79.12
381.057	104.12
381.282	76.12
381.507	79.12
381.733	79.12
381.958	89.12
382.184	88.12
382.409	81.12
382.634	76.12
382.86	94.12
383.085	80.12
383.31	83.12
383.535	87.12
383.761	77.12
383.986	72.12
384.211	88.12
384.436	84.12
384.662	78.12
384.887	90.12
385.112	81.12
385.337	88.12
385.562	81.12
385.787	80.12
386.013	88.12
386.238	94.12
386.463	85.12
386.688	112.12
386.913	88.12
387.138	94.12
387.363	86.12
387.588	75.12
387.813	91.12
388.038	86.12
388.263	78.12
388.488	81.12
388.713	93.12
388.938	82.12
389.163	97.12
389.387	89.12
389.612	75.12
389.837	80.12
390.062	93.12
390.287	80.12
390.512	88.12
390.736	94.12
390.961	98.12
391.186	83.12
391.411	82.12
391.636	82.12
391.86	86.12
392.085	92.12
392.31	88.12
392.534	90.12
392.759	96.12
392.984	118.12
393.208	178.12
393.433	248.12
393.658	184.12
393.882	118.12
394.107	92.12
394.331	94.12
394.556	96.12
394.78	77.12
395.005	97.12
395.229	93.12
395.454	93.12
395.678	91.12
395.903	105.12
396.127	101.12
396.352	121.12
396.576	130.12
396.801	189.12
397.025	185.12
397.249	143.12
397.474	121.12
397.698	94.12
397.922	89.12
398.147	72.12
398.371	77.12
398.595	98.12
398.82	82.12
399.044	82.12
399.268	89.12
399.492	93.12
399.717	97.12
399.941	90.12
400.165	98.12
400.389	75.12
400.613	83.12
400.837	82.12
401.062	83.12
401.286	85.12
401.51	83.12
401.734	84.12
401.958	83.12
402.182	69.12
402.406	83.12
402.63	79.12
402.854	70.12
403.078	81.12
403.302	79.12
403.526	91.12
403.75	89.12
403.974	83.12
404.198	81.12
404.422	71.12
404.645	85.12
404.869	89.12
405.093	85.12
405.317	81.12
405.541	91.12
405.765	87.12
405.988	82.12
406.212	68.12
406.436	89.12
406.66	74.12
406.883	85.12
407.107	93.12
407.331	71.12
407.555	95.12
407.778	94.12
408.002	104.12
408.226	94.12
408.449	77.12
408.673	94.12
408.896	82.12
409.12	86.12
409.344	87.12
409.567	93.12
409.791	99.12
410.014	86.12
410.238	89.12
410.461	87.12
410.685	71.12
410.908	85.12
411.132	96.12
411.355	93.12
411.578	85.12
411.802	86.12
412.025	85.12
412.249	81.12
412.472	80.12
412.695	73.12
412.919	86.12
413.142	97.12
413.365	75.12
413.589	101.12
413.812	67.12
414.035	82.12
414.258	87.12
414.482	79.12
414.705	84.12
414.928	87.12
415.151	71.12
415.374	84.12
415.597	90.12
415.821	70.12
416.044	83.12
416.267	81.12
416.49	86.12
416.713	81.12
416.936	76.12
417.159	83.12
417.382	81.12
417.605	88.12
417.828	106.12
418.051	85.12
418.274	80.12
418.497	85.12
418.72	69.12
418.943	74.12
419.166	80.12
419.389	79.12
419.611	85.12
419.834	83.12
420.057	81.12
420.28	85.12
420.503	102.12
420.726	88.12
420.948	94.12
421.171	88.12
421.394	85.12
421.617	99.12
421.839	117.12
422.062	109.12
422.285	126.12
422.507	201.12
422.73	288.12
422.953	246.12
423.175	163.12
423.398	114.12
423.621	103.12
423.843	90.12
424.066	83.12
424.288	85.12
424.511	72.12
424.733	89.12
424.956	99.12
425.178	83.12
425.401	86.12
425.623	89.12
425.846	79.12
426.068	77.12
426.291	83.12
426.513	88.12
426.735	70.12
426.958	93.12
427.18	89.12
427.402	80.12
427.625	105.12
427.847	92.12
428.069	93.12
428.292	107.12
428.514	129.12
428.736	93.12
428.958	103.12
429.181	101.12
429.403	82.12
429.625	89.12
429.847	97.12
430.069	122.12
430.292	153.12
430.514	130.12
430.736	114.12
430.958	105.12
431.18	90.12
431.402	93.12
431.624	90.12
431.846	107.12
432.068	115.12
432.29	108.12
432.512	85.12
432.734	83.12
432.956	81.12
433.178	90.12
433.4	80.12
433.622	99.12
433.844	94.12
434.066	91.12
434.287	81.12
434.509	96.12
434.731	79.12
434.953	85.12
435.175	88.12
435.397	84.12
435.618	99.12
435.84	85.12
436.062	97.12
436.284	75.12
436.505	83.12
436.727	70.12
436.949	74.12
437.17	78.12
437.392	63.12
437.614	93.12
437.835	98.12
438.057	77.12
438.278	85.12
438.5	86.12
438.721	82.12
438.943	80.12
439.165	79.12
439.386	86.12
439.608	90.12
439.829	88.12
440.05	80.12
440.272	78.12
440.493	87.12
440.715	80.12
440.936	75.12
441.158	80.12
441.379	82.12
441.6	81.12
441.822	74.12
442.043	71.12
442.264	86.12
442.486	113.12
442.707	125.12
442.928	106.12
443.149	95.12
443.371	141.12
443.592	195.12
443.813	169.12
444.034	94.12
444.255	75.12
444.476	90.12
444.698	82.12
444.919	71.12
445.14	171.12
445.361	161.12
445.582	211.12
445.803	194.12
446.024	116.12
446.245	81.12
446.466	90.12
446.687	93.12
446.908	87.12
447.129	105.12
447.35	86.12
447.571	85.12
447.792	81.12
448.013	87.12
448.234	78.12
448.455	70.12
448.675	70.12
448.896	100.12
449.117	75.12
449.338	77.12
449.559	65.12
449.779	89.12
450	86.12
450.221	81.12
450.442	72.12
450.662	83.12
450.883	85.12
451.104	90.12
451.324	87.12
451.545	88.12
451.766	88.12
451.986	90.12
452.207	72.12
452.428	83.12
452.648	94.12
452.869	103.12
453.089	85.12
453.31	76.12
453.53	82.12
453.751	80.12
453.971	79.12
454.192	80.12
454.412	95.12
454.633	77.12
454.853	79.12
455.073	91.12
455.294	77.12
455.514	95.12
455.734	89.12
455.955	84.12
456.175	91.12
456.395	73.12
456.616	72.12
456.836	86.12
457.056	70.12
457.276	87.12
457.497	89.12
457.717	83.12
457.937	96.12
458.157	120.12
458.377	105.12
458.598	104.12
458.818	118.12
459.038	90.12
459.258	81.12
459.478	87.12
459.698	80.12
459.918	74.12
460.138	82.12
460.358	80.12
460.578	86.12
460.798	112.12
461.018	89.12
461.238	88.12
461.458	92.12
461.678	78.12
461.898	81.12
462.118	85.12
462.338	88.12
462.558	76.12
462.777	69.12
462.997	91.12
463.217	73.12
463.437	75.12
463.657	80.12
463.876	95.12
464.096	75.12
464.316	92.12
464.536	81.12
464.755	75.12
464.975	78.12
465.195	88.12
465.414	82.12
465.634	89.12
465.854	81.12
466.073	80.12
466.293	90.12
466.512	93.12
466.732	91.12
466.951	71.12
467.171	79.12
467.391	80.12
467.61	79.12
467.829	89.12
468.049	89.12
468.268	82.12
468.488	82.12
468.707	71.12
468.927	86.12
469.146	82.12
469.365	88.12
469.585	69.12
469.804	77.12
470.023	73.12
470.243	78.12
470.462	92.12
470.681	79.12
470.901	73.12
471.12	88.12
471.339	81.12
471.558	86.12
471.777	91.12
471.997	95.12
472.216	75.12
472.435	75.12
472.654	87.12
472.873	93.12
473.092	81.12
473.311	87.12
473.53	72.12
473.749	85.12
473.968	89.12
474.187	89.12
474.406	80.12
474.625	75.12
474.844	76.12
475.063	85.12
475.282	78.12
475.501	74.12
475.72	86.12
475.939	76.12
476.158	85.12
476.377	92.12
476.596	75.12
476.814	81.12
477.033	87.12
477.252	91.12
477.471	77.12
477.69	85.12
477.908	91.12
478.127	75.12
478.346	96.12
478.564	90.12
478.783	76.12
479.002	86.12
479.22	70.12
479.439	79.12
479.658	77.12
479.876	81.12
480.095	79.12
480.313	93.12
480.532	87.12
480.751	83.12
480.969	81.12
481.188	67.12
481.406	91.12
481.624	74.12
481.843	89.12
482.061	80.12
482.28	89.12
482.498	96.12
482.717	72.12
482.935	82.12
483.153	81.12
483.372	91.12
483.59	93.12
483.808	89.12
484.027	81.12
484.245	94.12
484.463	75.12
484.681	76.12
484.9	98.12
485.118	74.12
485.336	72.12
485.554	79.12
485.772	73.12
485.99	81.12
486.209	87.12
486.427	75.12
486.645	93.12
486.863	84.12
487.081	90.12
487.299	81.12
487.517	90.12
487.735	104.12
487.953	135.12
488.171	127.12
488.389	94.12
488.607	90.12
488.825	79.12
489.043	83.12
489.261	95.12
489.479	88.12
489.696	89.12
489.914	85.12
490.132	78.12
490.35	82.12
490.568	78.12
490.786	74.12
491.003	86.12
491.221	88.12
491.439	77.12
491.657	87.12
491.874	81.12
492.092	86.12
492.31	95.12
492.527	90.12
492.745	83.12
492.963	93.12
493.18	99.12
493.398	103.12
493.615	85.12
493.833	82.12
494.05	91.12
494.268	99.12
494.485	84.12
494.703	81.12
494.92	83.12
495.138	75.12
495.355	75.12
495.573	89.12
495.79	82.12
496.008	98.12
496.225	95.12
496.442	82.12
496.66	87.12
496.877	78.12
497.094	83.12
497.312	95.12
497.529	93.12
497.746	94.12
497.963	85.12
498.181	90.12
498.398	82.12
498.615	92.12
498.832	90.12
499.049	87.12
499.267	89.12
499.484	90.12
499.701	86.12
499.918	88.12
500.135	91.12
500.352	81.12
500.569	93.12
500.786	88.12
501.003	90.12
501.22	79.12
501.437	84.12
501.654	100.12
501.871	92.12
502.088	93.12
502.305	81.12
502.522	91.12
502.739	87.12
502.956	64.12
503.172	75.12
503.389	79.12
503.606	89.12
503.823	75.12
504.04	86.12
504.256	115.12
504.473	123.12
504.69	86.12
504.907	88.12
505.123	79.12
505.34	81.12
505.557	85.12
505.773	89.12
505.99	95.12
506.207	87.12
506.423	94.12
506.64	83.12
506.856	78.12
507.073	90.12
507.289	82.12
507.506	86.12
507.722	90.12
507.939	97.12
508.155	85.12
508.372	97.12
508.588	80.12
508.805	93.12
509.021	76.12
509.238	105.12
509.454	83.12
509.67	88.12
509.887	74.12
510.103	81.12
510.319	95.12
510.536	86.12
510.752	71.12
510.968	88.12
511.184	74.12
511.401	85.12
511.617	71.12
511.833	93.12
512.049	83.12
512.265	90.12
512.481	85.12
512.698	81.12
512.914	88.12
513.13	79.12
513.346	83.12
513.562	71.12
513.778	78.12
513.994	90.12
514.21	80.12
514.426	90.12
514.642	87.12
514.858	82.12
515.074	83.12
515.29	85.12
515.506	82.12
515.721	85.12
515.937	90.12
516.153	81.12
516.369	93.12
516.585	78.12
516.801	84.12
517.016	95.12
517.232	90.12
517.448	82.12
517.664	76.12
517.879	89.12
518.095	77.12
518.311	92.12
518.527	97.12
518.742	99.12
518.958	129.12
519.173	143.12
