Data from CBS_1_HRD10591_00040.txt Node
Date: Mon Jan 19 14:04:08 EST 2026
User: Yrep
Spectrometer: HR+D1059
Trigger mode: 1
Integration Time (sec): 1.000000E-1
Scans to average: 1
Electric dark correction enabled: true
Nonlinearity correction enabled: false
Boxcar width: 0
XAxis mode: Wavelengths
Number of Pixels in Spectrum: 2048
>>>>>Begin Spectral Data<<<<<
223.165	-11.12
223.4	-11.12
223.635	-11.12
223.869	-17.12
224.104	-30.12
224.338	-21.12
224.573	-4.12
224.808	-17.12
225.042	-19.12
225.277	-8.12
225.511	6.88
225.746	0.88
225.98	5.88
226.215	4.88
226.449	22.88
226.683	24.88
226.918	24.88
227.152	36.88
227.387	36.88
227.621	28.88
227.856	45.88
228.09	41.88
228.324	38.88
228.559	57.88
228.793	55.88
229.027	68.88
229.262	59.88
229.496	53.88
229.73	72.88
229.964	77.88
230.199	60.88
230.433	75.88
230.667	73.88
230.901	71.88
231.136	72.88
231.37	81.88
231.604	57.88
231.838	78.88
232.072	68.88
232.306	73.88
232.541	70.88
232.775	91.88
233.009	79.88
233.243	73.88
233.477	61.88
233.711	84.88
233.945	79.88
234.179	67.88
234.413	92.88
234.647	73.88
234.881	83.88
235.115	79.88
235.349	77.88
235.583	74.88
235.817	85.88
236.051	71.88
236.285	66.88
236.519	82.88
236.753	92.88
236.987	77.88
237.221	88.88
237.455	85.88
237.689	71.88
237.922	68.88
238.156	79.88
238.39	84.88
238.624	57.88
238.858	74.88
239.091	71.88
239.325	81.88
239.559	79.88
239.793	80.88
240.027	80.88
240.26	64.88
240.494	83.88
240.728	75.88
240.961	69.88
241.195	76.88
241.429	79.88
241.662	83.88
241.896	74.88
242.13	66.88
242.363	72.88
242.597	68.88
242.83	61.88
243.064	68.88
243.298	68.88
243.531	80.88
243.765	67.88
243.998	76.88
244.232	86.88
244.465	64.88
244.699	63.88
244.932	84.88
245.166	79.88
245.399	70.88
245.633	62.88
245.866	70.88
246.099	70.88
246.333	88.88
246.566	80.88
246.8	83.88
247.033	85.88
247.266	78.88
247.5	67.88
247.733	75.88
247.966	68.88
248.2	73.88
248.433	71.88
248.666	72.88
248.899	85.88
249.133	79.88
249.366	71.88
249.599	91.88
249.832	85.88
250.066	66.88
250.299	55.88
250.532	77.88
250.765	71.88
250.998	87.88
251.231	76.88
251.465	68.88
251.698	77.88
251.931	91.88
252.164	71.88
252.397	74.88
252.63	76.88
252.863	69.88
253.096	75.88
253.329	74.88
253.562	63.88
253.795	74.88
254.028	67.88
254.261	72.88
254.494	57.88
254.727	62.88
254.96	88.88
255.193	78.88
255.426	84.88
255.659	76.88
255.892	64.88
256.124	70.88
256.357	73.88
256.59	93.88
256.823	73.88
257.056	70.88
257.289	96.88
257.521	68.88
257.754	79.88
257.987	71.88
258.22	68.88
258.452	76.88
258.685	84.88
258.918	77.88
259.151	83.88
259.383	78.88
259.616	79.88
259.849	74.88
260.081	87.88
260.314	81.88
260.547	80.88
260.779	88.88
261.012	79.88
261.244	86.88
261.477	71.88
261.71	82.88
261.942	91.88
262.175	84.88
262.407	86.88
262.64	86.88
262.872	97.88
263.105	76.88
263.337	71.88
263.57	79.88
263.802	83.88
264.035	89.88
264.267	79.88
264.499	60.88
264.732	89.88
264.964	88.88
265.197	81.88
265.429	69.88
265.661	73.88
265.894	73.88
266.126	80.88
266.358	79.88
266.591	83.88
266.823	82.88
267.055	69.88
267.287	82.88
267.52	84.88
267.752	64.88
267.984	85.88
268.216	79.88
268.448	86.88
268.681	63.88
268.913	88.88
269.145	82.88
269.377	69.88
269.609	68.88
269.841	76.88
270.073	83.88
270.306	76.88
270.538	70.88
270.77	78.88
271.002	81.88
271.234	83.88
271.466	57.88
271.698	73.88
271.93	75.88
272.162	79.88
272.394	80.88
272.626	88.88
272.858	65.88
273.09	78.88
273.322	77.88
273.553	75.88
273.785	80.88
274.017	80.88
274.249	76.88
274.481	72.88
274.713	79.88
274.945	85.88
275.176	88.88
275.408	81.88
275.64	84.88
275.872	69.88
276.104	83.88
276.335	75.88
276.567	82.88
276.799	81.88
277.031	79.88
277.262	79.88
277.494	85.88
277.726	88.88
277.957	87.88
278.189	76.88
278.421	69.88
278.652	65.88
278.884	81.88
279.115	79.88
279.347	85.88
279.579	89.88
279.81	63.88
280.042	81.88
280.273	77.88
280.505	81.88
280.736	87.88
280.968	72.88
281.199	78.88
281.431	82.88
281.662	83.88
281.894	70.88
282.125	75.88
282.356	62.88
282.588	73.88
282.819	93.88
283.051	93.88
283.282	74.88
283.513	79.88
283.745	83.88
283.976	61.88
284.207	86.88
284.439	78.88
284.67	88.88
284.901	87.88
285.132	89.88
285.364	81.88
285.595	76.88
285.826	72.88
286.057	84.88
286.288	73.88
286.52	71.88
286.751	82.88
286.982	95.88
287.213	74.88
287.444	83.88
287.675	74.88
287.906	84.88
288.138	68.88
288.369	84.88
288.6	84.88
288.831	72.88
289.062	80.88
289.293	82.88
289.524	83.88
289.755	79.88
289.986	80.88
290.217	66.88
290.448	77.88
290.679	84.88
290.91	87.88
291.141	75.88
291.371	80.88
291.602	76.88
291.833	79.88
292.064	83.88
292.295	81.88
292.526	94.88
292.757	80.88
292.987	86.88
293.218	81.88
293.449	82.88
293.68	74.88
293.91	71.88
294.141	76.88
294.372	85.88
294.603	73.88
294.833	89.88
295.064	77.88
295.295	77.88
295.525	83.88
295.756	80.88
295.987	69.88
296.217	70.88
296.448	81.88
296.679	77.88
296.909	95.88
297.14	83.88
297.37	88.88
297.601	80.88
297.831	101.88
298.062	88.88
298.292	68.88
298.523	86.88
298.753	100.88
298.984	87.88
299.214	75.88
299.445	85.88
299.675	90.88
299.905	85.88
300.136	78.88
300.366	74.88
300.597	74.88
300.827	69.88
301.057	75.88
301.288	93.88
301.518	78.88
301.748	95.88
301.979	87.88
302.209	83.88
302.439	53.88
302.669	83.88
302.9	85.88
303.13	78.88
303.36	65.88
303.59	70.88
303.82	91.88
304.051	96.88
304.281	91.88
304.511	91.88
304.741	84.88
304.971	85.88
305.201	82.88
305.431	87.88
305.661	71.88
305.891	78.88
306.121	80.88
306.352	79.88
306.582	78.88
306.812	88.88
307.042	79.88
307.272	67.88
307.502	81.88
307.731	87.88
307.961	76.88
308.191	73.88
308.421	79.88
308.651	88.88
308.881	88.88
309.111	71.88
309.341	81.88
309.571	73.88
309.8	82.88
310.03	86.88
310.26	86.88
310.49	92.88
310.72	78.88
310.949	79.88
311.179	76.88
311.409	74.88
311.639	77.88
311.868	69.88
312.098	83.88
312.328	67.88
312.557	73.88
312.787	93.88
313.017	91.88
313.246	83.88
313.476	84.88
313.706	85.88
313.935	97.88
314.165	90.88
314.394	102.88
314.624	75.88
314.853	86.88
315.083	75.88
315.312	89.88
315.542	85.88
315.771	80.88
316.001	86.88
316.23	88.88
316.46	79.88
316.689	72.88
316.919	87.88
317.148	80.88
317.377	81.88
317.607	74.88
317.836	75.88
318.065	86.88
318.295	84.88
318.524	73.88
318.753	83.88
318.983	92.88
319.212	83.88
319.441	84.88
319.67	79.88
319.9	87.88
320.129	72.88
320.358	80.88
320.587	71.88
320.816	75.88
321.046	83.88
321.275	97.88
321.504	85.88
321.733	67.88
321.962	76.88
322.191	91.88
322.42	81.88
322.649	74.88
322.878	73.88
323.108	75.88
323.337	83.88
323.566	98.88
323.795	76.88
324.024	87.88
324.253	85.88
324.482	81.88
324.71	89.88
324.939	87.88
325.168	82.88
325.397	91.88
325.626	85.88
325.855	71.88
326.084	67.88
326.313	82.88
326.542	83.88
326.77	83.88
326.999	85.88
327.228	96.88
327.457	79.88
327.686	78.88
327.914	77.88
328.143	74.88
328.372	85.88
328.6	91.88
328.829	83.88
329.058	88.88
329.287	73.88
329.515	68.88
329.744	85.88
329.972	85.88
330.201	77.88
330.43	88.88
330.658	69.88
330.887	80.88
331.115	92.88
331.344	88.88
331.572	74.88
331.801	67.88
332.03	69.88
332.258	95.88
332.486	80.88
332.715	84.88
332.943	90.88
333.172	77.88
333.4	79.88
333.629	94.88
333.857	80.88
334.085	72.88
334.314	77.88
334.542	83.88
334.771	83.88
334.999	77.88
335.227	78.88
335.455	86.88
335.684	83.88
335.912	90.88
336.14	93.88
336.369	82.88
336.597	80.88
336.825	70.88
337.053	86.88
337.281	86.88
337.51	94.88
337.738	81.88
337.966	91.88
338.194	61.88
338.422	77.88
338.65	69.88
338.878	88.88
339.106	91.88
339.334	85.88
339.562	83.88
339.79	88.88
340.018	78.88
340.246	80.88
340.474	73.88
340.702	70.88
340.93	95.88
341.158	84.88
341.386	81.88
341.614	83.88
341.842	93.88
342.07	91.88
342.298	93.88
342.526	72.88
342.754	88.88
342.981	76.88
343.209	70.88
343.437	92.88
343.665	92.88
343.893	73.88
344.12	88.88
344.348	84.88
344.576	70.88
344.804	70.88
345.031	79.88
345.259	75.88
345.487	73.88
345.714	73.88
345.942	72.88
346.17	80.88
346.397	73.88
346.625	86.88
346.853	67.88
347.08	98.88
347.308	80.88
347.535	83.88
347.763	80.88
347.99	84.88
348.218	80.88
348.445	88.88
348.673	76.88
348.9	77.88
349.128	79.88
349.355	85.88
349.583	77.88
349.81	73.88
350.037	88.88
350.265	70.88
350.492	62.88
350.72	84.88
350.947	77.88
351.174	88.88
351.402	103.88
351.629	75.88
351.856	74.88
352.083	73.88
352.311	95.88
352.538	82.88
352.765	79.88
352.992	63.88
353.22	72.88
353.447	78.88
353.674	89.88
353.901	84.88
354.128	60.88
354.355	93.88
354.583	91.88
354.81	76.88
355.037	71.88
355.264	87.88
355.491	73.88
355.718	65.88
355.945	78.88
356.172	70.88
356.399	79.88
356.626	80.88
356.853	82.88
357.08	67.88
357.307	94.88
357.534	87.88
357.761	83.88
357.988	87.88
358.215	79.88
358.441	80.88
358.668	79.88
358.895	96.88
359.122	90.88
359.349	87.88
359.576	79.88
359.802	79.88
360.029	92.88
360.256	75.88
360.483	90.88
360.709	96.88
360.936	70.88
361.163	76.88
361.39	88.88
361.616	81.88
361.843	83.88
362.07	98.88
362.296	88.88
362.523	101.88
362.749	82.88
362.976	82.88
363.203	95.88
363.429	77.88
363.656	87.88
363.882	83.88
364.109	105.88
364.335	91.88
364.562	85.88
364.788	84.88
365.015	82.88
365.241	77.88
365.468	99.88
365.694	78.88
365.92	75.88
366.147	71.88
366.373	77.88
366.599	65.88
366.826	90.88
367.052	72.88
367.278	77.88
367.505	76.88
367.731	93.88
367.957	68.88
368.184	83.88
368.41	71.88
368.636	77.88
368.862	65.88
369.089	76.88
369.315	81.88
369.541	83.88
369.767	77.88
369.993	72.88
370.219	61.88
370.445	80.88
370.672	89.88
370.898	83.88
371.124	67.88
371.35	74.88
371.576	87.88
371.802	75.88
372.028	61.88
372.254	79.88
372.48	68.88
372.706	70.88
372.932	74.88
373.158	81.88
373.384	90.88
373.61	80.88
373.835	89.88
374.061	83.88
374.287	93.88
374.513	81.88
374.739	72.88
374.965	82.88
375.191	77.88
375.416	87.88
375.642	108.88
375.868	103.88
376.094	83.88
376.319	78.88
376.545	89.88
376.771	88.88
376.997	86.88
377.222	85.88
377.448	77.88
377.674	91.88
377.899	77.88
378.125	84.88
378.35	89.88
378.576	79.88
378.802	76.88
379.027	74.88
379.253	88.88
379.478	87.88
379.704	92.88
379.929	85.88
380.155	88.88
380.38	91.88
380.606	71.88
380.831	91.88
381.057	80.88
381.282	83.88
381.507	78.88
381.733	77.88
381.958	83.88
382.184	89.88
382.409	90.88
382.634	86.88
382.86	81.88
383.085	81.88
383.31	73.88
383.535	91.88
383.761	67.88
383.986	77.88
384.211	91.88
384.436	77.88
384.662	85.88
384.887	92.88
385.112	83.88
385.337	77.88
385.562	79.88
385.787	82.88
386.013	70.88
386.238	81.88
386.463	86.88
386.688	85.88
386.913	80.88
387.138	84.88
387.363	70.88
387.588	93.88
387.813	83.88
388.038	83.88
388.263	97.88
388.488	76.88
388.713	69.88
388.938	92.88
389.163	89.88
389.387	85.88
389.612	76.88
389.837	91.88
390.062	83.88
390.287	80.88
390.512	89.88
390.736	87.88
390.961	89.88
391.186	78.88
391.411	91.88
391.636	64.88
391.86	83.88
392.085	88.88
392.31	97.88
392.534	63.88
392.759	97.88
392.984	102.88
393.208	108.88
393.433	134.88
393.658	130.88
393.882	93.88
394.107	91.88
394.331	89.88
394.556	97.88
394.78	78.88
395.005	100.88
395.229	93.88
395.454	68.88
395.678	96.88
395.903	88.88
396.127	84.88
396.352	93.88
396.576	98.88
396.801	131.88
397.025	137.88
397.249	104.88
397.474	89.88
397.698	91.88
397.922	86.88
398.147	84.88
398.371	79.88
398.595	95.88
398.82	84.88
399.044	85.88
399.268	83.88
399.492	88.88
399.717	84.88
399.941	85.88
400.165	71.88
400.389	65.88
400.613	79.88
400.837	86.88
401.062	73.88
401.286	83.88
401.51	91.88
401.734	74.88
401.958	87.88
402.182	95.88
402.406	83.88
402.63	76.88
402.854	77.88
403.078	77.88
403.302	84.88
403.526	80.88
403.75	87.88
403.974	72.88
404.198	81.88
404.422	91.88
404.645	73.88
404.869	87.88
405.093	79.88
405.317	89.88
405.541	84.88
405.765	76.88
405.988	79.88
406.212	81.88
406.436	88.88
406.66	82.88
406.883	79.88
407.107	81.88
407.331	63.88
407.555	74.88
407.778	95.88
408.002	85.88
408.226	72.88
408.449	71.88
408.673	59.88
408.896	77.88
409.12	75.88
409.344	96.88
409.567	81.88
409.791	91.88
410.014	84.88
410.238	95.88
410.461	85.88
410.685	81.88
410.908	87.88
411.132	78.88
411.355	79.88
411.578	86.88
411.802	74.88
412.025	78.88
412.249	82.88
412.472	85.88
412.695	68.88
412.919	67.88
413.142	89.88
413.365	76.88
413.589	66.88
413.812	79.88
414.035	79.88
414.258	76.88
414.482	75.88
414.705	92.88
414.928	89.88
415.151	70.88
415.374	75.88
415.597	88.88
415.821	87.88
416.044	65.88
416.267	91.88
416.49	89.88
416.713	83.88
416.936	84.88
417.159	91.88
417.382	87.88
417.605	78.88
417.828	78.88
418.051	87.88
418.274	87.88
418.497	79.88
418.72	72.88
418.943	70.88
419.166	68.88
419.389	83.88
419.611	80.88
419.834	57.88
420.057	85.88
420.28	83.88
420.503	77.88
420.726	80.88
420.948	78.88
421.171	82.88
421.394	81.88
421.617	87.88
421.839	102.88
422.062	101.88
422.285	119.88
422.507	168.88
422.73	186.88
422.953	177.88
423.175	123.88
423.398	109.88
423.621	102.88
423.843	84.88
424.066	81.88
424.288	77.88
424.511	92.88
424.733	75.88
424.956	85.88
425.178	89.88
425.401	78.88
425.623	76.88
425.846	86.88
426.068	80.88
426.291	83.88
426.513	79.88
426.735	82.88
426.958	82.88
427.18	83.88
427.402	77.88
427.625	68.88
427.847	85.88
428.069	80.88
428.292	97.88
428.514	95.88
428.736	84.88
428.958	87.88
429.181	92.88
429.403	72.88
429.625	75.88
429.847	97.88
430.069	112.88
430.292	127.88
430.514	107.88
430.736	72.88
430.958	98.88
431.18	86.88
431.402	79.88
431.624	70.88
431.846	103.88
432.068	87.88
432.29	67.88
432.512	87.88
432.734	82.88
432.956	88.88
433.178	69.88
433.4	83.88
433.622	77.88
433.844	83.88
434.066	85.88
434.287	91.88
434.509	76.88
434.731	79.88
434.953	89.88
435.175	87.88
435.397	84.88
435.618	83.88
435.84	64.88
436.062	79.88
436.284	65.88
436.505	86.88
436.727	76.88
436.949	71.88
437.17	91.88
437.392	71.88
437.614	88.88
437.835	71.88
438.057	74.88
438.278	79.88
438.5	75.88
438.721	76.88
438.943	81.88
439.165	77.88
439.386	85.88
439.608	77.88
439.829	77.88
440.05	72.88
440.272	82.88
440.493	97.88
440.715	81.88
440.936	73.88
441.158	92.88
441.379	71.88
441.6	74.88
441.822	74.88
442.043	73.88
442.264	83.88
442.486	103.88
442.707	94.88
442.928	100.88
443.149	79.88
443.371	106.88
443.592	141.88
443.813	120.88
444.034	74.88
444.255	78.88
444.476	79.88
444.698	74.88
444.919	71.88
445.14	149.88
445.361	137.88
445.582	141.88
445.803	127.88
446.024	81.88
446.245	87.88
446.466	88.88
446.687	76.88
446.908	86.88
447.129	86.88
447.35	79.88
447.571	84.88
447.792	77.88
448.013	75.88
448.234	72.88
448.455	80.88
448.675	70.88
448.896	83.88
449.117	72.88
449.338	72.88
449.559	88.88
449.779	95.88
450	87.88
450.221	69.88
450.442	81.88
450.662	69.88
450.883	79.88
451.104	71.88
451.324	87.88
451.545	87.88
451.766	89.88
451.986	84.88
452.207	67.88
452.428	75.88
452.648	81.88
452.869	92.88
453.089	62.88
453.31	76.88
453.53	76.88
453.751	88.88
453.971	89.88
454.192	83.88
454.412	98.88
454.633	92.88
454.853	78.88
455.073	82.88
455.294	80.88
455.514	87.88
455.734	84.88
455.955	75.88
456.175	98.88
456.395	93.88
456.616	84.88
456.836	87.88
457.056	65.88
457.276	77.88
457.497	77.88
457.717	71.88
457.937	84.88
458.157	97.88
458.377	105.88
458.598	91.88
458.818	97.88
459.038	99.88
459.258	78.88
459.478	83.88
459.698	72.88
459.918	86.88
460.138	84.88
460.358	92.88
460.578	95.88
460.798	87.88
461.018	94.88
461.238	86.88
461.458	79.88
461.678	94.88
461.898	81.88
462.118	85.88
462.338	70.88
462.558	69.88
462.777	79.88
462.997	81.88
463.217	80.88
463.437	78.88
463.657	71.88
463.876	83.88
464.096	81.88
464.316	83.88
464.536	86.88
464.755	69.88
464.975	76.88
465.195	96.88
465.414	72.88
465.634	74.88
465.854	93.88
466.073	86.88
466.293	72.88
466.512	85.88
466.732	79.88
466.951	85.88
467.171	85.88
467.391	70.88
467.61	79.88
467.829	89.88
468.049	74.88
468.268	76.88
468.488	85.88
468.707	93.88
468.927	88.88
469.146	84.88
469.365	79.88
469.585	78.88
469.804	85.88
470.023	83.88
470.243	70.88
470.462	79.88
470.681	73.88
470.901	84.88
471.12	79.88
471.339	82.88
471.558	80.88
471.777	92.88
471.997	71.88
472.216	86.88
472.435	80.88
472.654	85.88
472.873	69.88
473.092	87.88
473.311	86.88
473.53	82.88
473.749	77.88
473.968	94.88
474.187	77.88
474.406	92.88
474.625	90.88
474.844	71.88
475.063	81.88
475.282	91.88
475.501	81.88
475.72	94.88
475.939	81.88
476.158	70.88
476.377	87.88
476.596	69.88
476.814	79.88
477.033	71.88
477.252	85.88
477.471	75.88
477.69	82.88
477.908	70.88
478.127	74.88
478.346	88.88
478.564	107.88
478.783	73.88
479.002	77.88
479.22	82.88
479.439	74.88
479.658	83.88
479.876	86.88
480.095	73.88
480.313	86.88
480.532	94.88
480.751	74.88
480.969	78.88
481.188	86.88
481.406	86.88
481.624	68.88
481.843	78.88
482.061	80.88
482.28	78.88
482.498	73.88
482.717	75.88
482.935	79.88
483.153	72.88
483.372	78.88
483.59	83.88
483.808	89.88
484.027	88.88
484.245	79.88
484.463	78.88
484.681	88.88
484.9	84.88
485.118	86.88
485.336	79.88
485.554	85.88
485.772	96.88
485.99	78.88
486.209	87.88
486.427	77.88
486.645	82.88
486.863	90.88
487.081	83.88
487.299	80.88
487.517	98.88
487.735	81.88
487.953	107.88
488.171	102.88
488.389	72.88
488.607	91.88
488.825	74.88
489.043	64.88
489.261	81.88
489.479	80.88
489.696	89.88
489.914	91.88
490.132	80.88
490.35	68.88
490.568	72.88
490.786	70.88
491.003	70.88
491.221	71.88
491.439	70.88
491.657	83.88
491.874	92.88
492.092	89.88
492.31	69.88
492.527	74.88
492.745	83.88
492.963	79.88
493.18	103.88
493.398	97.88
493.615	80.88
493.833	83.88
494.05	70.88
494.268	95.88
494.485	87.88
494.703	84.88
494.92	91.88
495.138	74.88
495.355	83.88
495.573	90.88
495.79	82.88
496.008	82.88
496.225	65.88
496.442	67.88
496.66	84.88
496.877	85.88
497.094	83.88
497.312	87.88
497.529	73.88
497.746	82.88
497.963	85.88
498.181	91.88
498.398	88.88
498.615	85.88
498.832	81.88
499.049	100.88
499.267	74.88
499.484	75.88
499.701	80.88
499.918	79.88
500.135	80.88
500.352	91.88
500.569	77.88
500.786	95.88
501.003	91.88
501.22	71.88
501.437	83.88
501.654	79.88
501.871	98.88
502.088	88.88
502.305	83.88
502.522	77.88
502.739	85.88
502.956	80.88
503.172	60.88
503.389	84.88
503.606	79.88
503.823	86.88
504.04	74.88
504.256	96.88
504.473	87.88
504.69	80.88
504.907	74.88
505.123	96.88
505.34	86.88
505.557	88.88
505.773	97.88
505.99	85.88
506.207	83.88
506.423	74.88
506.64	84.88
506.856	82.88
507.073	84.88
507.289	92.88
507.506	78.88
507.722	92.88
507.939	77.88
508.155	85.88
508.372	70.88
508.588	75.88
508.805	75.88
509.021	92.88
509.238	79.88
509.454	93.88
509.67	86.88
509.887	84.88
510.103	81.88
510.319	97.88
510.536	92.88
510.752	84.88
510.968	74.88
511.184	91.88
511.401	71.88
511.617	76.88
511.833	85.88
512.049	91.88
512.265	87.88
512.481	93.88
512.698	83.88
512.914	75.88
513.13	79.88
513.346	74.88
513.562	78.88
513.778	78.88
513.994	77.88
514.21	87.88
514.426	83.88
514.642	84.88
514.858	90.88
515.074	81.88
515.29	87.88
515.506	85.88
515.721	86.88
515.937	92.88
516.153	86.88
516.369	83.88
516.585	87.88
516.801	76.88
517.016	88.88
517.232	85.88
517.448	83.88
517.664	62.88
517.879	86.88
518.095	65.88
518.311	79.88
518.527	86.88
518.742	94.88
518.958	94.88
519.173	123.88
519.389	91.88
519.605	74.88
519.82	80.88
