Data from CBS_1_HRD10591_00016.txt Node
Date: Mon Jan 19 14:03:56 EST 2026
User: Yrep
Spectrometer: HR+D1059
Trigger mode: 1
Integration Time (sec): 1.000000E-1
Scans to average: 1
Electric dark correction enabled: true
Nonlinearity correction enabled: false
Boxcar width: 0
XAxis mode: Wavelengths
Number of Pixels in Spectrum: 2048
>>>>>Begin Spectral Data<<<<<
223.165	-18.62
223.4	-18.62
223.635	-18.62
223.869	-24.62
224.104	-27.62
224.338	-17.62
224.573	-12.62
224.808	-7.62
225.042	-9.62
225.277	-3.62
225.511	1.38
225.746	5.38
225.98	14.38
226.215	25.38
226.449	5.38
226.683	32.38
226.918	24.38
227.152	13.38
227.387	42.38
227.621	29.38
227.856	36.38
228.09	41.38
228.324	46.38
228.559	50.38
228.793	60.38
229.027	46.38
229.262	68.38
229.496	61.38
229.73	65.38
229.964	82.38
230.199	69.38
230.433	66.38
230.667	68.38
230.901	79.38
231.136	65.38
231.37	81.38
231.604	84.38
231.838	83.38
232.072	76.38
232.306	83.38
232.541	71.38
232.775	80.38
233.009	78.38
233.243	82.38
233.477	83.38
233.711	62.38
233.945	81.38
234.179	76.38
234.413	90.38
234.647	96.38
234.881	79.38
235.115	83.38
235.349	81.38
235.583	66.38
235.817	73.38
236.051	69.38
236.285	68.38
236.519	68.38
236.753	67.38
236.987	63.38
237.221	70.38
237.455	72.38
237.689	67.38
237.922	83.38
238.156	79.38
238.39	78.38
238.624	71.38
238.858	70.38
239.091	79.38
239.325	65.38
239.559	72.38
239.793	68.38
240.027	69.38
240.26	71.38
240.494	70.38
240.728	80.38
240.961	70.38
241.195	88.38
241.429	74.38
241.662	58.38
241.896	78.38
242.13	74.38
242.363	72.38
242.597	86.38
242.83	78.38
243.064	72.38
243.298	66.38
243.531	93.38
243.765	88.38
243.998	69.38
244.232	82.38
244.465	60.38
244.699	64.38
244.932	64.38
245.166	69.38
245.399	78.38
245.633	85.38
245.866	86.38
246.099	88.38
246.333	70.38
246.566	73.38
246.8	76.38
247.033	88.38
247.266	71.38
247.5	81.38
247.733	74.38
247.966	69.38
248.2	73.38
248.433	85.38
248.666	72.38
248.899	72.38
249.133	79.38
249.366	74.38
249.599	87.38
249.832	80.38
250.066	85.38
250.299	80.38
250.532	76.38
250.765	72.38
250.998	68.38
251.231	77.38
251.465	69.38
251.698	63.38
251.931	68.38
252.164	79.38
252.397	80.38
252.63	82.38
252.863	77.38
253.096	88.38
253.329	78.38
253.562	65.38
253.795	78.38
254.028	64.38
254.261	73.38
254.494	88.38
254.727	70.38
254.96	74.38
255.193	75.38
255.426	76.38
255.659	83.38
255.892	89.38
256.124	76.38
256.357	75.38
256.59	78.38
256.823	72.38
257.056	81.38
257.289	74.38
257.521	80.38
257.754	91.38
257.987	64.38
258.22	88.38
258.452	73.38
258.685	73.38
258.918	85.38
259.151	82.38
259.383	83.38
259.616	71.38
259.849	71.38
260.081	77.38
260.314	62.38
260.547	84.38
260.779	78.38
261.012	70.38
261.244	57.38
261.477	83.38
261.71	76.38
261.942	75.38
262.175	74.38
262.407	79.38
262.64	80.38
262.872	73.38
263.105	88.38
263.337	90.38
263.57	78.38
263.802	81.38
264.035	70.38
264.267	80.38
264.499	89.38
264.732	87.38
264.964	89.38
265.197	77.38
265.429	73.38
265.661	88.38
265.894	70.38
266.126	76.38
266.358	86.38
266.591	80.38
266.823	73.38
267.055	79.38
267.287	78.38
267.52	91.38
267.752	96.38
267.984	92.38
268.216	90.38
268.448	68.38
268.681	80.38
268.913	77.38
269.145	78.38
269.377	86.38
269.609	73.38
269.841	94.38
270.073	89.38
270.306	74.38
270.538	89.38
270.77	83.38
271.002	85.38
271.234	82.38
271.466	85.38
271.698	84.38
271.93	83.38
272.162	93.38
272.394	93.38
272.626	75.38
272.858	96.38
273.09	94.38
273.322	72.38
273.553	69.38
273.785	81.38
274.017	90.38
274.249	93.38
274.481	82.38
274.713	85.38
274.945	66.38
275.176	87.38
275.408	76.38
275.64	87.38
275.872	76.38
276.104	85.38
276.335	95.38
276.567	81.38
276.799	86.38
277.031	75.38
277.262	93.38
277.494	86.38
277.726	92.38
277.957	86.38
278.189	76.38
278.421	75.38
278.652	94.38
278.884	88.38
279.115	91.38
279.347	95.38
279.579	89.38
279.81	89.38
280.042	77.38
280.273	95.38
280.505	66.38
280.736	83.38
280.968	78.38
281.199	95.38
281.431	94.38
281.662	90.38
281.894	84.38
282.125	85.38
282.356	68.38
282.588	79.38
282.819	87.38
283.051	75.38
283.282	81.38
283.513	80.38
283.745	70.38
283.976	86.38
284.207	78.38
284.439	92.38
284.67	55.38
284.901	93.38
285.132	78.38
285.364	79.38
285.595	84.38
285.826	82.38
286.057	84.38
286.288	89.38
286.52	91.38
286.751	81.38
286.982	78.38
287.213	82.38
287.444	72.38
287.675	68.38
287.906	93.38
288.138	77.38
288.369	77.38
288.6	84.38
288.831	82.38
289.062	90.38
289.293	79.38
289.524	84.38
289.755	82.38
289.986	87.38
290.217	94.38
290.448	81.38
290.679	97.38
290.91	86.38
291.141	85.38
291.371	86.38
291.602	73.38
291.833	92.38
292.064	88.38
292.295	78.38
292.526	82.38
292.757	77.38
292.987	74.38
293.218	85.38
293.449	93.38
293.68	77.38
293.91	89.38
294.141	87.38
294.372	96.38
294.603	80.38
294.833	86.38
295.064	83.38
295.295	83.38
295.525	80.38
295.756	81.38
295.987	82.38
296.217	80.38
296.448	89.38
296.679	78.38
296.909	90.38
297.14	80.38
297.37	99.38
297.601	72.38
297.831	75.38
298.062	89.38
298.292	81.38
298.523	81.38
298.753	68.38
298.984	97.38
299.214	76.38
299.445	88.38
299.675	82.38
299.905	95.38
300.136	93.38
300.366	96.38
300.597	108.38
300.827	89.38
301.057	77.38
301.288	93.38
301.518	85.38
301.748	86.38
301.979	102.38
302.209	90.38
302.439	82.38
302.669	87.38
302.9	92.38
303.13	76.38
303.36	83.38
303.59	95.38
303.82	77.38
304.051	98.38
304.281	89.38
304.511	98.38
304.741	93.38
304.971	80.38
305.201	84.38
305.431	87.38
305.661	88.38
305.891	69.38
306.121	80.38
306.352	92.38
306.582	80.38
306.812	98.38
307.042	98.38
307.272	91.38
307.502	77.38
307.731	85.38
307.961	96.38
308.191	87.38
308.421	97.38
308.651	90.38
308.881	94.38
309.111	105.38
309.341	96.38
309.571	68.38
309.8	81.38
310.03	84.38
310.26	85.38
310.49	68.38
310.72	85.38
310.949	82.38
311.179	72.38
311.409	88.38
311.639	94.38
311.868	97.38
312.098	90.38
312.328	83.38
312.557	76.38
312.787	64.38
313.017	70.38
313.246	88.38
313.476	72.38
313.706	81.38
313.935	92.38
314.165	91.38
314.394	81.38
314.624	84.38
314.853	78.38
315.083	89.38
315.312	89.38
315.542	86.38
315.771	97.38
316.001	81.38
316.23	75.38
316.46	77.38
316.689	84.38
316.919	90.38
317.148	84.38
317.377	89.38
317.607	79.38
317.836	92.38
318.065	88.38
318.295	80.38
318.524	73.38
318.753	99.38
318.983	80.38
319.212	94.38
319.441	89.38
319.67	77.38
319.9	75.38
320.129	73.38
320.358	75.38
320.587	95.38
320.816	87.38
321.046	90.38
321.275	81.38
321.504	73.38
321.733	83.38
321.962	68.38
322.191	87.38
322.42	90.38
322.649	76.38
322.878	86.38
323.108	93.38
323.337	86.38
323.566	86.38
323.795	88.38
324.024	76.38
324.253	74.38
324.482	90.38
324.71	96.38
324.939	87.38
325.168	79.38
325.397	88.38
325.626	86.38
325.855	82.38
326.084	70.38
326.313	83.38
326.542	88.38
326.77	95.38
326.999	102.38
327.228	105.38
327.457	89.38
327.686	91.38
327.914	85.38
328.143	105.38
328.372	100.38
328.6	90.38
328.829	91.38
329.058	91.38
329.287	90.38
329.515	84.38
329.744	86.38
329.972	63.38
330.201	81.38
330.43	80.38
330.658	83.38
330.887	87.38
331.115	76.38
331.344	89.38
331.572	81.38
331.801	85.38
332.03	96.38
332.258	94.38
332.486	96.38
332.715	83.38
332.943	76.38
333.172	72.38
333.4	87.38
333.629	80.38
333.857	87.38
334.085	111.38
334.314	89.38
334.542	85.38
334.771	80.38
334.999	96.38
335.227	84.38
335.455	96.38
335.684	95.38
335.912	102.38
336.14	104.38
336.369	101.38
336.597	89.38
336.825	89.38
337.053	84.38
337.281	75.38
337.51	67.38
337.738	89.38
337.966	90.38
338.194	95.38
338.422	92.38
338.65	92.38
338.878	99.38
339.106	79.38
339.334	100.38
339.562	89.38
339.79	88.38
340.018	94.38
340.246	95.38
340.474	90.38
340.702	82.38
340.93	89.38
341.158	90.38
341.386	72.38
341.614	80.38
341.842	83.38
342.07	92.38
342.298	86.38
342.526	86.38
342.754	81.38
342.981	88.38
343.209	79.38
343.437	108.38
343.665	76.38
343.893	88.38
344.12	101.38
344.348	80.38
344.576	78.38
344.804	71.38
345.031	90.38
345.259	75.38
345.487	82.38
345.714	87.38
345.942	86.38
346.17	95.38
346.397	74.38
346.625	76.38
346.853	98.38
347.08	74.38
347.308	93.38
347.535	77.38
347.763	93.38
347.99	81.38
348.218	75.38
348.445	95.38
348.673	96.38
348.9	81.38
349.128	78.38
349.355	84.38
349.583	84.38
349.81	89.38
350.037	76.38
350.265	86.38
350.492	86.38
350.72	97.38
350.947	82.38
351.174	96.38
351.402	90.38
351.629	72.38
351.856	86.38
352.083	75.38
352.311	92.38
352.538	78.38
352.765	74.38
352.992	82.38
353.22	98.38
353.447	93.38
353.674	93.38
353.901	81.38
354.128	95.38
354.355	76.38
354.583	90.38
354.81	93.38
355.037	68.38
355.264	80.38
355.491	80.38
355.718	75.38
355.945	91.38
356.172	89.38
356.399	85.38
356.626	84.38
356.853	75.38
357.08	85.38
357.307	85.38
357.534	87.38
357.761	89.38
357.988	100.38
358.215	84.38
358.441	77.38
358.668	89.38
358.895	71.38
359.122	87.38
359.349	95.38
359.576	87.38
359.802	70.38
360.029	84.38
360.256	96.38
360.483	90.38
360.709	90.38
360.936	94.38
361.163	90.38
361.39	88.38
361.616	89.38
361.843	88.38
362.07	101.38
362.296	97.38
362.523	110.38
362.749	110.38
362.976	125.38
363.203	122.38
363.429	104.38
363.656	96.38
363.882	105.38
364.109	116.38
364.335	148.38
364.562	130.38
364.788	111.38
365.015	88.38
365.241	99.38
365.468	86.38
365.694	78.38
365.92	83.38
366.147	81.38
366.373	89.38
366.599	80.38
366.826	98.38
367.052	90.38
367.278	87.38
367.505	81.38
367.731	102.38
367.957	89.38
368.184	80.38
368.41	85.38
368.636	83.38
368.862	90.38
369.089	87.38
369.315	92.38
369.541	74.38
369.767	83.38
369.993	88.38
370.219	77.38
370.445	89.38
370.672	95.38
370.898	95.38
371.124	88.38
371.35	88.38
371.576	78.38
371.802	85.38
372.028	84.38
372.254	90.38
372.48	91.38
372.706	87.38
372.932	81.38
373.158	81.38
373.384	90.38
373.61	102.38
373.835	94.38
374.061	103.38
374.287	89.38
374.513	86.38
374.739	94.38
374.965	91.38
375.191	95.38
375.416	83.38
375.642	102.38
375.868	101.38
376.094	82.38
376.319	100.38
376.545	100.38
376.771	87.38
376.997	94.38
377.222	83.38
377.448	86.38
377.674	95.38
377.899	76.38
378.125	87.38
378.35	79.38
378.576	102.38
378.802	89.38
379.027	91.38
379.253	88.38
379.478	94.38
379.704	86.38
379.929	85.38
380.155	97.38
380.38	89.38
380.606	69.38
380.831	111.38
381.057	103.38
381.282	101.38
381.507	94.38
381.733	105.38
381.958	87.38
382.184	80.38
382.409	95.38
382.634	100.38
382.86	84.38
383.085	83.38
383.31	86.38
383.535	99.38
383.761	90.38
383.986	84.38
384.211	83.38
384.436	90.38
384.662	92.38
384.887	92.38
385.112	69.38
385.337	80.38
385.562	88.38
385.787	88.38
386.013	96.38
386.238	93.38
386.463	91.38
386.688	78.38
386.913	87.38
387.138	80.38
387.363	74.38
387.588	103.38
387.813	93.38
388.038	86.38
388.263	102.38
388.488	78.38
388.713	94.38
388.938	86.38
389.163	97.38
389.387	88.38
389.612	72.38
389.837	80.38
390.062	105.38
390.287	93.38
390.512	94.38
390.736	75.38
390.961	108.38
391.186	86.38
391.411	86.38
391.636	94.38
391.86	98.38
392.085	84.38
392.31	89.38
392.534	109.38
392.759	121.38
392.984	137.38
393.208	213.38
393.433	320.38
393.658	252.38
393.882	130.38
394.107	101.38
394.331	104.38
394.556	108.38
394.78	78.38
395.005	98.38
395.229	87.38
395.454	88.38
395.678	90.38
395.903	121.38
396.127	106.38
396.352	125.38
396.576	158.38
396.801	241.38
397.025	259.38
397.249	172.38
397.474	131.38
397.698	107.38
397.922	88.38
398.147	77.38
398.371	92.38
398.595	92.38
398.82	81.38
399.044	86.38
399.268	77.38
399.492	88.38
399.717	87.38
399.941	93.38
400.165	72.38
400.389	82.38
400.613	93.38
400.837	92.38
401.062	77.38
401.286	87.38
401.51	87.38
401.734	89.38
401.958	91.38
402.182	87.38
402.406	90.38
402.63	83.38
402.854	79.38
403.078	91.38
403.302	89.38
403.526	97.38
403.75	80.38
403.974	82.38
404.198	92.38
404.422	100.38
404.645	101.38
404.869	96.38
405.093	98.38
405.317	90.38
405.541	94.38
405.765	83.38
405.988	84.38
406.212	95.38
406.436	92.38
406.66	86.38
406.883	79.38
407.107	94.38
407.331	95.38
407.555	90.38
407.778	93.38
408.002	100.38
408.226	87.38
408.449	94.38
408.673	94.38
408.896	74.38
409.12	106.38
409.344	104.38
409.567	102.38
409.791	111.38
410.014	110.38
410.238	97.38
410.461	90.38
410.685	78.38
410.908	77.38
411.132	77.38
411.355	88.38
411.578	89.38
411.802	89.38
412.025	89.38
412.249	82.38
412.472	77.38
412.695	82.38
412.919	65.38
413.142	96.38
413.365	92.38
413.589	85.38
413.812	84.38
414.035	78.38
414.258	87.38
414.482	76.38
414.705	84.38
414.928	85.38
415.151	84.38
415.374	76.38
415.597	100.38
415.821	79.38
416.044	82.38
416.267	82.38
416.49	107.38
416.713	72.38
416.936	95.38
417.159	94.38
417.382	82.38
417.605	88.38
417.828	97.38
418.051	80.38
418.274	84.38
418.497	97.38
418.72	92.38
418.943	100.38
419.166	93.38
419.389	87.38
419.611	95.38
419.834	96.38
420.057	87.38
420.28	99.38
420.503	84.38
420.726	97.38
420.948	85.38
421.171	94.38
421.394	91.38
421.617	113.38
421.839	138.38
422.062	152.38
422.285	187.38
422.507	286.38
422.73	404.38
422.953	366.38
423.175	239.38
423.398	157.38
423.621	116.38
423.843	116.38
424.066	108.38
424.288	110.38
424.511	98.38
424.733	100.38
424.956	85.38
425.178	99.38
425.401	73.38
425.623	96.38
425.846	84.38
426.068	85.38
426.291	70.38
426.513	80.38
426.735	85.38
426.958	92.38
427.18	108.38
427.402	83.38
427.625	90.38
427.847	81.38
428.069	109.38
428.292	133.38
428.514	143.38
428.736	120.38
428.958	128.38
429.181	130.38
429.403	100.38
429.625	101.38
429.847	100.38
430.069	170.38
430.292	195.38
430.514	169.38
430.736	140.38
430.958	140.38
431.18	109.38
431.402	101.38
431.624	102.38
431.846	135.38
432.068	154.38
432.29	115.38
432.512	105.38
432.734	86.38
432.956	97.38
433.178	103.38
433.4	75.38
433.622	86.38
433.844	92.38
434.066	84.38
434.287	92.38
434.509	87.38
434.731	84.38
434.953	90.38
435.175	85.38
435.397	92.38
435.618	86.38
435.84	99.38
436.062	94.38
436.284	90.38
436.505	87.38
436.727	69.38
436.949	82.38
437.17	85.38
437.392	85.38
437.614	81.38
437.835	81.38
438.057	77.38
438.278	91.38
438.5	84.38
438.721	80.38
438.943	83.38
439.165	88.38
439.386	85.38
439.608	75.38
439.829	81.38
440.05	86.38
440.272	85.38
440.493	83.38
440.715	79.38
440.936	92.38
441.158	78.38
441.379	84.38
441.6	96.38
441.822	86.38
442.043	77.38
442.264	106.38
442.486	138.38
442.707	166.38
442.928	140.38
443.149	122.38
443.371	158.38
443.592	279.38
443.813	248.38
444.034	121.38
444.255	96.38
444.476	99.38
444.698	92.38
444.919	99.38
445.14	233.38
445.361	227.38
445.582	305.38
445.803	278.38
446.024	142.38
446.245	95.38
446.466	105.38
446.687	106.38
446.908	97.38
447.129	96.38
447.35	82.38
447.571	88.38
447.792	76.38
448.013	72.38
448.234	69.38
448.455	78.38
448.675	93.38
448.896	85.38
449.117	74.38
449.338	73.38
449.559	85.38
449.779	86.38
450	90.38
450.221	82.38
450.442	82.38
450.662	78.38
450.883	92.38
451.104	89.38
451.324	82.38
451.545	97.38
451.766	71.38
451.986	78.38
452.207	99.38
452.428	95.38
452.648	96.38
452.869	97.38
453.089	90.38
453.31	81.38
453.53	84.38
453.751	85.38
453.971	80.38
454.192	85.38
454.412	88.38
454.633	88.38
454.853	96.38
455.073	88.38
455.294	87.38
455.514	88.38
455.734	75.38
455.955	80.38
456.175	88.38
456.395	77.38
456.616	73.38
456.836	80.38
457.056	82.38
457.276	88.38
457.497	92.38
457.717	102.38
457.937	114.38
458.157	146.38
458.377	143.38
458.598	133.38
458.818	152.38
459.038	109.38
459.258	98.38
459.478	80.38
459.698	66.38
459.918	94.38
460.138	81.38
460.358	70.38
460.578	101.38
460.798	110.38
461.018	121.38
461.238	94.38
461.458	72.38
461.678	84.38
461.898	88.38
462.118	86.38
462.338	73.38
462.558	80.38
462.777	98.38
462.997	86.38
463.217	84.38
463.437	84.38
463.657	78.38
463.876	86.38
464.096	87.38
464.316	89.38
464.536	86.38
464.755	82.38
464.975	76.38
465.195	90.38
465.414	89.38
465.634	70.38
465.854	83.38
466.073	79.38
466.293	76.38
466.512	98.38
466.732	82.38
466.951	72.38
467.171	93.38
467.391	88.38
467.61	90.38
467.829	96.38
468.049	82.38
468.268	93.38
468.488	102.38
468.707	97.38
468.927	89.38
469.146	97.38
469.365	90.38
469.585	91.38
469.804	81.38
470.023	89.38
470.243	81.38
470.462	86.38
470.681	89.38
470.901	100.38
471.12	76.38
471.339	82.38
471.558	91.38
471.777	81.38
471.997	72.38
472.216	84.38
472.435	90.38
472.654	80.38
472.873	88.38
473.092	88.38
473.311	83.38
473.53	72.38
473.749	92.38
473.968	90.38
474.187	79.38
474.406	92.38
474.625	88.38
474.844	96.38
475.063	89.38
475.282	81.38
475.501	83.38
475.72	97.38
475.939	76.38
476.158	76.38
476.377	86.38
476.596	88.38
476.814	77.38
477.033	94.38
477.252	91.38
477.471	85.38
477.69	92.38
477.908	80.38
478.127	88.38
478.346	87.38
478.564	93.38
478.783	83.38
479.002	92.38
479.22	85.38
479.439	76.38
479.658	85.38
479.876	77.38
480.095	89.38
480.313	83.38
480.532	72.38
480.751	87.38
480.969	88.38
481.188	92.38
481.406	89.38
481.624	89.38
481.843	86.38
482.061	84.38
482.28	93.38
482.498	102.38
482.717	95.38
482.935	87.38
483.153	95.38
483.372	81.38
483.59	88.38
483.808	86.38
484.027	92.38
484.245	105.38
484.463	87.38
484.681	108.38
484.9	91.38
485.118	101.38
485.336	80.38
485.554	79.38
485.772	71.38
485.99	98.38
486.209	104.38
486.427	99.38
486.645	84.38
486.863	90.38
487.081	87.38
487.299	93.38
487.517	93.38
487.735	118.38
487.953	224.38
488.171	189.38
488.389	106.38
488.607	98.38
488.825	101.38
489.043	89.38
489.261	103.38
489.479	70.38
489.696	90.38
489.914	96.38
490.132	80.38
490.35	89.38
490.568	84.38
490.786	90.38
491.003	86.38
491.221	88.38
491.439	81.38
491.657	88.38
491.874	76.38
492.092	82.38
492.31	104.38
492.527	103.38
492.745	92.38
492.963	90.38
493.18	96.38
493.398	95.38
493.615	78.38
493.833	85.38
494.05	89.38
494.268	85.38
494.485	92.38
494.703	92.38
494.92	86.38
495.138	85.38
495.355	93.38
495.573	93.38
495.79	94.38
496.008	89.38
496.225	83.38
496.442	85.38
496.66	84.38
496.877	97.38
497.094	100.38
497.312	92.38
497.529	95.38
497.746	89.38
497.963	88.38
498.181	96.38
498.398	96.38
498.615	93.38
498.832	78.38
499.049	79.38
499.267	92.38
499.484	73.38
499.701	84.38
499.918	88.38
500.135	86.38
500.352	98.38
500.569	98.38
500.786	97.38
501.003	96.38
501.22	87.38
501.437	76.38
501.654	97.38
501.871	104.38
502.088	89.38
502.305	85.38
502.522	82.38
502.739	72.38
502.956	78.38
503.172	96.38
503.389	92.38
503.606	89.38
503.823	92.38
504.04	101.38
504.256	149.38
504.473	153.38
504.69	94.38
504.907	92.38
505.123	88.38
505.34	94.38
505.557	84.38
505.773	85.38
505.99	89.38
506.207	90.38
506.423	97.38
506.64	81.38
506.856	97.38
507.073	85.38
507.289	87.38
507.506	93.38
507.722	82.38
507.939	73.38
508.155	73.38
508.372	86.38
508.588	96.38
508.805	78.38
509.021	98.38
509.238	94.38
509.454	85.38
509.67	99.38
509.887	104.38
510.103	75.38
510.319	70.38
510.536	94.38
510.752	75.38
510.968	88.38
511.184	88.38
511.401	88.38
511.617	97.38
511.833	88.38
512.049	90.38
512.265	104.38
512.481	85.38
512.698	76.38
512.914	91.38
513.13	79.38
513.346	94.38
513.562	89.38
513.778	94.38
513.994	81.38
514.21	81.38
514.426	112.38
514.642	79.38
514.858	96.38
515.074	103.38
515.29	89.38
515.506	78.38
515.721	108.38
515.937	98.38
516.153	87.38
516.369	92.38
516.585	88.38
516.801	96.38
517.016	88.38
517.232	78.38
517.448	110.38
517.664	88.38
517.879	82.38
518.095	92.38
