Data from SampD_HRD10591_00008.txt Node
Date: Mon Jan 19 11:47:40 EST 2026
User: Yrep
Spectrometer: HR+D1059
Trigger mode: 0
Integration Time (sec): 3.443000E-1
Scans to average: 1
Electric dark correction enabled: true
Nonlinearity correction enabled: false
Boxcar width: 0
XAxis mode: Wavelengths
Number of Pixels in Spectrum: 2048
>>>>>Begin Spectral Data<<<<<
223.165	-23.12
223.4	-23.12
223.635	-23.12
223.869	-42.12
224.104	-22.12
224.338	-15.12
224.573	10.88
224.808	-2.12
225.042	-13.12
225.277	-6.12
225.511	2.88
225.746	3.88
225.98	7.88
226.215	3.88
226.449	24.88
226.683	9.88
226.918	16.88
227.152	42.88
227.387	32.88
227.621	36.88
227.856	35.88
228.09	51.88
228.324	43.88
228.559	69.88
228.793	63.88
229.027	61.88
229.262	67.88
229.496	76.88
229.73	78.88
229.964	84.88
230.199	76.88
230.433	78.88
230.667	88.88
230.901	86.88
231.136	76.88
231.37	82.88
231.604	84.88
231.838	75.88
232.072	66.88
232.306	85.88
232.541	74.88
232.775	76.88
233.009	80.88
233.243	86.88
233.477	79.88
233.711	82.88
233.945	88.88
234.179	97.88
234.413	92.88
234.647	83.88
234.881	78.88
235.115	92.88
235.349	87.88
235.583	91.88
235.817	81.88
236.051	88.88
236.285	73.88
236.519	71.88
236.753	94.88
236.987	78.88
237.221	89.88
237.455	82.88
237.689	84.88
237.922	81.88
238.156	77.88
238.39	71.88
238.624	70.88
238.858	75.88
239.091	93.88
239.325	77.88
239.559	77.88
239.793	94.88
240.027	87.88
240.26	94.88
240.494	87.88
240.728	85.88
240.961	87.88
241.195	74.88
241.429	73.88
241.662	86.88
241.896	85.88
242.13	97.88
242.363	83.88
242.597	83.88
242.83	81.88
243.064	68.88
243.298	78.88
243.531	91.88
243.765	94.88
243.998	89.88
244.232	90.88
244.465	82.88
244.699	90.88
244.932	100.88
245.166	88.88
245.399	94.88
245.633	101.88
245.866	89.88
246.099	86.88
246.333	85.88
246.566	85.88
246.8	79.88
247.033	84.88
247.266	98.88
247.5	83.88
247.733	80.88
247.966	87.88
248.2	98.88
248.433	90.88
248.666	91.88
248.899	100.88
249.133	72.88
249.366	104.88
249.599	94.88
249.832	98.88
250.066	90.88
250.299	87.88
250.532	98.88
250.765	82.88
250.998	85.88
251.231	88.88
251.465	92.88
251.698	78.88
251.931	82.88
252.164	84.88
252.397	108.88
252.63	93.88
252.863	91.88
253.096	92.88
253.329	102.88
253.562	94.88
253.795	94.88
254.028	103.88
254.261	92.88
254.494	85.88
254.727	89.88
254.96	98.88
255.193	109.88
255.426	86.88
255.659	82.88
255.892	92.88
256.124	82.88
256.357	99.88
256.59	106.88
256.823	106.88
257.056	95.88
257.289	78.88
257.521	90.88
257.754	88.88
257.987	92.88
258.22	95.88
258.452	88.88
258.685	103.88
258.918	102.88
259.151	89.88
259.383	97.88
259.616	88.88
259.849	100.88
260.081	83.88
260.314	91.88
260.547	87.88
260.779	99.88
261.012	94.88
261.244	99.88
261.477	111.88
261.71	106.88
261.942	107.88
262.175	92.88
262.407	99.88
262.64	92.88
262.872	99.88
263.105	111.88
263.337	100.88
263.57	100.88
263.802	103.88
264.035	101.88
264.267	102.88
264.499	85.88
264.732	114.88
264.964	108.88
265.197	101.88
265.429	104.88
265.661	96.88
265.894	92.88
266.126	98.88
266.358	107.88
266.591	97.88
266.823	95.88
267.055	101.88
267.287	84.88
267.52	90.88
267.752	99.88
267.984	105.88
268.216	98.88
268.448	103.88
268.681	102.88
268.913	87.88
269.145	106.88
269.377	105.88
269.609	87.88
269.841	100.88
270.073	100.88
270.306	98.88
270.538	95.88
270.77	92.88
271.002	108.88
271.234	109.88
271.466	113.88
271.698	97.88
271.93	111.88
272.162	112.88
272.394	105.88
272.626	94.88
272.858	116.88
273.09	94.88
273.322	113.88
273.553	102.88
273.785	106.88
274.017	113.88
274.249	108.88
274.481	96.88
274.713	93.88
274.945	108.88
275.176	95.88
275.408	112.88
275.64	96.88
275.872	108.88
276.104	91.88
276.335	100.88
276.567	103.88
276.799	84.88
277.031	98.88
277.262	115.88
277.494	120.88
277.726	108.88
277.957	112.88
278.189	106.88
278.421	103.88
278.652	105.88
278.884	121.88
279.115	95.88
279.347	110.88
279.579	116.88
279.81	119.88
280.042	110.88
280.273	105.88
280.505	98.88
280.736	111.88
280.968	121.88
281.199	108.88
281.431	110.88
281.662	119.88
281.894	107.88
282.125	113.88
282.356	94.88
282.588	116.88
282.819	112.88
283.051	113.88
283.282	100.88
283.513	122.88
283.745	113.88
283.976	104.88
284.207	114.88
284.439	121.88
284.67	120.88
284.901	111.88
285.132	122.88
285.364	115.88
285.595	114.88
285.826	111.88
286.057	119.88
286.288	110.88
286.52	117.88
286.751	108.88
286.982	112.88
287.213	111.88
287.444	126.88
287.675	113.88
287.906	126.88
288.138	108.88
288.369	114.88
288.6	107.88
288.831	108.88
289.062	121.88
289.293	113.88
289.524	116.88
289.755	120.88
289.986	103.88
290.217	117.88
290.448	122.88
290.679	114.88
290.91	132.88
291.141	112.88
291.371	120.88
291.602	113.88
291.833	112.88
292.064	122.88
292.295	124.88
292.526	119.88
292.757	115.88
292.987	113.88
293.218	120.88
293.449	123.88
293.68	116.88
293.91	123.88
294.141	122.88
294.372	108.88
294.603	125.88
294.833	119.88
295.064	131.88
295.295	123.88
295.525	130.88
295.756	125.88
295.987	126.88
296.217	106.88
296.448	122.88
296.679	126.88
296.909	132.88
297.14	125.88
297.37	135.88
297.601	118.88
297.831	121.88
298.062	122.88
298.292	131.88
298.523	132.88
298.753	112.88
298.984	118.88
299.214	119.88
299.445	114.88
299.675	119.88
299.905	107.88
300.136	119.88
300.366	115.88
300.597	126.88
300.827	134.88
301.057	117.88
301.288	127.88
301.518	121.88
301.748	114.88
301.979	147.88
302.209	124.88
302.439	119.88
302.669	128.88
302.9	126.88
303.13	103.88
303.36	118.88
303.59	126.88
303.82	117.88
304.051	141.88
304.281	131.88
304.511	115.88
304.741	118.88
304.971	104.88
305.201	124.88
305.431	119.88
305.661	111.88
305.891	116.88
306.121	121.88
306.352	122.88
306.582	107.88
306.812	114.88
307.042	123.88
307.272	118.88
307.502	105.88
307.731	120.88
307.961	115.88
308.191	103.88
308.421	119.88
308.651	116.88
308.881	117.88
309.111	121.88
309.341	122.88
309.571	131.88
309.8	119.88
310.03	118.88
310.26	120.88
310.49	125.88
310.72	107.88
310.949	107.88
311.179	119.88
311.409	139.88
311.639	124.88
311.868	122.88
312.098	128.88
312.328	131.88
312.557	134.88
312.787	121.88
313.017	131.88
313.246	127.88
313.476	116.88
313.706	143.88
313.935	110.88
314.165	131.88
314.394	124.88
314.624	123.88
314.853	120.88
315.083	127.88
315.312	131.88
315.542	118.88
315.771	128.88
316.001	119.88
316.23	118.88
316.46	131.88
316.689	129.88
316.919	122.88
317.148	124.88
317.377	128.88
317.607	140.88
317.836	108.88
318.065	118.88
318.295	127.88
318.524	128.88
318.753	126.88
318.983	126.88
319.212	118.88
319.441	121.88
319.67	126.88
319.9	135.88
320.129	131.88
320.358	121.88
320.587	126.88
320.816	132.88
321.046	109.88
321.275	121.88
321.504	129.88
321.733	125.88
321.962	114.88
322.191	124.88
322.42	126.88
322.649	109.88
322.878	119.88
323.108	139.88
323.337	122.88
323.566	131.88
323.795	123.88
324.024	119.88
324.253	128.88
324.482	113.88
324.71	126.88
324.939	125.88
325.168	133.88
325.397	131.88
325.626	128.88
325.855	135.88
326.084	131.88
326.313	119.88
326.542	147.88
326.77	126.88
326.999	129.88
327.228	126.88
327.457	124.88
327.686	134.88
327.914	129.88
328.143	147.88
328.372	129.88
328.6	125.88
328.829	137.88
329.058	119.88
329.287	143.88
329.515	142.88
329.744	136.88
329.972	127.88
330.201	149.88
330.43	142.88
330.658	133.88
330.887	136.88
331.115	141.88
331.344	129.88
331.572	160.88
331.801	129.88
332.03	144.88
332.258	129.88
332.486	142.88
332.715	151.88
332.943	139.88
333.172	175.88
333.4	145.88
333.629	150.88
333.857	144.88
334.085	145.88
334.314	140.88
334.542	140.88
334.771	151.88
334.999	139.88
335.227	130.88
335.455	150.88
335.684	164.88
335.912	144.88
336.14	159.88
336.369	137.88
336.597	137.88
336.825	123.88
337.053	136.88
337.281	155.88
337.51	133.88
337.738	162.88
337.966	143.88
338.194	138.88
338.422	150.88
338.65	146.88
338.878	140.88
339.106	135.88
339.334	134.88
339.562	132.88
339.79	149.88
340.018	135.88
340.246	138.88
340.474	136.88
340.702	135.88
340.93	128.88
341.158	130.88
341.386	137.88
341.614	142.88
341.842	141.88
342.07	132.88
342.298	149.88
342.526	133.88
342.754	128.88
342.981	139.88
343.209	148.88
343.437	170.88
343.665	140.88
343.893	148.88
344.12	148.88
344.348	154.88
344.576	142.88
344.804	143.88
345.031	137.88
345.259	122.88
345.487	148.88
345.714	127.88
345.942	118.88
346.17	138.88
346.397	130.88
346.625	140.88
346.853	131.88
347.08	130.88
347.308	148.88
347.535	153.88
347.763	137.88
347.99	137.88
348.218	138.88
348.445	134.88
348.673	140.88
348.9	121.88
349.128	138.88
349.355	134.88
349.583	150.88
349.81	128.88
350.037	138.88
350.265	137.88
350.492	125.88
350.72	118.88
350.947	144.88
351.174	119.88
351.402	123.88
351.629	128.88
351.856	139.88
352.083	135.88
352.311	132.88
352.538	138.88
352.765	144.88
352.992	129.88
353.22	133.88
353.447	133.88
353.674	133.88
353.901	130.88
354.128	143.88
354.355	114.88
354.583	127.88
354.81	121.88
355.037	132.88
355.264	127.88
355.491	126.88
355.718	119.88
355.945	115.88
356.172	125.88
356.399	128.88
356.626	131.88
356.853	121.88
357.08	108.88
357.307	133.88
357.534	120.88
357.761	121.88
357.988	133.88
358.215	139.88
358.441	129.88
358.668	133.88
358.895	142.88
359.122	134.88
359.349	148.88
359.576	134.88
359.802	137.88
360.029	139.88
360.256	139.88
360.483	131.88
360.709	128.88
360.936	155.88
361.163	133.88
361.39	119.88
361.616	130.88
361.843	126.88
362.07	142.88
362.296	135.88
362.523	122.88
362.749	131.88
362.976	146.88
363.203	142.88
363.429	122.88
363.656	137.88
363.882	130.88
364.109	143.88
364.335	138.88
364.562	129.88
364.788	125.88
365.015	136.88
365.241	143.88
365.468	146.88
365.694	126.88
365.92	134.88
366.147	126.88
366.373	122.88
366.599	119.88
366.826	157.88
367.052	136.88
367.278	138.88
367.505	148.88
367.731	160.88
367.957	132.88
368.184	140.88
368.41	132.88
368.636	163.88
368.862	150.88
369.089	135.88
369.315	139.88
369.541	142.88
369.767	154.88
369.993	148.88
370.219	143.88
370.445	132.88
370.672	147.88
370.898	135.88
371.124	160.88
371.35	144.88
371.576	138.88
371.802	139.88
372.028	146.88
372.254	142.88
372.48	155.88
372.706	162.88
372.932	152.88
373.158	169.88
373.384	164.88
373.61	147.88
373.835	156.88
374.061	154.88
374.287	177.88
374.513	142.88
374.739	154.88
374.965	159.88
375.191	166.88
375.416	169.88
375.642	150.88
375.868	150.88
376.094	160.88
376.319	167.88
376.545	161.88
376.771	176.88
376.997	158.88
377.222	147.88
377.448	166.88
377.674	154.88
377.899	148.88
378.125	146.88
378.35	169.88
378.576	164.88
378.802	164.88
379.027	150.88
379.253	167.88
379.478	149.88
379.704	156.88
379.929	160.88
380.155	158.88
380.38	159.88
380.606	167.88
380.831	168.88
381.057	166.88
381.282	158.88
381.507	174.88
381.733	154.88
381.958	169.88
382.184	170.88
382.409	172.88
382.634	180.88
382.86	160.88
383.085	170.88
383.31	176.88
383.535	181.88
383.761	179.88
383.986	184.88
384.211	183.88
384.436	180.88
384.662	175.88
384.887	183.88
385.112	160.88
385.337	191.88
385.562	172.88
385.787	187.88
386.013	194.88
386.238	185.88
386.463	201.88
386.688	215.88
386.913	187.88
387.138	184.88
387.363	186.88
387.588	217.88
387.813	191.88
388.038	215.88
388.263	195.88
388.488	195.88
388.713	201.88
388.938	196.88
389.163	201.88
389.387	206.88
389.612	190.88
389.837	190.88
390.062	196.88
390.287	194.88
390.512	199.88
390.736	195.88
390.961	213.88
391.186	216.88
391.411	194.88
391.636	190.88
391.86	212.88
392.085	212.88
392.31	218.88
392.534	201.88
392.759	205.88
392.984	202.88
393.208	200.88
393.433	205.88
393.658	193.88
393.882	195.88
394.107	201.88
394.331	201.88
394.556	193.88
394.78	213.88
395.005	220.88
395.229	216.88
395.454	225.88
395.678	215.88
395.903	238.88
396.127	233.88
396.352	206.88
396.576	186.88
396.801	203.88
397.025	204.88
397.249	233.88
397.474	259.88
397.698	218.88
397.922	218.88
398.147	201.88
398.371	232.88
398.595	236.88
398.82	217.88
399.044	245.88
399.268	256.88
399.492	266.88
399.717	304.88
399.941	276.88
400.165	263.88
400.389	265.88
400.613	255.88
400.837	254.88
401.062	234.88
401.286	231.88
401.51	219.88
401.734	226.88
401.958	240.88
402.182	249.88
402.406	260.88
402.63	238.88
402.854	240.88
403.078	252.88
403.302	248.88
403.526	266.88
403.75	284.88
403.974	272.88
404.198	254.88
404.422	281.88
404.645	256.88
404.869	253.88
405.093	265.88
405.317	241.88
405.541	270.88
405.765	255.88
405.988	267.88
406.212	260.88
406.436	246.88
406.66	266.88
406.883	265.88
407.107	263.88
407.331	272.88
407.555	272.88
407.778	299.88
408.002	290.88
408.226	278.88
408.449	270.88
408.673	259.88
408.896	248.88
409.12	258.88
409.344	278.88
409.567	254.88
409.791	274.88
410.014	289.88
410.238	272.88
410.461	288.88
410.685	284.88
410.908	275.88
411.132	272.88
411.355	257.88
411.578	260.88
411.802	275.88
412.025	252.88
412.249	274.88
412.472	243.88
412.695	262.88
412.919	244.88
413.142	247.88
413.365	264.88
413.589	252.88
413.812	262.88
414.035	253.88
414.258	265.88
414.482	270.88
414.705	270.88
414.928	286.88
415.151	277.88
415.374	258.88
415.597	264.88
415.821	279.88
416.044	244.88
416.267	249.88
416.49	266.88
416.713	273.88
416.936	268.88
417.159	266.88
417.382	256.88
417.605	267.88
417.828	288.88
418.051	276.88
418.274	289.88
418.497	290.88
418.72	279.88
418.943	278.88
419.166	290.88
419.389	303.88
419.611	276.88
419.834	272.88
420.057	279.88
420.28	283.88
420.503	275.88
420.726	271.88
420.948	279.88
421.171	276.88
421.394	287.88
421.617	290.88
421.839	290.88
422.062	282.88
422.285	281.88
422.507	280.88
422.73	265.88
422.953	280.88
423.175	279.88
423.398	282.88
423.621	287.88
423.843	297.88
424.066	299.88
424.288	298.88
424.511	309.88
424.733	305.88
424.956	290.88
425.178	286.88
425.401	286.88
425.623	294.88
425.846	279.88
426.068	254.88
426.291	251.88
426.513	259.88
426.735	286.88
426.958	258.88
427.18	264.88
427.402	264.88
427.625	276.88
427.847	275.88
428.069	258.88
428.292	279.88
428.514	267.88
428.736	270.88
428.958	278.88
429.181	256.88
429.403	263.88
429.625	257.88
429.847	242.88
430.069	271.88
430.292	253.88
430.514	266.88
430.736	247.88
430.958	260.88
431.18	254.88
431.402	251.88
431.624	241.88
431.846	195.88
432.068	192.88
432.29	198.88
432.512	223.88
432.734	258.88
432.956	249.88
433.178	280.88
433.4	280.88
433.622	277.88
433.844	272.88
434.066	228.88
434.287	210.88
434.509	199.88
434.731	214.88
434.953	231.88
435.175	257.88
435.397	255.88
435.618	253.88
435.84	216.88
436.062	242.88
436.284	255.88
436.505	263.88
436.727	276.88
436.949	277.88
437.17	261.88
437.392	254.88
437.614	238.88
437.835	210.88
438.057	207.88
438.278	222.88
438.5	229.88
438.721	260.88
438.943	264.88
439.165	283.88
439.386	272.88
439.608	293.88
439.829	287.88
440.05	288.88
440.272	291.88
440.493	272.88
440.715	295.88
440.936	302.88
441.158	292.88
441.379	270.88
441.6	290.88
441.822	312.88
442.043	285.88
442.264	310.88
442.486	297.88
442.707	300.88
442.928	292.88
443.149	275.88
443.371	296.88
443.592	308.88
443.813	292.88
444.034	277.88
444.255	297.88
444.476	317.88
444.698	313.88
444.919	334.88
445.14	518.88
445.361	387.88
445.582	322.88
445.803	286.88
446.024	303.88
446.245	301.88
446.466	314.88
446.687	297.88
446.908	312.88
447.129	304.88
447.35	309.88
447.571	288.88
447.792	278.88
448.013	302.88
448.234	286.88
448.455	275.88
448.675	287.88
448.896	280.88
449.117	264.88
449.338	258.88
449.559	269.88
449.779	258.88
450	275.88
450.221	281.88
450.442	281.88
450.662	248.88
450.883	252.88
451.104	261.88
451.324	265.88
451.545	257.88
451.766	258.88
451.986	258.88
452.207	242.88
452.428	227.88
452.648	235.88
452.869	212.88
453.089	227.88
453.31	209.88
453.53	208.88
453.751	196.88
453.971	204.88
454.192	189.88
454.412	202.88
454.633	216.88
454.853	230.88
455.073	218.88
455.294	218.88
455.514	257.88
455.734	235.88
455.955	225.88
456.175	224.88
456.395	209.88
456.616	196.88
456.836	180.88
457.056	191.88
457.276	183.88
457.497	197.88
457.717	203.88
457.937	192.88
458.157	203.88
458.377	197.88
458.598	171.88
458.818	189.88
459.038	175.88
459.258	181.88
459.478	181.88
459.698	187.88
459.918	190.88
460.138	207.88
460.358	213.88
460.578	238.88
460.798	246.88
461.018	244.88
461.238	234.88
461.458	228.88
461.678	243.88
461.898	232.88
462.118	235.88
462.338	232.88
462.558	255.88
462.777	238.88
462.997	255.88
463.217	267.88
463.437	273.88
463.657	263.88
463.876	228.88
464.096	241.88
464.316	238.88
464.536	263.88
464.755	255.88
464.975	250.88
465.195	224.88
465.414	222.88
465.634	221.88
465.854	251.88
466.073	230.88
466.293	231.88
466.512	230.88
466.732	252.88
466.951	263.88
467.171	260.88
467.391	281.88
467.61	259.88
467.829	255.88
468.049	263.88
468.268	248.88
468.488	262.88
468.707	262.88
468.927	258.88
469.146	261.88
469.365	258.88
469.585	263.88
469.804	265.88
470.023	279.88
470.243	284.88
470.462	273.88
470.681	284.88
470.901	272.88
471.12	290.88
471.339	284.88
471.558	257.88
471.777	251.88
471.997	262.88
472.216	231.88
472.435	203.88
472.654	202.88
472.873	208.88
473.092	225.88
473.311	223.88
473.53	226.88
473.749	217.88
473.968	254.88
474.187	215.88
474.406	210.88
474.625	232.88
474.844	271.88
475.063	243.88
475.282	224.88
475.501	218.88
475.72	256.88
475.939	225.88
476.158	246.88
476.377	250.88
476.596	227.88
476.814	212.88
477.033	205.88
477.252	215.88
477.471	255.88
477.69	263.88
477.908	258.88
478.127	289.88
478.346	270.88
478.564	266.88
478.783	270.88
479.002	276.88
479.22	277.88
479.439	263.88
479.658	240.88
479.876	220.88
480.095	225.88
480.313	248.88
480.532	242.88
480.751	221.88
480.969	190.88
481.188	172.88
481.406	182.88
481.624	173.88
481.843	179.88
482.061	206.88
482.28	214.88
482.498	210.88
482.717	223.88
482.935	244.88
483.153	272.88
483.372	282.88
483.59	265.88
483.808	260.88
484.027	258.88
484.245	246.88
484.463	277.88
484.681	282.88
484.9	263.88
485.118	255.88
485.336	243.88
485.554	210.88
485.772	199.88
485.99	212.88
486.209	222.88
486.427	221.88
486.645	257.88
486.863	276.88
487.081	273.88
487.299	251.88
487.517	260.88
487.735	320.88
487.953	368.88
488.171	357.88
488.389	312.88
488.607	315.88
488.825	255.88
489.043	238.88
489.261	247.88
489.479	273.88
489.696	280.88
489.914	284.88
490.132	276.88
490.35	309.88
490.568	308.88
490.786	341.88
491.003	338.88
491.221	371.88
491.439	375.88
491.657	389.88
491.874	443.88
492.092	466.88
492.31	494.88
492.527	440.88
492.745	431.88
492.963	373.88
493.18	392.88
493.398	378.88
493.615	363.88
493.833	354.88
494.05	373.88
494.268	368.88
494.485	358.88
494.703	383.88
494.92	356.88
495.138	391.88
495.355	344.88
495.573	339.88
495.79	361.88
496.008	354.88
496.225	347.88
496.442	351.88
496.66	369.88
496.877	338.88
497.094	363.88
497.312	327.88
497.529	344.88
497.746	313.88
497.963	297.88
498.181	282.88
498.398	280.88
498.615	283.88
498.832	277.88
499.049	276.88
499.267	310.88
499.484	373.88
499.701	393.88
499.918	416.88
500.135	455.88
500.352	496.88
500.569	483.88
500.786	482.88
501.003	477.88
501.22	432.88
501.437	385.88
501.654	361.88
501.871	344.88
502.088	326.88
502.305	316.88
502.522	314.88
502.739	306.88
502.956	292.88
503.172	296.88
503.389	280.88
503.606	257.88
503.823	261.88
504.04	257.88
504.256	260.88
504.473	262.88
504.69	260.88
504.907	266.88
