Data from SampD_HRD10591_00009.txt Node
Date: Mon Jan 19 11:47:41 EST 2026
User: Yrep
Spectrometer: HR+D1059
Trigger mode: 0
Integration Time (sec): 3.443000E-1
Scans to average: 1
Electric dark correction enabled: true
Nonlinearity correction enabled: false
Boxcar width: 0
XAxis mode: Wavelengths
Number of Pixels in Spectrum: 2048
>>>>>Begin Spectral Data<<<<<
223.165	-21.88
223.4	-21.88
223.635	-21.88
223.869	-14.88
224.104	-30.88
224.338	-17.88
224.573	-17.88
224.808	-12.88
225.042	0.12
225.277	2.12
225.511	-3.88
225.746	11.12
225.98	11.12
226.215	22.12
226.449	4.12
226.683	17.12
226.918	25.12
227.152	27.12
227.387	39.12
227.621	51.12
227.856	45.12
228.09	53.12
228.324	52.12
228.559	76.12
228.793	64.12
229.027	61.12
229.262	69.12
229.496	59.12
229.73	85.12
229.964	89.12
230.199	70.12
230.433	87.12
230.667	79.12
230.901	78.12
231.136	73.12
231.37	86.12
231.604	78.12
231.838	79.12
232.072	90.12
232.306	78.12
232.541	91.12
232.775	85.12
233.009	73.12
233.243	78.12
233.477	78.12
233.711	81.12
233.945	77.12
234.179	83.12
234.413	91.12
234.647	99.12
234.881	93.12
235.115	75.12
235.349	89.12
235.583	96.12
235.817	85.12
236.051	82.12
236.285	83.12
236.519	71.12
236.753	80.12
236.987	84.12
237.221	90.12
237.455	84.12
237.689	81.12
237.922	69.12
238.156	93.12
238.39	90.12
238.624	88.12
238.858	91.12
239.091	81.12
239.325	76.12
239.559	79.12
239.793	84.12
240.027	93.12
240.26	88.12
240.494	85.12
240.728	80.12
240.961	78.12
241.195	93.12
241.429	77.12
241.662	86.12
241.896	79.12
242.13	65.12
242.363	73.12
242.597	79.12
242.83	98.12
243.064	82.12
243.298	75.12
243.531	87.12
243.765	79.12
243.998	91.12
244.232	99.12
244.465	78.12
244.699	74.12
244.932	76.12
245.166	94.12
245.399	73.12
245.633	72.12
245.866	85.12
246.099	100.12
246.333	83.12
246.566	81.12
246.8	84.12
247.033	86.12
247.266	79.12
247.5	76.12
247.733	94.12
247.966	83.12
248.2	94.12
248.433	91.12
248.666	78.12
248.899	94.12
249.133	89.12
249.366	94.12
249.599	96.12
249.832	70.12
250.066	94.12
250.299	87.12
250.532	83.12
250.765	67.12
250.998	93.12
251.231	89.12
251.465	77.12
251.698	81.12
251.931	91.12
252.164	85.12
252.397	81.12
252.63	105.12
252.863	75.12
253.096	79.12
253.329	74.12
253.562	80.12
253.795	85.12
254.028	98.12
254.261	87.12
254.494	87.12
254.727	105.12
254.96	99.12
255.193	86.12
255.426	81.12
255.659	91.12
255.892	83.12
256.124	87.12
256.357	82.12
256.59	101.12
256.823	101.12
257.056	88.12
257.289	87.12
257.521	76.12
257.754	93.12
257.987	91.12
258.22	92.12
258.452	84.12
258.685	98.12
258.918	90.12
259.151	100.12
259.383	95.12
259.616	84.12
259.849	84.12
260.081	84.12
260.314	87.12
260.547	89.12
260.779	112.12
261.012	97.12
261.244	97.12
261.477	110.12
261.71	81.12
261.942	67.12
262.175	90.12
262.407	92.12
262.64	85.12
262.872	91.12
263.105	97.12
263.337	100.12
263.57	91.12
263.802	95.12
264.035	92.12
264.267	88.12
264.499	91.12
264.732	99.12
264.964	91.12
265.197	90.12
265.429	95.12
265.661	74.12
265.894	103.12
266.126	104.12
266.358	94.12
266.591	96.12
266.823	67.12
267.055	89.12
267.287	89.12
267.52	92.12
267.752	92.12
267.984	108.12
268.216	93.12
268.448	105.12
268.681	91.12
268.913	104.12
269.145	100.12
269.377	96.12
269.609	103.12
269.841	95.12
270.073	92.12
270.306	96.12
270.538	93.12
270.77	93.12
271.002	109.12
271.234	88.12
271.466	95.12
271.698	96.12
271.93	85.12
272.162	107.12
272.394	94.12
272.626	88.12
272.858	98.12
273.09	101.12
273.322	84.12
273.553	114.12
273.785	85.12
274.017	95.12
274.249	110.12
274.481	104.12
274.713	103.12
274.945	99.12
275.176	87.12
275.408	75.12
275.64	105.12
275.872	87.12
276.104	91.12
276.335	99.12
276.567	85.12
276.799	98.12
277.031	97.12
277.262	99.12
277.494	100.12
277.726	103.12
277.957	94.12
278.189	112.12
278.421	101.12
278.652	95.12
278.884	102.12
279.115	109.12
279.347	105.12
279.579	89.12
279.81	103.12
280.042	119.12
280.273	93.12
280.505	103.12
280.736	110.12
280.968	109.12
281.199	100.12
281.431	90.12
281.662	94.12
281.894	107.12
282.125	101.12
282.356	93.12
282.588	108.12
282.819	107.12
283.051	93.12
283.282	107.12
283.513	106.12
283.745	97.12
283.976	106.12
284.207	89.12
284.439	105.12
284.67	106.12
284.901	115.12
285.132	104.12
285.364	109.12
285.595	94.12
285.826	96.12
286.057	99.12
286.288	105.12
286.52	94.12
286.751	93.12
286.982	115.12
287.213	108.12
287.444	100.12
287.675	104.12
287.906	113.12
288.138	105.12
288.369	109.12
288.6	118.12
288.831	103.12
289.062	94.12
289.293	90.12
289.524	93.12
289.755	103.12
289.986	110.12
290.217	99.12
290.448	100.12
290.679	89.12
290.91	103.12
291.141	102.12
291.371	105.12
291.602	113.12
291.833	108.12
292.064	113.12
292.295	99.12
292.526	103.12
292.757	90.12
292.987	109.12
293.218	113.12
293.449	107.12
293.68	111.12
293.91	111.12
294.141	112.12
294.372	105.12
294.603	106.12
294.833	107.12
295.064	118.12
295.295	101.12
295.525	107.12
295.756	111.12
295.987	103.12
296.217	93.12
296.448	102.12
296.679	100.12
296.909	98.12
297.14	108.12
297.37	117.12
297.601	109.12
297.831	95.12
298.062	108.12
298.292	109.12
298.523	117.12
298.753	108.12
298.984	111.12
299.214	107.12
299.445	114.12
299.675	109.12
299.905	101.12
300.136	123.12
300.366	101.12
300.597	114.12
300.827	120.12
301.057	95.12
301.288	116.12
301.518	94.12
301.748	94.12
301.979	135.12
302.209	110.12
302.439	101.12
302.669	116.12
302.9	97.12
303.13	107.12
303.36	89.12
303.59	115.12
303.82	111.12
304.051	106.12
304.281	120.12
304.511	112.12
304.741	110.12
304.971	104.12
305.201	105.12
305.431	106.12
305.661	133.12
305.891	117.12
306.121	103.12
306.352	103.12
306.582	103.12
306.812	94.12
307.042	96.12
307.272	97.12
307.502	110.12
307.731	122.12
307.961	101.12
308.191	94.12
308.421	104.12
308.651	95.12
308.881	111.12
309.111	114.12
309.341	116.12
309.571	103.12
309.8	105.12
310.03	101.12
310.26	109.12
310.49	122.12
310.72	106.12
310.949	108.12
311.179	111.12
311.409	114.12
311.639	107.12
311.868	106.12
312.098	130.12
312.328	114.12
312.557	107.12
312.787	99.12
313.017	105.12
313.246	115.12
313.476	112.12
313.706	97.12
313.935	110.12
314.165	125.12
314.394	107.12
314.624	122.12
314.853	115.12
315.083	104.12
315.312	123.12
315.542	112.12
315.771	104.12
316.001	116.12
316.23	108.12
316.46	102.12
316.689	107.12
316.919	111.12
317.148	105.12
317.377	127.12
317.607	126.12
317.836	95.12
318.065	97.12
318.295	113.12
318.524	95.12
318.753	100.12
318.983	105.12
319.212	104.12
319.441	111.12
319.67	110.12
319.9	91.12
320.129	91.12
320.358	113.12
320.587	101.12
320.816	109.12
321.046	109.12
321.275	99.12
321.504	110.12
321.733	113.12
321.962	107.12
322.191	105.12
322.42	112.12
322.649	92.12
322.878	96.12
323.108	109.12
323.337	102.12
323.566	118.12
323.795	108.12
324.024	118.12
324.253	104.12
324.482	101.12
324.71	106.12
324.939	118.12
325.168	114.12
325.397	95.12
325.626	98.12
325.855	110.12
326.084	107.12
326.313	106.12
326.542	117.12
326.77	127.12
326.999	106.12
327.228	119.12
327.457	107.12
327.686	112.12
327.914	104.12
328.143	121.12
328.372	116.12
328.6	109.12
328.829	116.12
329.058	117.12
329.287	98.12
329.515	114.12
329.744	114.12
329.972	116.12
330.201	109.12
330.43	112.12
330.658	105.12
330.887	119.12
331.115	134.12
331.344	118.12
331.572	121.12
331.801	103.12
332.03	109.12
332.258	127.12
332.486	97.12
332.715	123.12
332.943	105.12
333.172	113.12
333.4	118.12
333.629	117.12
333.857	111.12
334.085	132.12
334.314	131.12
334.542	113.12
334.771	111.12
334.999	123.12
335.227	116.12
335.455	134.12
335.684	109.12
335.912	112.12
336.14	128.12
336.369	130.12
336.597	111.12
336.825	119.12
337.053	129.12
337.281	129.12
337.51	128.12
337.738	115.12
337.966	105.12
338.194	117.12
338.422	99.12
338.65	129.12
338.878	141.12
339.106	111.12
339.334	124.12
339.562	103.12
339.79	115.12
340.018	95.12
340.246	110.12
340.474	117.12
340.702	101.12
340.93	114.12
341.158	96.12
341.386	99.12
341.614	116.12
341.842	116.12
342.07	117.12
342.298	103.12
342.526	91.12
342.754	119.12
342.981	109.12
343.209	90.12
343.437	149.12
343.665	116.12
343.893	125.12
344.12	111.12
344.348	120.12
344.576	124.12
344.804	104.12
345.031	127.12
345.259	121.12
345.487	108.12
345.714	107.12
345.942	105.12
346.17	84.12
346.397	103.12
346.625	91.12
346.853	110.12
347.08	119.12
347.308	115.12
347.535	105.12
347.763	117.12
347.99	117.12
348.218	105.12
348.445	118.12
348.673	111.12
348.9	112.12
349.128	102.12
349.355	113.12
349.583	104.12
349.81	101.12
350.037	89.12
350.265	106.12
350.492	113.12
350.72	107.12
350.947	108.12
351.174	130.12
351.402	114.12
351.629	106.12
351.856	117.12
352.083	93.12
352.311	110.12
352.538	101.12
352.765	127.12
352.992	119.12
353.22	108.12
353.447	116.12
353.674	122.12
353.901	118.12
354.128	108.12
354.355	116.12
354.583	109.12
354.81	103.12
355.037	119.12
355.264	110.12
355.491	126.12
355.718	89.12
355.945	87.12
356.172	122.12
356.399	115.12
356.626	102.12
356.853	98.12
357.08	109.12
357.307	114.12
357.534	109.12
357.761	100.12
357.988	93.12
358.215	118.12
358.441	105.12
358.668	106.12
358.895	127.12
359.122	119.12
359.349	110.12
359.576	108.12
359.802	100.12
360.029	100.12
360.256	101.12
360.483	100.12
360.709	111.12
360.936	119.12
361.163	117.12
361.39	113.12
361.616	119.12
361.843	103.12
362.07	114.12
362.296	115.12
362.523	99.12
362.749	118.12
362.976	103.12
363.203	125.12
363.429	114.12
363.656	117.12
363.882	113.12
364.109	129.12
364.335	116.12
364.562	117.12
364.788	109.12
365.015	118.12
365.241	95.12
365.468	124.12
365.694	106.12
365.92	108.12
366.147	108.12
366.373	111.12
366.599	92.12
366.826	109.12
367.052	105.12
367.278	121.12
367.505	107.12
367.731	123.12
367.957	118.12
368.184	121.12
368.41	111.12
368.636	125.12
368.862	115.12
369.089	132.12
369.315	114.12
369.541	120.12
369.767	121.12
369.993	130.12
370.219	117.12
370.445	109.12
370.672	115.12
370.898	114.12
371.124	116.12
371.35	113.12
371.576	124.12
371.802	119.12
372.028	118.12
372.254	106.12
372.48	119.12
372.706	116.12
372.932	123.12
373.158	125.12
373.384	117.12
373.61	114.12
373.835	111.12
374.061	116.12
374.287	118.12
374.513	124.12
374.739	113.12
374.965	138.12
375.191	130.12
375.416	118.12
375.642	134.12
375.868	124.12
376.094	115.12
376.319	109.12
376.545	110.12
376.771	114.12
376.997	122.12
377.222	117.12
377.448	127.12
377.674	130.12
377.899	129.12
378.125	121.12
378.35	134.12
378.576	117.12
378.802	113.12
379.027	120.12
379.253	122.12
379.478	122.12
379.704	130.12
379.929	126.12
380.155	131.12
380.38	123.12
380.606	136.12
380.831	120.12
381.057	134.12
381.282	127.12
381.507	120.12
381.733	121.12
381.958	131.12
382.184	118.12
382.409	121.12
382.634	131.12
382.86	120.12
383.085	124.12
383.31	148.12
383.535	148.12
383.761	141.12
383.986	139.12
384.211	133.12
384.436	126.12
384.662	141.12
384.887	133.12
385.112	137.12
385.337	157.12
385.562	140.12
385.787	140.12
386.013	132.12
386.238	129.12
386.463	141.12
386.688	181.12
386.913	134.12
387.138	129.12
387.363	115.12
387.588	134.12
387.813	149.12
388.038	137.12
388.263	127.12
388.488	146.12
388.713	141.12
388.938	121.12
389.163	131.12
389.387	163.12
389.612	145.12
389.837	122.12
390.062	142.12
390.287	140.12
390.512	133.12
390.736	137.12
390.961	142.12
391.186	132.12
391.411	149.12
391.636	145.12
391.86	132.12
392.085	151.12
392.31	143.12
392.534	150.12
392.759	164.12
392.984	148.12
393.208	147.12
393.433	146.12
393.658	163.12
393.882	158.12
394.107	146.12
394.331	168.12
394.556	142.12
394.78	160.12
395.005	145.12
395.229	158.12
395.454	151.12
395.678	162.12
395.903	155.12
396.127	158.12
396.352	156.12
396.576	140.12
396.801	152.12
397.025	132.12
397.249	161.12
397.474	171.12
397.698	177.12
397.922	155.12
398.147	142.12
398.371	161.12
398.595	173.12
398.82	175.12
399.044	170.12
399.268	171.12
399.492	205.12
399.717	200.12
399.941	187.12
400.165	173.12
400.389	174.12
400.613	171.12
400.837	169.12
401.062	147.12
401.286	175.12
401.51	156.12
401.734	175.12
401.958	162.12
402.182	165.12
402.406	171.12
402.63	162.12
402.854	161.12
403.078	178.12
403.302	182.12
403.526	172.12
403.75	198.12
403.974	185.12
404.198	174.12
404.422	181.12
404.645	177.12
404.869	171.12
405.093	175.12
405.317	170.12
405.541	184.12
405.765	177.12
405.988	174.12
406.212	154.12
406.436	174.12
406.66	158.12
406.883	190.12
407.107	179.12
407.331	185.12
407.555	193.12
407.778	181.12
408.002	166.12
408.226	180.12
408.449	179.12
408.673	173.12
408.896	177.12
409.12	167.12
409.344	198.12
409.567	179.12
409.791	171.12
410.014	183.12
410.238	185.12
410.461	200.12
410.685	186.12
410.908	169.12
411.132	193.12
411.355	169.12
411.578	167.12
411.802	182.12
412.025	178.12
412.249	186.12
412.472	187.12
412.695	173.12
412.919	179.12
413.142	171.12
413.365	178.12
413.589	180.12
413.812	173.12
414.035	181.12
414.258	177.12
414.482	167.12
414.705	184.12
414.928	179.12
415.151	179.12
415.374	167.12
415.597	177.12
415.821	170.12
416.044	172.12
416.267	178.12
416.49	183.12
416.713	163.12
416.936	174.12
417.159	167.12
417.382	185.12
417.605	171.12
417.828	193.12
418.051	199.12
418.274	191.12
418.497	183.12
418.72	182.12
418.943	185.12
419.166	199.12
419.389	188.12
419.611	196.12
419.834	182.12
420.057	187.12
420.28	192.12
420.503	204.12
420.726	176.12
420.948	194.12
421.171	194.12
421.394	185.12
421.617	193.12
421.839	207.12
422.062	187.12
422.285	181.12
422.507	169.12
422.73	189.12
422.953	174.12
423.175	176.12
423.398	186.12
423.621	186.12
423.843	193.12
424.066	192.12
424.288	197.12
424.511	199.12
424.733	193.12
424.956	195.12
425.178	199.12
425.401	184.12
425.623	173.12
425.846	178.12
426.068	190.12
426.291	183.12
426.513	170.12
426.735	195.12
426.958	186.12
427.18	175.12
427.402	189.12
427.625	178.12
427.847	166.12
428.069	181.12
428.292	181.12
428.514	172.12
428.736	161.12
428.958	169.12
429.181	164.12
429.403	173.12
429.625	183.12
429.847	180.12
430.069	142.12
430.292	172.12
430.514	167.12
430.736	176.12
430.958	186.12
431.18	150.12
431.402	168.12
431.624	160.12
431.846	137.12
432.068	138.12
432.29	129.12
432.512	158.12
432.734	177.12
432.956	193.12
433.178	175.12
433.4	185.12
433.622	183.12
433.844	162.12
434.066	172.12
434.287	139.12
434.509	139.12
434.731	150.12
434.953	161.12
435.175	179.12
435.397	167.12
435.618	158.12
435.84	149.12
436.062	158.12
436.284	174.12
436.505	185.12
436.727	169.12
436.949	175.12
437.17	175.12
437.392	162.12
437.614	164.12
437.835	144.12
438.057	138.12
438.278	140.12
438.5	157.12
438.721	186.12
438.943	179.12
439.165	162.12
439.386	185.12
439.608	197.12
439.829	183.12
440.05	182.12
440.272	180.12
440.493	189.12
440.715	195.12
440.936	190.12
441.158	185.12
441.379	193.12
441.6	199.12
441.822	199.12
442.043	180.12
442.264	213.12
442.486	185.12
442.707	187.12
442.928	200.12
443.149	197.12
443.371	188.12
443.592	169.12
443.813	191.12
444.034	166.12
444.255	205.12
444.476	194.12
444.698	199.12
444.919	222.12
445.14	381.12
445.361	285.12
445.582	194.12
445.803	181.12
446.024	197.12
446.245	175.12
446.466	199.12
446.687	190.12
446.908	211.12
447.129	207.12
447.35	203.12
447.571	209.12
447.792	165.12
448.013	170.12
448.234	190.12
448.455	186.12
448.675	181.12
448.896	173.12
449.117	192.12
449.338	174.12
449.559	177.12
449.779	173.12
450	181.12
450.221	188.12
450.442	172.12
450.662	179.12
450.883	179.12
451.104	171.12
451.324	166.12
451.545	174.12
451.766	184.12
451.986	163.12
452.207	171.12
452.428	165.12
452.648	151.12
452.869	162.12
453.089	130.12
453.31	126.12
453.53	137.12
453.751	137.12
453.971	155.12
454.192	138.12
454.412	145.12
454.633	145.12
454.853	163.12
455.073	151.12
455.294	171.12
455.514	155.12
455.734	138.12
455.955	147.12
456.175	155.12
456.395	159.12
456.616	139.12
456.836	132.12
457.056	147.12
457.276	130.12
457.497	145.12
457.717	123.12
457.937	141.12
458.157	135.12
458.377	152.12
458.598	130.12
458.818	119.12
459.038	118.12
459.258	131.12
459.478	119.12
459.698	141.12
459.918	148.12
460.138	149.12
460.358	159.12
460.578	172.12
460.798	155.12
461.018	165.12
461.238	149.12
461.458	170.12
461.678	164.12
461.898	166.12
462.118	155.12
462.338	179.12
462.558	181.12
462.777	166.12
462.997	182.12
463.217	181.12
463.437	186.12
463.657	162.12
463.876	149.12
464.096	158.12
464.316	152.12
464.536	162.12
464.755	163.12
464.975	163.12
465.195	167.12
465.414	176.12
465.634	174.12
465.854	152.12
466.073	157.12
466.293	175.12
466.512	162.12
466.732	169.12
466.951	179.12
467.171	171.12
467.391	171.12
467.61	169.12
467.829	190.12
468.049	182.12
468.268	175.12
468.488	184.12
468.707	175.12
468.927	170.12
469.146	171.12
469.365	179.12
469.585	174.12
469.804	193.12
470.023	183.12
470.243	185.12
470.462	197.12
470.681	195.12
470.901	174.12
471.12	176.12
471.339	184.12
471.558	175.12
471.777	161.12
471.997	191.12
472.216	174.12
472.435	138.12
472.654	138.12
472.873	148.12
473.092	142.12
473.311	158.12
473.53	161.12
473.749	179.12
473.968	180.12
474.187	161.12
474.406	159.12
474.625	166.12
474.844	170.12
475.063	163.12
475.282	171.12
475.501	153.12
475.72	165.12
475.939	158.12
476.158	163.12
476.377	151.12
476.596	154.12
476.814	152.12
477.033	151.12
477.252	147.12
477.471	155.12
477.69	176.12
477.908	180.12
478.127	185.12
478.346	187.12
478.564	171.12
478.783	175.12
479.002	175.12
479.22	175.12
479.439	186.12
479.658	173.12
479.876	159.12
480.095	152.12
480.313	173.12
480.532	161.12
480.751	154.12
480.969	150.12
481.188	155.12
481.406	136.12
481.624	134.12
481.843	138.12
482.061	156.12
482.28	159.12
482.498	147.12
482.717	149.12
482.935	154.12
483.153	177.12
483.372	204.12
483.59	183.12
483.808	169.12
484.027	177.12
484.245	172.12
484.463	171.12
484.681	191.12
484.9	182.12
485.118	178.12
485.336	162.12
485.554	153.12
485.772	137.12
485.99	150.12
486.209	133.12
486.427	120.12
486.645	165.12
486.863	178.12
487.081	181.12
487.299	185.12
487.517	170.12
487.735	212.12
487.953	218.12
488.171	224.12
488.389	201.12
488.607	197.12
488.825	172.12
489.043	174.12
489.261	183.12
489.479	173.12
489.696	177.12
489.914	180.12
490.132	182.12
490.35	192.12
490.568	202.12
490.786	219.12
491.003	227.12
491.221	213.12
491.439	241.12
491.657	241.12
491.874	259.12
492.092	274.12
492.31	289.12
492.527	275.12
492.745	257.12
492.963	253.12
493.18	245.12
493.398	251.12
493.615	231.12
493.833	227.12
494.05	218.12
494.268	211.12
494.485	228.12
494.703	232.12
494.92	219.12
495.138	238.12
495.355	216.12
495.573	231.12
495.79	225.12
496.008	213.12
496.225	238.12
496.442	217.12
496.66	232.12
496.877	228.12
497.094	232.12
497.312	217.12
497.529	212.12
497.746	197.12
497.963	195.12
498.181	188.12
498.398	186.12
498.615	187.12
498.832	185.12
499.049	183.12
499.267	203.12
499.484	242.12
499.701	224.12
499.918	254.12
500.135	282.12
500.352	285.12
500.569	300.12
500.786	296.12
501.003	286.12
501.22	268.12
501.437	245.12
501.654	211.12
501.871	225.12
502.088	220.12
502.305	205.12
502.522	211.12
502.739	193.12
502.956	188.12
503.172	191.12
503.389	172.12
503.606	184.12
503.823	178.12
504.04	189.12
504.256	192.12
504.473	170.12
504.69	198.12
504.907	190.12
505.123	167.12
505.34	167.12
505.557	170.12
505.773	171.12
505.99	167.12
506.207	158.12
