Data from SampD_HRD10591_00085.txt Node
Date: Mon Jan 19 11:48:07 EST 2026
User: Yrep
Spectrometer: HR+D1059
Trigger mode: 0
Integration Time (sec): 3.443000E-1
Scans to average: 1
Electric dark correction enabled: true
Nonlinearity correction enabled: false
Boxcar width: 0
XAxis mode: Wavelengths
Number of Pixels in Spectrum: 2048
>>>>>Begin Spectral Data<<<<<
223.165	-22.38
223.4	-22.38
223.635	-22.38
223.869	-13.38
224.104	-38.38
224.338	-5.38
224.573	-20.38
224.808	-12.38
225.042	-2.38
225.277	-17.38
225.511	-6.38
225.746	13.62
225.98	10.62
226.215	24.62
226.449	23.62
226.683	23.62
226.918	25.62
227.152	16.62
227.387	23.62
227.621	49.62
227.856	32.62
228.09	30.62
228.324	44.62
228.559	59.62
228.793	43.62
229.027	58.62
229.262	55.62
229.496	68.62
229.73	60.62
229.964	76.62
230.199	79.62
230.433	76.62
230.667	82.62
230.901	85.62
231.136	74.62
231.37	71.62
231.604	81.62
231.838	102.62
232.072	74.62
232.306	94.62
232.541	93.62
232.775	78.62
233.009	80.62
233.243	74.62
233.477	75.62
233.711	91.62
233.945	68.62
234.179	78.62
234.413	68.62
234.647	78.62
234.881	83.62
235.115	86.62
235.349	80.62
235.583	75.62
235.817	82.62
236.051	69.62
236.285	84.62
236.519	88.62
236.753	87.62
236.987	76.62
237.221	58.62
237.455	85.62
237.689	82.62
237.922	86.62
238.156	76.62
238.39	72.62
238.624	80.62
238.858	83.62
239.091	65.62
239.325	82.62
239.559	76.62
239.793	77.62
240.027	83.62
240.26	76.62
240.494	79.62
240.728	85.62
240.961	79.62
241.195	92.62
241.429	87.62
241.662	78.62
241.896	84.62
242.13	79.62
242.363	81.62
242.597	82.62
242.83	88.62
243.064	78.62
243.298	80.62
243.531	73.62
243.765	87.62
243.998	92.62
244.232	96.62
244.465	75.62
244.699	90.62
244.932	76.62
245.166	69.62
245.399	74.62
245.633	80.62
245.866	81.62
246.099	77.62
246.333	84.62
246.566	83.62
246.8	79.62
247.033	90.62
247.266	92.62
247.5	83.62
247.733	85.62
247.966	81.62
248.2	81.62
248.433	76.62
248.666	88.62
248.899	82.62
249.133	83.62
249.366	99.62
249.599	86.62
249.832	76.62
250.066	104.62
250.299	80.62
250.532	88.62
250.765	83.62
250.998	82.62
251.231	69.62
251.465	83.62
251.698	79.62
251.931	95.62
252.164	85.62
252.397	96.62
252.63	86.62
252.863	88.62
253.096	75.62
253.329	90.62
253.562	78.62
253.795	74.62
254.028	94.62
254.261	82.62
254.494	91.62
254.727	85.62
254.96	90.62
255.193	93.62
255.426	102.62
255.659	94.62
255.892	97.62
256.124	91.62
256.357	86.62
256.59	91.62
256.823	78.62
257.056	87.62
257.289	79.62
257.521	103.62
257.754	90.62
257.987	106.62
258.22	95.62
258.452	96.62
258.685	90.62
258.918	97.62
259.151	98.62
259.383	104.62
259.616	88.62
259.849	96.62
260.081	97.62
260.314	100.62
260.547	92.62
260.779	95.62
261.012	100.62
261.244	64.62
261.477	109.62
261.71	107.62
261.942	83.62
262.175	88.62
262.407	91.62
262.64	103.62
262.872	90.62
263.105	89.62
263.337	103.62
263.57	103.62
263.802	103.62
264.035	90.62
264.267	101.62
264.499	107.62
264.732	93.62
264.964	89.62
265.197	96.62
265.429	95.62
265.661	106.62
265.894	84.62
266.126	95.62
266.358	102.62
266.591	89.62
266.823	99.62
267.055	103.62
267.287	103.62
267.52	87.62
267.752	92.62
267.984	92.62
268.216	75.62
268.448	100.62
268.681	99.62
268.913	110.62
269.145	107.62
269.377	98.62
269.609	98.62
269.841	108.62
270.073	97.62
270.306	94.62
270.538	99.62
270.77	77.62
271.002	111.62
271.234	103.62
271.466	111.62
271.698	97.62
271.93	106.62
272.162	100.62
272.394	95.62
272.626	89.62
272.858	108.62
273.09	117.62
273.322	99.62
273.553	106.62
273.785	99.62
274.017	115.62
274.249	83.62
274.481	90.62
274.713	95.62
274.945	98.62
275.176	102.62
275.408	107.62
275.64	94.62
275.872	99.62
276.104	109.62
276.335	99.62
276.567	110.62
276.799	99.62
277.031	96.62
277.262	101.62
277.494	105.62
277.726	111.62
277.957	114.62
278.189	103.62
278.421	97.62
278.652	113.62
278.884	100.62
279.115	107.62
279.347	109.62
279.579	108.62
279.81	125.62
280.042	107.62
280.273	108.62
280.505	115.62
280.736	108.62
280.968	107.62
281.199	118.62
281.431	104.62
281.662	107.62
281.894	114.62
282.125	104.62
282.356	104.62
282.588	95.62
282.819	96.62
283.051	108.62
283.282	104.62
283.513	106.62
283.745	111.62
283.976	112.62
284.207	113.62
284.439	115.62
284.67	118.62
284.901	92.62
285.132	97.62
285.364	116.62
285.595	107.62
285.826	111.62
286.057	127.62
286.288	102.62
286.52	111.62
286.751	107.62
286.982	113.62
287.213	113.62
287.444	128.62
287.675	100.62
287.906	110.62
288.138	100.62
288.369	101.62
288.6	129.62
288.831	110.62
289.062	112.62
289.293	117.62
289.524	123.62
289.755	125.62
289.986	115.62
290.217	99.62
290.448	102.62
290.679	118.62
290.91	131.62
291.141	113.62
291.371	122.62
291.602	114.62
291.833	116.62
292.064	111.62
292.295	124.62
292.526	94.62
292.757	112.62
292.987	110.62
293.218	103.62
293.449	113.62
293.68	119.62
293.91	110.62
294.141	127.62
294.372	119.62
294.603	120.62
294.833	111.62
295.064	112.62
295.295	116.62
295.525	109.62
295.756	114.62
295.987	115.62
296.217	107.62
296.448	111.62
296.679	117.62
296.909	115.62
297.14	127.62
297.37	118.62
297.601	127.62
297.831	119.62
298.062	124.62
298.292	126.62
298.523	109.62
298.753	117.62
298.984	124.62
299.214	119.62
299.445	114.62
299.675	135.62
299.905	117.62
300.136	112.62
300.366	114.62
300.597	119.62
300.827	117.62
301.057	114.62
301.288	119.62
301.518	120.62
301.748	119.62
301.979	150.62
302.209	110.62
302.439	123.62
302.669	113.62
302.9	123.62
303.13	117.62
303.36	115.62
303.59	114.62
303.82	116.62
304.051	122.62
304.281	128.62
304.511	122.62
304.741	133.62
304.971	123.62
305.201	121.62
305.431	123.62
305.661	127.62
305.891	106.62
306.121	116.62
306.352	122.62
306.582	120.62
306.812	110.62
307.042	129.62
307.272	122.62
307.502	127.62
307.731	123.62
307.961	135.62
308.191	123.62
308.421	111.62
308.651	124.62
308.881	133.62
309.111	125.62
309.341	116.62
309.571	119.62
309.8	116.62
310.03	122.62
310.26	118.62
310.49	130.62
310.72	121.62
310.949	114.62
311.179	123.62
311.409	107.62
311.639	128.62
311.868	127.62
312.098	131.62
312.328	109.62
312.557	117.62
312.787	103.62
313.017	128.62
313.246	129.62
313.476	123.62
313.706	124.62
313.935	117.62
314.165	122.62
314.394	115.62
314.624	119.62
314.853	130.62
315.083	144.62
315.312	124.62
315.542	108.62
315.771	117.62
316.001	111.62
316.23	126.62
316.46	119.62
316.689	128.62
316.919	123.62
317.148	117.62
317.377	134.62
317.607	120.62
317.836	127.62
318.065	126.62
318.295	110.62
318.524	113.62
318.753	131.62
318.983	142.62
319.212	130.62
319.441	106.62
319.67	115.62
319.9	117.62
320.129	118.62
320.358	109.62
320.587	122.62
320.816	118.62
321.046	112.62
321.275	118.62
321.504	120.62
321.733	119.62
321.962	133.62
322.191	114.62
322.42	109.62
322.649	132.62
322.878	117.62
323.108	126.62
323.337	131.62
323.566	124.62
323.795	123.62
324.024	126.62
324.253	127.62
324.482	124.62
324.71	115.62
324.939	122.62
325.168	114.62
325.397	121.62
325.626	120.62
325.855	122.62
326.084	140.62
326.313	142.62
326.542	123.62
326.77	122.62
326.999	115.62
327.228	127.62
327.457	143.62
327.686	123.62
327.914	124.62
328.143	147.62
328.372	131.62
328.6	109.62
328.829	121.62
329.058	118.62
329.287	123.62
329.515	124.62
329.744	132.62
329.972	114.62
330.201	114.62
330.43	124.62
330.658	118.62
330.887	128.62
331.115	138.62
331.344	126.62
331.572	141.62
331.801	124.62
332.03	145.62
332.258	140.62
332.486	139.62
332.715	127.62
332.943	140.62
333.172	144.62
333.4	142.62
333.629	154.62
333.857	147.62
334.085	144.62
334.314	147.62
334.542	132.62
334.771	141.62
334.999	134.62
335.227	131.62
335.455	135.62
335.684	142.62
335.912	140.62
336.14	131.62
336.369	138.62
336.597	146.62
336.825	146.62
337.053	129.62
337.281	143.62
337.51	138.62
337.738	149.62
337.966	126.62
338.194	126.62
338.422	131.62
338.65	143.62
338.878	134.62
339.106	126.62
339.334	141.62
339.562	133.62
339.79	142.62
340.018	122.62
340.246	119.62
340.474	132.62
340.702	130.62
340.93	142.62
341.158	143.62
341.386	125.62
341.614	131.62
341.842	115.62
342.07	134.62
342.298	128.62
342.526	132.62
342.754	128.62
342.981	131.62
343.209	139.62
343.437	156.62
343.665	143.62
343.893	146.62
344.12	145.62
344.348	139.62
344.576	151.62
344.804	127.62
345.031	143.62
345.259	134.62
345.487	122.62
345.714	125.62
345.942	128.62
346.17	135.62
346.397	139.62
346.625	123.62
346.853	120.62
347.08	131.62
347.308	132.62
347.535	132.62
347.763	132.62
347.99	123.62
348.218	121.62
348.445	137.62
348.673	127.62
348.9	134.62
349.128	133.62
349.355	131.62
349.583	124.62
349.81	122.62
350.037	116.62
350.265	120.62
350.492	122.62
350.72	144.62
350.947	135.62
351.174	139.62
351.402	116.62
351.629	108.62
351.856	116.62
352.083	118.62
352.311	114.62
352.538	128.62
352.765	122.62
352.992	145.62
353.22	113.62
353.447	124.62
353.674	127.62
353.901	143.62
354.128	128.62
354.355	132.62
354.583	126.62
354.81	125.62
355.037	132.62
355.264	144.62
355.491	133.62
355.718	128.62
355.945	134.62
356.172	134.62
356.399	120.62
356.626	112.62
356.853	136.62
357.08	122.62
357.307	115.62
357.534	125.62
357.761	132.62
357.988	145.62
358.215	136.62
358.441	128.62
358.668	136.62
358.895	139.62
359.122	114.62
359.349	126.62
359.576	118.62
359.802	124.62
360.029	112.62
360.256	143.62
360.483	132.62
360.709	116.62
360.936	135.62
361.163	114.62
361.39	117.62
361.616	123.62
361.843	124.62
362.07	130.62
362.296	145.62
362.523	125.62
362.749	127.62
362.976	132.62
363.203	135.62
363.429	111.62
363.656	122.62
363.882	123.62
364.109	128.62
364.335	120.62
364.562	127.62
364.788	138.62
365.015	132.62
365.241	145.62
365.468	116.62
365.694	124.62
365.92	134.62
366.147	130.62
366.373	130.62
366.599	140.62
366.826	130.62
367.052	128.62
367.278	122.62
367.505	130.62
367.731	143.62
367.957	128.62
368.184	131.62
368.41	146.62
368.636	138.62
368.862	121.62
369.089	164.62
369.315	114.62
369.541	146.62
369.767	154.62
369.993	145.62
370.219	128.62
370.445	146.62
370.672	131.62
370.898	131.62
371.124	135.62
371.35	149.62
371.576	146.62
371.802	151.62
372.028	128.62
372.254	145.62
372.48	151.62
372.706	150.62
372.932	158.62
373.158	149.62
373.384	152.62
373.61	142.62
373.835	145.62
374.061	127.62
374.287	155.62
374.513	159.62
374.739	154.62
374.965	169.62
375.191	186.62
375.416	152.62
375.642	144.62
375.868	157.62
376.094	145.62
376.319	145.62
376.545	163.62
376.771	140.62
376.997	134.62
377.222	158.62
377.448	158.62
377.674	139.62
377.899	144.62
378.125	136.62
378.35	146.62
378.576	150.62
378.802	150.62
379.027	159.62
379.253	158.62
379.478	147.62
379.704	152.62
379.929	148.62
380.155	159.62
380.38	164.62
380.606	162.62
380.831	161.62
381.057	172.62
381.282	163.62
381.507	150.62
381.733	164.62
381.958	167.62
382.184	152.62
382.409	167.62
382.634	178.62
382.86	178.62
383.085	174.62
383.31	168.62
383.535	170.62
383.761	180.62
383.986	193.62
384.211	184.62
384.436	175.62
384.662	178.62
384.887	192.62
385.112	190.62
385.337	174.62
385.562	169.62
385.787	174.62
386.013	184.62
386.238	196.62
386.463	178.62
386.688	205.62
386.913	186.62
387.138	192.62
387.363	177.62
387.588	202.62
387.813	191.62
388.038	184.62
388.263	197.62
388.488	168.62
388.713	196.62
388.938	187.62
389.163	175.62
389.387	191.62
389.612	183.62
389.837	164.62
390.062	195.62
390.287	187.62
390.512	191.62
390.736	195.62
390.961	203.62
391.186	181.62
391.411	192.62
391.636	196.62
391.86	213.62
392.085	202.62
392.31	203.62
392.534	190.62
392.759	204.62
392.984	213.62
393.208	204.62
393.433	190.62
393.658	194.62
393.882	180.62
394.107	197.62
394.331	208.62
394.556	197.62
394.78	197.62
395.005	208.62
395.229	194.62
395.454	212.62
395.678	220.62
395.903	216.62
396.127	218.62
396.352	226.62
396.576	206.62
396.801	208.62
397.025	224.62
397.249	208.62
397.474	220.62
397.698	215.62
397.922	208.62
398.147	230.62
398.371	223.62
398.595	224.62
398.82	233.62
399.044	238.62
399.268	255.62
399.492	278.62
399.717	292.62
399.941	260.62
400.165	268.62
400.389	274.62
400.613	223.62
400.837	236.62
401.062	231.62
401.286	238.62
401.51	221.62
401.734	223.62
401.958	216.62
402.182	236.62
402.406	239.62
402.63	254.62
402.854	246.62
403.078	248.62
403.302	245.62
403.526	251.62
403.75	260.62
403.974	268.62
404.198	250.62
404.422	269.62
404.645	259.62
404.869	267.62
405.093	264.62
405.317	249.62
405.541	257.62
405.765	251.62
405.988	259.62
406.212	266.62
406.436	272.62
406.66	272.62
406.883	268.62
407.107	263.62
407.331	282.62
407.555	282.62
407.778	279.62
408.002	260.62
408.226	247.62
408.449	252.62
408.673	266.62
408.896	253.62
409.12	259.62
409.344	264.62
409.567	266.62
409.791	259.62
410.014	278.62
410.238	271.62
410.461	254.62
410.685	266.62
410.908	258.62
411.132	273.62
411.355	254.62
411.578	250.62
411.802	245.62
412.025	263.62
412.249	266.62
412.472	250.62
412.695	253.62
412.919	253.62
413.142	245.62
413.365	244.62
413.589	245.62
413.812	265.62
414.035	249.62
414.258	255.62
414.482	259.62
414.705	259.62
414.928	273.62
415.151	258.62
415.374	252.62
415.597	246.62
415.821	262.62
416.044	259.62
416.267	270.62
416.49	249.62
416.713	263.62
416.936	268.62
417.159	255.62
417.382	254.62
417.605	254.62
417.828	254.62
418.051	260.62
418.274	270.62
418.497	261.62
418.72	261.62
418.943	273.62
419.166	276.62
419.389	294.62
419.611	272.62
419.834	281.62
420.057	276.62
420.28	276.62
420.503	281.62
420.726	264.62
420.948	280.62
421.171	277.62
421.394	276.62
421.617	273.62
421.839	289.62
422.062	281.62
422.285	271.62
422.507	277.62
422.73	267.62
422.953	253.62
423.175	261.62
423.398	258.62
423.621	284.62
423.843	289.62
424.066	290.62
424.288	294.62
424.511	300.62
424.733	290.62
424.956	292.62
425.178	294.62
425.401	266.62
425.623	282.62
425.846	266.62
426.068	271.62
426.291	267.62
426.513	269.62
426.735	270.62
426.958	284.62
427.18	251.62
427.402	252.62
427.625	264.62
427.847	253.62
428.069	261.62
428.292	260.62
428.514	248.62
428.736	255.62
428.958	261.62
429.181	253.62
429.403	246.62
429.625	261.62
429.847	263.62
430.069	254.62
430.292	269.62
430.514	263.62
430.736	256.62
430.958	253.62
431.18	238.62
431.402	241.62
431.624	240.62
431.846	198.62
432.068	175.62
432.29	210.62
432.512	215.62
432.734	256.62
432.956	271.62
433.178	282.62
433.4	256.62
433.622	268.62
433.844	272.62
434.066	234.62
434.287	210.62
434.509	188.62
434.731	208.62
434.953	226.62
435.175	253.62
435.397	277.62
435.618	228.62
435.84	210.62
436.062	232.62
436.284	257.62
436.505	262.62
436.727	252.62
436.949	241.62
437.17	253.62
437.392	247.62
437.614	237.62
437.835	203.62
438.057	204.62
438.278	223.62
438.5	248.62
438.721	270.62
438.943	287.62
439.165	270.62
439.386	264.62
439.608	293.62
439.829	293.62
440.05	304.62
440.272	316.62
440.493	284.62
440.715	285.62
440.936	286.62
441.158	292.62
441.379	275.62
441.6	289.62
441.822	302.62
442.043	301.62
442.264	290.62
442.486	277.62
442.707	292.62
442.928	289.62
443.149	276.62
443.371	283.62
443.592	276.62
443.813	297.62
444.034	294.62
444.255	302.62
444.476	300.62
444.698	315.62
444.919	333.62
445.14	564.62
445.361	430.62
445.582	314.62
445.803	300.62
446.024	317.62
446.245	299.62
446.466	307.62
446.687	305.62
446.908	315.62
447.129	306.62
447.35	307.62
447.571	294.62
447.792	273.62
448.013	271.62
448.234	282.62
448.455	287.62
448.675	260.62
448.896	266.62
449.117	258.62
449.338	250.62
449.559	276.62
449.779	251.62
450	250.62
450.221	269.62
450.442	260.62
450.662	270.62
450.883	268.62
451.104	254.62
451.324	278.62
451.545	263.62
451.766	257.62
451.986	254.62
452.207	252.62
452.428	252.62
452.648	235.62
452.869	229.62
453.089	212.62
453.31	207.62
453.53	194.62
453.751	187.62
453.971	175.62
454.192	194.62
454.412	209.62
454.633	212.62
454.853	221.62
455.073	220.62
455.294	235.62
455.514	222.62
455.734	198.62
455.955	227.62
456.175	198.62
456.395	192.62
456.616	203.62
456.836	194.62
457.056	189.62
457.276	183.62
457.497	187.62
457.717	212.62
457.937	183.62
458.157	188.62
458.377	189.62
458.598	178.62
458.818	164.62
459.038	165.62
459.258	167.62
459.478	170.62
459.698	178.62
459.918	189.62
460.138	214.62
460.358	223.62
460.578	240.62
460.798	229.62
461.018	227.62
461.238	234.62
461.458	231.62
461.678	231.62
461.898	237.62
462.118	244.62
462.338	241.62
462.558	232.62
462.777	239.62
462.997	262.62
463.217	264.62
463.437	268.62
463.657	268.62
463.876	240.62
464.096	232.62
464.316	260.62
464.536	238.62
464.755	262.62
464.975	236.62
465.195	232.62
465.414	225.62
465.634	232.62
465.854	227.62
466.073	252.62
466.293	234.62
466.512	229.62
466.732	259.62
466.951	250.62
467.171	256.62
467.391	253.62
467.61	253.62
467.829	272.62
468.049	261.62
468.268	249.62
468.488	254.62
468.707	253.62
468.927	260.62
469.146	234.62
469.365	256.62
469.585	262.62
469.804	274.62
470.023	270.62
470.243	271.62
470.462	279.62
470.681	284.62
470.901	281.62
471.12	274.62
471.339	281.62
471.558	262.62
471.777	255.62
471.997	265.62
472.216	233.62
472.435	221.62
472.654	187.62
472.873	184.62
473.092	213.62
473.311	239.62
473.53	250.62
473.749	242.62
473.968	230.62
474.187	215.62
474.406	214.62
474.625	223.62
474.844	247.62
475.063	235.62
475.282	221.62
475.501	222.62
475.72	233.62
475.939	224.62
476.158	246.62
476.377	226.62
476.596	232.62
476.814	203.62
477.033	185.62
477.252	206.62
477.471	247.62
477.69	252.62
477.908	266.62
478.127	274.62
478.346	242.62
478.564	268.62
478.783	274.62
479.002	280.62
479.22	264.62
479.439	278.62
479.658	232.62
479.876	225.62
480.095	212.62
480.313	224.62
480.532	245.62
480.751	212.62
480.969	188.62
481.188	188.62
481.406	168.62
481.624	163.62
481.843	164.62
482.061	187.62
482.28	203.62
482.498	207.62
482.717	200.62
482.935	237.62
483.153	266.62
483.372	282.62
483.59	266.62
483.808	255.62
484.027	237.62
484.245	247.62
484.463	264.62
484.681	290.62
484.9	282.62
485.118	252.62
485.336	239.62
485.554	213.62
485.772	196.62
485.99	195.62
486.209	220.62
486.427	206.62
486.645	245.62
486.863	257.62
487.081	257.62
487.299	263.62
487.517	266.62
487.735	319.62
487.953	364.62
488.171	348.62
488.389	323.62
488.607	283.62
488.825	254.62
489.043	226.62
489.261	250.62
489.479	271.62
489.696	283.62
489.914	257.62
490.132	282.62
490.35	299.62
490.568	314.62
490.786	347.62
491.003	361.62
491.221	358.62
491.439	383.62
491.657	386.62
491.874	385.62
492.092	439.62
492.31	493.62
492.527	445.62
492.745	406.62
492.963	388.62
493.18	369.62
493.398	381.62
493.615	372.62
493.833	348.62
494.05	351.62
494.268	369.62
494.485	354.62
494.703	355.62
494.92	352.62
495.138	352.62
495.355	346.62
495.573	366.62
495.79	337.62
496.008	340.62
496.225	338.62
496.442	356.62
496.66	351.62
496.877	335.62
497.094	338.62
497.312	344.62
497.529	324.62
497.746	330.62
497.963	290.62
498.181	269.62
498.398	272.62
498.615	283.62
498.832	275.62
499.049	290.62
499.267	317.62
499.484	325.62
499.701	381.62
499.918	424.62
500.135	467.62
500.352	482.62
500.569	493.62
500.786	500.62
501.003	455.62
501.22	428.62
501.437	398.62
501.654	358.62
501.871	355.62
502.088	332.62
502.305	320.62
502.522	313.62
502.739	306.62
502.956	285.62
503.172	280.62
503.389	251.62
503.606	255.62
503.823	268.62
504.04	261.62
504.256	251.62
504.473	275.62
504.69	272.62
504.907	274.62
505.123	246.62
