Data from SampD_HRD10591_00067.txt Node
Date: Mon Jan 19 11:48:01 EST 2026
User: Yrep
Spectrometer: HR+D1059
Trigger mode: 0
Integration Time (sec): 3.443000E-1
Scans to average: 1
Electric dark correction enabled: true
Nonlinearity correction enabled: false
Boxcar width: 0
XAxis mode: Wavelengths
Number of Pixels in Spectrum: 2048
>>>>>Begin Spectral Data<<<<<
223.165	-28.31
223.4	-28.31
223.635	-28.31
223.869	-14.31
224.104	-19.31
224.338	-7.31
224.573	-12.31
224.808	-16.31
225.042	-0.31
225.277	-5.31
225.511	-1.31
225.746	1.69
225.98	9.69
226.215	20.69
226.449	11.69
226.683	17.69
226.918	25.69
227.152	17.69
227.387	30.69
227.621	43.69
227.856	53.69
228.09	50.69
228.324	47.69
228.559	62.69
228.793	55.69
229.027	68.69
229.262	70.69
229.496	69.69
229.73	73.69
229.964	73.69
230.199	85.69
230.433	77.69
230.667	87.69
230.901	80.69
231.136	77.69
231.37	87.69
231.604	87.69
231.838	69.69
232.072	63.69
232.306	79.69
232.541	85.69
232.775	76.69
233.009	73.69
233.243	79.69
233.477	69.69
233.711	85.69
233.945	97.69
234.179	85.69
234.413	91.69
234.647	89.69
234.881	73.69
235.115	99.69
235.349	82.69
235.583	79.69
235.817	73.69
236.051	87.69
236.285	74.69
236.519	79.69
236.753	93.69
236.987	81.69
237.221	65.69
237.455	93.69
237.689	81.69
237.922	79.69
238.156	62.69
238.39	86.69
238.624	64.69
238.858	72.69
239.091	83.69
239.325	92.69
239.559	90.69
239.793	94.69
240.027	95.69
240.26	80.69
240.494	92.69
240.728	88.69
240.961	78.69
241.195	73.69
241.429	78.69
241.662	96.69
241.896	78.69
242.13	92.69
242.363	78.69
242.597	74.69
242.83	89.69
243.064	78.69
243.298	89.69
243.531	79.69
243.765	92.69
243.998	93.69
244.232	102.69
244.465	71.69
244.699	71.69
244.932	77.69
245.166	81.69
245.399	78.69
245.633	85.69
245.866	95.69
246.099	79.69
246.333	94.69
246.566	86.69
246.8	93.69
247.033	79.69
247.266	91.69
247.5	81.69
247.733	88.69
247.966	94.69
248.2	88.69
248.433	93.69
248.666	85.69
248.899	100.69
249.133	107.69
249.366	101.69
249.599	91.69
249.832	87.69
250.066	98.69
250.299	91.69
250.532	91.69
250.765	84.69
250.998	86.69
251.231	93.69
251.465	98.69
251.698	98.69
251.931	90.69
252.164	89.69
252.397	91.69
252.63	94.69
252.863	78.69
253.096	101.69
253.329	107.69
253.562	96.69
253.795	102.69
254.028	98.69
254.261	89.69
254.494	84.69
254.727	83.69
254.96	89.69
255.193	83.69
255.426	89.69
255.659	91.69
255.892	105.69
256.124	84.69
256.357	93.69
256.59	89.69
256.823	85.69
257.056	79.69
257.289	92.69
257.521	88.69
257.754	101.69
257.987	98.69
258.22	86.69
258.452	97.69
258.685	93.69
258.918	86.69
259.151	87.69
259.383	106.69
259.616	102.69
259.849	81.69
260.081	99.69
260.314	97.69
260.547	88.69
260.779	99.69
261.012	102.69
261.244	95.69
261.477	100.69
261.71	116.69
261.942	95.69
262.175	83.69
262.407	92.69
262.64	73.69
262.872	89.69
263.105	97.69
263.337	118.69
263.57	101.69
263.802	105.69
264.035	102.69
264.267	106.69
264.499	88.69
264.732	97.69
264.964	102.69
265.197	104.69
265.429	100.69
265.661	103.69
265.894	102.69
266.126	104.69
266.358	101.69
266.591	100.69
266.823	86.69
267.055	92.69
267.287	106.69
267.52	110.69
267.752	112.69
267.984	106.69
268.216	103.69
268.448	116.69
268.681	110.69
268.913	106.69
269.145	104.69
269.377	113.69
269.609	97.69
269.841	113.69
270.073	106.69
270.306	99.69
270.538	117.69
270.77	96.69
271.002	96.69
271.234	106.69
271.466	120.69
271.698	112.69
271.93	109.69
272.162	102.69
272.394	110.69
272.626	96.69
272.858	105.69
273.09	104.69
273.322	102.69
273.553	107.69
273.785	107.69
274.017	106.69
274.249	95.69
274.481	86.69
274.713	108.69
274.945	102.69
275.176	97.69
275.408	94.69
275.64	114.69
275.872	109.69
276.104	114.69
276.335	102.69
276.567	101.69
276.799	102.69
277.031	101.69
277.262	114.69
277.494	112.69
277.726	114.69
277.957	101.69
278.189	104.69
278.421	114.69
278.652	105.69
278.884	106.69
279.115	98.69
279.347	101.69
279.579	111.69
279.81	115.69
280.042	100.69
280.273	103.69
280.505	112.69
280.736	113.69
280.968	98.69
281.199	115.69
281.431	120.69
281.662	113.69
281.894	111.69
282.125	98.69
282.356	100.69
282.588	105.69
282.819	118.69
283.051	98.69
283.282	102.69
283.513	112.69
283.745	98.69
283.976	100.69
284.207	116.69
284.439	126.69
284.67	105.69
284.901	108.69
285.132	102.69
285.364	113.69
285.595	121.69
285.826	114.69
286.057	126.69
286.288	117.69
286.52	122.69
286.751	107.69
286.982	117.69
287.213	130.69
287.444	110.69
287.675	97.69
287.906	106.69
288.138	122.69
288.369	121.69
288.6	123.69
288.831	107.69
289.062	113.69
289.293	116.69
289.524	107.69
289.755	121.69
289.986	107.69
290.217	120.69
290.448	115.69
290.679	122.69
290.91	135.69
291.141	113.69
291.371	116.69
291.602	116.69
291.833	113.69
292.064	133.69
292.295	110.69
292.526	109.69
292.757	125.69
292.987	118.69
293.218	121.69
293.449	106.69
293.68	115.69
293.91	113.69
294.141	130.69
294.372	128.69
294.603	119.69
294.833	117.69
295.064	125.69
295.295	128.69
295.525	126.69
295.756	111.69
295.987	122.69
296.217	112.69
296.448	119.69
296.679	104.69
296.909	118.69
297.14	112.69
297.37	128.69
297.601	122.69
297.831	114.69
298.062	117.69
298.292	132.69
298.523	123.69
298.753	118.69
298.984	101.69
299.214	114.69
299.445	125.69
299.675	116.69
299.905	132.69
300.136	115.69
300.366	111.69
300.597	104.69
300.827	117.69
301.057	119.69
301.288	129.69
301.518	125.69
301.748	130.69
301.979	157.69
302.209	138.69
302.439	123.69
302.669	122.69
302.9	131.69
303.13	118.69
303.36	131.69
303.59	116.69
303.82	137.69
304.051	135.69
304.281	124.69
304.511	121.69
304.741	130.69
304.971	136.69
305.201	136.69
305.431	125.69
305.661	131.69
305.891	123.69
306.121	125.69
306.352	113.69
306.582	119.69
306.812	121.69
307.042	110.69
307.272	114.69
307.502	126.69
307.731	121.69
307.961	114.69
308.191	129.69
308.421	124.69
308.651	112.69
308.881	114.69
309.111	120.69
309.341	130.69
309.571	117.69
309.8	136.69
310.03	117.69
310.26	119.69
310.49	122.69
310.72	128.69
310.949	116.69
311.179	126.69
311.409	117.69
311.639	116.69
311.868	119.69
312.098	131.69
312.328	119.69
312.557	128.69
312.787	131.69
313.017	115.69
313.246	128.69
313.476	122.69
313.706	120.69
313.935	120.69
314.165	121.69
314.394	105.69
314.624	128.69
314.853	129.69
315.083	116.69
315.312	128.69
315.542	135.69
315.771	122.69
316.001	120.69
316.23	122.69
316.46	123.69
316.689	130.69
316.919	122.69
317.148	125.69
317.377	133.69
317.607	131.69
317.836	111.69
318.065	124.69
318.295	128.69
318.524	135.69
318.753	122.69
318.983	119.69
319.212	136.69
319.441	111.69
319.67	113.69
319.9	118.69
320.129	128.69
320.358	125.69
320.587	135.69
320.816	128.69
321.046	125.69
321.275	134.69
321.504	145.69
321.733	137.69
321.962	131.69
322.191	124.69
322.42	127.69
322.649	134.69
322.878	128.69
323.108	123.69
323.337	117.69
323.566	129.69
323.795	130.69
324.024	122.69
324.253	128.69
324.482	118.69
324.71	130.69
324.939	139.69
325.168	134.69
325.397	121.69
325.626	142.69
325.855	130.69
326.084	142.69
326.313	128.69
326.542	114.69
326.77	149.69
326.999	120.69
327.228	132.69
327.457	128.69
327.686	115.69
327.914	144.69
328.143	127.69
328.372	132.69
328.6	125.69
328.829	126.69
329.058	142.69
329.287	141.69
329.515	129.69
329.744	126.69
329.972	123.69
330.201	122.69
330.43	139.69
330.658	120.69
330.887	129.69
331.115	126.69
331.344	126.69
331.572	138.69
331.801	141.69
332.03	138.69
332.258	131.69
332.486	135.69
332.715	161.69
332.943	144.69
333.172	152.69
333.4	159.69
333.629	163.69
333.857	158.69
334.085	157.69
334.314	123.69
334.542	157.69
334.771	142.69
334.999	160.69
335.227	148.69
335.455	131.69
335.684	157.69
335.912	144.69
336.14	137.69
336.369	132.69
336.597	141.69
336.825	140.69
337.053	141.69
337.281	136.69
337.51	141.69
337.738	147.69
337.966	134.69
338.194	138.69
338.422	133.69
338.65	131.69
338.878	164.69
339.106	126.69
339.334	121.69
339.562	133.69
339.79	138.69
340.018	128.69
340.246	137.69
340.474	149.69
340.702	137.69
340.93	145.69
341.158	152.69
341.386	130.69
341.614	135.69
341.842	150.69
342.07	125.69
342.298	135.69
342.526	135.69
342.754	139.69
342.981	137.69
343.209	135.69
343.437	151.69
343.665	153.69
343.893	151.69
344.12	153.69
344.348	136.69
344.576	130.69
344.804	128.69
345.031	136.69
345.259	143.69
345.487	138.69
345.714	129.69
345.942	132.69
346.17	141.69
346.397	143.69
346.625	135.69
346.853	141.69
347.08	124.69
347.308	129.69
347.535	134.69
347.763	125.69
347.99	136.69
348.218	133.69
348.445	132.69
348.673	134.69
348.9	132.69
349.128	134.69
349.355	129.69
349.583	128.69
349.81	130.69
350.037	129.69
350.265	133.69
350.492	129.69
350.72	127.69
350.947	117.69
351.174	123.69
351.402	121.69
351.629	129.69
351.856	127.69
352.083	131.69
352.311	135.69
352.538	129.69
352.765	126.69
352.992	133.69
353.22	127.69
353.447	130.69
353.674	146.69
353.901	126.69
354.128	113.69
354.355	126.69
354.583	136.69
354.81	127.69
355.037	129.69
355.264	144.69
355.491	122.69
355.718	133.69
355.945	136.69
356.172	122.69
356.399	126.69
356.626	117.69
356.853	143.69
357.08	138.69
357.307	126.69
357.534	137.69
357.761	119.69
357.988	132.69
358.215	127.69
358.441	115.69
358.668	127.69
358.895	137.69
359.122	116.69
359.349	133.69
359.576	129.69
359.802	120.69
360.029	133.69
360.256	139.69
360.483	122.69
360.709	119.69
360.936	158.69
361.163	139.69
361.39	129.69
361.616	133.69
361.843	130.69
362.07	130.69
362.296	122.69
362.523	115.69
362.749	160.69
362.976	117.69
363.203	149.69
363.429	118.69
363.656	128.69
363.882	143.69
364.109	127.69
364.335	140.69
364.562	137.69
364.788	110.69
365.015	136.69
365.241	130.69
365.468	136.69
365.694	136.69
365.92	127.69
366.147	121.69
366.373	135.69
366.599	153.69
366.826	143.69
367.052	127.69
367.278	130.69
367.505	133.69
367.731	163.69
367.957	146.69
368.184	135.69
368.41	132.69
368.636	146.69
368.862	141.69
369.089	134.69
369.315	138.69
369.541	138.69
369.767	132.69
369.993	158.69
370.219	136.69
370.445	134.69
370.672	138.69
370.898	149.69
371.124	152.69
371.35	127.69
371.576	157.69
371.802	155.69
372.028	141.69
372.254	149.69
372.48	150.69
372.706	147.69
372.932	158.69
373.158	162.69
373.384	166.69
373.61	161.69
373.835	167.69
374.061	152.69
374.287	145.69
374.513	155.69
374.739	147.69
374.965	143.69
375.191	167.69
375.416	156.69
375.642	157.69
375.868	168.69
376.094	171.69
376.319	159.69
376.545	162.69
376.771	155.69
376.997	151.69
377.222	165.69
377.448	166.69
377.674	159.69
377.899	165.69
378.125	169.69
378.35	150.69
378.576	144.69
378.802	159.69
379.027	160.69
379.253	171.69
379.478	173.69
379.704	169.69
379.929	162.69
380.155	157.69
380.38	162.69
380.606	162.69
380.831	150.69
381.057	185.69
381.282	166.69
381.507	174.69
381.733	168.69
381.958	147.69
382.184	158.69
382.409	170.69
382.634	187.69
382.86	176.69
383.085	175.69
383.31	174.69
383.535	193.69
383.761	190.69
383.986	194.69
384.211	178.69
384.436	180.69
384.662	176.69
384.887	188.69
385.112	176.69
385.337	183.69
385.562	185.69
385.787	177.69
386.013	198.69
386.238	185.69
386.463	186.69
386.688	217.69
386.913	174.69
387.138	181.69
387.363	182.69
387.588	191.69
387.813	190.69
388.038	186.69
388.263	197.69
388.488	209.69
388.713	180.69
388.938	193.69
389.163	180.69
389.387	196.69
389.612	182.69
389.837	194.69
390.062	205.69
390.287	205.69
390.512	193.69
390.736	185.69
390.961	190.69
391.186	194.69
391.411	202.69
391.636	193.69
391.86	206.69
392.085	211.69
392.31	210.69
392.534	209.69
392.759	223.69
392.984	211.69
393.208	211.69
393.433	206.69
393.658	215.69
393.882	213.69
394.107	216.69
394.331	202.69
394.556	198.69
394.78	212.69
395.005	223.69
395.229	220.69
395.454	234.69
395.678	230.69
395.903	236.69
396.127	218.69
396.352	193.69
396.576	205.69
396.801	207.69
397.025	211.69
397.249	235.69
397.474	237.69
397.698	219.69
397.922	223.69
398.147	210.69
398.371	211.69
398.595	215.69
398.82	242.69
399.044	254.69
399.268	257.69
399.492	271.69
399.717	297.69
399.941	278.69
400.165	293.69
400.389	250.69
400.613	257.69
400.837	244.69
401.062	228.69
401.286	242.69
401.51	264.69
401.734	239.69
401.958	255.69
402.182	233.69
402.406	251.69
402.63	242.69
402.854	247.69
403.078	277.69
403.302	262.69
403.526	256.69
403.75	281.69
403.974	259.69
404.198	276.69
404.422	276.69
404.645	258.69
404.869	259.69
405.093	270.69
405.317	269.69
405.541	267.69
405.765	263.69
405.988	261.69
406.212	253.69
406.436	253.69
406.66	285.69
406.883	270.69
407.107	285.69
407.331	267.69
407.555	291.69
407.778	265.69
408.002	281.69
408.226	260.69
408.449	275.69
408.673	269.69
408.896	282.69
409.12	280.69
409.344	285.69
409.567	263.69
409.791	270.69
410.014	285.69
410.238	280.69
410.461	269.69
410.685	264.69
410.908	261.69
411.132	283.69
411.355	262.69
411.578	269.69
411.802	252.69
412.025	258.69
412.249	264.69
412.472	267.69
412.695	255.69
412.919	253.69
413.142	251.69
413.365	251.69
413.589	254.69
413.812	255.69
414.035	254.69
414.258	254.69
414.482	254.69
414.705	258.69
414.928	257.69
415.151	286.69
415.374	282.69
415.597	255.69
415.821	253.69
416.044	263.69
416.267	271.69
416.49	257.69
416.713	281.69
416.936	234.69
417.159	261.69
417.382	259.69
417.605	260.69
417.828	278.69
418.051	271.69
418.274	290.69
418.497	292.69
418.72	283.69
418.943	273.69
419.166	304.69
419.389	307.69
419.611	287.69
419.834	297.69
420.057	285.69
420.28	295.69
420.503	279.69
420.726	263.69
420.948	278.69
421.171	285.69
421.394	288.69
421.617	289.69
421.839	305.69
422.062	289.69
422.285	280.69
422.507	294.69
422.73	268.69
422.953	276.69
423.175	285.69
423.398	287.69
423.621	298.69
423.843	295.69
424.066	290.69
424.288	297.69
424.511	318.69
424.733	305.69
424.956	295.69
425.178	297.69
425.401	297.69
425.623	303.69
425.846	277.69
426.068	275.69
426.291	273.69
426.513	257.69
426.735	271.69
426.958	279.69
427.18	284.69
427.402	287.69
427.625	261.69
427.847	247.69
428.069	256.69
428.292	255.69
428.514	255.69
428.736	254.69
428.958	265.69
429.181	271.69
429.403	267.69
429.625	277.69
429.847	279.69
430.069	273.69
430.292	258.69
430.514	247.69
430.736	259.69
430.958	271.69
431.18	263.69
431.402	249.69
431.624	246.69
431.846	209.69
432.068	179.69
432.29	199.69
432.512	235.69
432.734	259.69
432.956	255.69
433.178	273.69
433.4	285.69
433.622	278.69
433.844	258.69
434.066	233.69
434.287	219.69
434.509	209.69
434.731	228.69
434.953	245.69
435.175	262.69
435.397	266.69
435.618	232.69
435.84	213.69
436.062	230.69
436.284	232.69
436.505	265.69
436.727	248.69
436.949	276.69
437.17	266.69
437.392	244.69
437.614	234.69
437.835	205.69
438.057	220.69
438.278	232.69
438.5	250.69
438.721	262.69
438.943	271.69
439.165	295.69
439.386	280.69
439.608	291.69
439.829	279.69
440.05	305.69
440.272	286.69
440.493	295.69
440.715	295.69
440.936	320.69
441.158	297.69
441.379	309.69
441.6	313.69
441.822	305.69
442.043	296.69
442.264	290.69
442.486	287.69
442.707	296.69
442.928	307.69
443.149	281.69
443.371	290.69
443.592	286.69
443.813	305.69
444.034	311.69
444.255	292.69
444.476	302.69
444.698	300.69
444.919	308.69
445.14	586.69
445.361	448.69
445.582	321.69
445.803	298.69
446.024	316.69
446.245	325.69
446.466	320.69
446.687	327.69
446.908	326.69
447.129	314.69
447.35	294.69
447.571	295.69
447.792	292.69
448.013	297.69
448.234	282.69
448.455	270.69
448.675	273.69
448.896	264.69
449.117	254.69
449.338	261.69
449.559	273.69
449.779	262.69
450	259.69
450.221	272.69
450.442	264.69
450.662	280.69
450.883	275.69
451.104	257.69
451.324	265.69
451.545	270.69
451.766	269.69
451.986	249.69
452.207	228.69
452.428	242.69
452.648	227.69
452.869	233.69
453.089	208.69
453.31	215.69
453.53	201.69
453.751	191.69
453.971	192.69
454.192	198.69
454.412	221.69
454.633	214.69
454.853	237.69
455.073	221.69
455.294	233.69
455.514	235.69
455.734	242.69
455.955	216.69
456.175	207.69
456.395	214.69
456.616	207.69
456.836	201.69
457.056	209.69
457.276	188.69
457.497	189.69
457.717	198.69
457.937	195.69
458.157	197.69
458.377	197.69
458.598	179.69
458.818	193.69
459.038	163.69
459.258	177.69
459.478	172.69
459.698	170.69
459.918	201.69
460.138	211.69
460.358	217.69
460.578	242.69
460.798	241.69
461.018	242.69
461.238	237.69
461.458	241.69
461.678	234.69
461.898	233.69
462.118	250.69
462.338	251.69
462.558	247.69
462.777	239.69
462.997	257.69
463.217	256.69
463.437	255.69
463.657	244.69
463.876	246.69
464.096	259.69
464.316	243.69
464.536	262.69
464.755	260.69
464.975	229.69
465.195	222.69
465.414	233.69
465.634	228.69
465.854	225.69
466.073	232.69
466.293	249.69
466.512	251.69
466.732	271.69
466.951	262.69
467.171	252.69
467.391	248.69
467.61	263.69
467.829	266.69
468.049	260.69
468.268	262.69
468.488	250.69
468.707	258.69
468.927	253.69
469.146	257.69
469.365	273.69
469.585	276.69
469.804	259.69
470.023	273.69
470.243	278.69
470.462	279.69
470.681	255.69
470.901	281.69
471.12	256.69
471.339	291.69
471.558	301.69
471.777	279.69
471.997	274.69
472.216	233.69
472.435	213.69
472.654	215.69
472.873	211.69
473.092	222.69
473.311	216.69
473.53	237.69
473.749	247.69
473.968	234.69
474.187	212.69
474.406	214.69
474.625	219.69
474.844	277.69
475.063	247.69
475.282	231.69
475.501	234.69
475.72	241.69
475.939	233.69
476.158	252.69
476.377	244.69
476.596	226.69
476.814	219.69
477.033	220.69
477.252	235.69
477.471	234.69
477.69	248.69
477.908	271.69
478.127	281.69
478.346	254.69
478.564	265.69
478.783	277.69
479.002	291.69
479.22	274.69
479.439	280.69
479.658	231.69
479.876	230.69
480.095	214.69
480.313	247.69
480.532	246.69
480.751	221.69
480.969	202.69
481.188	179.69
481.406	194.69
481.624	173.69
481.843	175.69
482.061	201.69
482.28	229.69
482.498	212.69
482.717	209.69
482.935	241.69
483.153	283.69
483.372	295.69
483.59	291.69
483.808	247.69
484.027	243.69
484.245	258.69
484.463	246.69
484.681	292.69
484.9	273.69
485.118	267.69
485.336	250.69
485.554	230.69
485.772	202.69
485.99	221.69
486.209	221.69
486.427	218.69
486.645	248.69
486.863	269.69
487.081	284.69
487.299	246.69
487.517	282.69
487.735	335.69
487.953	370.69
488.171	368.69
488.389	329.69
488.607	302.69
488.825	249.69
489.043	250.69
489.261	257.69
489.479	277.69
489.696	281.69
489.914	282.69
490.132	293.69
490.35	323.69
490.568	306.69
490.786	357.69
491.003	364.69
491.221	375.69
491.439	392.69
491.657	394.69
491.874	408.69
492.092	465.69
492.31	486.69
492.527	445.69
492.745	428.69
492.963	420.69
493.18	386.69
493.398	387.69
493.615	392.69
493.833	372.69
494.05	352.69
494.268	334.69
494.485	358.69
494.703	383.69
494.92	355.69
495.138	367.69
495.355	368.69
495.573	367.69
495.79	354.69
496.008	354.69
496.225	337.69
496.442	342.69
496.66	378.69
496.877	346.69
497.094	360.69
497.312	348.69
497.529	329.69
497.746	313.69
497.963	299.69
498.181	293.69
498.398	286.69
498.615	262.69
498.832	280.69
499.049	309.69
499.267	330.69
499.484	352.69
499.701	395.69
499.918	425.69
500.135	454.69
500.352	492.69
500.569	519.69
500.786	522.69
501.003	495.69
501.22	450.69
501.437	409.69
501.654	363.69
501.871	350.69
502.088	312.69
502.305	324.69
502.522	318.69
502.739	301.69
502.956	281.69
503.172	281.69
503.389	257.69
503.606	275.69
503.823	265.69
504.04	267.69
504.256	263.69
504.473	252.69
504.69	262.69
504.907	262.69
