Data from SampD_HRD10591_00043.txt Node
Date: Mon Jan 19 11:47:52 EST 2026
User: Yrep
Spectrometer: HR+D1059
Trigger mode: 0
Integration Time (sec): 3.443000E-1
Scans to average: 1
Electric dark correction enabled: true
Nonlinearity correction enabled: false
Boxcar width: 0
XAxis mode: Wavelengths
Number of Pixels in Spectrum: 2048
>>>>>Begin Spectral Data<<<<<
223.165	-21.19
223.4	-21.19
223.635	-21.19
223.869	-27.19
224.104	-17.19
224.338	-18.19
224.573	-11.19
224.808	-16.19
225.042	-7.19
225.277	5.81
225.511	5.81
225.746	11.81
225.98	0.81
226.215	13.81
226.449	25.81
226.683	21.81
226.918	10.81
227.152	21.81
227.387	34.81
227.621	14.81
227.856	46.81
228.09	42.81
228.324	40.81
228.559	64.81
228.793	62.81
229.027	64.81
229.262	74.81
229.496	70.81
229.73	69.81
229.964	91.81
230.199	76.81
230.433	82.81
230.667	75.81
230.901	90.81
231.136	81.81
231.37	90.81
231.604	101.81
231.838	81.81
232.072	69.81
232.306	83.81
232.541	69.81
232.775	91.81
233.009	88.81
233.243	88.81
233.477	91.81
233.711	92.81
233.945	90.81
234.179	60.81
234.413	84.81
234.647	78.81
234.881	90.81
235.115	86.81
235.349	78.81
235.583	91.81
235.817	81.81
236.051	65.81
236.285	84.81
236.519	83.81
236.753	91.81
236.987	72.81
237.221	78.81
237.455	79.81
237.689	86.81
237.922	78.81
238.156	78.81
238.39	75.81
238.624	79.81
238.858	94.81
239.091	72.81
239.325	74.81
239.559	82.81
239.793	84.81
240.027	81.81
240.26	68.81
240.494	83.81
240.728	73.81
240.961	78.81
241.195	75.81
241.429	87.81
241.662	82.81
241.896	83.81
242.13	88.81
242.363	78.81
242.597	82.81
242.83	91.81
243.064	74.81
243.298	90.81
243.531	80.81
243.765	74.81
243.998	74.81
244.232	93.81
244.465	74.81
244.699	69.81
244.932	71.81
245.166	82.81
245.399	79.81
245.633	83.81
245.866	82.81
246.099	82.81
246.333	80.81
246.566	97.81
246.8	74.81
247.033	79.81
247.266	86.81
247.5	90.81
247.733	93.81
247.966	82.81
248.2	95.81
248.433	87.81
248.666	78.81
248.899	82.81
249.133	99.81
249.366	110.81
249.599	75.81
249.832	79.81
250.066	101.81
250.299	85.81
250.532	84.81
250.765	92.81
250.998	79.81
251.231	81.81
251.465	99.81
251.698	75.81
251.931	90.81
252.164	99.81
252.397	94.81
252.63	103.81
252.863	86.81
253.096	87.81
253.329	98.81
253.562	87.81
253.795	77.81
254.028	96.81
254.261	102.81
254.494	74.81
254.727	95.81
254.96	85.81
255.193	80.81
255.426	72.81
255.659	100.81
255.892	98.81
256.124	93.81
256.357	91.81
256.59	84.81
256.823	90.81
257.056	103.81
257.289	82.81
257.521	103.81
257.754	101.81
257.987	93.81
258.22	99.81
258.452	83.81
258.685	82.81
258.918	108.81
259.151	94.81
259.383	90.81
259.616	87.81
259.849	114.81
260.081	96.81
260.314	89.81
260.547	87.81
260.779	93.81
261.012	78.81
261.244	93.81
261.477	107.81
261.71	94.81
261.942	82.81
262.175	93.81
262.407	93.81
262.64	106.81
262.872	90.81
263.105	91.81
263.337	111.81
263.57	92.81
263.802	90.81
264.035	106.81
264.267	114.81
264.499	103.81
264.732	111.81
264.964	101.81
265.197	92.81
265.429	101.81
265.661	101.81
265.894	86.81
266.126	113.81
266.358	109.81
266.591	88.81
266.823	103.81
267.055	110.81
267.287	108.81
267.52	107.81
267.752	102.81
267.984	102.81
268.216	100.81
268.448	116.81
268.681	101.81
268.913	110.81
269.145	101.81
269.377	115.81
269.609	112.81
269.841	92.81
270.073	100.81
270.306	102.81
270.538	101.81
270.77	108.81
271.002	101.81
271.234	107.81
271.466	105.81
271.698	100.81
271.93	102.81
272.162	110.81
272.394	108.81
272.626	101.81
272.858	93.81
273.09	107.81
273.322	104.81
273.553	115.81
273.785	115.81
274.017	107.81
274.249	99.81
274.481	92.81
274.713	98.81
274.945	125.81
275.176	115.81
275.408	104.81
275.64	100.81
275.872	126.81
276.104	117.81
276.335	96.81
276.567	124.81
276.799	99.81
277.031	102.81
277.262	111.81
277.494	113.81
277.726	108.81
277.957	125.81
278.189	110.81
278.421	103.81
278.652	101.81
278.884	96.81
279.115	111.81
279.347	123.81
279.579	95.81
279.81	98.81
280.042	111.81
280.273	98.81
280.505	106.81
280.736	124.81
280.968	115.81
281.199	107.81
281.431	122.81
281.662	112.81
281.894	114.81
282.125	113.81
282.356	108.81
282.588	102.81
282.819	101.81
283.051	95.81
283.282	95.81
283.513	116.81
283.745	123.81
283.976	116.81
284.207	118.81
284.439	106.81
284.67	113.81
284.901	126.81
285.132	103.81
285.364	121.81
285.595	119.81
285.826	129.81
286.057	119.81
286.288	130.81
286.52	135.81
286.751	119.81
286.982	109.81
287.213	101.81
287.444	125.81
287.675	109.81
287.906	130.81
288.138	125.81
288.369	130.81
288.6	107.81
288.831	107.81
289.062	126.81
289.293	109.81
289.524	119.81
289.755	112.81
289.986	107.81
290.217	119.81
290.448	123.81
290.679	127.81
290.91	120.81
291.141	110.81
291.371	121.81
291.602	104.81
291.833	105.81
292.064	116.81
292.295	111.81
292.526	106.81
292.757	112.81
292.987	121.81
293.218	106.81
293.449	128.81
293.68	110.81
293.91	130.81
294.141	133.81
294.372	122.81
294.603	128.81
294.833	128.81
295.064	127.81
295.295	123.81
295.525	120.81
295.756	122.81
295.987	112.81
296.217	131.81
296.448	103.81
296.679	118.81
296.909	118.81
297.14	117.81
297.37	124.81
297.601	126.81
297.831	104.81
298.062	118.81
298.292	106.81
298.523	128.81
298.753	133.81
298.984	118.81
299.214	114.81
299.445	116.81
299.675	141.81
299.905	128.81
300.136	117.81
300.366	121.81
300.597	132.81
300.827	110.81
301.057	147.81
301.288	130.81
301.518	120.81
301.748	112.81
301.979	156.81
302.209	134.81
302.439	111.81
302.669	108.81
302.9	134.81
303.13	130.81
303.36	133.81
303.59	119.81
303.82	119.81
304.051	135.81
304.281	125.81
304.511	132.81
304.741	123.81
304.971	115.81
305.201	134.81
305.431	114.81
305.661	123.81
305.891	130.81
306.121	124.81
306.352	129.81
306.582	118.81
306.812	132.81
307.042	133.81
307.272	114.81
307.502	110.81
307.731	128.81
307.961	120.81
308.191	119.81
308.421	118.81
308.651	118.81
308.881	113.81
309.111	113.81
309.341	111.81
309.571	121.81
309.8	129.81
310.03	126.81
310.26	133.81
310.49	126.81
310.72	124.81
310.949	120.81
311.179	120.81
311.409	123.81
311.639	126.81
311.868	104.81
312.098	124.81
312.328	122.81
312.557	134.81
312.787	125.81
313.017	138.81
313.246	132.81
313.476	133.81
313.706	115.81
313.935	122.81
314.165	128.81
314.394	125.81
314.624	125.81
314.853	130.81
315.083	141.81
315.312	122.81
315.542	125.81
315.771	125.81
316.001	115.81
316.23	109.81
316.46	128.81
316.689	139.81
316.919	123.81
317.148	129.81
317.377	142.81
317.607	135.81
317.836	125.81
318.065	107.81
318.295	123.81
318.524	136.81
318.753	116.81
318.983	123.81
319.212	131.81
319.441	122.81
319.67	126.81
319.9	132.81
320.129	116.81
320.358	133.81
320.587	124.81
320.816	127.81
321.046	150.81
321.275	124.81
321.504	108.81
321.733	126.81
321.962	121.81
322.191	133.81
322.42	121.81
322.649	124.81
322.878	133.81
323.108	124.81
323.337	133.81
323.566	120.81
323.795	137.81
324.024	132.81
324.253	126.81
324.482	129.81
324.71	124.81
324.939	111.81
325.168	141.81
325.397	123.81
325.626	137.81
325.855	141.81
326.084	140.81
326.313	142.81
326.542	122.81
326.77	135.81
326.999	138.81
327.228	119.81
327.457	132.81
327.686	157.81
327.914	140.81
328.143	146.81
328.372	126.81
328.6	158.81
328.829	129.81
329.058	145.81
329.287	149.81
329.515	130.81
329.744	129.81
329.972	126.81
330.201	136.81
330.43	138.81
330.658	138.81
330.887	152.81
331.115	155.81
331.344	130.81
331.572	160.81
331.801	131.81
332.03	138.81
332.258	129.81
332.486	142.81
332.715	136.81
332.943	162.81
333.172	152.81
333.4	147.81
333.629	162.81
333.857	172.81
334.085	147.81
334.314	152.81
334.542	159.81
334.771	163.81
334.999	131.81
335.227	142.81
335.455	141.81
335.684	150.81
335.912	149.81
336.14	144.81
336.369	146.81
336.597	140.81
336.825	134.81
337.053	154.81
337.281	151.81
337.51	132.81
337.738	145.81
337.966	135.81
338.194	138.81
338.422	137.81
338.65	136.81
338.878	127.81
339.106	149.81
339.334	142.81
339.562	147.81
339.79	128.81
340.018	132.81
340.246	113.81
340.474	134.81
340.702	127.81
340.93	128.81
341.158	139.81
341.386	134.81
341.614	133.81
341.842	151.81
342.07	136.81
342.298	132.81
342.526	145.81
342.754	131.81
342.981	133.81
343.209	138.81
343.437	176.81
343.665	133.81
343.893	160.81
344.12	174.81
344.348	144.81
344.576	145.81
344.804	154.81
345.031	138.81
345.259	133.81
345.487	139.81
345.714	154.81
345.942	140.81
346.17	135.81
346.397	126.81
346.625	119.81
346.853	128.81
347.08	114.81
347.308	127.81
347.535	145.81
347.763	134.81
347.99	124.81
348.218	140.81
348.445	138.81
348.673	134.81
348.9	146.81
349.128	131.81
349.355	143.81
349.583	127.81
349.81	147.81
350.037	148.81
350.265	133.81
350.492	118.81
350.72	115.81
350.947	129.81
351.174	138.81
351.402	144.81
351.629	132.81
351.856	123.81
352.083	123.81
352.311	141.81
352.538	114.81
352.765	126.81
352.992	138.81
353.22	130.81
353.447	123.81
353.674	127.81
353.901	150.81
354.128	133.81
354.355	130.81
354.583	120.81
354.81	148.81
355.037	133.81
355.264	139.81
355.491	124.81
355.718	128.81
355.945	130.81
356.172	130.81
356.399	139.81
356.626	121.81
356.853	127.81
357.08	138.81
357.307	132.81
357.534	133.81
357.761	143.81
357.988	135.81
358.215	126.81
358.441	134.81
358.668	133.81
358.895	131.81
359.122	133.81
359.349	129.81
359.576	139.81
359.802	134.81
360.029	138.81
360.256	127.81
360.483	140.81
360.709	118.81
360.936	144.81
361.163	144.81
361.39	127.81
361.616	130.81
361.843	140.81
362.07	139.81
362.296	129.81
362.523	144.81
362.749	142.81
362.976	136.81
363.203	132.81
363.429	129.81
363.656	131.81
363.882	130.81
364.109	127.81
364.335	128.81
364.562	129.81
364.788	127.81
365.015	142.81
365.241	142.81
365.468	131.81
365.694	118.81
365.92	138.81
366.147	127.81
366.373	122.81
366.599	123.81
366.826	122.81
367.052	130.81
367.278	142.81
367.505	127.81
367.731	160.81
367.957	131.81
368.184	133.81
368.41	147.81
368.636	154.81
368.862	131.81
369.089	149.81
369.315	141.81
369.541	134.81
369.767	146.81
369.993	152.81
370.219	125.81
370.445	143.81
370.672	156.81
370.898	156.81
371.124	151.81
371.35	142.81
371.576	149.81
371.802	144.81
372.028	157.81
372.254	153.81
372.48	161.81
372.706	169.81
372.932	153.81
373.158	168.81
373.384	167.81
373.61	165.81
373.835	162.81
374.061	143.81
374.287	147.81
374.513	154.81
374.739	163.81
374.965	173.81
375.191	178.81
375.416	162.81
375.642	155.81
375.868	172.81
376.094	166.81
376.319	155.81
376.545	164.81
376.771	160.81
376.997	158.81
377.222	151.81
377.448	166.81
377.674	158.81
377.899	154.81
378.125	156.81
378.35	150.81
378.576	171.81
378.802	164.81
379.027	172.81
379.253	162.81
379.478	160.81
379.704	161.81
379.929	153.81
380.155	152.81
380.38	166.81
380.606	165.81
380.831	178.81
381.057	190.81
381.282	154.81
381.507	159.81
381.733	161.81
381.958	164.81
382.184	167.81
382.409	177.81
382.634	167.81
382.86	174.81
383.085	181.81
383.31	181.81
383.535	181.81
383.761	188.81
383.986	189.81
384.211	180.81
384.436	193.81
384.662	176.81
384.887	186.81
385.112	162.81
385.337	181.81
385.562	192.81
385.787	168.81
386.013	178.81
386.238	185.81
386.463	193.81
386.688	220.81
386.913	203.81
387.138	199.81
387.363	178.81
387.588	202.81
387.813	190.81
388.038	207.81
388.263	200.81
388.488	190.81
388.713	181.81
388.938	189.81
389.163	191.81
389.387	194.81
389.612	180.81
389.837	186.81
390.062	211.81
390.287	187.81
390.512	205.81
390.736	206.81
390.961	195.81
391.186	214.81
391.411	191.81
391.636	204.81
391.86	206.81
392.085	213.81
392.31	198.81
392.534	208.81
392.759	196.81
392.984	213.81
393.208	220.81
393.433	223.81
393.658	229.81
393.882	214.81
394.107	202.81
394.331	199.81
394.556	229.81
394.78	202.81
395.005	223.81
395.229	210.81
395.454	219.81
395.678	220.81
395.903	237.81
396.127	222.81
396.352	220.81
396.576	203.81
396.801	219.81
397.025	214.81
397.249	232.81
397.474	241.81
397.698	234.81
397.922	231.81
398.147	226.81
398.371	223.81
398.595	247.81
398.82	244.81
399.044	239.81
399.268	259.81
399.492	296.81
399.717	286.81
399.941	281.81
400.165	286.81
400.389	253.81
400.613	252.81
400.837	267.81
401.062	240.81
401.286	243.81
401.51	244.81
401.734	258.81
401.958	242.81
402.182	252.81
402.406	240.81
402.63	245.81
402.854	248.81
403.078	256.81
403.302	267.81
403.526	263.81
403.75	248.81
403.974	286.81
404.198	278.81
404.422	277.81
404.645	265.81
404.869	274.81
405.093	278.81
405.317	276.81
405.541	278.81
405.765	268.81
405.988	253.81
406.212	265.81
406.436	292.81
406.66	284.81
406.883	275.81
407.107	296.81
407.331	260.81
407.555	300.81
407.778	302.81
408.002	282.81
408.226	278.81
408.449	253.81
408.673	270.81
408.896	272.81
409.12	259.81
409.344	274.81
409.567	279.81
409.791	277.81
410.014	273.81
410.238	272.81
410.461	279.81
410.685	273.81
410.908	247.81
411.132	284.81
411.355	248.81
411.578	264.81
411.802	270.81
412.025	266.81
412.249	265.81
412.472	253.81
412.695	254.81
412.919	262.81
413.142	277.81
413.365	250.81
413.589	278.81
413.812	283.81
414.035	271.81
414.258	266.81
414.482	258.81
414.705	263.81
414.928	266.81
415.151	246.81
415.374	270.81
415.597	286.81
415.821	270.81
416.044	256.81
416.267	270.81
416.49	262.81
416.713	253.81
416.936	272.81
417.159	274.81
417.382	280.81
417.605	269.81
417.828	287.81
418.051	266.81
418.274	287.81
418.497	274.81
418.72	286.81
418.943	301.81
419.166	303.81
419.389	303.81
419.611	317.81
419.834	286.81
420.057	305.81
420.28	294.81
420.503	292.81
420.726	281.81
420.948	276.81
421.171	276.81
421.394	283.81
421.617	289.81
421.839	293.81
422.062	293.81
422.285	274.81
422.507	289.81
422.73	272.81
422.953	270.81
423.175	285.81
423.398	279.81
423.621	282.81
423.843	312.81
424.066	288.81
424.288	300.81
424.511	299.81
424.733	297.81
424.956	312.81
425.178	302.81
425.401	275.81
425.623	278.81
425.846	269.81
426.068	280.81
426.291	275.81
426.513	267.81
426.735	266.81
426.958	278.81
427.18	274.81
427.402	270.81
427.625	266.81
427.847	263.81
428.069	272.81
428.292	276.81
428.514	273.81
428.736	270.81
428.958	262.81
429.181	257.81
429.403	269.81
429.625	274.81
429.847	254.81
430.069	268.81
430.292	270.81
430.514	274.81
430.736	249.81
430.958	270.81
431.18	240.81
431.402	262.81
431.624	252.81
431.846	205.81
432.068	194.81
432.29	205.81
432.512	234.81
432.734	250.81
432.956	266.81
433.178	272.81
433.4	287.81
433.622	286.81
433.844	273.81
434.066	230.81
434.287	219.81
434.509	207.81
434.731	209.81
434.953	245.81
435.175	260.81
435.397	274.81
435.618	232.81
435.84	222.81
436.062	227.81
436.284	259.81
436.505	240.81
436.727	267.81
436.949	259.81
437.17	268.81
437.392	255.81
437.614	221.81
437.835	216.81
438.057	197.81
438.278	235.81
438.5	240.81
438.721	258.81
438.943	277.81
439.165	262.81
439.386	275.81
439.608	294.81
439.829	284.81
440.05	299.81
440.272	300.81
440.493	283.81
440.715	320.81
440.936	301.81
441.158	302.81
441.379	301.81
441.6	314.81
441.822	314.81
442.043	306.81
442.264	296.81
442.486	305.81
442.707	300.81
442.928	288.81
443.149	311.81
443.371	295.81
443.592	289.81
443.813	312.81
444.034	313.81
444.255	317.81
444.476	323.81
444.698	299.81
444.919	327.81
445.14	592.81
445.361	429.81
445.582	314.81
445.803	295.81
446.024	294.81
446.245	322.81
446.466	312.81
446.687	322.81
446.908	326.81
447.129	325.81
447.35	316.81
447.571	314.81
447.792	268.81
448.013	280.81
448.234	294.81
448.455	275.81
448.675	280.81
448.896	288.81
449.117	269.81
449.338	264.81
449.559	282.81
449.779	267.81
450	258.81
450.221	266.81
450.442	288.81
450.662	291.81
450.883	243.81
451.104	266.81
451.324	270.81
451.545	261.81
451.766	254.81
451.986	246.81
452.207	263.81
452.428	246.81
452.648	238.81
452.869	220.81
453.089	222.81
453.31	205.81
453.53	191.81
453.751	209.81
453.971	200.81
454.192	203.81
454.412	218.81
454.633	232.81
454.853	217.81
455.073	223.81
455.294	238.81
455.514	238.81
455.734	215.81
455.955	212.81
456.175	210.81
456.395	215.81
456.616	200.81
456.836	208.81
457.056	199.81
457.276	197.81
457.497	192.81
457.717	207.81
457.937	175.81
458.157	189.81
458.377	189.81
458.598	192.81
458.818	168.81
459.038	166.81
459.258	165.81
459.478	195.81
459.698	199.81
459.918	189.81
460.138	229.81
460.358	232.81
460.578	242.81
460.798	232.81
461.018	250.81
461.238	244.81
461.458	247.81
461.678	234.81
461.898	242.81
462.118	261.81
462.338	254.81
462.558	252.81
462.777	254.81
462.997	270.81
463.217	269.81
463.437	259.81
463.657	241.81
463.876	257.81
464.096	247.81
464.316	231.81
464.536	262.81
464.755	251.81
464.975	240.81
465.195	250.81
465.414	253.81
465.634	228.81
465.854	249.81
466.073	231.81
466.293	230.81
466.512	271.81
466.732	244.81
466.951	244.81
467.171	251.81
467.391	266.81
467.61	266.81
467.829	275.81
468.049	267.81
468.268	262.81
468.488	270.81
468.707	270.81
468.927	258.81
469.146	259.81
469.365	260.81
469.585	279.81
469.804	282.81
470.023	284.81
470.243	285.81
470.462	290.81
470.681	285.81
470.901	272.81
471.12	277.81
471.339	276.81
471.558	286.81
471.777	269.81
471.997	258.81
472.216	251.81
472.435	225.81
472.654	209.81
472.873	196.81
473.092	213.81
473.311	239.81
473.53	243.81
473.749	241.81
473.968	233.81
474.187	242.81
474.406	226.81
474.625	243.81
474.844	258.81
475.063	239.81
475.282	228.81
475.501	207.81
475.72	243.81
475.939	232.81
476.158	245.81
476.377	260.81
476.596	228.81
476.814	222.81
477.033	213.81
477.252	217.81
477.471	250.81
477.69	273.81
477.908	269.81
478.127	282.81
478.346	277.81
478.564	263.81
478.783	253.81
479.002	290.81
479.22	257.81
479.439	263.81
479.658	245.81
479.876	219.81
480.095	213.81
480.313	239.81
480.532	236.81
480.751	221.81
480.969	197.81
481.188	188.81
481.406	181.81
481.624	186.81
481.843	176.81
482.061	192.81
482.28	226.81
482.498	220.81
482.717	208.81
482.935	250.81
483.153	268.81
483.372	298.81
483.59	295.81
483.808	274.81
484.027	236.81
484.245	277.81
484.463	270.81
484.681	303.81
484.9	269.81
485.118	254.81
485.336	249.81
485.554	211.81
485.772	199.81
485.99	212.81
486.209	228.81
486.427	210.81
486.645	240.81
486.863	276.81
487.081	290.81
487.299	254.81
487.517	274.81
487.735	342.81
487.953	375.81
488.171	360.81
488.389	350.81
488.607	302.81
488.825	274.81
489.043	250.81
489.261	280.81
489.479	264.81
489.696	276.81
489.914	288.81
490.132	293.81
490.35	293.81
490.568	336.81
490.786	367.81
491.003	371.81
491.221	378.81
491.439	394.81
491.657	407.81
491.874	440.81
492.092	471.81
492.31	511.81
492.527	449.81
492.745	407.81
492.963	422.81
493.18	408.81
493.398	390.81
493.615	392.81
493.833	372.81
494.05	352.81
494.268	347.81
494.485	374.81
494.703	354.81
494.92	359.81
495.138	358.81
495.355	367.81
495.573	372.81
495.79	354.81
496.008	365.81
496.225	344.81
496.442	370.81
496.66	381.81
496.877	351.81
497.094	337.81
497.312	364.81
497.529	307.81
497.746	333.81
497.963	314.81
498.181	297.81
498.398	286.81
498.615	276.81
498.832	306.81
499.049	316.81
499.267	336.81
499.484	363.81
499.701	391.81
499.918	431.81
500.135	454.81
500.352	529.81
500.569	538.81
500.786	523.81
501.003	498.81
501.22	452.81
501.437	424.81
501.654	389.81
501.871	349.81
502.088	335.81
502.305	315.81
502.522	303.81
502.739	332.81
502.956	292.81
503.172	295.81
503.389	260.81
503.606	258.81
503.823	263.81
504.04	264.81
504.256	275.81
504.473	273.81
504.69	263.81
504.907	273.81
