Data from SampD_HRD10591_00025.txt Node
Date: Mon Jan 19 11:47:46 EST 2026
User: Yrep
Spectrometer: HR+D1059
Trigger mode: 0
Integration Time (sec): 3.443000E-1
Scans to average: 1
Electric dark correction enabled: true
Nonlinearity correction enabled: false
Boxcar width: 0
XAxis mode: Wavelengths
Number of Pixels in Spectrum: 2048
>>>>>Begin Spectral Data<<<<<
223.165	-18
223.4	-18
223.635	-18
223.869	-10
224.104	-35
224.338	-19
224.573	-18
224.808	0
225.042	-10
225.277	-3
225.511	-10
225.746	6
225.98	6
226.215	-1
226.449	24
226.683	26
226.918	19
227.152	43
227.387	51
227.621	37
227.856	39
228.09	39
228.324	38
228.559	70
228.793	66
229.027	69
229.262	73
229.496	70
229.73	68
229.964	83
230.199	84
230.433	70
230.667	80
230.901	72
231.136	85
231.37	97
231.604	77
231.838	87
232.072	79
232.306	98
232.541	76
232.775	72
233.009	79
233.243	90
233.477	83
233.711	73
233.945	86
234.179	94
234.413	74
234.647	71
234.881	70
235.115	67
235.349	91
235.583	88
235.817	80
236.051	82
236.285	70
236.519	81
236.753	69
236.987	77
237.221	81
237.455	78
237.689	79
237.922	97
238.156	67
238.39	77
238.624	89
238.858	94
239.091	94
239.325	86
239.559	88
239.793	91
240.027	93
240.26	80
240.494	85
240.728	70
240.961	73
241.195	98
241.429	70
241.662	83
241.896	86
242.13	81
242.363	84
242.597	79
242.83	81
243.064	82
243.298	87
243.531	93
243.765	81
243.998	82
244.232	86
244.465	88
244.699	85
244.932	82
245.166	90
245.399	96
245.633	84
245.866	94
246.099	90
246.333	75
246.566	71
246.8	85
247.033	79
247.266	94
247.5	90
247.733	80
247.966	89
248.2	95
248.433	89
248.666	98
248.899	87
249.133	94
249.366	101
249.599	80
249.832	97
250.066	100
250.299	89
250.532	101
250.765	81
250.998	93
251.231	107
251.465	95
251.698	90
251.931	85
252.164	82
252.397	86
252.63	104
252.863	91
253.096	98
253.329	107
253.562	98
253.795	85
254.028	98
254.261	88
254.494	102
254.727	102
254.96	90
255.193	84
255.426	90
255.659	90
255.892	77
256.124	88
256.357	95
256.59	81
256.823	95
257.056	104
257.289	87
257.521	96
257.754	90
257.987	84
258.22	110
258.452	82
258.685	85
258.918	84
259.151	87
259.383	86
259.616	100
259.849	84
260.081	93
260.314	106
260.547	99
260.779	95
261.012	99
261.244	70
261.477	109
261.71	113
261.942	98
262.175	93
262.407	88
262.64	70
262.872	99
263.105	81
263.337	106
263.57	89
263.802	94
264.035	100
264.267	90
264.499	99
264.732	97
264.964	101
265.197	96
265.429	103
265.661	95
265.894	110
266.126	94
266.358	91
266.591	108
266.823	91
267.055	106
267.287	104
267.52	84
267.752	92
267.984	99
268.216	87
268.448	111
268.681	105
268.913	125
269.145	113
269.377	96
269.609	85
269.841	101
270.073	100
270.306	110
270.538	98
270.77	81
271.002	100
271.234	100
271.466	110
271.698	94
271.93	97
272.162	95
272.394	98
272.626	103
272.858	118
273.09	101
273.322	104
273.553	110
273.785	109
274.017	110
274.249	103
274.481	98
274.713	98
274.945	105
275.176	103
275.408	102
275.64	96
275.872	101
276.104	106
276.335	105
276.567	101
276.799	105
277.031	94
277.262	98
277.494	108
277.726	110
277.957	102
278.189	104
278.421	106
278.652	106
278.884	115
279.115	107
279.347	108
279.579	101
279.81	95
280.042	94
280.273	103
280.505	104
280.736	118
280.968	102
281.199	107
281.431	111
281.662	97
281.894	106
282.125	105
282.356	110
282.588	109
282.819	94
283.051	116
283.282	98
283.513	117
283.745	110
283.976	111
284.207	110
284.439	101
284.67	120
284.901	115
285.132	107
285.364	122
285.595	122
285.826	105
286.057	99
286.288	104
286.52	113
286.751	98
286.982	106
287.213	119
287.444	132
287.675	99
287.906	119
288.138	111
288.369	128
288.6	120
288.831	105
289.062	124
289.293	129
289.524	111
289.755	118
289.986	119
290.217	98
290.448	113
290.679	130
290.91	122
291.141	117
291.371	116
291.602	119
291.833	122
292.064	108
292.295	111
292.526	118
292.757	119
292.987	106
293.218	95
293.449	101
293.68	115
293.91	107
294.141	125
294.372	98
294.603	114
294.833	120
295.064	128
295.295	118
295.525	118
295.756	107
295.987	121
296.217	108
296.448	94
296.679	105
296.909	127
297.14	116
297.37	118
297.601	132
297.831	111
298.062	135
298.292	131
298.523	124
298.753	113
298.984	111
299.214	117
299.445	114
299.675	99
299.905	118
300.136	109
300.366	101
300.597	117
300.827	130
301.057	122
301.288	125
301.518	104
301.748	125
301.979	157
302.209	119
302.439	117
302.669	107
302.9	119
303.13	104
303.36	116
303.59	112
303.82	119
304.051	120
304.281	115
304.511	131
304.741	124
304.971	112
305.201	119
305.431	109
305.661	126
305.891	122
306.121	126
306.352	132
306.582	120
306.812	131
307.042	112
307.272	123
307.502	136
307.731	120
307.961	128
308.191	107
308.421	128
308.651	123
308.881	107
309.111	117
309.341	122
309.571	114
309.8	111
310.03	132
310.26	124
310.49	129
310.72	129
310.949	107
311.179	112
311.409	122
311.639	130
311.868	122
312.098	125
312.328	127
312.557	121
312.787	121
313.017	116
313.246	123
313.476	125
313.706	113
313.935	116
314.165	119
314.394	106
314.624	115
314.853	121
315.083	117
315.312	130
315.542	125
315.771	130
316.001	122
316.23	122
316.46	122
316.689	114
316.919	129
317.148	127
317.377	119
317.607	136
317.836	118
318.065	130
318.295	129
318.524	120
318.753	112
318.983	117
319.212	125
319.441	119
319.67	105
319.9	117
320.129	117
320.358	127
320.587	119
320.816	108
321.046	115
321.275	125
321.504	122
321.733	119
321.962	127
322.191	127
322.42	110
322.649	127
322.878	128
323.108	129
323.337	134
323.566	112
323.795	131
324.024	129
324.253	121
324.482	122
324.71	130
324.939	122
325.168	111
325.397	127
325.626	131
325.855	121
326.084	129
326.313	125
326.542	130
326.77	138
326.999	132
327.228	130
327.457	126
327.686	120
327.914	146
328.143	147
328.372	126
328.6	125
328.829	138
329.058	114
329.287	138
329.515	138
329.744	135
329.972	121
330.201	128
330.43	142
330.658	130
330.887	126
331.115	137
331.344	134
331.572	142
331.801	127
332.03	133
332.258	144
332.486	144
332.715	137
332.943	149
333.172	153
333.4	157
333.629	172
333.857	139
334.085	154
334.314	148
334.542	142
334.771	133
334.999	135
335.227	138
335.455	143
335.684	148
335.912	149
336.14	138
336.369	125
336.597	144
336.825	148
337.053	130
337.281	130
337.51	139
337.738	158
337.966	128
338.194	129
338.422	133
338.65	129
338.878	147
339.106	128
339.334	136
339.562	127
339.79	130
340.018	138
340.246	131
340.474	128
340.702	127
340.93	135
341.158	125
341.386	123
341.614	121
341.842	144
342.07	136
342.298	140
342.526	131
342.754	131
342.981	130
343.209	136
343.437	179
343.665	134
343.893	150
344.12	152
344.348	143
344.576	131
344.804	125
345.031	138
345.259	140
345.487	136
345.714	115
345.942	128
346.17	123
346.397	124
346.625	121
346.853	127
347.08	118
347.308	135
347.535	138
347.763	127
347.99	161
348.218	135
348.445	141
348.673	125
348.9	125
349.128	131
349.355	129
349.583	137
349.81	129
350.037	117
350.265	129
350.492	137
350.72	129
350.947	133
351.174	138
351.402	122
351.629	113
351.856	121
352.083	122
352.311	142
352.538	134
352.765	121
352.992	141
353.22	122
353.447	135
353.674	135
353.901	145
354.128	129
354.355	119
354.583	119
354.81	127
355.037	146
355.264	118
355.491	137
355.718	137
355.945	129
356.172	124
356.399	130
356.626	128
356.853	112
357.08	119
357.307	122
357.534	120
357.761	137
357.988	120
358.215	126
358.441	147
358.668	121
358.895	126
359.122	133
359.349	127
359.576	132
359.802	110
360.029	114
360.256	124
360.483	132
360.709	135
360.936	133
361.163	112
361.39	120
361.616	119
361.843	136
362.07	134
362.296	130
362.523	129
362.749	125
362.976	121
363.203	147
363.429	104
363.656	135
363.882	139
364.109	131
364.335	125
364.562	135
364.788	134
365.015	126
365.241	125
365.468	127
365.694	119
365.92	122
366.147	129
366.373	135
366.599	136
366.826	120
367.052	140
367.278	121
367.505	121
367.731	149
367.957	134
368.184	129
368.41	138
368.636	152
368.862	143
369.089	134
369.315	128
369.541	133
369.767	132
369.993	146
370.219	143
370.445	136
370.672	142
370.898	147
371.124	157
371.35	141
371.576	157
371.802	141
372.028	146
372.254	153
372.48	133
372.706	143
372.932	141
373.158	138
373.384	168
373.61	135
373.835	146
374.061	161
374.287	157
374.513	144
374.739	161
374.965	158
375.191	166
375.416	154
375.642	171
375.868	169
376.094	157
376.319	153
376.545	149
376.771	170
376.997	147
377.222	144
377.448	162
377.674	140
377.899	157
378.125	146
378.35	158
378.576	150
378.802	154
379.027	163
379.253	167
379.478	160
379.704	153
379.929	157
380.155	164
380.38	161
380.606	162
380.831	161
381.057	184
381.282	181
381.507	153
381.733	161
381.958	164
382.184	176
382.409	151
382.634	175
382.86	161
383.085	172
383.31	182
383.535	175
383.761	168
383.986	178
384.211	173
384.436	178
384.662	170
384.887	158
385.112	178
385.337	176
385.562	172
385.787	193
386.013	187
386.238	189
386.463	178
386.688	201
386.913	184
387.138	187
387.363	190
387.588	189
387.813	192
388.038	193
388.263	189
388.488	181
388.713	195
388.938	191
389.163	189
389.387	185
389.612	184
389.837	189
390.062	197
390.287	198
390.512	195
390.736	192
390.961	185
391.186	183
391.411	213
391.636	193
391.86	203
392.085	193
392.31	207
392.534	210
392.759	202
392.984	200
393.208	209
393.433	197
393.658	197
393.882	222
394.107	199
394.331	200
394.556	197
394.78	208
395.005	211
395.229	211
395.454	217
395.678	211
395.903	226
396.127	213
396.352	216
396.576	202
396.801	197
397.025	215
397.249	212
397.474	224
397.698	236
397.922	223
398.147	216
398.371	226
398.595	226
398.82	222
399.044	230
399.268	255
399.492	279
399.717	289
399.941	269
400.165	264
400.389	239
400.613	248
400.837	235
401.062	221
401.286	215
401.51	228
401.734	243
401.958	248
402.182	228
402.406	247
402.63	246
402.854	233
403.078	240
403.302	241
403.526	274
403.75	271
403.974	249
404.198	253
404.422	256
404.645	256
404.869	262
405.093	262
405.317	259
405.541	256
405.765	263
405.988	249
406.212	263
406.436	254
406.66	275
406.883	273
407.107	256
407.331	289
407.555	276
407.778	282
408.002	277
408.226	257
408.449	280
408.673	256
408.896	269
409.12	263
409.344	269
409.567	262
409.791	266
410.014	271
410.238	267
410.461	263
410.685	269
410.908	274
411.132	258
411.355	251
411.578	260
411.802	269
412.025	260
412.249	245
412.472	270
412.695	247
412.919	248
413.142	261
413.365	249
413.589	246
413.812	250
414.035	262
414.258	262
414.482	241
414.705	262
414.928	253
415.151	253
415.374	258
415.597	266
415.821	231
416.044	268
416.267	277
416.49	270
416.713	263
416.936	272
417.159	257
417.382	251
417.605	265
417.828	262
418.051	269
418.274	259
418.497	277
418.72	263
418.943	287
419.166	287
419.389	297
419.611	318
419.834	283
420.057	289
420.28	278
420.503	272
420.726	283
420.948	257
421.171	274
421.394	297
421.617	285
421.839	298
422.062	292
422.285	286
422.507	299
422.73	272
422.953	252
423.175	280
423.398	267
423.621	275
423.843	281
424.066	292
424.288	317
424.511	293
424.733	297
424.956	294
425.178	291
425.401	275
425.623	290
425.846	272
426.068	267
426.291	246
426.513	276
426.735	275
426.958	259
427.18	267
427.402	258
427.625	264
427.847	266
428.069	253
428.292	258
428.514	270
428.736	259
428.958	254
429.181	247
429.403	251
429.625	254
429.847	256
430.069	255
430.292	265
430.514	251
430.736	252
430.958	253
431.18	250
431.402	254
431.624	247
431.846	199
432.068	182
432.29	189
432.512	224
432.734	246
432.956	250
433.178	269
433.4	285
433.622	275
433.844	271
434.066	235
434.287	200
434.509	190
434.731	207
434.953	222
435.175	248
435.397	260
435.618	234
435.84	222
436.062	225
436.284	265
436.505	259
436.727	277
436.949	261
437.17	241
437.392	255
437.614	237
437.835	205
438.057	189
438.278	199
438.5	249
438.721	262
438.943	271
439.165	269
439.386	286
439.608	275
439.829	312
440.05	285
440.272	279
440.493	289
440.715	286
440.936	276
441.158	283
441.379	298
441.6	311
441.822	297
442.043	291
442.264	287
442.486	299
442.707	298
442.928	288
443.149	285
443.371	300
443.592	294
443.813	299
444.034	287
444.255	307
444.476	311
444.698	321
444.919	323
445.14	581
445.361	413
445.582	313
445.803	292
446.024	298
446.245	304
446.466	310
446.687	318
446.908	318
447.129	311
447.35	304
447.571	285
447.792	281
448.013	283
448.234	294
448.455	274
448.675	262
448.896	281
449.117	275
449.338	269
449.559	281
449.779	263
450	269
450.221	251
450.442	261
450.662	278
450.883	251
451.104	269
451.324	267
451.545	260
451.766	267
451.986	255
452.207	245
452.428	245
452.648	229
452.869	234
453.089	208
453.31	192
453.53	202
453.751	190
453.971	192
454.192	198
454.412	198
454.633	215
454.853	227
455.073	228
455.294	220
455.514	208
455.734	206
455.955	198
456.175	195
456.395	201
456.616	198
456.836	198
457.056	187
457.276	183
457.497	189
457.717	182
457.937	201
458.157	189
458.377	183
458.598	169
458.818	155
459.038	166
459.258	169
459.478	155
459.698	179
459.918	184
460.138	217
460.358	241
460.578	242
460.798	208
461.018	253
461.238	231
461.458	243
461.678	237
461.898	226
462.118	235
462.338	242
462.558	252
462.777	242
462.997	254
463.217	249
463.437	269
463.657	246
463.876	229
464.096	245
464.316	235
464.536	252
464.755	254
464.975	255
465.195	249
465.414	243
465.634	215
465.854	229
466.073	228
466.293	235
466.512	236
466.732	258
466.951	253
467.171	256
467.391	258
467.61	270
467.829	247
468.049	255
468.268	253
468.488	251
468.707	270
468.927	244
469.146	268
469.365	274
469.585	272
469.804	275
470.023	267
470.243	289
470.462	289
470.681	276
470.901	277
471.12	274
471.339	274
471.558	270
471.777	263
471.997	276
472.216	262
472.435	211
472.654	207
472.873	207
473.092	227
473.311	217
473.53	228
473.749	245
473.968	246
474.187	217
474.406	221
474.625	237
474.844	256
475.063	234
475.282	220
475.501	217
475.72	246
475.939	221
476.158	247
476.377	248
476.596	233
476.814	210
477.033	205
477.252	227
477.471	240
477.69	280
477.908	266
478.127	271
478.346	277
478.564	271
478.783	262
479.002	294
479.22	270
479.439	266
479.658	235
479.876	225
480.095	239
480.313	234
480.532	234
480.751	230
480.969	180
481.188	180
481.406	178
481.624	189
481.843	182
482.061	188
482.28	211
482.498	218
482.717	213
482.935	241
483.153	271
483.372	279
483.59	283
483.808	258
484.027	246
484.245	237
484.463	267
484.681	286
484.9	248
485.118	253
485.336	247
485.554	214
485.772	191
485.99	196
486.209	222
486.427	226
486.645	239
486.863	256
487.081	269
487.299	266
487.517	279
487.735	339
487.953	361
488.171	353
488.389	312
488.607	291
488.825	262
489.043	249
489.261	255
489.479	279
489.696	288
489.914	275
490.132	289
490.35	303
490.568	339
490.786	349
491.003	351
491.221	363
491.439	379
491.657	390
491.874	423
492.092	464
492.31	493
492.527	466
492.745	413
492.963	382
493.18	397
493.398	365
493.615	373
493.833	363
494.05	367
494.268	359
494.485	371
494.703	364
494.92	366
495.138	353
495.355	370
495.573	348
495.79	346
496.008	351
496.225	360
496.442	354
496.66	349
496.877	347
497.094	345
497.312	338
497.529	336
497.746	331
497.963	299
498.181	275
498.398	280
498.615	251
498.832	269
499.049	293
499.267	310
499.484	335
499.701	375
499.918	410
500.135	454
500.352	482
500.569	508
500.786	498
501.003	473
501.22	419
501.437	383
501.654	360
501.871	341
502.088	311
502.305	312
502.522	305
502.739	304
502.956	294
503.172	277
503.389	242
503.606	237
503.823	260
504.04	274
504.256	253
504.473	256
504.69	266
504.907	266
505.123	257
505.34	270
505.557	228
505.773	235
505.99	228
506.207	242
506.423	229
506.64	235
506.856	242
507.073	258
507.289	237
507.506	228
507.722	212
507.939	219
508.155	225
508.372	193
508.588	211
508.805	201
509.021	202
509.238	198
509.454	201
509.67	184
509.887	191
510.103	169
510.319	174
510.536	187
510.752	151
510.968	155
511.184	152
511.401	157
511.617	186
511.833	165
512.049	162
512.265	176
512.481	183
512.698	173
512.914	175
513.13	158
513.346	160
513.562	173
513.778	165
513.994	179
514.21	175
514.426	181
514.642	170
514.858	154
515.074	176
515.29	186
515.506	170
515.721	163
515.937	183
516.153	171
516.369	162
516.585	169
516.801	186
517.016	197
517.232	209
517.448	199
517.664	201
517.879	211
518.095	193
518.311	191
518.527	209
518.742	206
518.958	210
519.173	202
519.389	212
519.605	202
519.82	192
520.036	200
520.251	202
520.467	184
520.682	191
520.898	177
521.113	168
521.329	162
521.544	158
521.76	158
521.975	169
522.19	165
522.406	176
522.621	175
522.836	191
523.052	186
523.267	197
523.482	186
523.698	192
523.913	207
524.128	213
524.343	203
524.559	230
524.774	215
524.989	227
525.204	210
525.419	204
525.634	198
525.849	194
526.064	187
526.28	169
526.495	163
526.71	139
526.925	143
527.14	145
527.355	134
527.57	159
527.785	155
527.999	176
528.214	197
528.429	188
528.644	221
528.859	243
529.074	265
529.289	278
529.503	252
529.718	230
529.933	207
530.148	173
530.363	174
530.577	161
530.792	137
531.007	154
531.221	138
531.436	145
531.651	145
531.865	137
532.08	157
532.295	153
532.509	149
532.724	149
532.938	162
533.153	173
533.367	185
533.582	207
533.796	211
534.011	192
534.225	157
534.44	148
534.654	173
534.868	169
535.083	172
535.297	178
535.511	185
535.726	198
535.94	190
536.154	156
536.369	169
536.583	156
536.797	159
537.011	148
537.225	160
537.44	147
537.654	159
537.868	170
538.082	160
538.296	148
538.51	179
538.724	186
538.938	202
539.153	201
539.367	205
539.581	212
539.795	182
540.009	175
540.222	180
540.436	173
540.65	200
540.864	215
541.078	259
541.292	278
541.506	298
541.72	327
541.934	372
542.147	368
542.361	320
542.575	276
542.789	259
543.002	245
543.216	235
543.43	218
543.644	234
543.857	275
544.071	292
544.285	318
544.498	303
544.712	323
544.925	306
545.139	304
545.352	299
545.566	319
545.779	304
545.993	293
546.206	315
546.42	324
546.633	321
546.847	320
547.06	320
547.274	330
547.487	315
547.7	352
547.914	325
548.127	309
548.34	313
548.554	323
548.767	320
548.98	309
549.193	304
549.407	290
549.62	298
549.833	307
550.046	305
550.259	294
550.473	297
550.686	290
550.899	289
551.112	276
551.325	262
551.538	257
551.751	213
551.964	212
552.177	250
552.39	249
552.603	287
552.816	281
553.029	292
553.242	327
553.455	317
553.667	318
553.88	305
554.093	302
554.306	302
554.519	296
554.732	294
554.944	282
555.157	274
555.37	264
555.583	272
555.795	256
556.008	256
556.221	247
556.433	245
556.646	264
556.859	235
557.071	248
557.284	261
557.496	245
557.709	262
557.921	261
558.134	271
558.346	248
558.559	244
558.771	250
558.984	240
559.196	263
559.409	229
559.621	238
559.833	226
560.046	232
560.258	233
560.47	238
560.683	240
560.895	242
561.107	233
561.32	238
561.532	213
561.744	241
561.956	227
562.168	227
562.381	223
562.593	230
562.805	217
563.017	223
563.229	235
563.441	230
563.653	215
563.865	197
564.077	217
564.289	200
564.501	227
564.713	209
564.925	233
565.137	192
565.349	201
565.561	218
565.773	212
565.985	213
566.197	242
566.408	229
566.62	239
566.832	241
567.044	249
567.255	230
567.467	241
