Data from SampD_HRD10591_00013.txt Node
Date: Mon Jan 19 11:47:42 EST 2026
User: Yrep
Spectrometer: HR+D1059
Trigger mode: 0
Integration Time (sec): 3.443000E-1
Scans to average: 1
Electric dark correction enabled: true
Nonlinearity correction enabled: false
Boxcar width: 0
XAxis mode: Wavelengths
Number of Pixels in Spectrum: 2048
>>>>>Begin Spectral Data<<<<<
223.165	-15.38
223.4	-15.38
223.635	-15.38
223.869	-34.38
224.104	-26.38
224.338	-10.38
224.573	-16.38
224.808	-10.38
225.042	-7.38
225.277	7.62
225.511	-5.38
225.746	9.62
225.98	8.62
226.215	3.62
226.449	12.62
226.683	31.62
226.918	20.62
227.152	31.62
227.387	24.62
227.621	44.62
227.856	43.62
228.09	39.62
228.324	52.62
228.559	72.62
228.793	64.62
229.027	86.62
229.262	85.62
229.496	72.62
229.73	75.62
229.964	74.62
230.199	72.62
230.433	72.62
230.667	84.62
230.901	79.62
231.136	80.62
231.37	79.62
231.604	93.62
231.838	93.62
232.072	95.62
232.306	95.62
232.541	86.62
232.775	83.62
233.009	95.62
233.243	81.62
233.477	77.62
233.711	93.62
233.945	92.62
234.179	84.62
234.413	86.62
234.647	83.62
234.881	86.62
235.115	77.62
235.349	74.62
235.583	80.62
235.817	89.62
236.051	84.62
236.285	77.62
236.519	105.62
236.753	79.62
236.987	68.62
237.221	90.62
237.455	92.62
237.689	92.62
237.922	92.62
238.156	93.62
238.39	72.62
238.624	89.62
238.858	72.62
239.091	79.62
239.325	86.62
239.559	86.62
239.793	83.62
240.027	84.62
240.26	84.62
240.494	100.62
240.728	92.62
240.961	84.62
241.195	88.62
241.429	88.62
241.662	80.62
241.896	92.62
242.13	82.62
242.363	83.62
242.597	84.62
242.83	91.62
243.064	79.62
243.298	87.62
243.531	90.62
243.765	91.62
243.998	87.62
244.232	84.62
244.465	91.62
244.699	83.62
244.932	105.62
245.166	89.62
245.399	79.62
245.633	88.62
245.866	100.62
246.099	90.62
246.333	90.62
246.566	90.62
246.8	97.62
247.033	91.62
247.266	81.62
247.5	94.62
247.733	96.62
247.966	100.62
248.2	97.62
248.433	106.62
248.666	82.62
248.899	93.62
249.133	86.62
249.366	102.62
249.599	92.62
249.832	96.62
250.066	116.62
250.299	83.62
250.532	96.62
250.765	92.62
250.998	86.62
251.231	92.62
251.465	82.62
251.698	90.62
251.931	93.62
252.164	96.62
252.397	94.62
252.63	98.62
252.863	88.62
253.096	77.62
253.329	108.62
253.562	94.62
253.795	95.62
254.028	99.62
254.261	97.62
254.494	93.62
254.727	101.62
254.96	95.62
255.193	85.62
255.426	82.62
255.659	81.62
255.892	103.62
256.124	100.62
256.357	109.62
256.59	87.62
256.823	105.62
257.056	92.62
257.289	96.62
257.521	106.62
257.754	95.62
257.987	92.62
258.22	102.62
258.452	103.62
258.685	99.62
258.918	92.62
259.151	91.62
259.383	99.62
259.616	99.62
259.849	109.62
260.081	104.62
260.314	100.62
260.547	95.62
260.779	116.62
261.012	104.62
261.244	99.62
261.477	111.62
261.71	94.62
261.942	87.62
262.175	99.62
262.407	103.62
262.64	107.62
262.872	97.62
263.105	99.62
263.337	113.62
263.57	92.62
263.802	95.62
264.035	98.62
264.267	94.62
264.499	93.62
264.732	109.62
264.964	108.62
265.197	105.62
265.429	99.62
265.661	102.62
265.894	99.62
266.126	113.62
266.358	119.62
266.591	109.62
266.823	103.62
267.055	107.62
267.287	100.62
267.52	107.62
267.752	105.62
267.984	97.62
268.216	109.62
268.448	114.62
268.681	99.62
268.913	113.62
269.145	103.62
269.377	89.62
269.609	109.62
269.841	120.62
270.073	95.62
270.306	107.62
270.538	93.62
270.77	100.62
271.002	98.62
271.234	110.62
271.466	124.62
271.698	127.62
271.93	121.62
272.162	120.62
272.394	125.62
272.626	109.62
272.858	115.62
273.09	109.62
273.322	91.62
273.553	106.62
273.785	114.62
274.017	115.62
274.249	107.62
274.481	100.62
274.713	98.62
274.945	118.62
275.176	102.62
275.408	109.62
275.64	109.62
275.872	108.62
276.104	102.62
276.335	109.62
276.567	99.62
276.799	113.62
277.031	115.62
277.262	104.62
277.494	138.62
277.726	123.62
277.957	119.62
278.189	114.62
278.421	104.62
278.652	119.62
278.884	127.62
279.115	109.62
279.347	101.62
279.579	117.62
279.81	105.62
280.042	116.62
280.273	99.62
280.505	106.62
280.736	121.62
280.968	124.62
281.199	101.62
281.431	114.62
281.662	112.62
281.894	128.62
282.125	115.62
282.356	114.62
282.588	86.62
282.819	120.62
283.051	113.62
283.282	119.62
283.513	125.62
283.745	122.62
283.976	115.62
284.207	109.62
284.439	120.62
284.67	129.62
284.901	121.62
285.132	123.62
285.364	116.62
285.595	120.62
285.826	116.62
286.057	123.62
286.288	118.62
286.52	120.62
286.751	112.62
286.982	132.62
287.213	107.62
287.444	118.62
287.675	116.62
287.906	113.62
288.138	115.62
288.369	129.62
288.6	114.62
288.831	121.62
289.062	125.62
289.293	121.62
289.524	110.62
289.755	107.62
289.986	115.62
290.217	115.62
290.448	121.62
290.679	131.62
290.91	126.62
291.141	112.62
291.371	128.62
291.602	121.62
291.833	123.62
292.064	119.62
292.295	110.62
292.526	126.62
292.757	133.62
292.987	129.62
293.218	117.62
293.449	116.62
293.68	112.62
293.91	122.62
294.141	136.62
294.372	115.62
294.603	120.62
294.833	125.62
295.064	114.62
295.295	118.62
295.525	121.62
295.756	125.62
295.987	134.62
296.217	126.62
296.448	124.62
296.679	124.62
296.909	133.62
297.14	117.62
297.37	143.62
297.601	136.62
297.831	118.62
298.062	131.62
298.292	121.62
298.523	130.62
298.753	131.62
298.984	120.62
299.214	136.62
299.445	120.62
299.675	129.62
299.905	134.62
300.136	130.62
300.366	130.62
300.597	132.62
300.827	123.62
301.057	124.62
301.288	134.62
301.518	118.62
301.748	144.62
301.979	161.62
302.209	143.62
302.439	119.62
302.669	121.62
302.9	127.62
303.13	129.62
303.36	139.62
303.59	125.62
303.82	127.62
304.051	121.62
304.281	136.62
304.511	134.62
304.741	132.62
304.971	124.62
305.201	132.62
305.431	137.62
305.661	138.62
305.891	114.62
306.121	140.62
306.352	110.62
306.582	129.62
306.812	114.62
307.042	115.62
307.272	145.62
307.502	143.62
307.731	124.62
307.961	140.62
308.191	127.62
308.421	134.62
308.651	122.62
308.881	143.62
309.111	138.62
309.341	132.62
309.571	117.62
309.8	130.62
310.03	129.62
310.26	117.62
310.49	109.62
310.72	124.62
310.949	119.62
311.179	126.62
311.409	126.62
311.639	127.62
311.868	140.62
312.098	132.62
312.328	122.62
312.557	130.62
312.787	133.62
313.017	141.62
313.246	140.62
313.476	131.62
313.706	131.62
313.935	133.62
314.165	140.62
314.394	123.62
314.624	124.62
314.853	134.62
315.083	145.62
315.312	127.62
315.542	123.62
315.771	132.62
316.001	131.62
316.23	123.62
316.46	137.62
316.689	129.62
316.919	116.62
317.148	128.62
317.377	137.62
317.607	127.62
317.836	134.62
318.065	141.62
318.295	126.62
318.524	131.62
318.753	114.62
318.983	127.62
319.212	135.62
319.441	144.62
319.67	124.62
319.9	117.62
320.129	133.62
320.358	130.62
320.587	132.62
320.816	131.62
321.046	139.62
321.275	145.62
321.504	127.62
321.733	127.62
321.962	130.62
322.191	145.62
322.42	130.62
322.649	129.62
322.878	133.62
323.108	128.62
323.337	133.62
323.566	135.62
323.795	136.62
324.024	125.62
324.253	114.62
324.482	137.62
324.71	137.62
324.939	125.62
325.168	134.62
325.397	124.62
325.626	127.62
325.855	120.62
326.084	142.62
326.313	136.62
326.542	138.62
326.77	128.62
326.999	152.62
327.228	128.62
327.457	151.62
327.686	142.62
327.914	148.62
328.143	156.62
328.372	127.62
328.6	123.62
328.829	125.62
329.058	144.62
329.287	119.62
329.515	132.62
329.744	135.62
329.972	144.62
330.201	132.62
330.43	157.62
330.658	132.62
330.887	139.62
331.115	123.62
331.344	152.62
331.572	148.62
331.801	139.62
332.03	139.62
332.258	165.62
332.486	133.62
332.715	144.62
332.943	149.62
333.172	172.62
333.4	160.62
333.629	161.62
333.857	153.62
334.085	147.62
334.314	165.62
334.542	161.62
334.771	146.62
334.999	159.62
335.227	145.62
335.455	151.62
335.684	169.62
335.912	159.62
336.14	143.62
336.369	139.62
336.597	123.62
336.825	145.62
337.053	161.62
337.281	140.62
337.51	139.62
337.738	157.62
337.966	147.62
338.194	141.62
338.422	144.62
338.65	137.62
338.878	155.62
339.106	134.62
339.334	154.62
339.562	122.62
339.79	147.62
340.018	136.62
340.246	143.62
340.474	132.62
340.702	147.62
340.93	140.62
341.158	142.62
341.386	135.62
341.614	145.62
341.842	132.62
342.07	131.62
342.298	132.62
342.526	143.62
342.754	156.62
342.981	154.62
343.209	136.62
343.437	170.62
343.665	144.62
343.893	155.62
344.12	165.62
344.348	160.62
344.576	148.62
344.804	148.62
345.031	136.62
345.259	145.62
345.487	126.62
345.714	143.62
345.942	139.62
346.17	144.62
346.397	137.62
346.625	136.62
346.853	136.62
347.08	139.62
347.308	132.62
347.535	145.62
347.763	140.62
347.99	137.62
348.218	172.62
348.445	150.62
348.673	134.62
348.9	143.62
349.128	156.62
349.355	124.62
349.583	130.62
349.81	132.62
350.037	127.62
350.265	158.62
350.492	138.62
350.72	136.62
350.947	148.62
351.174	133.62
351.402	127.62
351.629	129.62
351.856	127.62
352.083	112.62
352.311	140.62
352.538	132.62
352.765	136.62
352.992	159.62
353.22	144.62
353.447	119.62
353.674	133.62
353.901	133.62
354.128	123.62
354.355	127.62
354.583	140.62
354.81	140.62
355.037	136.62
355.264	135.62
355.491	137.62
355.718	133.62
355.945	140.62
356.172	129.62
356.399	134.62
356.626	142.62
356.853	128.62
357.08	148.62
357.307	130.62
357.534	131.62
357.761	139.62
357.988	136.62
358.215	142.62
358.441	143.62
358.668	135.62
358.895	140.62
359.122	136.62
359.349	136.62
359.576	129.62
359.802	137.62
360.029	139.62
360.256	125.62
360.483	151.62
360.709	144.62
360.936	163.62
361.163	133.62
361.39	135.62
361.616	144.62
361.843	146.62
362.07	147.62
362.296	147.62
362.523	137.62
362.749	145.62
362.976	119.62
363.203	135.62
363.429	129.62
363.656	129.62
363.882	144.62
364.109	154.62
364.335	154.62
364.562	141.62
364.788	143.62
365.015	135.62
365.241	136.62
365.468	122.62
365.694	145.62
365.92	133.62
366.147	152.62
366.373	145.62
366.599	138.62
366.826	147.62
367.052	120.62
367.278	133.62
367.505	142.62
367.731	156.62
367.957	143.62
368.184	145.62
368.41	144.62
368.636	153.62
368.862	149.62
369.089	154.62
369.315	151.62
369.541	156.62
369.767	155.62
369.993	164.62
370.219	151.62
370.445	150.62
370.672	149.62
370.898	140.62
371.124	158.62
371.35	160.62
371.576	146.62
371.802	156.62
372.028	160.62
372.254	164.62
372.48	146.62
372.706	146.62
372.932	154.62
373.158	150.62
373.384	154.62
373.61	147.62
373.835	156.62
374.061	156.62
374.287	160.62
374.513	161.62
374.739	152.62
374.965	161.62
375.191	162.62
375.416	169.62
375.642	169.62
375.868	178.62
376.094	157.62
376.319	167.62
376.545	161.62
376.771	157.62
376.997	168.62
377.222	172.62
377.448	169.62
377.674	165.62
377.899	154.62
378.125	150.62
378.35	181.62
378.576	157.62
378.802	165.62
379.027	170.62
379.253	163.62
379.478	149.62
379.704	166.62
379.929	159.62
380.155	173.62
380.38	178.62
380.606	159.62
380.831	162.62
381.057	164.62
381.282	159.62
381.507	163.62
381.733	177.62
381.958	176.62
382.184	192.62
382.409	175.62
382.634	175.62
382.86	176.62
383.085	174.62
383.31	172.62
383.535	188.62
383.761	181.62
383.986	177.62
384.211	179.62
384.436	184.62
384.662	186.62
384.887	195.62
385.112	183.62
385.337	185.62
385.562	203.62
385.787	189.62
386.013	183.62
386.238	199.62
386.463	192.62
386.688	231.62
386.913	200.62
387.138	181.62
387.363	209.62
387.588	216.62
387.813	200.62
388.038	171.62
388.263	217.62
388.488	187.62
388.713	201.62
388.938	167.62
389.163	213.62
389.387	202.62
389.612	186.62
389.837	205.62
390.062	210.62
390.287	204.62
390.512	212.62
390.736	207.62
390.961	209.62
391.186	216.62
391.411	213.62
391.636	210.62
391.86	215.62
392.085	227.62
392.31	212.62
392.534	208.62
392.759	228.62
392.984	197.62
393.208	207.62
393.433	212.62
393.658	222.62
393.882	222.62
394.107	211.62
394.331	212.62
394.556	207.62
394.78	213.62
395.005	220.62
395.229	211.62
395.454	216.62
395.678	225.62
395.903	223.62
396.127	217.62
396.352	215.62
396.576	211.62
396.801	220.62
397.025	211.62
397.249	209.62
397.474	229.62
397.698	237.62
397.922	214.62
398.147	224.62
398.371	227.62
398.595	256.62
398.82	260.62
399.044	250.62
399.268	265.62
399.492	286.62
399.717	295.62
399.941	285.62
400.165	276.62
400.389	260.62
400.613	253.62
400.837	253.62
401.062	245.62
401.286	261.62
401.51	240.62
401.734	239.62
401.958	235.62
402.182	248.62
402.406	261.62
402.63	240.62
402.854	244.62
403.078	241.62
403.302	252.62
403.526	262.62
403.75	274.62
403.974	287.62
404.198	268.62
404.422	284.62
404.645	270.62
404.869	269.62
405.093	258.62
405.317	259.62
405.541	261.62
405.765	260.62
405.988	281.62
406.212	273.62
406.436	265.62
406.66	295.62
406.883	276.62
407.107	271.62
407.331	259.62
407.555	283.62
407.778	289.62
408.002	273.62
408.226	284.62
408.449	283.62
408.673	272.62
408.896	283.62
409.12	281.62
409.344	287.62
409.567	271.62
409.791	282.62
410.014	291.62
410.238	261.62
410.461	282.62
410.685	279.62
410.908	273.62
411.132	275.62
411.355	250.62
411.578	275.62
411.802	279.62
412.025	278.62
412.249	282.62
412.472	267.62
412.695	258.62
412.919	260.62
413.142	275.62
413.365	260.62
413.589	279.62
413.812	275.62
414.035	276.62
414.258	278.62
414.482	274.62
414.705	268.62
414.928	266.62
415.151	275.62
415.374	273.62
415.597	281.62
415.821	274.62
416.044	263.62
416.267	279.62
416.49	277.62
416.713	285.62
416.936	269.62
417.159	271.62
417.382	261.62
417.605	269.62
417.828	268.62
418.051	284.62
418.274	292.62
418.497	294.62
418.72	277.62
418.943	285.62
419.166	285.62
419.389	290.62
419.611	317.62
419.834	300.62
420.057	300.62
420.28	278.62
420.503	288.62
420.726	287.62
420.948	280.62
421.171	291.62
421.394	277.62
421.617	301.62
421.839	310.62
422.062	291.62
422.285	291.62
422.507	293.62
422.73	278.62
422.953	272.62
423.175	275.62
423.398	298.62
423.621	302.62
423.843	296.62
424.066	299.62
424.288	328.62
424.511	295.62
424.733	301.62
424.956	292.62
425.178	309.62
425.401	292.62
425.623	285.62
425.846	292.62
426.068	260.62
426.291	279.62
426.513	269.62
426.735	283.62
426.958	295.62
427.18	283.62
427.402	284.62
427.625	288.62
427.847	277.62
428.069	268.62
428.292	272.62
428.514	281.62
428.736	274.62
428.958	257.62
429.181	261.62
429.403	272.62
429.625	248.62
429.847	263.62
430.069	283.62
430.292	264.62
430.514	255.62
430.736	272.62
430.958	259.62
431.18	263.62
431.402	254.62
431.624	231.62
431.846	228.62
432.068	196.62
432.29	197.62
432.512	232.62
432.734	243.62
432.956	266.62
433.178	275.62
433.4	272.62
433.622	264.62
433.844	273.62
434.066	252.62
434.287	221.62
434.509	207.62
434.731	221.62
434.953	246.62
435.175	263.62
435.397	270.62
435.618	237.62
435.84	223.62
436.062	237.62
436.284	259.62
436.505	254.62
436.727	278.62
436.949	277.62
437.17	273.62
437.392	262.62
437.614	231.62
437.835	204.62
438.057	202.62
438.278	223.62
438.5	278.62
438.721	286.62
438.943	266.62
439.165	305.62
439.386	297.62
439.608	281.62
439.829	301.62
440.05	298.62
440.272	315.62
440.493	293.62
440.715	281.62
440.936	297.62
441.158	300.62
441.379	304.62
441.6	320.62
441.822	327.62
442.043	304.62
442.264	296.62
442.486	283.62
442.707	284.62
442.928	281.62
443.149	325.62
443.371	311.62
443.592	311.62
443.813	294.62
444.034	308.62
444.255	314.62
444.476	305.62
444.698	322.62
444.919	325.62
445.14	517.62
445.361	426.62
445.582	301.62
445.803	302.62
446.024	313.62
446.245	328.62
446.466	322.62
446.687	315.62
446.908	300.62
447.129	301.62
447.35	306.62
447.571	293.62
447.792	286.62
448.013	271.62
448.234	276.62
448.455	291.62
448.675	281.62
448.896	260.62
449.117	267.62
449.338	275.62
449.559	279.62
449.779	256.62
450	273.62
450.221	272.62
450.442	267.62
450.662	282.62
450.883	277.62
451.104	280.62
451.324	261.62
451.545	272.62
451.766	262.62
451.986	243.62
452.207	260.62
452.428	243.62
452.648	248.62
452.869	228.62
453.089	215.62
453.31	216.62
453.53	191.62
453.751	210.62
453.971	204.62
454.192	191.62
454.412	214.62
454.633	227.62
454.853	226.62
455.073	232.62
455.294	237.62
455.514	226.62
455.734	224.62
455.955	225.62
456.175	212.62
456.395	214.62
456.616	193.62
456.836	189.62
457.056	212.62
457.276	207.62
457.497	200.62
457.717	199.62
457.937	197.62
458.157	193.62
458.377	187.62
458.598	180.62
458.818	188.62
459.038	167.62
459.258	165.62
459.478	172.62
459.698	184.62
459.918	214.62
460.138	196.62
460.358	219.62
460.578	252.62
460.798	245.62
461.018	245.62
461.238	256.62
461.458	236.62
461.678	237.62
461.898	258.62
462.118	247.62
462.338	255.62
462.558	255.62
462.777	242.62
462.997	262.62
463.217	274.62
463.437	261.62
463.657	245.62
463.876	246.62
464.096	241.62
464.316	251.62
464.536	258.62
464.755	255.62
464.975	261.62
465.195	245.62
465.414	245.62
465.634	220.62
465.854	224.62
466.073	248.62
466.293	249.62
466.512	263.62
466.732	250.62
466.951	273.62
467.171	263.62
467.391	275.62
467.61	263.62
467.829	272.62
468.049	255.62
468.268	249.62
468.488	271.62
468.707	264.62
468.927	262.62
469.146	272.62
469.365	283.62
469.585	260.62
469.804	277.62
470.023	287.62
470.243	293.62
470.462	286.62
470.681	301.62
470.901	280.62
471.12	286.62
471.339	295.62
471.558	273.62
471.777	278.62
471.997	273.62
472.216	248.62
472.435	220.62
472.654	197.62
472.873	227.62
473.092	230.62
473.311	236.62
473.53	236.62
473.749	237.62
473.968	244.62
474.187	219.62
474.406	220.62
474.625	266.62
474.844	264.62
475.063	223.62
475.282	241.62
475.501	229.62
475.72	234.62
475.939	252.62
476.158	248.62
476.377	238.62
476.596	220.62
476.814	241.62
477.033	215.62
477.252	222.62
477.471	235.62
477.69	254.62
477.908	278.62
478.127	283.62
478.346	274.62
478.564	283.62
478.783	283.62
479.002	287.62
479.22	292.62
479.439	273.62
479.658	255.62
479.876	220.62
480.095	224.62
480.313	238.62
480.532	268.62
480.751	226.62
480.969	187.62
481.188	203.62
481.406	183.62
481.624	179.62
481.843	193.62
482.061	212.62
482.28	232.62
482.498	214.62
482.717	204.62
482.935	254.62
483.153	284.62
483.372	293.62
483.59	312.62
483.808	275.62
484.027	249.62
484.245	273.62
484.463	264.62
484.681	305.62
484.9	273.62
485.118	262.62
485.336	228.62
485.554	209.62
485.772	200.62
485.99	202.62
486.209	223.62
486.427	218.62
486.645	234.62
486.863	274.62
487.081	273.62
487.299	248.62
487.517	274.62
487.735	338.62
487.953	359.62
488.171	361.62
488.389	351.62
488.607	297.62
488.825	263.62
489.043	264.62
489.261	267.62
489.479	279.62
489.696	283.62
489.914	285.62
490.132	300.62
490.35	309.62
490.568	349.62
490.786	351.62
491.003	377.62
491.221	359.62
491.439	397.62
491.657	417.62
491.874	421.62
492.092	463.62
492.31	483.62
492.527	461.62
492.745	407.62
492.963	406.62
493.18	371.62
493.398	386.62
493.615	363.62
493.833	369.62
494.05	364.62
494.268	372.62
494.485	377.62
494.703	362.62
494.92	381.62
495.138	359.62
495.355	365.62
495.573	362.62
495.79	348.62
496.008	344.62
496.225	369.62
496.442	350.62
496.66	346.62
496.877	339.62
497.094	362.62
497.312	354.62
497.529	338.62
497.746	327.62
497.963	307.62
498.181	294.62
498.398	292.62
498.615	261.62
498.832	287.62
499.049	299.62
499.267	333.62
499.484	344.62
499.701	383.62
499.918	419.62
500.135	460.62
500.352	527.62
500.569	521.62
500.786	516.62
501.003	492.62
501.22	423.62
501.437	400.62
501.654	387.62
501.871	346.62
502.088	332.62
502.305	329.62
502.522	328.62
502.739	310.62
502.956	300.62
503.172	289.62
503.389	257.62
503.606	259.62
503.823	265.62
504.04	284.62
504.256	280.62
504.473	266.62
504.69	265.62
