Data from SampD_HRD10591_00063.txt Node
Date: Mon Jan 19 11:47:59 EST 2026
User: Yrep
Spectrometer: HR+D1059
Trigger mode: 0
Integration Time (sec): 3.443000E-1
Scans to average: 1
Electric dark correction enabled: true
Nonlinearity correction enabled: false
Boxcar width: 0
XAxis mode: Wavelengths
Number of Pixels in Spectrum: 2048
>>>>>Begin Spectral Data<<<<<
223.165	-11.56
223.4	-11.56
223.635	-11.56
223.869	-18.56
224.104	-29.56
224.338	-8.56
224.573	-23.56
224.808	-14.56
225.042	-2.56
225.277	-10.56
225.511	2.44
225.746	7.44
225.98	3.44
226.215	-3.56
226.449	24.44
226.683	35.44
226.918	25.44
227.152	24.44
227.387	39.44
227.621	28.44
227.856	49.44
228.09	48.44
228.324	55.44
228.559	68.44
228.793	72.44
229.027	49.44
229.262	57.44
229.496	52.44
229.73	68.44
229.964	56.44
230.199	70.44
230.433	61.44
230.667	67.44
230.901	66.44
231.136	76.44
231.37	63.44
231.604	87.44
231.838	81.44
232.072	75.44
232.306	81.44
232.541	96.44
232.775	87.44
233.009	71.44
233.243	76.44
233.477	83.44
233.711	81.44
233.945	86.44
234.179	93.44
234.413	87.44
234.647	98.44
234.881	77.44
235.115	90.44
235.349	70.44
235.583	81.44
235.817	69.44
236.051	87.44
236.285	69.44
236.519	68.44
236.753	79.44
236.987	72.44
237.221	77.44
237.455	75.44
237.689	71.44
237.922	89.44
238.156	81.44
238.39	76.44
238.624	77.44
238.858	73.44
239.091	67.44
239.325	81.44
239.559	85.44
239.793	79.44
240.027	95.44
240.26	82.44
240.494	81.44
240.728	81.44
240.961	76.44
241.195	86.44
241.429	69.44
241.662	85.44
241.896	67.44
242.13	73.44
242.363	71.44
242.597	77.44
242.83	88.44
243.064	77.44
243.298	75.44
243.531	72.44
243.765	81.44
243.998	83.44
244.232	84.44
244.465	76.44
244.699	83.44
244.932	81.44
245.166	77.44
245.399	70.44
245.633	89.44
245.866	76.44
246.099	86.44
246.333	68.44
246.566	89.44
246.8	67.44
247.033	67.44
247.266	63.44
247.5	78.44
247.733	74.44
247.966	69.44
248.2	81.44
248.433	69.44
248.666	79.44
248.899	82.44
249.133	69.44
249.366	88.44
249.599	87.44
249.832	79.44
250.066	76.44
250.299	63.44
250.532	90.44
250.765	86.44
250.998	88.44
251.231	83.44
251.465	85.44
251.698	95.44
251.931	78.44
252.164	90.44
252.397	77.44
252.63	91.44
252.863	85.44
253.096	89.44
253.329	84.44
253.562	88.44
253.795	67.44
254.028	75.44
254.261	71.44
254.494	83.44
254.727	89.44
254.96	89.44
255.193	71.44
255.426	87.44
255.659	88.44
255.892	71.44
256.124	75.44
256.357	92.44
256.59	73.44
256.823	81.44
257.056	88.44
257.289	74.44
257.521	76.44
257.754	78.44
257.987	83.44
258.22	93.44
258.452	86.44
258.685	72.44
258.918	81.44
259.151	82.44
259.383	82.44
259.616	93.44
259.849	87.44
260.081	69.44
260.314	95.44
260.547	67.44
260.779	78.44
261.012	102.44
261.244	69.44
261.477	86.44
261.71	81.44
261.942	83.44
262.175	103.44
262.407	79.44
262.64	87.44
262.872	77.44
263.105	79.44
263.337	93.44
263.57	90.44
263.802	92.44
264.035	87.44
264.267	77.44
264.499	73.44
264.732	87.44
264.964	78.44
265.197	92.44
265.429	91.44
265.661	81.44
265.894	96.44
266.126	86.44
266.358	89.44
266.591	83.44
266.823	81.44
267.055	92.44
267.287	91.44
267.52	98.44
267.752	80.44
267.984	88.44
268.216	82.44
268.448	89.44
268.681	99.44
268.913	95.44
269.145	85.44
269.377	88.44
269.609	91.44
269.841	78.44
270.073	84.44
270.306	83.44
270.538	91.44
270.77	93.44
271.002	81.44
271.234	74.44
271.466	92.44
271.698	87.44
271.93	92.44
272.162	92.44
272.394	99.44
272.626	101.44
272.858	95.44
273.09	99.44
273.322	92.44
273.553	89.44
273.785	103.44
274.017	90.44
274.249	99.44
274.481	92.44
274.713	90.44
274.945	87.44
275.176	78.44
275.408	93.44
275.64	83.44
275.872	98.44
276.104	97.44
276.335	98.44
276.567	86.44
276.799	97.44
277.031	96.44
277.262	83.44
277.494	103.44
277.726	101.44
277.957	102.44
278.189	92.44
278.421	97.44
278.652	96.44
278.884	89.44
279.115	93.44
279.347	84.44
279.579	87.44
279.81	95.44
280.042	90.44
280.273	88.44
280.505	96.44
280.736	80.44
280.968	92.44
281.199	105.44
281.431	91.44
281.662	106.44
281.894	107.44
282.125	99.44
282.356	91.44
282.588	91.44
282.819	91.44
283.051	98.44
283.282	92.44
283.513	97.44
283.745	88.44
283.976	88.44
284.207	96.44
284.439	104.44
284.67	96.44
284.901	98.44
285.132	89.44
285.364	101.44
285.595	88.44
285.826	99.44
286.057	98.44
286.288	100.44
286.52	94.44
286.751	86.44
286.982	90.44
287.213	93.44
287.444	93.44
287.675	94.44
287.906	102.44
288.138	95.44
288.369	104.44
288.6	88.44
288.831	100.44
289.062	99.44
289.293	93.44
289.524	94.44
289.755	89.44
289.986	83.44
290.217	84.44
290.448	105.44
290.679	86.44
290.91	94.44
291.141	104.44
291.371	96.44
291.602	84.44
291.833	97.44
292.064	103.44
292.295	111.44
292.526	101.44
292.757	93.44
292.987	106.44
293.218	91.44
293.449	90.44
293.68	89.44
293.91	101.44
294.141	97.44
294.372	99.44
294.603	92.44
294.833	99.44
295.064	91.44
295.295	100.44
295.525	105.44
295.756	107.44
295.987	96.44
296.217	103.44
296.448	113.44
296.679	94.44
296.909	112.44
297.14	93.44
297.37	103.44
297.601	91.44
297.831	96.44
298.062	103.44
298.292	100.44
298.523	97.44
298.753	101.44
298.984	97.44
299.214	101.44
299.445	104.44
299.675	107.44
299.905	99.44
300.136	89.44
300.366	110.44
300.597	103.44
300.827	99.44
301.057	95.44
301.288	90.44
301.518	97.44
301.748	97.44
301.979	126.44
302.209	109.44
302.439	95.44
302.669	83.44
302.9	99.44
303.13	102.44
303.36	85.44
303.59	103.44
303.82	111.44
304.051	110.44
304.281	108.44
304.511	113.44
304.741	102.44
304.971	103.44
305.201	112.44
305.431	106.44
305.661	102.44
305.891	94.44
306.121	110.44
306.352	102.44
306.582	103.44
306.812	88.44
307.042	105.44
307.272	117.44
307.502	106.44
307.731	100.44
307.961	105.44
308.191	88.44
308.421	91.44
308.651	110.44
308.881	90.44
309.111	98.44
309.341	107.44
309.571	107.44
309.8	84.44
310.03	94.44
310.26	89.44
310.49	104.44
310.72	103.44
310.949	84.44
311.179	82.44
311.409	103.44
311.639	109.44
311.868	104.44
312.098	92.44
312.328	104.44
312.557	113.44
312.787	111.44
313.017	105.44
313.246	100.44
313.476	100.44
313.706	105.44
313.935	118.44
314.165	110.44
314.394	92.44
314.624	98.44
314.853	116.44
315.083	96.44
315.312	97.44
315.542	113.44
315.771	108.44
316.001	90.44
316.23	110.44
316.46	95.44
316.689	91.44
316.919	93.44
317.148	104.44
317.377	88.44
317.607	105.44
317.836	86.44
318.065	93.44
318.295	103.44
318.524	96.44
318.753	102.44
318.983	102.44
319.212	104.44
319.441	101.44
319.67	108.44
319.9	100.44
320.129	94.44
320.358	105.44
320.587	114.44
320.816	112.44
321.046	110.44
321.275	112.44
321.504	85.44
321.733	93.44
321.962	99.44
322.191	105.44
322.42	100.44
322.649	105.44
322.878	97.44
323.108	107.44
323.337	113.44
323.566	111.44
323.795	93.44
324.024	101.44
324.253	93.44
324.482	98.44
324.71	105.44
324.939	118.44
325.168	110.44
325.397	101.44
325.626	89.44
325.855	94.44
326.084	93.44
326.313	103.44
326.542	95.44
326.77	106.44
326.999	100.44
327.228	102.44
327.457	96.44
327.686	102.44
327.914	103.44
328.143	99.44
328.372	115.44
328.6	103.44
328.829	106.44
329.058	115.44
329.287	105.44
329.515	114.44
329.744	107.44
329.972	103.44
330.201	103.44
330.43	95.44
330.658	120.44
330.887	111.44
331.115	99.44
331.344	89.44
331.572	101.44
331.801	118.44
332.03	108.44
332.258	107.44
332.486	110.44
332.715	98.44
332.943	118.44
333.172	121.44
333.4	104.44
333.629	114.44
333.857	119.44
334.085	109.44
334.314	112.44
334.542	131.44
334.771	115.44
334.999	112.44
335.227	95.44
335.455	102.44
335.684	124.44
335.912	107.44
336.14	123.44
336.369	105.44
336.597	113.44
336.825	112.44
337.053	116.44
337.281	97.44
337.51	101.44
337.738	105.44
337.966	113.44
338.194	97.44
338.422	112.44
338.65	110.44
338.878	103.44
339.106	111.44
339.334	119.44
339.562	100.44
339.79	94.44
340.018	102.44
340.246	104.44
340.474	103.44
340.702	123.44
340.93	101.44
341.158	103.44
341.386	108.44
341.614	111.44
341.842	104.44
342.07	102.44
342.298	105.44
342.526	120.44
342.754	100.44
342.981	102.44
343.209	110.44
343.437	136.44
343.665	102.44
343.893	114.44
344.12	114.44
344.348	121.44
344.576	96.44
344.804	95.44
345.031	103.44
345.259	104.44
345.487	110.44
345.714	92.44
345.942	99.44
346.17	105.44
346.397	102.44
346.625	99.44
346.853	105.44
347.08	108.44
347.308	101.44
347.535	96.44
347.763	104.44
347.99	92.44
348.218	100.44
348.445	107.44
348.673	104.44
348.9	110.44
349.128	111.44
349.355	111.44
349.583	106.44
349.81	87.44
350.037	117.44
350.265	97.44
350.492	103.44
350.72	102.44
350.947	102.44
351.174	100.44
351.402	91.44
351.629	93.44
351.856	94.44
352.083	106.44
352.311	99.44
352.538	111.44
352.765	111.44
352.992	114.44
353.22	99.44
353.447	97.44
353.674	104.44
353.901	117.44
354.128	116.44
354.355	94.44
354.583	113.44
354.81	111.44
355.037	104.44
355.264	100.44
355.491	101.44
355.718	83.44
355.945	110.44
356.172	96.44
356.399	115.44
356.626	109.44
356.853	101.44
357.08	112.44
357.307	119.44
357.534	100.44
357.761	100.44
357.988	106.44
358.215	109.44
358.441	99.44
358.668	100.44
358.895	108.44
359.122	94.44
359.349	96.44
359.576	109.44
359.802	99.44
360.029	92.44
360.256	102.44
360.483	105.44
360.709	102.44
360.936	115.44
361.163	118.44
361.39	114.44
361.616	109.44
361.843	96.44
362.07	116.44
362.296	101.44
362.523	105.44
362.749	106.44
362.976	90.44
363.203	116.44
363.429	109.44
363.656	109.44
363.882	110.44
364.109	95.44
364.335	93.44
364.562	114.44
364.788	119.44
365.015	96.44
365.241	107.44
365.468	110.44
365.694	105.44
365.92	104.44
366.147	104.44
366.373	98.44
366.599	97.44
366.826	114.44
367.052	94.44
367.278	105.44
367.505	126.44
367.731	131.44
367.957	107.44
368.184	103.44
368.41	106.44
368.636	112.44
368.862	106.44
369.089	119.44
369.315	113.44
369.541	118.44
369.767	100.44
369.993	121.44
370.219	112.44
370.445	112.44
370.672	107.44
370.898	109.44
371.124	104.44
371.35	125.44
371.576	101.44
371.802	104.44
372.028	109.44
372.254	117.44
372.48	116.44
372.706	113.44
372.932	110.44
373.158	120.44
373.384	124.44
373.61	116.44
373.835	110.44
374.061	99.44
374.287	112.44
374.513	123.44
374.739	118.44
374.965	128.44
375.191	108.44
375.416	125.44
375.642	130.44
375.868	122.44
376.094	111.44
376.319	105.44
376.545	118.44
376.771	118.44
376.997	128.44
377.222	119.44
377.448	124.44
377.674	117.44
377.899	109.44
378.125	132.44
378.35	125.44
378.576	128.44
378.802	116.44
379.027	120.44
379.253	111.44
379.478	133.44
379.704	120.44
379.929	112.44
380.155	109.44
380.38	118.44
380.606	115.44
380.831	124.44
381.057	150.44
381.282	134.44
381.507	113.44
381.733	112.44
381.958	113.44
382.184	115.44
382.409	117.44
382.634	135.44
382.86	136.44
383.085	135.44
383.31	131.44
383.535	136.44
383.761	132.44
383.986	130.44
384.211	121.44
384.436	119.44
384.662	127.44
384.887	128.44
385.112	119.44
385.337	122.44
385.562	128.44
385.787	132.44
386.013	124.44
386.238	125.44
386.463	126.44
386.688	154.44
386.913	130.44
387.138	129.44
387.363	126.44
387.588	138.44
387.813	151.44
388.038	139.44
388.263	145.44
388.488	136.44
388.713	119.44
388.938	136.44
389.163	136.44
389.387	133.44
389.612	141.44
389.837	119.44
390.062	131.44
390.287	137.44
390.512	136.44
390.736	134.44
390.961	135.44
391.186	156.44
391.411	144.44
391.636	136.44
391.86	155.44
392.085	138.44
392.31	144.44
392.534	140.44
392.759	145.44
392.984	131.44
393.208	142.44
393.433	139.44
393.658	152.44
393.882	136.44
394.107	149.44
394.331	143.44
394.556	133.44
394.78	160.44
395.005	143.44
395.229	144.44
395.454	139.44
395.678	142.44
395.903	140.44
396.127	142.44
396.352	133.44
396.576	155.44
396.801	147.44
397.025	141.44
397.249	164.44
397.474	181.44
397.698	154.44
397.922	153.44
398.147	157.44
398.371	126.44
398.595	180.44
398.82	159.44
399.044	171.44
399.268	158.44
399.492	187.44
399.717	198.44
399.941	181.44
400.165	168.44
400.389	159.44
400.613	163.44
400.837	172.44
401.062	166.44
401.286	151.44
401.51	152.44
401.734	142.44
401.958	165.44
402.182	149.44
402.406	157.44
402.63	167.44
402.854	141.44
403.078	166.44
403.302	176.44
403.526	166.44
403.75	178.44
403.974	165.44
404.198	169.44
404.422	184.44
404.645	163.44
404.869	171.44
405.093	181.44
405.317	176.44
405.541	172.44
405.765	150.44
405.988	172.44
406.212	175.44
406.436	170.44
406.66	168.44
406.883	182.44
407.107	157.44
407.331	167.44
407.555	183.44
407.778	174.44
408.002	167.44
408.226	176.44
408.449	165.44
408.673	162.44
408.896	169.44
409.12	161.44
409.344	165.44
409.567	179.44
409.791	172.44
410.014	182.44
410.238	158.44
410.461	166.44
410.685	170.44
410.908	165.44
411.132	175.44
411.355	172.44
411.578	172.44
411.802	162.44
412.025	185.44
412.249	157.44
412.472	167.44
412.695	172.44
412.919	163.44
413.142	155.44
413.365	175.44
413.589	156.44
413.812	178.44
414.035	166.44
414.258	174.44
414.482	157.44
414.705	161.44
414.928	192.44
415.151	163.44
415.374	159.44
415.597	168.44
415.821	176.44
416.044	165.44
416.267	178.44
416.49	185.44
416.713	170.44
416.936	169.44
417.159	171.44
417.382	156.44
417.605	165.44
417.828	180.44
418.051	171.44
418.274	179.44
418.497	189.44
418.72	166.44
418.943	179.44
419.166	189.44
419.389	191.44
419.611	188.44
419.834	188.44
420.057	175.44
420.28	188.44
420.503	183.44
420.726	196.44
420.948	178.44
421.171	183.44
421.394	187.44
421.617	191.44
421.839	192.44
422.062	198.44
422.285	175.44
422.507	161.44
422.73	179.44
422.953	172.44
423.175	166.44
423.398	177.44
423.621	184.44
423.843	181.44
424.066	178.44
424.288	185.44
424.511	180.44
424.733	180.44
424.956	189.44
425.178	191.44
425.401	160.44
425.623	179.44
425.846	169.44
426.068	178.44
426.291	188.44
426.513	174.44
426.735	165.44
426.958	176.44
427.18	177.44
427.402	172.44
427.625	162.44
427.847	157.44
428.069	189.44
428.292	180.44
428.514	174.44
428.736	152.44
428.958	184.44
429.181	163.44
429.403	157.44
429.625	144.44
429.847	150.44
430.069	147.44
430.292	169.44
430.514	173.44
430.736	161.44
430.958	163.44
431.18	148.44
431.402	154.44
431.624	172.44
431.846	133.44
432.068	127.44
432.29	138.44
432.512	157.44
432.734	165.44
432.956	191.44
433.178	186.44
433.4	175.44
433.622	177.44
433.844	183.44
434.066	151.44
434.287	137.44
434.509	133.44
434.731	155.44
434.953	162.44
435.175	163.44
435.397	177.44
435.618	160.44
435.84	135.44
436.062	141.44
436.284	156.44
436.505	174.44
436.727	168.44
436.949	173.44
437.17	159.44
437.392	136.44
437.614	155.44
437.835	134.44
438.057	142.44
438.278	149.44
438.5	165.44
438.721	172.44
438.943	175.44
439.165	169.44
439.386	168.44
439.608	198.44
439.829	167.44
440.05	183.44
440.272	194.44
440.493	180.44
440.715	193.44
440.936	198.44
441.158	198.44
441.379	190.44
441.6	216.44
441.822	194.44
442.043	196.44
442.264	174.44
442.486	177.44
442.707	188.44
442.928	168.44
443.149	180.44
443.371	194.44
443.592	180.44
443.813	179.44
444.034	177.44
444.255	183.44
444.476	209.44
444.698	192.44
444.919	184.44
445.14	459.44
445.361	305.44
445.582	193.44
445.803	182.44
446.024	196.44
446.245	206.44
446.466	200.44
446.687	196.44
446.908	195.44
447.129	184.44
447.35	174.44
447.571	187.44
447.792	175.44
448.013	177.44
448.234	190.44
448.455	176.44
448.675	175.44
448.896	179.44
449.117	182.44
449.338	160.44
449.559	187.44
449.779	164.44
450	177.44
450.221	164.44
450.442	158.44
450.662	185.44
450.883	171.44
451.104	165.44
451.324	160.44
451.545	177.44
451.766	173.44
451.986	164.44
452.207	174.44
452.428	163.44
452.648	169.44
452.869	148.44
453.089	145.44
453.31	138.44
453.53	129.44
453.751	117.44
453.971	118.44
454.192	142.44
454.412	131.44
454.633	141.44
454.853	144.44
455.073	142.44
455.294	163.44
455.514	170.44
455.734	152.44
455.955	146.44
456.175	143.44
456.395	140.44
456.616	142.44
456.836	131.44
457.056	147.44
457.276	132.44
457.497	137.44
457.717	127.44
457.937	139.44
458.157	144.44
458.377	134.44
458.598	100.44
458.818	118.44
459.038	108.44
459.258	120.44
459.478	115.44
459.698	130.44
459.918	133.44
460.138	141.44
460.358	135.44
460.578	159.44
460.798	146.44
461.018	141.44
461.238	164.44
461.458	145.44
461.678	155.44
461.898	174.44
462.118	153.44
462.338	157.44
462.558	162.44
462.777	157.44
462.997	168.44
463.217	170.44
463.437	174.44
463.657	160.44
463.876	160.44
464.096	160.44
464.316	156.44
464.536	167.44
464.755	165.44
464.975	157.44
465.195	156.44
465.414	163.44
465.634	146.44
465.854	147.44
466.073	157.44
466.293	153.44
466.512	175.44
466.732	164.44
466.951	167.44
467.171	168.44
467.391	169.44
467.61	191.44
467.829	165.44
468.049	165.44
468.268	177.44
468.488	181.44
468.707	176.44
468.927	175.44
469.146	145.44
469.365	176.44
469.585	173.44
469.804	168.44
470.023	175.44
470.243	168.44
470.462	188.44
470.681	175.44
470.901	179.44
471.12	172.44
471.339	179.44
471.558	184.44
471.777	175.44
471.997	177.44
472.216	173.44
472.435	136.44
472.654	139.44
472.873	165.44
473.092	154.44
473.311	162.44
473.53	150.44
473.749	164.44
473.968	152.44
474.187	155.44
474.406	148.44
474.625	139.44
474.844	152.44
475.063	153.44
475.282	170.44
475.501	159.44
475.72	161.44
475.939	148.44
476.158	156.44
476.377	150.44
476.596	151.44
476.814	132.44
477.033	140.44
477.252	132.44
477.471	168.44
477.69	160.44
477.908	177.44
478.127	185.44
478.346	161.44
478.564	165.44
478.783	188.44
479.002	176.44
479.22	172.44
479.439	174.44
479.658	169.44
479.876	144.44
480.095	176.44
480.313	164.44
480.532	169.44
480.751	148.44
480.969	130.44
481.188	121.44
481.406	130.44
481.624	124.44
481.843	122.44
482.061	132.44
482.28	133.44
482.498	148.44
482.717	142.44
482.935	148.44
483.153	172.44
483.372	184.44
483.59	173.44
483.808	159.44
484.027	158.44
484.245	164.44
484.463	171.44
484.681	188.44
484.9	166.44
485.118	170.44
485.336	142.44
485.554	150.44
485.772	132.44
485.99	136.44
486.209	141.44
486.427	133.44
486.645	161.44
486.863	195.44
487.081	187.44
487.299	168.44
487.517	174.44
487.735	202.44
487.953	229.44
488.171	243.44
488.389	220.44
488.607	189.44
488.825	167.44
489.043	168.44
489.261	175.44
489.479	175.44
489.696	180.44
489.914	171.44
490.132	172.44
490.35	185.44
490.568	200.44
490.786	214.44
491.003	218.44
491.221	229.44
491.439	221.44
491.657	219.44
491.874	254.44
492.092	272.44
492.31	275.44
492.527	261.44
492.745	239.44
492.963	245.44
493.18	235.44
493.398	230.44
493.615	230.44
493.833	229.44
494.05	225.44
494.268	228.44
494.485	238.44
494.703	225.44
494.92	215.44
495.138	211.44
495.355	240.44
495.573	215.44
495.79	213.44
496.008	221.44
496.225	213.44
496.442	209.44
496.66	224.44
496.877	213.44
497.094	230.44
497.312	213.44
497.529	211.44
497.746	196.44
497.963	168.44
498.181	179.44
498.398	175.44
498.615	172.44
498.832	193.44
499.049	190.44
499.267	204.44
499.484	210.44
499.701	222.44
499.918	246.44
500.135	282.44
500.352	285.44
500.569	304.44
500.786	297.44
501.003	276.44
501.22	236.44
501.437	230.44
501.654	219.44
501.871	214.44
502.088	208.44
502.305	191.44
502.522	179.44
502.739	180.44
502.956	183.44
503.172	179.44
503.389	188.44
503.606	184.44
503.823	177.44
504.04	171.44
504.256	168.44
504.473	163.44
504.69	173.44
504.907	183.44
505.123	163.44
505.34	153.44
505.557	176.44
505.773	159.44
505.99	140.44
506.207	160.44
506.423	158.44
506.64	159.44
506.856	161.44
507.073	149.44
507.289	155.44
507.506	140.44
507.722	146.44
