Data from SampD_HRD10591_00011.txt Node
Date: Mon Jan 19 11:47:41 EST 2026
User: Yrep
Spectrometer: HR+D1059
Trigger mode: 0
Integration Time (sec): 3.443000E-1
Scans to average: 1
Electric dark correction enabled: true
Nonlinearity correction enabled: false
Boxcar width: 0
XAxis mode: Wavelengths
Number of Pixels in Spectrum: 2048
>>>>>Begin Spectral Data<<<<<
223.165	-28.56
223.4	-28.56
223.635	-28.56
223.869	-40.56
224.104	-9.56
224.338	2.44
224.573	-16.56
224.808	-23.56
225.042	0.44
225.277	-4.56
225.511	-6.56
225.746	6.44
225.98	25.44
226.215	-0.56
226.449	4.44
226.683	24.44
226.918	27.44
227.152	39.44
227.387	41.44
227.621	44.44
227.856	46.44
228.09	53.44
228.324	47.44
228.559	63.44
228.793	61.44
229.027	59.44
229.262	68.44
229.496	72.44
229.73	78.44
229.964	71.44
230.199	75.44
230.433	86.44
230.667	68.44
230.901	67.44
231.136	79.44
231.37	72.44
231.604	77.44
231.838	98.44
232.072	94.44
232.306	80.44
232.541	71.44
232.775	82.44
233.009	93.44
233.243	85.44
233.477	97.44
233.711	101.44
233.945	81.44
234.179	91.44
234.413	82.44
234.647	92.44
234.881	94.44
235.115	92.44
235.349	88.44
235.583	93.44
235.817	95.44
236.051	79.44
236.285	78.44
236.519	89.44
236.753	87.44
236.987	70.44
237.221	81.44
237.455	83.44
237.689	73.44
237.922	91.44
238.156	72.44
238.39	85.44
238.624	83.44
238.858	93.44
239.091	80.44
239.325	81.44
239.559	86.44
239.793	93.44
240.027	91.44
240.26	90.44
240.494	97.44
240.728	93.44
240.961	78.44
241.195	80.44
241.429	91.44
241.662	94.44
241.896	89.44
242.13	103.44
242.363	68.44
242.597	91.44
242.83	85.44
243.064	88.44
243.298	86.44
243.531	95.44
243.765	88.44
243.998	99.44
244.232	104.44
244.465	95.44
244.699	74.44
244.932	82.44
245.166	95.44
245.399	95.44
245.633	80.44
245.866	88.44
246.099	89.44
246.333	102.44
246.566	78.44
246.8	75.44
247.033	89.44
247.266	80.44
247.5	87.44
247.733	94.44
247.966	110.44
248.2	79.44
248.433	80.44
248.666	95.44
248.899	101.44
249.133	101.44
249.366	100.44
249.599	73.44
249.832	89.44
250.066	97.44
250.299	87.44
250.532	97.44
250.765	90.44
250.998	99.44
251.231	91.44
251.465	73.44
251.698	89.44
251.931	89.44
252.164	83.44
252.397	85.44
252.63	93.44
252.863	72.44
253.096	88.44
253.329	95.44
253.562	79.44
253.795	88.44
254.028	97.44
254.261	89.44
254.494	83.44
254.727	103.44
254.96	90.44
255.193	93.44
255.426	85.44
255.659	91.44
255.892	111.44
256.124	83.44
256.357	84.44
256.59	121.44
256.823	103.44
257.056	93.44
257.289	81.44
257.521	96.44
257.754	94.44
257.987	101.44
258.22	114.44
258.452	95.44
258.685	94.44
258.918	102.44
259.151	102.44
259.383	84.44
259.616	106.44
259.849	91.44
260.081	95.44
260.314	95.44
260.547	83.44
260.779	104.44
261.012	114.44
261.244	93.44
261.477	105.44
261.71	94.44
261.942	89.44
262.175	97.44
262.407	101.44
262.64	93.44
262.872	110.44
263.105	90.44
263.337	102.44
263.57	107.44
263.802	83.44
264.035	108.44
264.267	95.44
264.499	122.44
264.732	105.44
264.964	99.44
265.197	114.44
265.429	120.44
265.661	104.44
265.894	106.44
266.126	105.44
266.358	102.44
266.591	99.44
266.823	113.44
267.055	93.44
267.287	115.44
267.52	91.44
267.752	101.44
267.984	95.44
268.216	97.44
268.448	100.44
268.681	103.44
268.913	101.44
269.145	121.44
269.377	94.44
269.609	97.44
269.841	110.44
270.073	95.44
270.306	105.44
270.538	95.44
270.77	98.44
271.002	108.44
271.234	103.44
271.466	109.44
271.698	98.44
271.93	97.44
272.162	95.44
272.394	118.44
272.626	110.44
272.858	118.44
273.09	111.44
273.322	102.44
273.553	108.44
273.785	112.44
274.017	84.44
274.249	113.44
274.481	113.44
274.713	95.44
274.945	113.44
275.176	93.44
275.408	102.44
275.64	91.44
275.872	101.44
276.104	110.44
276.335	103.44
276.567	95.44
276.799	101.44
277.031	113.44
277.262	106.44
277.494	109.44
277.726	109.44
277.957	104.44
278.189	110.44
278.421	85.44
278.652	107.44
278.884	112.44
279.115	111.44
279.347	106.44
279.579	96.44
279.81	93.44
280.042	111.44
280.273	117.44
280.505	106.44
280.736	115.44
280.968	107.44
281.199	102.44
281.431	108.44
281.662	104.44
281.894	115.44
282.125	113.44
282.356	103.44
282.588	113.44
282.819	103.44
283.051	118.44
283.282	111.44
283.513	118.44
283.745	111.44
283.976	116.44
284.207	98.44
284.439	119.44
284.67	119.44
284.901	106.44
285.132	117.44
285.364	111.44
285.595	131.44
285.826	109.44
286.057	114.44
286.288	102.44
286.52	114.44
286.751	117.44
286.982	117.44
287.213	118.44
287.444	115.44
287.675	108.44
287.906	124.44
288.138	98.44
288.369	120.44
288.6	121.44
288.831	115.44
289.062	114.44
289.293	111.44
289.524	117.44
289.755	119.44
289.986	98.44
290.217	102.44
290.448	111.44
290.679	125.44
290.91	117.44
291.141	113.44
291.371	108.44
291.602	117.44
291.833	115.44
292.064	106.44
292.295	108.44
292.526	112.44
292.757	119.44
292.987	119.44
293.218	122.44
293.449	106.44
293.68	124.44
293.91	120.44
294.141	124.44
294.372	110.44
294.603	121.44
294.833	127.44
295.064	119.44
295.295	117.44
295.525	122.44
295.756	114.44
295.987	103.44
296.217	117.44
296.448	126.44
296.679	130.44
296.909	130.44
297.14	134.44
297.37	136.44
297.601	130.44
297.831	102.44
298.062	107.44
298.292	128.44
298.523	111.44
298.753	130.44
298.984	119.44
299.214	125.44
299.445	126.44
299.675	126.44
299.905	122.44
300.136	117.44
300.366	114.44
300.597	117.44
300.827	125.44
301.057	123.44
301.288	126.44
301.518	118.44
301.748	120.44
301.979	159.44
302.209	121.44
302.439	115.44
302.669	106.44
302.9	124.44
303.13	125.44
303.36	123.44
303.59	119.44
303.82	133.44
304.051	137.44
304.281	129.44
304.511	126.44
304.741	133.44
304.971	121.44
305.201	128.44
305.431	103.44
305.661	129.44
305.891	123.44
306.121	131.44
306.352	127.44
306.582	123.44
306.812	128.44
307.042	133.44
307.272	120.44
307.502	127.44
307.731	138.44
307.961	112.44
308.191	117.44
308.421	119.44
308.651	118.44
308.881	126.44
309.111	122.44
309.341	115.44
309.571	149.44
309.8	109.44
310.03	127.44
310.26	117.44
310.49	119.44
310.72	131.44
310.949	130.44
311.179	120.44
311.409	112.44
311.639	114.44
311.868	126.44
312.098	136.44
312.328	131.44
312.557	122.44
312.787	136.44
313.017	126.44
313.246	118.44
313.476	116.44
313.706	124.44
313.935	116.44
314.165	113.44
314.394	119.44
314.624	132.44
314.853	131.44
315.083	130.44
315.312	127.44
315.542	122.44
315.771	124.44
316.001	136.44
316.23	127.44
316.46	120.44
316.689	121.44
316.919	128.44
317.148	123.44
317.377	124.44
317.607	129.44
317.836	114.44
318.065	134.44
318.295	127.44
318.524	123.44
318.753	118.44
318.983	112.44
319.212	112.44
319.441	124.44
319.67	121.44
319.9	133.44
320.129	131.44
320.358	129.44
320.587	131.44
320.816	134.44
321.046	118.44
321.275	123.44
321.504	130.44
321.733	137.44
321.962	127.44
322.191	116.44
322.42	136.44
322.649	138.44
322.878	145.44
323.108	126.44
323.337	112.44
323.566	128.44
323.795	134.44
324.024	138.44
324.253	114.44
324.482	135.44
324.71	133.44
324.939	130.44
325.168	138.44
325.397	122.44
325.626	135.44
325.855	133.44
326.084	117.44
326.313	118.44
326.542	130.44
326.77	136.44
326.999	128.44
327.228	125.44
327.457	112.44
327.686	126.44
327.914	146.44
328.143	127.44
328.372	130.44
328.6	136.44
328.829	131.44
329.058	137.44
329.287	146.44
329.515	137.44
329.744	144.44
329.972	145.44
330.201	138.44
330.43	121.44
330.658	121.44
330.887	140.44
331.115	143.44
331.344	134.44
331.572	129.44
331.801	121.44
332.03	144.44
332.258	135.44
332.486	148.44
332.715	139.44
332.943	136.44
333.172	158.44
333.4	147.44
333.629	131.44
333.857	145.44
334.085	142.44
334.314	163.44
334.542	145.44
334.771	136.44
334.999	132.44
335.227	148.44
335.455	130.44
335.684	159.44
335.912	138.44
336.14	143.44
336.369	131.44
336.597	128.44
336.825	142.44
337.053	132.44
337.281	119.44
337.51	129.44
337.738	149.44
337.966	134.44
338.194	143.44
338.422	136.44
338.65	132.44
338.878	136.44
339.106	139.44
339.334	129.44
339.562	131.44
339.79	138.44
340.018	131.44
340.246	130.44
340.474	137.44
340.702	141.44
340.93	129.44
341.158	135.44
341.386	123.44
341.614	136.44
341.842	143.44
342.07	137.44
342.298	147.44
342.526	122.44
342.754	143.44
342.981	121.44
343.209	122.44
343.437	154.44
343.665	147.44
343.893	153.44
344.12	157.44
344.348	145.44
344.576	121.44
344.804	135.44
345.031	124.44
345.259	139.44
345.487	142.44
345.714	141.44
345.942	122.44
346.17	143.44
346.397	131.44
346.625	125.44
346.853	132.44
347.08	119.44
347.308	125.44
347.535	130.44
347.763	137.44
347.99	133.44
348.218	143.44
348.445	120.44
348.673	128.44
348.9	133.44
349.128	135.44
349.355	128.44
349.583	140.44
349.81	126.44
350.037	134.44
350.265	135.44
350.492	137.44
350.72	121.44
350.947	130.44
351.174	123.44
351.402	118.44
351.629	125.44
351.856	120.44
352.083	137.44
352.311	129.44
352.538	130.44
352.765	135.44
352.992	135.44
353.22	132.44
353.447	115.44
353.674	133.44
353.901	143.44
354.128	130.44
354.355	119.44
354.583	117.44
354.81	133.44
355.037	131.44
355.264	130.44
355.491	132.44
355.718	129.44
355.945	130.44
356.172	123.44
356.399	120.44
356.626	115.44
356.853	127.44
357.08	128.44
357.307	137.44
357.534	129.44
357.761	134.44
357.988	130.44
358.215	133.44
358.441	138.44
358.668	136.44
358.895	119.44
359.122	131.44
359.349	131.44
359.576	131.44
359.802	131.44
360.029	127.44
360.256	143.44
360.483	135.44
360.709	119.44
360.936	144.44
361.163	125.44
361.39	123.44
361.616	133.44
361.843	147.44
362.07	138.44
362.296	143.44
362.523	123.44
362.749	130.44
362.976	117.44
363.203	146.44
363.429	136.44
363.656	118.44
363.882	128.44
364.109	145.44
364.335	134.44
364.562	129.44
364.788	130.44
365.015	124.44
365.241	131.44
365.468	127.44
365.694	128.44
365.92	142.44
366.147	138.44
366.373	134.44
366.599	142.44
366.826	128.44
367.052	130.44
367.278	133.44
367.505	132.44
367.731	151.44
367.957	122.44
368.184	137.44
368.41	138.44
368.636	129.44
368.862	145.44
369.089	130.44
369.315	143.44
369.541	145.44
369.767	153.44
369.993	135.44
370.219	131.44
370.445	123.44
370.672	138.44
370.898	144.44
371.124	139.44
371.35	158.44
371.576	149.44
371.802	151.44
372.028	157.44
372.254	148.44
372.48	154.44
372.706	159.44
372.932	159.44
373.158	145.44
373.384	165.44
373.61	153.44
373.835	150.44
374.061	150.44
374.287	165.44
374.513	161.44
374.739	152.44
374.965	164.44
375.191	157.44
375.416	151.44
375.642	164.44
375.868	174.44
376.094	159.44
376.319	155.44
376.545	161.44
376.771	161.44
376.997	146.44
377.222	153.44
377.448	152.44
377.674	165.44
377.899	147.44
378.125	161.44
378.35	159.44
378.576	169.44
378.802	148.44
379.027	141.44
379.253	162.44
379.478	153.44
379.704	155.44
379.929	149.44
380.155	158.44
380.38	161.44
380.606	166.44
380.831	160.44
381.057	162.44
381.282	162.44
381.507	189.44
381.733	175.44
381.958	162.44
382.184	162.44
382.409	188.44
382.634	169.44
382.86	175.44
383.085	160.44
383.31	169.44
383.535	169.44
383.761	183.44
383.986	177.44
384.211	181.44
384.436	172.44
384.662	181.44
384.887	182.44
385.112	163.44
385.337	175.44
385.562	180.44
385.787	175.44
386.013	193.44
386.238	193.44
386.463	178.44
386.688	216.44
386.913	183.44
387.138	175.44
387.363	176.44
387.588	189.44
387.813	185.44
388.038	196.44
388.263	191.44
388.488	183.44
388.713	196.44
388.938	180.44
389.163	183.44
389.387	177.44
389.612	207.44
389.837	220.44
390.062	200.44
390.287	205.44
390.512	189.44
390.736	194.44
390.961	201.44
391.186	198.44
391.411	197.44
391.636	202.44
391.86	223.44
392.085	206.44
392.31	219.44
392.534	210.44
392.759	200.44
392.984	195.44
393.208	215.44
393.433	214.44
393.658	219.44
393.882	222.44
394.107	219.44
394.331	221.44
394.556	207.44
394.78	222.44
395.005	194.44
395.229	207.44
395.454	232.44
395.678	225.44
395.903	231.44
396.127	229.44
396.352	213.44
396.576	193.44
396.801	217.44
397.025	207.44
397.249	222.44
397.474	236.44
397.698	211.44
397.922	214.44
398.147	211.44
398.371	223.44
398.595	223.44
398.82	232.44
399.044	226.44
399.268	269.44
399.492	290.44
399.717	294.44
399.941	290.44
400.165	262.44
400.389	245.44
400.613	230.44
400.837	233.44
401.062	237.44
401.286	230.44
401.51	242.44
401.734	234.44
401.958	237.44
402.182	247.44
402.406	241.44
402.63	265.44
402.854	252.44
403.078	258.44
403.302	258.44
403.526	249.44
403.75	259.44
403.974	257.44
404.198	274.44
404.422	273.44
404.645	271.44
404.869	259.44
405.093	249.44
405.317	270.44
405.541	248.44
405.765	259.44
405.988	275.44
406.212	277.44
406.436	265.44
406.66	261.44
406.883	277.44
407.107	278.44
407.331	270.44
407.555	293.44
407.778	275.44
408.002	278.44
408.226	271.44
408.449	259.44
408.673	250.44
408.896	285.44
409.12	258.44
409.344	273.44
409.567	274.44
409.791	262.44
410.014	273.44
410.238	277.44
410.461	278.44
410.685	286.44
410.908	270.44
411.132	255.44
411.355	267.44
411.578	263.44
411.802	251.44
412.025	254.44
412.249	262.44
412.472	264.44
412.695	260.44
412.919	249.44
413.142	279.44
413.365	284.44
413.589	257.44
413.812	248.44
414.035	253.44
414.258	256.44
414.482	267.44
414.705	271.44
414.928	281.44
415.151	246.44
415.374	239.44
415.597	254.44
415.821	270.44
416.044	264.44
416.267	258.44
416.49	264.44
416.713	259.44
416.936	269.44
417.159	277.44
417.382	272.44
417.605	280.44
417.828	274.44
418.051	269.44
418.274	269.44
418.497	277.44
418.72	291.44
418.943	295.44
419.166	296.44
419.389	303.44
419.611	307.44
419.834	277.44
420.057	298.44
420.28	271.44
420.503	245.44
420.726	280.44
420.948	275.44
421.171	272.44
421.394	292.44
421.617	287.44
421.839	263.44
422.062	279.44
422.285	277.44
422.507	273.44
422.73	266.44
422.953	280.44
423.175	263.44
423.398	264.44
423.621	281.44
423.843	283.44
424.066	299.44
424.288	302.44
424.511	308.44
424.733	303.44
424.956	303.44
425.178	289.44
425.401	285.44
425.623	292.44
425.846	292.44
426.068	270.44
426.291	273.44
426.513	282.44
426.735	278.44
426.958	260.44
427.18	256.44
427.402	282.44
427.625	257.44
427.847	259.44
428.069	261.44
428.292	269.44
428.514	263.44
428.736	262.44
428.958	264.44
429.181	262.44
429.403	261.44
429.625	265.44
429.847	278.44
430.069	256.44
430.292	261.44
430.514	266.44
430.736	264.44
430.958	274.44
431.18	253.44
431.402	255.44
431.624	222.44
431.846	205.44
432.068	191.44
432.29	193.44
432.512	231.44
432.734	259.44
432.956	272.44
433.178	279.44
433.4	274.44
433.622	265.44
433.844	257.44
434.066	231.44
434.287	211.44
434.509	191.44
434.731	218.44
434.953	226.44
435.175	257.44
435.397	270.44
435.618	222.44
435.84	223.44
436.062	257.44
436.284	250.44
436.505	255.44
436.727	260.44
436.949	263.44
437.17	262.44
437.392	253.44
437.614	231.44
437.835	218.44
438.057	203.44
438.278	213.44
438.5	243.44
438.721	254.44
438.943	281.44
439.165	292.44
439.386	285.44
439.608	290.44
439.829	277.44
440.05	290.44
440.272	296.44
440.493	278.44
440.715	275.44
440.936	293.44
441.158	285.44
441.379	307.44
441.6	305.44
441.822	297.44
442.043	291.44
442.264	296.44
442.486	279.44
442.707	266.44
442.928	289.44
443.149	309.44
443.371	291.44
443.592	273.44
443.813	297.44
444.034	300.44
444.255	319.44
444.476	294.44
444.698	333.44
444.919	307.44
445.14	513.44
445.361	402.44
445.582	308.44
445.803	281.44
446.024	324.44
446.245	319.44
446.466	305.44
446.687	308.44
446.908	321.44
447.129	324.44
447.35	301.44
447.571	312.44
447.792	292.44
448.013	285.44
448.234	287.44
448.455	289.44
448.675	274.44
448.896	279.44
449.117	267.44
449.338	269.44
449.559	273.44
449.779	279.44
450	275.44
450.221	278.44
450.442	264.44
450.662	263.44
450.883	260.44
451.104	264.44
451.324	269.44
451.545	244.44
451.766	256.44
451.986	248.44
452.207	251.44
452.428	247.44
452.648	231.44
452.869	241.44
453.089	232.44
453.31	185.44
453.53	196.44
453.751	195.44
453.971	186.44
454.192	200.44
454.412	224.44
454.633	213.44
454.853	232.44
455.073	222.44
455.294	246.44
455.514	231.44
455.734	229.44
455.955	225.44
456.175	206.44
456.395	181.44
456.616	203.44
456.836	199.44
457.056	199.44
457.276	187.44
457.497	203.44
457.717	184.44
457.937	205.44
458.157	179.44
458.377	170.44
458.598	172.44
458.818	173.44
459.038	174.44
459.258	172.44
459.478	174.44
459.698	174.44
459.918	189.44
460.138	198.44
460.358	241.44
460.578	253.44
460.798	234.44
461.018	235.44
461.238	240.44
461.458	225.44
461.678	238.44
461.898	254.44
462.118	241.44
462.338	229.44
462.558	231.44
462.777	238.44
462.997	261.44
463.217	258.44
463.437	241.44
463.657	237.44
463.876	246.44
464.096	227.44
464.316	222.44
464.536	239.44
464.755	253.44
464.975	238.44
465.195	262.44
465.414	233.44
465.634	239.44
465.854	226.44
466.073	219.44
466.293	257.44
466.512	233.44
466.732	242.44
466.951	269.44
467.171	267.44
467.391	260.44
467.61	271.44
467.829	260.44
468.049	253.44
468.268	266.44
468.488	249.44
468.707	251.44
468.927	253.44
469.146	267.44
469.365	277.44
469.585	259.44
469.804	289.44
470.023	297.44
470.243	272.44
470.462	274.44
470.681	291.44
470.901	263.44
471.12	277.44
471.339	274.44
471.558	258.44
471.777	278.44
471.997	271.44
472.216	229.44
472.435	227.44
472.654	200.44
472.873	216.44
473.092	222.44
473.311	218.44
473.53	246.44
473.749	229.44
473.968	248.44
474.187	210.44
474.406	216.44
474.625	246.44
474.844	266.44
475.063	241.44
475.282	233.44
475.501	202.44
475.72	225.44
475.939	234.44
476.158	245.44
476.377	236.44
476.596	221.44
476.814	201.44
477.033	201.44
477.252	227.44
477.471	233.44
477.69	257.44
477.908	283.44
478.127	265.44
478.346	281.44
478.564	253.44
478.783	268.44
479.002	283.44
479.22	281.44
479.439	265.44
479.658	241.44
479.876	231.44
480.095	215.44
480.313	243.44
480.532	253.44
480.751	245.44
480.969	190.44
481.188	195.44
481.406	185.44
481.624	169.44
481.843	175.44
482.061	193.44
482.28	219.44
482.498	225.44
482.717	207.44
482.935	238.44
483.153	275.44
483.372	277.44
483.59	273.44
483.808	259.44
484.027	243.44
484.245	262.44
484.463	264.44
484.681	280.44
484.9	263.44
485.118	264.44
485.336	234.44
485.554	211.44
485.772	205.44
485.99	194.44
486.209	208.44
486.427	233.44
486.645	265.44
486.863	273.44
487.081	260.44
487.299	235.44
487.517	279.44
487.735	333.44
487.953	345.44
488.171	350.44
488.389	333.44
488.607	297.44
488.825	281.44
489.043	238.44
489.261	262.44
489.479	258.44
489.696	287.44
489.914	275.44
490.132	286.44
490.35	321.44
490.568	326.44
490.786	359.44
491.003	348.44
491.221	350.44
491.439	368.44
491.657	397.44
491.874	422.44
492.092	475.44
492.31	477.44
492.527	486.44
492.745	432.44
492.963	390.44
493.18	397.44
493.398	369.44
493.615	376.44
493.833	372.44
494.05	341.44
494.268	346.44
494.485	338.44
494.703	371.44
494.92	352.44
495.138	344.44
495.355	358.44
495.573	378.44
495.79	352.44
496.008	355.44
496.225	353.44
496.442	322.44
496.66	344.44
496.877	344.44
497.094	345.44
497.312	347.44
497.529	333.44
497.746	340.44
497.963	285.44
498.181	279.44
498.398	269.44
498.615	287.44
498.832	286.44
499.049	302.44
499.267	312.44
499.484	356.44
499.701	365.44
499.918	413.44
500.135	446.44
500.352	494.44
500.569	491.44
500.786	502.44
501.003	471.44
501.22	435.44
501.437	407.44
501.654	369.44
501.871	341.44
502.088	327.44
502.305	325.44
502.522	331.44
502.739	289.44
502.956	303.44
503.172	269.44
503.389	257.44
503.606	262.44
503.823	262.44
504.04	248.44
504.256	259.44
504.473	257.44
504.69	265.44
504.907	246.44
