Data from SampD_HRD10591_00071.txt Node
Date: Mon Jan 19 11:48:02 EST 2026
User: Yrep
Spectrometer: HR+D1059
Trigger mode: 0
Integration Time (sec): 3.443000E-1
Scans to average: 1
Electric dark correction enabled: true
Nonlinearity correction enabled: false
Boxcar width: 0
XAxis mode: Wavelengths
Number of Pixels in Spectrum: 2048
>>>>>Begin Spectral Data<<<<<
223.165	-12.81
223.4	-12.81
223.635	-12.81
223.869	-20.81
224.104	-24.81
224.338	-13.81
224.573	-7.81
224.808	-8.81
225.042	-13.81
225.277	0.19
225.511	-4.81
225.746	-4.81
225.98	3.19
226.215	17.19
226.449	23.19
226.683	16.19
226.918	23.19
227.152	29.19
227.387	47.19
227.621	33.19
227.856	59.19
228.09	43.19
228.324	58.19
228.559	67.19
228.793	63.19
229.027	56.19
229.262	72.19
229.496	63.19
229.73	76.19
229.964	81.19
230.199	67.19
230.433	77.19
230.667	74.19
230.901	89.19
231.136	79.19
231.37	86.19
231.604	89.19
231.838	84.19
232.072	83.19
232.306	82.19
232.541	79.19
232.775	85.19
233.009	75.19
233.243	89.19
233.477	91.19
233.711	88.19
233.945	90.19
234.179	85.19
234.413	87.19
234.647	71.19
234.881	90.19
235.115	83.19
235.349	75.19
235.583	86.19
235.817	85.19
236.051	80.19
236.285	79.19
236.519	97.19
236.753	91.19
236.987	74.19
237.221	99.19
237.455	100.19
237.689	87.19
237.922	79.19
238.156	85.19
238.39	82.19
238.624	75.19
238.858	95.19
239.091	83.19
239.325	75.19
239.559	90.19
239.793	80.19
240.027	81.19
240.26	85.19
240.494	84.19
240.728	75.19
240.961	74.19
241.195	90.19
241.429	85.19
241.662	82.19
241.896	68.19
242.13	71.19
242.363	75.19
242.597	84.19
242.83	85.19
243.064	99.19
243.298	85.19
243.531	84.19
243.765	92.19
243.998	98.19
244.232	87.19
244.465	91.19
244.699	97.19
244.932	80.19
245.166	89.19
245.399	82.19
245.633	90.19
245.866	91.19
246.099	85.19
246.333	96.19
246.566	81.19
246.8	93.19
247.033	86.19
247.266	89.19
247.5	69.19
247.733	86.19
247.966	91.19
248.2	79.19
248.433	73.19
248.666	106.19
248.899	85.19
249.133	102.19
249.366	108.19
249.599	96.19
249.832	85.19
250.066	104.19
250.299	95.19
250.532	87.19
250.765	88.19
250.998	90.19
251.231	76.19
251.465	103.19
251.698	71.19
251.931	83.19
252.164	89.19
252.397	84.19
252.63	82.19
252.863	104.19
253.096	85.19
253.329	100.19
253.562	102.19
253.795	88.19
254.028	113.19
254.261	104.19
254.494	83.19
254.727	99.19
254.96	75.19
255.193	98.19
255.426	99.19
255.659	121.19
255.892	109.19
256.124	95.19
256.357	103.19
256.59	101.19
256.823	101.19
257.056	92.19
257.289	101.19
257.521	105.19
257.754	107.19
257.987	90.19
258.22	89.19
258.452	99.19
258.685	103.19
258.918	85.19
259.151	99.19
259.383	112.19
259.616	88.19
259.849	74.19
260.081	104.19
260.314	87.19
260.547	99.19
260.779	94.19
261.012	106.19
261.244	104.19
261.477	103.19
261.71	107.19
261.942	112.19
262.175	99.19
262.407	89.19
262.64	112.19
262.872	100.19
263.105	89.19
263.337	119.19
263.57	92.19
263.802	94.19
264.035	106.19
264.267	108.19
264.499	84.19
264.732	106.19
264.964	93.19
265.197	91.19
265.429	99.19
265.661	96.19
265.894	100.19
266.126	121.19
266.358	113.19
266.591	104.19
266.823	105.19
267.055	106.19
267.287	88.19
267.52	97.19
267.752	119.19
267.984	120.19
268.216	112.19
268.448	106.19
268.681	111.19
268.913	105.19
269.145	107.19
269.377	100.19
269.609	105.19
269.841	106.19
270.073	81.19
270.306	107.19
270.538	93.19
270.77	109.19
271.002	96.19
271.234	112.19
271.466	108.19
271.698	84.19
271.93	105.19
272.162	97.19
272.394	106.19
272.626	94.19
272.858	99.19
273.09	106.19
273.322	108.19
273.553	103.19
273.785	100.19
274.017	107.19
274.249	92.19
274.481	109.19
274.713	100.19
274.945	121.19
275.176	101.19
275.408	116.19
275.64	98.19
275.872	109.19
276.104	109.19
276.335	105.19
276.567	102.19
276.799	97.19
277.031	100.19
277.262	114.19
277.494	103.19
277.726	115.19
277.957	100.19
278.189	79.19
278.421	93.19
278.652	116.19
278.884	108.19
279.115	101.19
279.347	109.19
279.579	104.19
279.81	104.19
280.042	100.19
280.273	116.19
280.505	100.19
280.736	107.19
280.968	99.19
281.199	106.19
281.431	117.19
281.662	107.19
281.894	113.19
282.125	111.19
282.356	111.19
282.588	106.19
282.819	105.19
283.051	116.19
283.282	100.19
283.513	107.19
283.745	110.19
283.976	117.19
284.207	117.19
284.439	109.19
284.67	112.19
284.901	113.19
285.132	119.19
285.364	95.19
285.595	114.19
285.826	104.19
286.057	119.19
286.288	117.19
286.52	130.19
286.751	121.19
286.982	105.19
287.213	107.19
287.444	134.19
287.675	123.19
287.906	119.19
288.138	114.19
288.369	117.19
288.6	105.19
288.831	125.19
289.062	123.19
289.293	107.19
289.524	112.19
289.755	111.19
289.986	111.19
290.217	124.19
290.448	111.19
290.679	116.19
290.91	119.19
291.141	124.19
291.371	129.19
291.602	113.19
291.833	103.19
292.064	109.19
292.295	116.19
292.526	108.19
292.757	113.19
292.987	110.19
293.218	112.19
293.449	119.19
293.68	113.19
293.91	115.19
294.141	126.19
294.372	104.19
294.603	114.19
294.833	107.19
295.064	108.19
295.295	114.19
295.525	113.19
295.756	122.19
295.987	117.19
296.217	121.19
296.448	115.19
296.679	113.19
296.909	138.19
297.14	134.19
297.37	130.19
297.601	111.19
297.831	119.19
298.062	107.19
298.292	122.19
298.523	124.19
298.753	110.19
298.984	145.19
299.214	125.19
299.445	106.19
299.675	119.19
299.905	117.19
300.136	120.19
300.366	110.19
300.597	116.19
300.827	128.19
301.057	133.19
301.288	149.19
301.518	126.19
301.748	126.19
301.979	155.19
302.209	124.19
302.439	112.19
302.669	122.19
302.9	123.19
303.13	111.19
303.36	118.19
303.59	110.19
303.82	124.19
304.051	131.19
304.281	120.19
304.511	147.19
304.741	121.19
304.971	116.19
305.201	114.19
305.431	116.19
305.661	136.19
305.891	107.19
306.121	133.19
306.352	123.19
306.582	109.19
306.812	120.19
307.042	128.19
307.272	124.19
307.502	123.19
307.731	126.19
307.961	124.19
308.191	119.19
308.421	118.19
308.651	123.19
308.881	128.19
309.111	126.19
309.341	112.19
309.571	112.19
309.8	108.19
310.03	104.19
310.26	134.19
310.49	125.19
310.72	122.19
310.949	113.19
311.179	116.19
311.409	121.19
311.639	119.19
311.868	112.19
312.098	116.19
312.328	119.19
312.557	139.19
312.787	127.19
313.017	129.19
313.246	119.19
313.476	133.19
313.706	113.19
313.935	124.19
314.165	128.19
314.394	123.19
314.624	129.19
314.853	126.19
315.083	130.19
315.312	116.19
315.542	129.19
315.771	131.19
316.001	110.19
316.23	124.19
316.46	123.19
316.689	122.19
316.919	121.19
317.148	122.19
317.377	123.19
317.607	131.19
317.836	116.19
318.065	131.19
318.295	136.19
318.524	115.19
318.753	117.19
318.983	108.19
319.212	136.19
319.441	121.19
319.67	123.19
319.9	129.19
320.129	131.19
320.358	112.19
320.587	119.19
320.816	117.19
321.046	135.19
321.275	143.19
321.504	119.19
321.733	112.19
321.962	120.19
322.191	131.19
322.42	121.19
322.649	115.19
322.878	132.19
323.108	115.19
323.337	137.19
323.566	119.19
323.795	120.19
324.024	141.19
324.253	128.19
324.482	116.19
324.71	122.19
324.939	127.19
325.168	134.19
325.397	136.19
325.626	130.19
325.855	131.19
326.084	129.19
326.313	132.19
326.542	134.19
326.77	142.19
326.999	125.19
327.228	123.19
327.457	137.19
327.686	141.19
327.914	139.19
328.143	128.19
328.372	117.19
328.6	116.19
328.829	132.19
329.058	132.19
329.287	139.19
329.515	134.19
329.744	137.19
329.972	115.19
330.201	124.19
330.43	137.19
330.658	130.19
330.887	121.19
331.115	148.19
331.344	119.19
331.572	140.19
331.801	131.19
332.03	128.19
332.258	130.19
332.486	142.19
332.715	145.19
332.943	153.19
333.172	147.19
333.4	145.19
333.629	136.19
333.857	152.19
334.085	141.19
334.314	148.19
334.542	157.19
334.771	130.19
334.999	148.19
335.227	137.19
335.455	138.19
335.684	164.19
335.912	149.19
336.14	135.19
336.369	132.19
336.597	146.19
336.825	157.19
337.053	138.19
337.281	147.19
337.51	154.19
337.738	146.19
337.966	144.19
338.194	127.19
338.422	145.19
338.65	137.19
338.878	121.19
339.106	137.19
339.334	140.19
339.562	120.19
339.79	124.19
340.018	143.19
340.246	130.19
340.474	122.19
340.702	141.19
340.93	129.19
341.158	133.19
341.386	132.19
341.614	132.19
341.842	131.19
342.07	113.19
342.298	131.19
342.526	140.19
342.754	152.19
342.981	143.19
343.209	132.19
343.437	151.19
343.665	143.19
343.893	144.19
344.12	139.19
344.348	129.19
344.576	144.19
344.804	127.19
345.031	141.19
345.259	130.19
345.487	137.19
345.714	126.19
345.942	137.19
346.17	131.19
346.397	141.19
346.625	123.19
346.853	146.19
347.08	123.19
347.308	124.19
347.535	134.19
347.763	142.19
347.99	144.19
348.218	134.19
348.445	125.19
348.673	121.19
348.9	130.19
349.128	122.19
349.355	122.19
349.583	135.19
349.81	129.19
350.037	121.19
350.265	128.19
350.492	124.19
350.72	127.19
350.947	119.19
351.174	115.19
351.402	117.19
351.629	131.19
351.856	147.19
352.083	128.19
352.311	141.19
352.538	123.19
352.765	126.19
352.992	149.19
353.22	123.19
353.447	120.19
353.674	139.19
353.901	135.19
354.128	133.19
354.355	133.19
354.583	127.19
354.81	132.19
355.037	132.19
355.264	135.19
355.491	116.19
355.718	135.19
355.945	154.19
356.172	135.19
356.399	123.19
356.626	143.19
356.853	125.19
357.08	131.19
357.307	134.19
357.534	122.19
357.761	124.19
357.988	147.19
358.215	128.19
358.441	131.19
358.668	121.19
358.895	120.19
359.122	120.19
359.349	132.19
359.576	131.19
359.802	116.19
360.029	112.19
360.256	110.19
360.483	126.19
360.709	109.19
360.936	129.19
361.163	113.19
361.39	139.19
361.616	138.19
361.843	116.19
362.07	139.19
362.296	111.19
362.523	115.19
362.749	120.19
362.976	127.19
363.203	157.19
363.429	128.19
363.656	122.19
363.882	130.19
364.109	128.19
364.335	136.19
364.562	134.19
364.788	148.19
365.015	132.19
365.241	130.19
365.468	149.19
365.694	141.19
365.92	133.19
366.147	123.19
366.373	136.19
366.599	124.19
366.826	134.19
367.052	130.19
367.278	140.19
367.505	132.19
367.731	160.19
367.957	138.19
368.184	133.19
368.41	132.19
368.636	133.19
368.862	143.19
369.089	157.19
369.315	157.19
369.541	144.19
369.767	139.19
369.993	132.19
370.219	135.19
370.445	147.19
370.672	148.19
370.898	162.19
371.124	138.19
371.35	129.19
371.576	161.19
371.802	138.19
372.028	145.19
372.254	147.19
372.48	153.19
372.706	160.19
372.932	143.19
373.158	145.19
373.384	172.19
373.61	163.19
373.835	140.19
374.061	143.19
374.287	147.19
374.513	154.19
374.739	154.19
374.965	171.19
375.191	161.19
375.416	162.19
375.642	167.19
375.868	174.19
376.094	157.19
376.319	159.19
376.545	157.19
376.771	154.19
376.997	155.19
377.222	153.19
377.448	153.19
377.674	158.19
377.899	154.19
378.125	154.19
378.35	161.19
378.576	151.19
378.802	138.19
379.027	161.19
379.253	163.19
379.478	153.19
379.704	154.19
379.929	157.19
380.155	149.19
380.38	138.19
380.606	157.19
380.831	169.19
381.057	165.19
381.282	166.19
381.507	165.19
381.733	173.19
381.958	178.19
382.184	164.19
382.409	172.19
382.634	183.19
382.86	169.19
383.085	166.19
383.31	185.19
383.535	186.19
383.761	179.19
383.986	188.19
384.211	166.19
384.436	191.19
384.662	185.19
384.887	180.19
385.112	179.19
385.337	171.19
385.562	181.19
385.787	192.19
386.013	182.19
386.238	170.19
386.463	178.19
386.688	210.19
386.913	198.19
387.138	181.19
387.363	174.19
387.588	192.19
387.813	179.19
388.038	200.19
388.263	191.19
388.488	197.19
388.713	202.19
388.938	183.19
389.163	183.19
389.387	184.19
389.612	187.19
389.837	183.19
390.062	189.19
390.287	180.19
390.512	180.19
390.736	188.19
390.961	200.19
391.186	213.19
391.411	193.19
391.636	209.19
391.86	207.19
392.085	201.19
392.31	212.19
392.534	204.19
392.759	209.19
392.984	192.19
393.208	201.19
393.433	192.19
393.658	214.19
393.882	203.19
394.107	209.19
394.331	197.19
394.556	209.19
394.78	220.19
395.005	200.19
395.229	219.19
395.454	215.19
395.678	215.19
395.903	221.19
396.127	219.19
396.352	185.19
396.576	204.19
396.801	209.19
397.025	218.19
397.249	212.19
397.474	221.19
397.698	222.19
397.922	219.19
398.147	211.19
398.371	208.19
398.595	233.19
398.82	230.19
399.044	229.19
399.268	260.19
399.492	290.19
399.717	284.19
399.941	262.19
400.165	259.19
400.389	243.19
400.613	251.19
400.837	244.19
401.062	240.19
401.286	240.19
401.51	232.19
401.734	240.19
401.958	239.19
402.182	239.19
402.406	246.19
402.63	258.19
402.854	235.19
403.078	256.19
403.302	256.19
403.526	265.19
403.75	269.19
403.974	271.19
404.198	261.19
404.422	262.19
404.645	284.19
404.869	266.19
405.093	253.19
405.317	264.19
405.541	258.19
405.765	275.19
405.988	272.19
406.212	252.19
406.436	250.19
406.66	269.19
406.883	268.19
407.107	250.19
407.331	273.19
407.555	264.19
407.778	274.19
408.002	285.19
408.226	285.19
408.449	275.19
408.673	289.19
408.896	271.19
409.12	264.19
409.344	275.19
409.567	283.19
409.791	266.19
410.014	265.19
410.238	289.19
410.461	271.19
410.685	271.19
410.908	267.19
411.132	269.19
411.355	257.19
411.578	259.19
411.802	232.19
412.025	255.19
412.249	275.19
412.472	253.19
412.695	263.19
412.919	257.19
413.142	271.19
413.365	252.19
413.589	259.19
413.812	277.19
414.035	273.19
414.258	275.19
414.482	250.19
414.705	264.19
414.928	282.19
415.151	245.19
415.374	271.19
415.597	264.19
415.821	251.19
416.044	246.19
416.267	260.19
416.49	253.19
416.713	275.19
416.936	262.19
417.159	266.19
417.382	273.19
417.605	249.19
417.828	281.19
418.051	272.19
418.274	281.19
418.497	296.19
418.72	281.19
418.943	284.19
419.166	270.19
419.389	303.19
419.611	304.19
419.834	293.19
420.057	281.19
420.28	288.19
420.503	277.19
420.726	285.19
420.948	276.19
421.171	264.19
421.394	285.19
421.617	300.19
421.839	306.19
422.062	275.19
422.285	277.19
422.507	274.19
422.73	284.19
422.953	278.19
423.175	283.19
423.398	281.19
423.621	290.19
423.843	292.19
424.066	291.19
424.288	302.19
424.511	300.19
424.733	302.19
424.956	287.19
425.178	293.19
425.401	301.19
425.623	285.19
425.846	275.19
426.068	265.19
426.291	255.19
426.513	263.19
426.735	269.19
426.958	275.19
427.18	269.19
427.402	287.19
427.625	271.19
427.847	256.19
428.069	251.19
428.292	277.19
428.514	266.19
428.736	271.19
428.958	277.19
429.181	257.19
429.403	259.19
429.625	267.19
429.847	257.19
430.069	248.19
430.292	256.19
430.514	243.19
430.736	253.19
430.958	257.19
431.18	238.19
431.402	244.19
431.624	249.19
431.846	215.19
432.068	179.19
432.29	208.19
432.512	220.19
432.734	234.19
432.956	252.19
433.178	275.19
433.4	266.19
433.622	285.19
433.844	251.19
434.066	224.19
434.287	198.19
434.509	209.19
434.731	219.19
434.953	244.19
435.175	251.19
435.397	243.19
435.618	231.19
435.84	229.19
436.062	235.19
436.284	255.19
436.505	259.19
436.727	279.19
436.949	273.19
437.17	255.19
437.392	244.19
437.614	255.19
437.835	207.19
438.057	216.19
438.278	223.19
438.5	253.19
438.721	266.19
438.943	276.19
439.165	264.19
439.386	293.19
439.608	307.19
439.829	301.19
440.05	271.19
440.272	267.19
440.493	289.19
440.715	284.19
440.936	301.19
441.158	311.19
441.379	297.19
441.6	301.19
441.822	305.19
442.043	301.19
442.264	305.19
442.486	299.19
442.707	279.19
442.928	277.19
443.149	293.19
443.371	277.19
443.592	289.19
443.813	297.19
444.034	313.19
444.255	317.19
444.476	301.19
444.698	319.19
444.919	332.19
445.14	589.19
445.361	440.19
445.582	321.19
445.803	298.19
446.024	312.19
446.245	327.19
446.466	309.19
446.687	301.19
446.908	317.19
447.129	323.19
447.35	295.19
447.571	287.19
447.792	289.19
448.013	291.19
448.234	289.19
448.455	281.19
448.675	288.19
448.896	276.19
449.117	265.19
449.338	283.19
449.559	267.19
449.779	267.19
450	260.19
450.221	282.19
450.442	265.19
450.662	269.19
450.883	247.19
451.104	268.19
451.324	266.19
451.545	270.19
451.766	249.19
451.986	249.19
452.207	256.19
452.428	227.19
452.648	226.19
452.869	216.19
453.089	214.19
453.31	203.19
453.53	187.19
453.751	203.19
453.971	186.19
454.192	216.19
454.412	219.19
454.633	204.19
454.853	227.19
455.073	225.19
455.294	242.19
455.514	235.19
455.734	220.19
455.955	232.19
456.175	215.19
456.395	200.19
456.616	209.19
456.836	204.19
457.056	208.19
457.276	205.19
457.497	187.19
457.717	188.19
457.937	192.19
458.157	208.19
458.377	194.19
458.598	183.19
458.818	173.19
459.038	159.19
459.258	165.19
459.478	171.19
459.698	178.19
459.918	183.19
460.138	216.19
460.358	233.19
460.578	265.19
460.798	234.19
461.018	229.19
461.238	250.19
461.458	246.19
461.678	244.19
461.898	245.19
462.118	248.19
462.338	263.19
462.558	235.19
462.777	251.19
462.997	266.19
463.217	274.19
463.437	267.19
463.657	228.19
463.876	255.19
464.096	246.19
464.316	215.19
464.536	252.19
464.755	258.19
464.975	242.19
465.195	247.19
465.414	249.19
465.634	224.19
465.854	222.19
466.073	223.19
466.293	247.19
466.512	252.19
466.732	252.19
466.951	263.19
467.171	250.19
467.391	248.19
467.61	250.19
467.829	255.19
468.049	260.19
468.268	256.19
468.488	250.19
468.707	269.19
468.927	256.19
469.146	260.19
469.365	262.19
469.585	265.19
469.804	257.19
470.023	275.19
470.243	291.19
470.462	279.19
470.681	257.19
470.901	266.19
471.12	267.19
471.339	281.19
471.558	273.19
471.777	268.19
471.997	264.19
472.216	249.19
472.435	211.19
472.654	204.19
472.873	200.19
473.092	224.19
473.311	221.19
473.53	226.19
473.749	232.19
473.968	255.19
474.187	223.19
474.406	215.19
474.625	228.19
474.844	239.19
475.063	248.19
475.282	226.19
475.501	221.19
475.72	244.19
475.939	227.19
476.158	245.19
476.377	245.19
476.596	229.19
476.814	214.19
477.033	215.19
477.252	221.19
477.471	236.19
477.69	245.19
477.908	278.19
478.127	265.19
478.346	261.19
478.564	259.19
478.783	275.19
479.002	279.19
479.22	262.19
479.439	297.19
479.658	255.19
479.876	228.19
480.095	217.19
480.313	242.19
480.532	243.19
480.751	231.19
480.969	195.19
481.188	192.19
481.406	170.19
481.624	167.19
481.843	167.19
482.061	188.19
482.28	201.19
482.498	214.19
482.717	195.19
482.935	236.19
483.153	281.19
483.372	283.19
483.59	285.19
483.808	244.19
484.027	243.19
484.245	258.19
484.463	277.19
484.681	297.19
484.9	257.19
485.118	252.19
485.336	235.19
485.554	212.19
485.772	201.19
485.99	204.19
486.209	216.19
486.427	218.19
486.645	233.19
486.863	266.19
487.081	272.19
487.299	243.19
487.517	273.19
487.735	347.19
487.953	354.19
488.171	353.19
488.389	321.19
488.607	309.19
488.825	278.19
489.043	246.19
489.261	260.19
489.479	265.19
489.696	275.19
489.914	292.19
490.132	297.19
490.35	283.19
490.568	321.19
490.786	354.19
491.003	356.19
491.221	376.19
491.439	367.19
491.657	391.19
491.874	434.19
492.092	465.19
492.31	471.19
492.527	440.19
492.745	421.19
492.963	399.19
493.18	392.19
493.398	372.19
493.615	377.19
493.833	380.19
494.05	375.19
494.268	372.19
494.485	359.19
494.703	363.19
494.92	368.19
495.138	377.19
495.355	368.19
495.573	372.19
495.79	344.19
496.008	372.19
496.225	343.19
496.442	323.19
496.66	371.19
496.877	344.19
497.094	349.19
497.312	332.19
497.529	347.19
497.746	325.19
497.963	310.19
498.181	275.19
498.398	284.19
498.615	295.19
498.832	299.19
499.049	292.19
499.267	325.19
499.484	339.19
499.701	377.19
499.918	420.19
500.135	431.19
500.352	483.19
500.569	505.19
500.786	519.19
501.003	467.19
501.22	434.19
501.437	380.19
501.654	383.19
501.871	343.19
502.088	315.19
502.305	325.19
502.522	292.19
502.739	306.19
502.956	281.19
503.172	268.19
503.389	241.19
503.606	243.19
503.823	248.19
504.04	241.19
504.256	276.19
504.473	268.19
504.69	277.19
