Data from SampD_HRD10591_00064.txt Node
Date: Mon Jan 19 11:48:00 EST 2026
User: Yrep
Spectrometer: HR+D1059
Trigger mode: 0
Integration Time (sec): 3.443000E-1
Scans to average: 1
Electric dark correction enabled: true
Nonlinearity correction enabled: false
Boxcar width: 0
XAxis mode: Wavelengths
Number of Pixels in Spectrum: 2048
>>>>>Begin Spectral Data<<<<<
223.165	-27.56
223.4	-27.56
223.635	-27.56
223.869	-17.56
224.104	-28.56
224.338	-16.56
224.573	-18.56
224.808	-6.56
225.042	-8.56
225.277	1.44
225.511	1.44
225.746	1.44
225.98	5.44
226.215	29.44
226.449	8.44
226.683	24.44
226.918	18.44
227.152	33.44
227.387	26.44
227.621	59.44
227.856	54.44
228.09	36.44
228.324	48.44
228.559	60.44
228.793	55.44
229.027	69.44
229.262	60.44
229.496	71.44
229.73	73.44
229.964	87.44
230.199	83.44
230.433	65.44
230.667	76.44
230.901	79.44
231.136	80.44
231.37	85.44
231.604	80.44
231.838	84.44
232.072	76.44
232.306	75.44
232.541	79.44
232.775	87.44
233.009	86.44
233.243	90.44
233.477	94.44
233.711	87.44
233.945	94.44
234.179	83.44
234.413	101.44
234.647	95.44
234.881	93.44
235.115	82.44
235.349	84.44
235.583	88.44
235.817	93.44
236.051	86.44
236.285	87.44
236.519	91.44
236.753	78.44
236.987	79.44
237.221	72.44
237.455	92.44
237.689	86.44
237.922	97.44
238.156	92.44
238.39	89.44
238.624	70.44
238.858	70.44
239.091	57.44
239.325	84.44
239.559	90.44
239.793	100.44
240.027	68.44
240.26	87.44
240.494	89.44
240.728	86.44
240.961	75.44
241.195	92.44
241.429	91.44
241.662	82.44
241.896	94.44
242.13	79.44
242.363	80.44
242.597	76.44
242.83	102.44
243.064	93.44
243.298	70.44
243.531	86.44
243.765	91.44
243.998	93.44
244.232	85.44
244.465	88.44
244.699	88.44
244.932	89.44
245.166	83.44
245.399	85.44
245.633	98.44
245.866	83.44
246.099	78.44
246.333	102.44
246.566	97.44
246.8	86.44
247.033	88.44
247.266	92.44
247.5	93.44
247.733	68.44
247.966	85.44
248.2	82.44
248.433	92.44
248.666	92.44
248.899	102.44
249.133	89.44
249.366	102.44
249.599	86.44
249.832	103.44
250.066	95.44
250.299	100.44
250.532	90.44
250.765	96.44
250.998	86.44
251.231	91.44
251.465	97.44
251.698	86.44
251.931	80.44
252.164	92.44
252.397	96.44
252.63	100.44
252.863	94.44
253.096	100.44
253.329	84.44
253.562	95.44
253.795	99.44
254.028	99.44
254.261	104.44
254.494	87.44
254.727	82.44
254.96	84.44
255.193	79.44
255.426	92.44
255.659	95.44
255.892	105.44
256.124	89.44
256.357	90.44
256.59	101.44
256.823	82.44
257.056	101.44
257.289	94.44
257.521	95.44
257.754	95.44
257.987	111.44
258.22	95.44
258.452	100.44
258.685	89.44
258.918	95.44
259.151	90.44
259.383	89.44
259.616	98.44
259.849	95.44
260.081	97.44
260.314	95.44
260.547	111.44
260.779	99.44
261.012	96.44
261.244	93.44
261.477	123.44
261.71	98.44
261.942	91.44
262.175	98.44
262.407	79.44
262.64	99.44
262.872	95.44
263.105	94.44
263.337	95.44
263.57	97.44
263.802	106.44
264.035	96.44
264.267	100.44
264.499	100.44
264.732	113.44
264.964	104.44
265.197	96.44
265.429	105.44
265.661	99.44
265.894	101.44
266.126	105.44
266.358	106.44
266.591	104.44
266.823	97.44
267.055	92.44
267.287	103.44
267.52	94.44
267.752	109.44
267.984	94.44
268.216	109.44
268.448	98.44
268.681	110.44
268.913	106.44
269.145	105.44
269.377	98.44
269.609	104.44
269.841	100.44
270.073	100.44
270.306	104.44
270.538	98.44
270.77	95.44
271.002	95.44
271.234	90.44
271.466	106.44
271.698	112.44
271.93	111.44
272.162	109.44
272.394	96.44
272.626	98.44
272.858	90.44
273.09	99.44
273.322	113.44
273.553	107.44
273.785	100.44
274.017	98.44
274.249	98.44
274.481	106.44
274.713	99.44
274.945	101.44
275.176	112.44
275.408	121.44
275.64	99.44
275.872	105.44
276.104	120.44
276.335	99.44
276.567	111.44
276.799	104.44
277.031	102.44
277.262	122.44
277.494	104.44
277.726	110.44
277.957	105.44
278.189	119.44
278.421	99.44
278.652	105.44
278.884	112.44
279.115	106.44
279.347	102.44
279.579	113.44
279.81	104.44
280.042	97.44
280.273	97.44
280.505	113.44
280.736	96.44
280.968	107.44
281.199	119.44
281.431	107.44
281.662	100.44
281.894	121.44
282.125	113.44
282.356	111.44
282.588	107.44
282.819	110.44
283.051	119.44
283.282	111.44
283.513	114.44
283.745	118.44
283.976	114.44
284.207	96.44
284.439	120.44
284.67	113.44
284.901	119.44
285.132	106.44
285.364	120.44
285.595	104.44
285.826	108.44
286.057	124.44
286.288	111.44
286.52	114.44
286.751	111.44
286.982	115.44
287.213	115.44
287.444	122.44
287.675	114.44
287.906	123.44
288.138	122.44
288.369	119.44
288.6	115.44
288.831	116.44
289.062	117.44
289.293	125.44
289.524	113.44
289.755	118.44
289.986	122.44
290.217	108.44
290.448	108.44
290.679	114.44
290.91	126.44
291.141	109.44
291.371	133.44
291.602	99.44
291.833	108.44
292.064	118.44
292.295	123.44
292.526	110.44
292.757	119.44
292.987	106.44
293.218	102.44
293.449	125.44
293.68	111.44
293.91	111.44
294.141	128.44
294.372	116.44
294.603	110.44
294.833	113.44
295.064	119.44
295.295	106.44
295.525	116.44
295.756	128.44
295.987	123.44
296.217	122.44
296.448	115.44
296.679	118.44
296.909	122.44
297.14	122.44
297.37	122.44
297.601	124.44
297.831	132.44
298.062	119.44
298.292	124.44
298.523	139.44
298.753	123.44
298.984	107.44
299.214	123.44
299.445	114.44
299.675	123.44
299.905	128.44
300.136	109.44
300.366	116.44
300.597	132.44
300.827	118.44
301.057	111.44
301.288	116.44
301.518	129.44
301.748	127.44
301.979	179.44
302.209	122.44
302.439	111.44
302.669	129.44
302.9	119.44
303.13	118.44
303.36	112.44
303.59	108.44
303.82	112.44
304.051	131.44
304.281	130.44
304.511	135.44
304.741	116.44
304.971	113.44
305.201	133.44
305.431	125.44
305.661	133.44
305.891	121.44
306.121	122.44
306.352	127.44
306.582	112.44
306.812	113.44
307.042	120.44
307.272	125.44
307.502	121.44
307.731	124.44
307.961	108.44
308.191	124.44
308.421	120.44
308.651	109.44
308.881	121.44
309.111	130.44
309.341	129.44
309.571	124.44
309.8	122.44
310.03	120.44
310.26	121.44
310.49	110.44
310.72	104.44
310.949	137.44
311.179	106.44
311.409	126.44
311.639	127.44
311.868	124.44
312.098	113.44
312.328	119.44
312.557	118.44
312.787	121.44
313.017	143.44
313.246	132.44
313.476	118.44
313.706	132.44
313.935	145.44
314.165	114.44
314.394	120.44
314.624	121.44
314.853	131.44
315.083	124.44
315.312	119.44
315.542	124.44
315.771	128.44
316.001	125.44
316.23	123.44
316.46	113.44
316.689	113.44
316.919	135.44
317.148	134.44
317.377	131.44
317.607	127.44
317.836	129.44
318.065	112.44
318.295	124.44
318.524	122.44
318.753	115.44
318.983	116.44
319.212	125.44
319.441	119.44
319.67	117.44
319.9	123.44
320.129	136.44
320.358	145.44
320.587	131.44
320.816	129.44
321.046	109.44
321.275	128.44
321.504	127.44
321.733	129.44
321.962	123.44
322.191	117.44
322.42	123.44
322.649	114.44
322.878	106.44
323.108	130.44
323.337	114.44
323.566	137.44
323.795	126.44
324.024	132.44
324.253	126.44
324.482	129.44
324.71	137.44
324.939	122.44
325.168	128.44
325.397	130.44
325.626	122.44
325.855	127.44
326.084	123.44
326.313	138.44
326.542	132.44
326.77	138.44
326.999	122.44
327.228	139.44
327.457	135.44
327.686	133.44
327.914	124.44
328.143	142.44
328.372	137.44
328.6	139.44
328.829	114.44
329.058	129.44
329.287	133.44
329.515	126.44
329.744	142.44
329.972	143.44
330.201	129.44
330.43	130.44
330.658	126.44
330.887	126.44
331.115	155.44
331.344	138.44
331.572	135.44
331.801	137.44
332.03	144.44
332.258	138.44
332.486	130.44
332.715	128.44
332.943	152.44
333.172	139.44
333.4	158.44
333.629	153.44
333.857	156.44
334.085	145.44
334.314	145.44
334.542	159.44
334.771	147.44
334.999	168.44
335.227	147.44
335.455	144.44
335.684	152.44
335.912	149.44
336.14	131.44
336.369	149.44
336.597	134.44
336.825	151.44
337.053	128.44
337.281	134.44
337.51	128.44
337.738	145.44
337.966	147.44
338.194	131.44
338.422	138.44
338.65	129.44
338.878	134.44
339.106	128.44
339.334	136.44
339.562	138.44
339.79	125.44
340.018	126.44
340.246	131.44
340.474	127.44
340.702	126.44
340.93	128.44
341.158	132.44
341.386	125.44
341.614	126.44
341.842	137.44
342.07	134.44
342.298	120.44
342.526	117.44
342.754	136.44
342.981	145.44
343.209	139.44
343.437	164.44
343.665	138.44
343.893	133.44
344.12	149.44
344.348	130.44
344.576	120.44
344.804	131.44
345.031	128.44
345.259	129.44
345.487	124.44
345.714	135.44
345.942	131.44
346.17	131.44
346.397	130.44
346.625	128.44
346.853	124.44
347.08	136.44
347.308	138.44
347.535	119.44
347.763	129.44
347.99	128.44
348.218	139.44
348.445	121.44
348.673	129.44
348.9	132.44
349.128	144.44
349.355	146.44
349.583	126.44
349.81	144.44
350.037	129.44
350.265	131.44
350.492	121.44
350.72	122.44
350.947	119.44
351.174	131.44
351.402	127.44
351.629	125.44
351.856	126.44
352.083	125.44
352.311	119.44
352.538	123.44
352.765	132.44
352.992	142.44
353.22	126.44
353.447	131.44
353.674	146.44
353.901	136.44
354.128	138.44
354.355	124.44
354.583	115.44
354.81	119.44
355.037	133.44
355.264	140.44
355.491	133.44
355.718	141.44
355.945	134.44
356.172	129.44
356.399	125.44
356.626	116.44
356.853	128.44
357.08	129.44
357.307	127.44
357.534	115.44
357.761	114.44
357.988	128.44
358.215	126.44
358.441	133.44
358.668	127.44
358.895	127.44
359.122	118.44
359.349	133.44
359.576	115.44
359.802	125.44
360.029	125.44
360.256	115.44
360.483	151.44
360.709	123.44
360.936	121.44
361.163	126.44
361.39	130.44
361.616	138.44
361.843	139.44
362.07	122.44
362.296	133.44
362.523	131.44
362.749	142.44
362.976	129.44
363.203	139.44
363.429	127.44
363.656	142.44
363.882	116.44
364.109	142.44
364.335	128.44
364.562	141.44
364.788	127.44
365.015	120.44
365.241	131.44
365.468	136.44
365.694	122.44
365.92	149.44
366.147	132.44
366.373	120.44
366.599	131.44
366.826	134.44
367.052	139.44
367.278	136.44
367.505	146.44
367.731	164.44
367.957	133.44
368.184	132.44
368.41	134.44
368.636	135.44
368.862	135.44
369.089	131.44
369.315	137.44
369.541	154.44
369.767	151.44
369.993	152.44
370.219	153.44
370.445	139.44
370.672	143.44
370.898	147.44
371.124	143.44
371.35	134.44
371.576	158.44
371.802	162.44
372.028	141.44
372.254	148.44
372.48	136.44
372.706	143.44
372.932	142.44
373.158	130.44
373.384	172.44
373.61	140.44
373.835	163.44
374.061	139.44
374.287	154.44
374.513	156.44
374.739	148.44
374.965	154.44
375.191	160.44
375.416	140.44
375.642	166.44
375.868	173.44
376.094	159.44
376.319	157.44
376.545	160.44
376.771	132.44
376.997	169.44
377.222	147.44
377.448	134.44
377.674	151.44
377.899	160.44
378.125	148.44
378.35	164.44
378.576	163.44
378.802	162.44
379.027	157.44
379.253	175.44
379.478	156.44
379.704	152.44
379.929	163.44
380.155	151.44
380.38	147.44
380.606	143.44
380.831	159.44
381.057	181.44
381.282	160.44
381.507	142.44
381.733	170.44
381.958	167.44
382.184	163.44
382.409	175.44
382.634	173.44
382.86	177.44
383.085	171.44
383.31	190.44
383.535	174.44
383.761	187.44
383.986	172.44
384.211	168.44
384.436	193.44
384.662	183.44
384.887	173.44
385.112	169.44
385.337	183.44
385.562	190.44
385.787	162.44
386.013	202.44
386.238	198.44
386.463	192.44
386.688	206.44
386.913	186.44
387.138	190.44
387.363	184.44
387.588	182.44
387.813	203.44
388.038	195.44
388.263	189.44
388.488	174.44
388.713	164.44
388.938	186.44
389.163	181.44
389.387	189.44
389.612	187.44
389.837	200.44
390.062	193.44
390.287	186.44
390.512	178.44
390.736	195.44
390.961	192.44
391.186	203.44
391.411	206.44
391.636	225.44
391.86	222.44
392.085	211.44
392.31	204.44
392.534	195.44
392.759	218.44
392.984	192.44
393.208	198.44
393.433	195.44
393.658	200.44
393.882	212.44
394.107	210.44
394.331	195.44
394.556	198.44
394.78	204.44
395.005	199.44
395.229	211.44
395.454	220.44
395.678	198.44
395.903	213.44
396.127	215.44
396.352	216.44
396.576	212.44
396.801	197.44
397.025	202.44
397.249	210.44
397.474	207.44
397.698	217.44
397.922	235.44
398.147	228.44
398.371	221.44
398.595	212.44
398.82	231.44
399.044	240.44
399.268	271.44
399.492	281.44
399.717	292.44
399.941	258.44
400.165	266.44
400.389	232.44
400.613	236.44
400.837	244.44
401.062	238.44
401.286	224.44
401.51	253.44
401.734	240.44
401.958	243.44
402.182	233.44
402.406	242.44
402.63	228.44
402.854	235.44
403.078	254.44
403.302	255.44
403.526	255.44
403.75	277.44
403.974	268.44
404.198	294.44
404.422	264.44
404.645	253.44
404.869	270.44
405.093	262.44
405.317	255.44
405.541	260.44
405.765	262.44
405.988	252.44
406.212	265.44
406.436	264.44
406.66	271.44
406.883	264.44
407.107	271.44
407.331	257.44
407.555	289.44
407.778	282.44
408.002	265.44
408.226	270.44
408.449	272.44
408.673	277.44
408.896	274.44
409.12	268.44
409.344	268.44
409.567	268.44
409.791	282.44
410.014	263.44
410.238	274.44
410.461	270.44
410.685	259.44
410.908	253.44
411.132	272.44
411.355	259.44
411.578	265.44
411.802	268.44
412.025	268.44
412.249	276.44
412.472	262.44
412.695	241.44
412.919	250.44
413.142	263.44
413.365	244.44
413.589	260.44
413.812	247.44
414.035	262.44
414.258	255.44
414.482	251.44
414.705	260.44
414.928	268.44
415.151	278.44
415.374	271.44
415.597	255.44
415.821	279.44
416.044	256.44
416.267	256.44
416.49	248.44
416.713	255.44
416.936	274.44
417.159	274.44
417.382	266.44
417.605	256.44
417.828	263.44
418.051	274.44
418.274	274.44
418.497	291.44
418.72	282.44
418.943	289.44
419.166	284.44
419.389	296.44
419.611	292.44
419.834	287.44
420.057	292.44
420.28	274.44
420.503	289.44
420.726	271.44
420.948	288.44
421.171	280.44
421.394	280.44
421.617	282.44
421.839	306.44
422.062	279.44
422.285	271.44
422.507	283.44
422.73	263.44
422.953	272.44
423.175	280.44
423.398	289.44
423.621	274.44
423.843	290.44
424.066	301.44
424.288	297.44
424.511	303.44
424.733	297.44
424.956	279.44
425.178	291.44
425.401	280.44
425.623	284.44
425.846	270.44
426.068	262.44
426.291	263.44
426.513	257.44
426.735	270.44
426.958	264.44
427.18	276.44
427.402	273.44
427.625	276.44
427.847	254.44
428.069	257.44
428.292	274.44
428.514	272.44
428.736	243.44
428.958	263.44
429.181	263.44
429.403	260.44
429.625	256.44
429.847	279.44
430.069	249.44
430.292	267.44
430.514	255.44
430.736	240.44
430.958	258.44
431.18	246.44
431.402	247.44
431.624	214.44
431.846	215.44
432.068	208.44
432.29	192.44
432.512	228.44
432.734	241.44
432.956	273.44
433.178	294.44
433.4	282.44
433.622	272.44
433.844	266.44
434.066	235.44
434.287	194.44
434.509	206.44
434.731	215.44
434.953	235.44
435.175	262.44
435.397	267.44
435.618	223.44
435.84	224.44
436.062	233.44
436.284	254.44
436.505	257.44
436.727	261.44
436.949	282.44
437.17	272.44
437.392	242.44
437.614	217.44
437.835	201.44
438.057	203.44
438.278	224.44
438.5	253.44
438.721	272.44
438.943	293.44
439.165	260.44
439.386	280.44
439.608	296.44
439.829	287.44
440.05	292.44
440.272	278.44
440.493	280.44
440.715	294.44
440.936	283.44
441.158	303.44
441.379	316.44
441.6	317.44
441.822	299.44
442.043	296.44
442.264	300.44
442.486	286.44
442.707	270.44
442.928	301.44
443.149	289.44
443.371	296.44
443.592	282.44
443.813	287.44
444.034	306.44
444.255	305.44
444.476	336.44
444.698	319.44
444.919	314.44
445.14	572.44
445.361	425.44
445.582	314.44
445.803	290.44
446.024	291.44
446.245	306.44
446.466	316.44
446.687	311.44
446.908	292.44
447.129	296.44
447.35	307.44
447.571	308.44
447.792	296.44
448.013	270.44
448.234	279.44
448.455	281.44
448.675	271.44
448.896	268.44
449.117	263.44
449.338	282.44
449.559	282.44
449.779	268.44
450	286.44
450.221	274.44
450.442	264.44
450.662	268.44
450.883	251.44
451.104	260.44
451.324	241.44
451.545	256.44
451.766	249.44
451.986	241.44
452.207	233.44
452.428	241.44
452.648	259.44
452.869	216.44
453.089	209.44
453.31	196.44
453.53	193.44
453.751	192.44
453.971	190.44
454.192	201.44
454.412	203.44
454.633	209.44
454.853	228.44
455.073	227.44
455.294	235.44
455.514	225.44
455.734	214.44
455.955	208.44
456.175	211.44
456.395	173.44
456.616	201.44
456.836	195.44
457.056	203.44
457.276	192.44
457.497	187.44
457.717	188.44
457.937	200.44
458.157	194.44
458.377	192.44
458.598	176.44
458.818	168.44
459.038	165.44
459.258	163.44
459.478	167.44
459.698	170.44
459.918	179.44
460.138	192.44
460.358	225.44
460.578	235.44
460.798	235.44
461.018	234.44
461.238	226.44
461.458	236.44
461.678	222.44
461.898	249.44
462.118	236.44
462.338	246.44
462.558	235.44
462.777	245.44
462.997	274.44
463.217	262.44
463.437	253.44
463.657	245.44
463.876	245.44
464.096	243.44
464.316	241.44
464.536	258.44
464.755	241.44
464.975	234.44
465.195	270.44
465.414	247.44
465.634	222.44
465.854	256.44
466.073	243.44
466.293	239.44
466.512	229.44
466.732	267.44
466.951	255.44
467.171	254.44
467.391	267.44
467.61	270.44
467.829	264.44
468.049	265.44
468.268	258.44
468.488	253.44
468.707	274.44
468.927	264.44
469.146	252.44
469.365	280.44
469.585	266.44
469.804	268.44
470.023	275.44
470.243	282.44
470.462	268.44
470.681	288.44
470.901	267.44
471.12	281.44
471.339	284.44
471.558	255.44
471.777	264.44
471.997	271.44
472.216	238.44
472.435	219.44
472.654	199.44
472.873	203.44
473.092	219.44
473.311	234.44
473.53	224.44
473.749	235.44
473.968	232.44
474.187	224.44
474.406	231.44
474.625	226.44
474.844	249.44
475.063	263.44
475.282	234.44
475.501	220.44
475.72	228.44
475.939	232.44
476.158	241.44
476.377	245.44
476.596	224.44
476.814	208.44
477.033	213.44
477.252	227.44
477.471	225.44
477.69	247.44
477.908	263.44
478.127	287.44
478.346	276.44
478.564	259.44
478.783	274.44
479.002	274.44
479.22	278.44
479.439	247.44
479.658	238.44
479.876	231.44
480.095	226.44
480.313	247.44
480.532	246.44
480.751	225.44
480.969	176.44
481.188	172.44
481.406	188.44
481.624	183.44
481.843	178.44
482.061	193.44
482.28	208.44
482.498	219.44
482.717	216.44
482.935	239.44
483.153	278.44
483.372	280.44
483.59	311.44
483.808	247.44
484.027	243.44
484.245	244.44
484.463	263.44
484.681	283.44
484.9	262.44
485.118	260.44
485.336	223.44
485.554	210.44
485.772	204.44
485.99	211.44
486.209	239.44
486.427	206.44
486.645	235.44
486.863	259.44
487.081	271.44
487.299	272.44
487.517	276.44
487.735	334.44
487.953	364.44
488.171	348.44
488.389	334.44
488.607	294.44
488.825	271.44
489.043	252.44
489.261	263.44
489.479	276.44
489.696	278.44
489.914	255.44
490.132	288.44
490.35	317.44
490.568	321.44
490.786	328.44
491.003	360.44
491.221	363.44
491.439	388.44
491.657	395.44
491.874	412.44
492.092	465.44
492.31	508.44
492.527	438.44
492.745	402.44
492.963	380.44
493.18	399.44
493.398	388.44
493.615	376.44
493.833	366.44
494.05	355.44
494.268	339.44
494.485	364.44
494.703	351.44
494.92	360.44
495.138	360.44
495.355	353.44
495.573	366.44
495.79	367.44
496.008	353.44
496.225	318.44
496.442	349.44
496.66	358.44
496.877	337.44
497.094	343.44
497.312	325.44
497.529	326.44
497.746	326.44
497.963	289.44
498.181	292.44
498.398	292.44
498.615	283.44
498.832	265.44
499.049	294.44
499.267	313.44
499.484	327.44
499.701	375.44
499.918	416.44
500.135	436.44
500.352	484.44
500.569	524.44
500.786	505.44
501.003	492.44
501.22	424.44
501.437	394.44
501.654	354.44
501.871	350.44
502.088	336.44
502.305	312.44
502.522	314.44
502.739	301.44
502.956	274.44
503.172	286.44
503.389	272.44
503.606	271.44
503.823	254.44
504.04	255.44
504.256	250.44
504.473	260.44
504.69	248.44
504.907	257.44
