Data from SampD_HRD10591_00033.txt Node
Date: Mon Jan 19 11:47:49 EST 2026
User: Yrep
Spectrometer: HR+D1059
Trigger mode: 0
Integration Time (sec): 3.443000E-1
Scans to average: 1
Electric dark correction enabled: true
Nonlinearity correction enabled: false
Boxcar width: 0
XAxis mode: Wavelengths
Number of Pixels in Spectrum: 2048
>>>>>Begin Spectral Data<<<<<
223.165	-22.56
223.4	-22.56
223.635	-22.56
223.869	-36.56
224.104	-14.56
224.338	-19.56
224.573	-10.56
224.808	-8.56
225.042	-2.56
225.277	-5.56
225.511	-7.56
225.746	7.44
225.98	5.44
226.215	23.44
226.449	16.44
226.683	31.44
226.918	21.44
227.152	22.44
227.387	47.44
227.621	42.44
227.856	51.44
228.09	59.44
228.324	44.44
228.559	63.44
228.793	61.44
229.027	64.44
229.262	71.44
229.496	78.44
229.73	72.44
229.964	86.44
230.199	61.44
230.433	78.44
230.667	87.44
230.901	65.44
231.136	80.44
231.37	91.44
231.604	83.44
231.838	80.44
232.072	81.44
232.306	90.44
232.541	83.44
232.775	84.44
233.009	83.44
233.243	83.44
233.477	96.44
233.711	97.44
233.945	72.44
234.179	94.44
234.413	84.44
234.647	93.44
234.881	83.44
235.115	90.44
235.349	96.44
235.583	83.44
235.817	86.44
236.051	86.44
236.285	62.44
236.519	94.44
236.753	76.44
236.987	87.44
237.221	83.44
237.455	88.44
237.689	86.44
237.922	83.44
238.156	71.44
238.39	80.44
238.624	67.44
238.858	91.44
239.091	84.44
239.325	78.44
239.559	80.44
239.793	92.44
240.027	98.44
240.26	88.44
240.494	85.44
240.728	67.44
240.961	83.44
241.195	84.44
241.429	88.44
241.662	69.44
241.896	81.44
242.13	80.44
242.363	78.44
242.597	82.44
242.83	84.44
243.064	81.44
243.298	89.44
243.531	85.44
243.765	72.44
243.998	76.44
244.232	90.44
244.465	92.44
244.699	93.44
244.932	91.44
245.166	90.44
245.399	88.44
245.633	94.44
245.866	93.44
246.099	90.44
246.333	86.44
246.566	75.44
246.8	96.44
247.033	87.44
247.266	74.44
247.5	94.44
247.733	93.44
247.966	100.44
248.2	96.44
248.433	87.44
248.666	98.44
248.899	96.44
249.133	80.44
249.366	106.44
249.599	96.44
249.832	86.44
250.066	91.44
250.299	90.44
250.532	88.44
250.765	69.44
250.998	82.44
251.231	96.44
251.465	100.44
251.698	101.44
251.931	80.44
252.164	86.44
252.397	95.44
252.63	89.44
252.863	92.44
253.096	83.44
253.329	89.44
253.562	87.44
253.795	85.44
254.028	109.44
254.261	97.44
254.494	79.44
254.727	96.44
254.96	87.44
255.193	80.44
255.426	82.44
255.659	96.44
255.892	85.44
256.124	85.44
256.357	103.44
256.59	88.44
256.823	87.44
257.056	91.44
257.289	90.44
257.521	98.44
257.754	93.44
257.987	96.44
258.22	106.44
258.452	97.44
258.685	96.44
258.918	85.44
259.151	96.44
259.383	98.44
259.616	90.44
259.849	94.44
260.081	112.44
260.314	100.44
260.547	95.44
260.779	95.44
261.012	95.44
261.244	96.44
261.477	112.44
261.71	84.44
261.942	100.44
262.175	97.44
262.407	95.44
262.64	96.44
262.872	89.44
263.105	100.44
263.337	112.44
263.57	95.44
263.802	103.44
264.035	103.44
264.267	105.44
264.499	91.44
264.732	99.44
264.964	120.44
265.197	98.44
265.429	92.44
265.661	95.44
265.894	94.44
266.126	117.44
266.358	108.44
266.591	96.44
266.823	103.44
267.055	104.44
267.287	89.44
267.52	93.44
267.752	121.44
267.984	105.44
268.216	106.44
268.448	109.44
268.681	98.44
268.913	97.44
269.145	99.44
269.377	98.44
269.609	98.44
269.841	91.44
270.073	111.44
270.306	96.44
270.538	105.44
270.77	106.44
271.002	107.44
271.234	101.44
271.466	100.44
271.698	117.44
271.93	108.44
272.162	108.44
272.394	99.44
272.626	103.44
272.858	90.44
273.09	109.44
273.322	115.44
273.553	105.44
273.785	110.44
274.017	95.44
274.249	114.44
274.481	107.44
274.713	107.44
274.945	115.44
275.176	110.44
275.408	114.44
275.64	109.44
275.872	106.44
276.104	101.44
276.335	103.44
276.567	98.44
276.799	99.44
277.031	105.44
277.262	103.44
277.494	132.44
277.726	127.44
277.957	108.44
278.189	108.44
278.421	124.44
278.652	118.44
278.884	100.44
279.115	109.44
279.347	116.44
279.579	107.44
279.81	124.44
280.042	107.44
280.273	122.44
280.505	108.44
280.736	103.44
280.968	111.44
281.199	113.44
281.431	119.44
281.662	120.44
281.894	112.44
282.125	108.44
282.356	91.44
282.588	109.44
282.819	116.44
283.051	107.44
283.282	111.44
283.513	117.44
283.745	110.44
283.976	115.44
284.207	108.44
284.439	113.44
284.67	124.44
284.901	96.44
285.132	99.44
285.364	115.44
285.595	111.44
285.826	127.44
286.057	121.44
286.288	107.44
286.52	124.44
286.751	99.44
286.982	117.44
287.213	117.44
287.444	115.44
287.675	121.44
287.906	105.44
288.138	107.44
288.369	103.44
288.6	106.44
288.831	121.44
289.062	146.44
289.293	122.44
289.524	114.44
289.755	127.44
289.986	114.44
290.217	114.44
290.448	111.44
290.679	114.44
290.91	123.44
291.141	114.44
291.371	131.44
291.602	122.44
291.833	125.44
292.064	119.44
292.295	119.44
292.526	112.44
292.757	122.44
292.987	103.44
293.218	116.44
293.449	118.44
293.68	120.44
293.91	115.44
294.141	127.44
294.372	110.44
294.603	109.44
294.833	116.44
295.064	114.44
295.295	111.44
295.525	114.44
295.756	123.44
295.987	127.44
296.217	105.44
296.448	120.44
296.679	127.44
296.909	132.44
297.14	114.44
297.37	132.44
297.601	118.44
297.831	110.44
298.062	123.44
298.292	111.44
298.523	134.44
298.753	126.44
298.984	130.44
299.214	127.44
299.445	112.44
299.675	136.44
299.905	122.44
300.136	126.44
300.366	113.44
300.597	114.44
300.827	112.44
301.057	127.44
301.288	131.44
301.518	125.44
301.748	113.44
301.979	154.44
302.209	129.44
302.439	115.44
302.669	114.44
302.9	121.44
303.13	129.44
303.36	114.44
303.59	129.44
303.82	122.44
304.051	129.44
304.281	127.44
304.511	136.44
304.741	106.44
304.971	105.44
305.201	119.44
305.431	123.44
305.661	114.44
305.891	125.44
306.121	132.44
306.352	113.44
306.582	112.44
306.812	108.44
307.042	115.44
307.272	110.44
307.502	110.44
307.731	128.44
307.961	113.44
308.191	128.44
308.421	134.44
308.651	119.44
308.881	119.44
309.111	121.44
309.341	123.44
309.571	121.44
309.8	128.44
310.03	130.44
310.26	122.44
310.49	118.44
310.72	113.44
310.949	128.44
311.179	117.44
311.409	121.44
311.639	115.44
311.868	128.44
312.098	146.44
312.328	142.44
312.557	128.44
312.787	128.44
313.017	129.44
313.246	133.44
313.476	118.44
313.706	125.44
313.935	112.44
314.165	148.44
314.394	128.44
314.624	114.44
314.853	135.44
315.083	115.44
315.312	137.44
315.542	135.44
315.771	131.44
316.001	129.44
316.23	123.44
316.46	123.44
316.689	118.44
316.919	111.44
317.148	123.44
317.377	131.44
317.607	130.44
317.836	134.44
318.065	131.44
318.295	117.44
318.524	135.44
318.753	130.44
318.983	123.44
319.212	142.44
319.441	130.44
319.67	134.44
319.9	110.44
320.129	135.44
320.358	111.44
320.587	114.44
320.816	116.44
321.046	129.44
321.275	115.44
321.504	111.44
321.733	126.44
321.962	142.44
322.191	127.44
322.42	127.44
322.649	129.44
322.878	130.44
323.108	127.44
323.337	133.44
323.566	127.44
323.795	131.44
324.024	126.44
324.253	113.44
324.482	125.44
324.71	138.44
324.939	126.44
325.168	104.44
325.397	137.44
325.626	124.44
325.855	130.44
326.084	131.44
326.313	124.44
326.542	118.44
326.77	135.44
326.999	126.44
327.228	134.44
327.457	142.44
327.686	136.44
327.914	126.44
328.143	131.44
328.372	134.44
328.6	118.44
328.829	120.44
329.058	121.44
329.287	138.44
329.515	147.44
329.744	131.44
329.972	111.44
330.201	145.44
330.43	138.44
330.658	140.44
330.887	146.44
331.115	150.44
331.344	126.44
331.572	140.44
331.801	130.44
332.03	149.44
332.258	152.44
332.486	125.44
332.715	131.44
332.943	161.44
333.172	150.44
333.4	149.44
333.629	151.44
333.857	139.44
334.085	163.44
334.314	142.44
334.542	150.44
334.771	150.44
334.999	146.44
335.227	136.44
335.455	146.44
335.684	162.44
335.912	142.44
336.14	166.44
336.369	142.44
336.597	139.44
336.825	136.44
337.053	128.44
337.281	129.44
337.51	134.44
337.738	143.44
337.966	131.44
338.194	150.44
338.422	126.44
338.65	143.44
338.878	152.44
339.106	145.44
339.334	131.44
339.562	133.44
339.79	126.44
340.018	121.44
340.246	133.44
340.474	133.44
340.702	147.44
340.93	133.44
341.158	118.44
341.386	124.44
341.614	145.44
341.842	131.44
342.07	129.44
342.298	127.44
342.526	137.44
342.754	145.44
342.981	127.44
343.209	137.44
343.437	167.44
343.665	158.44
343.893	151.44
344.12	158.44
344.348	149.44
344.576	145.44
344.804	143.44
345.031	134.44
345.259	126.44
345.487	131.44
345.714	132.44
345.942	141.44
346.17	134.44
346.397	135.44
346.625	127.44
346.853	150.44
347.08	129.44
347.308	118.44
347.535	128.44
347.763	144.44
347.99	143.44
348.218	146.44
348.445	139.44
348.673	132.44
348.9	133.44
349.128	133.44
349.355	113.44
349.583	147.44
349.81	121.44
350.037	127.44
350.265	143.44
350.492	116.44
350.72	114.44
350.947	129.44
351.174	150.44
351.402	132.44
351.629	125.44
351.856	138.44
352.083	116.44
352.311	129.44
352.538	127.44
352.765	121.44
352.992	145.44
353.22	117.44
353.447	120.44
353.674	131.44
353.901	143.44
354.128	150.44
354.355	136.44
354.583	118.44
354.81	134.44
355.037	130.44
355.264	121.44
355.491	133.44
355.718	130.44
355.945	118.44
356.172	129.44
356.399	133.44
356.626	142.44
356.853	119.44
357.08	138.44
357.307	128.44
357.534	135.44
357.761	132.44
357.988	129.44
358.215	143.44
358.441	120.44
358.668	120.44
358.895	128.44
359.122	122.44
359.349	132.44
359.576	135.44
359.802	136.44
360.029	125.44
360.256	135.44
360.483	128.44
360.709	131.44
360.936	148.44
361.163	133.44
361.39	126.44
361.616	137.44
361.843	146.44
362.07	147.44
362.296	140.44
362.523	136.44
362.749	128.44
362.976	133.44
363.203	141.44
363.429	139.44
363.656	146.44
363.882	125.44
364.109	146.44
364.335	145.44
364.562	136.44
364.788	137.44
365.015	136.44
365.241	117.44
365.468	135.44
365.694	132.44
365.92	142.44
366.147	124.44
366.373	121.44
366.599	138.44
366.826	139.44
367.052	146.44
367.278	138.44
367.505	142.44
367.731	163.44
367.957	149.44
368.184	148.44
368.41	149.44
368.636	140.44
368.862	136.44
369.089	138.44
369.315	150.44
369.541	143.44
369.767	139.44
369.993	150.44
370.219	129.44
370.445	142.44
370.672	170.44
370.898	159.44
371.124	145.44
371.35	138.44
371.576	150.44
371.802	154.44
372.028	150.44
372.254	141.44
372.48	160.44
372.706	153.44
372.932	145.44
373.158	140.44
373.384	148.44
373.61	160.44
373.835	151.44
374.061	160.44
374.287	156.44
374.513	148.44
374.739	163.44
374.965	170.44
375.191	177.44
375.416	151.44
375.642	163.44
375.868	173.44
376.094	168.44
376.319	166.44
376.545	148.44
376.771	151.44
376.997	137.44
377.222	141.44
377.448	167.44
377.674	154.44
377.899	151.44
378.125	139.44
378.35	155.44
378.576	143.44
378.802	156.44
379.027	154.44
379.253	162.44
379.478	161.44
379.704	176.44
379.929	163.44
380.155	170.44
380.38	162.44
380.606	170.44
380.831	172.44
381.057	187.44
381.282	171.44
381.507	163.44
381.733	171.44
381.958	158.44
382.184	176.44
382.409	160.44
382.634	178.44
382.86	164.44
383.085	170.44
383.31	167.44
383.535	196.44
383.761	188.44
383.986	189.44
384.211	182.44
384.436	183.44
384.662	174.44
384.887	166.44
385.112	176.44
385.337	175.44
385.562	189.44
385.787	190.44
386.013	183.44
386.238	199.44
386.463	167.44
386.688	217.44
386.913	185.44
387.138	193.44
387.363	215.44
387.588	190.44
387.813	184.44
388.038	176.44
388.263	198.44
388.488	202.44
388.713	180.44
388.938	177.44
389.163	209.44
389.387	203.44
389.612	194.44
389.837	203.44
390.062	214.44
390.287	183.44
390.512	177.44
390.736	197.44
390.961	204.44
391.186	207.44
391.411	183.44
391.636	217.44
391.86	210.44
392.085	224.44
392.31	203.44
392.534	217.44
392.759	206.44
392.984	201.44
393.208	210.44
393.433	223.44
393.658	210.44
393.882	208.44
394.107	209.44
394.331	214.44
394.556	203.44
394.78	214.44
395.005	206.44
395.229	219.44
395.454	239.44
395.678	212.44
395.903	213.44
396.127	237.44
396.352	214.44
396.576	208.44
396.801	206.44
397.025	216.44
397.249	227.44
397.474	233.44
397.698	233.44
397.922	219.44
398.147	241.44
398.371	220.44
398.595	232.44
398.82	234.44
399.044	251.44
399.268	246.44
399.492	276.44
399.717	291.44
399.941	288.44
400.165	283.44
400.389	232.44
400.613	249.44
400.837	244.44
401.062	255.44
401.286	229.44
401.51	243.44
401.734	232.44
401.958	256.44
402.182	224.44
402.406	226.44
402.63	239.44
402.854	273.44
403.078	256.44
403.302	267.44
403.526	270.44
403.75	266.44
403.974	274.44
404.198	267.44
404.422	261.44
404.645	267.44
404.869	262.44
405.093	249.44
405.317	257.44
405.541	264.44
405.765	257.44
405.988	259.44
406.212	263.44
406.436	243.44
406.66	282.44
406.883	271.44
407.107	282.44
407.331	288.44
407.555	284.44
407.778	288.44
408.002	295.44
408.226	274.44
408.449	275.44
408.673	280.44
408.896	285.44
409.12	266.44
409.344	272.44
409.567	271.44
409.791	280.44
410.014	281.44
410.238	271.44
410.461	255.44
410.685	275.44
410.908	253.44
411.132	277.44
411.355	267.44
411.578	288.44
411.802	266.44
412.025	273.44
412.249	275.44
412.472	255.44
412.695	262.44
412.919	246.44
413.142	265.44
413.365	279.44
413.589	262.44
413.812	259.44
414.035	261.44
414.258	246.44
414.482	259.44
414.705	261.44
414.928	255.44
415.151	271.44
415.374	249.44
415.597	261.44
415.821	280.44
416.044	280.44
416.267	261.44
416.49	251.44
416.713	255.44
416.936	279.44
417.159	242.44
417.382	251.44
417.605	250.44
417.828	276.44
418.051	267.44
418.274	280.44
418.497	276.44
418.72	288.44
418.943	288.44
419.166	287.44
419.389	296.44
419.611	284.44
419.834	272.44
420.057	282.44
420.28	271.44
420.503	280.44
420.726	282.44
420.948	276.44
421.171	289.44
421.394	286.44
421.617	308.44
421.839	294.44
422.062	299.44
422.285	284.44
422.507	286.44
422.73	280.44
422.953	276.44
423.175	275.44
423.398	276.44
423.621	281.44
423.843	292.44
424.066	289.44
424.288	292.44
424.511	308.44
424.733	311.44
424.956	291.44
425.178	312.44
425.401	272.44
425.623	294.44
425.846	282.44
426.068	285.44
426.291	274.44
426.513	268.44
426.735	275.44
426.958	286.44
427.18	259.44
427.402	264.44
427.625	272.44
427.847	267.44
428.069	283.44
428.292	284.44
428.514	264.44
428.736	275.44
428.958	275.44
429.181	281.44
429.403	279.44
429.625	268.44
429.847	257.44
430.069	275.44
430.292	252.44
430.514	254.44
430.736	249.44
430.958	262.44
431.18	255.44
431.402	259.44
431.624	244.44
431.846	210.44
432.068	205.44
432.29	198.44
432.512	221.44
432.734	244.44
432.956	276.44
433.178	276.44
433.4	276.44
433.622	290.44
433.844	266.44
434.066	249.44
434.287	226.44
434.509	203.44
434.731	223.44
434.953	233.44
435.175	286.44
435.397	246.44
435.618	256.44
435.84	219.44
436.062	231.44
436.284	245.44
436.505	255.44
436.727	274.44
436.949	274.44
437.17	252.44
437.392	269.44
437.614	244.44
437.835	196.44
438.057	207.44
438.278	214.44
438.5	260.44
438.721	274.44
438.943	276.44
439.165	274.44
439.386	276.44
439.608	295.44
439.829	284.44
440.05	296.44
440.272	301.44
440.493	299.44
440.715	297.44
440.936	300.44
441.158	295.44
441.379	276.44
441.6	299.44
441.822	304.44
442.043	284.44
442.264	298.44
442.486	283.44
442.707	296.44
442.928	298.44
443.149	288.44
443.371	294.44
443.592	288.44
443.813	291.44
444.034	282.44
444.255	290.44
444.476	309.44
444.698	318.44
444.919	341.44
445.14	567.44
445.361	420.44
445.582	318.44
445.803	308.44
446.024	294.44
446.245	324.44
446.466	318.44
446.687	323.44
446.908	320.44
447.129	306.44
447.35	307.44
447.571	295.44
447.792	293.44
448.013	279.44
448.234	276.44
448.455	260.44
448.675	285.44
448.896	290.44
449.117	280.44
449.338	266.44
449.559	279.44
449.779	278.44
450	277.44
450.221	258.44
450.442	263.44
450.662	248.44
450.883	275.44
451.104	265.44
451.324	254.44
451.545	271.44
451.766	274.44
451.986	240.44
452.207	244.44
452.428	242.44
452.648	248.44
452.869	239.44
453.089	221.44
453.31	204.44
453.53	204.44
453.751	193.44
453.971	182.44
454.192	187.44
454.412	193.44
454.633	202.44
454.853	216.44
455.073	226.44
455.294	253.44
455.514	240.44
455.734	224.44
455.955	216.44
456.175	200.44
456.395	200.44
456.616	182.44
456.836	199.44
457.056	200.44
457.276	185.44
457.497	192.44
457.717	184.44
457.937	195.44
458.157	213.44
458.377	179.44
458.598	179.44
458.818	184.44
459.038	171.44
459.258	170.44
459.478	177.44
459.698	186.44
459.918	209.44
460.138	226.44
460.358	222.44
460.578	237.44
460.798	245.44
461.018	226.44
461.238	249.44
461.458	260.44
461.678	238.44
461.898	229.44
462.118	248.44
462.338	242.44
462.558	256.44
462.777	240.44
462.997	271.44
463.217	268.44
463.437	267.44
463.657	261.44
463.876	244.44
464.096	230.44
464.316	240.44
464.536	260.44
464.755	242.44
464.975	254.44
465.195	251.44
465.414	227.44
465.634	230.44
465.854	237.44
466.073	228.44
466.293	238.44
466.512	240.44
466.732	247.44
466.951	264.44
467.171	250.44
467.391	261.44
467.61	271.44
467.829	260.44
468.049	259.44
468.268	264.44
468.488	267.44
468.707	265.44
468.927	266.44
469.146	252.44
469.365	257.44
469.585	275.44
469.804	258.44
470.023	289.44
470.243	275.44
470.462	274.44
470.681	288.44
470.901	303.44
471.12	291.44
471.339	288.44
471.558	292.44
471.777	277.44
471.997	258.44
472.216	240.44
472.435	221.44
472.654	210.44
472.873	223.44
473.092	226.44
473.311	223.44
473.53	255.44
473.749	235.44
473.968	239.44
474.187	230.44
474.406	233.44
474.625	264.44
474.844	250.44
475.063	235.44
475.282	228.44
475.501	231.44
475.72	230.44
475.939	259.44
476.158	243.44
476.377	256.44
476.596	231.44
476.814	212.44
477.033	197.44
477.252	224.44
477.471	250.44
477.69	268.44
477.908	290.44
478.127	276.44
478.346	286.44
478.564	287.44
478.783	274.44
479.002	292.44
479.22	274.44
479.439	255.44
479.658	262.44
479.876	230.44
480.095	223.44
480.313	259.44
480.532	257.44
480.751	219.44
480.969	195.44
481.188	188.44
481.406	188.44
481.624	177.44
481.843	194.44
482.061	212.44
482.28	214.44
482.498	231.44
482.717	215.44
482.935	233.44
483.153	274.44
483.372	296.44
483.59	286.44
483.808	259.44
484.027	254.44
484.245	267.44
484.463	267.44
484.681	286.44
484.9	266.44
485.118	254.44
485.336	236.44
485.554	214.44
485.772	218.44
485.99	190.44
486.209	214.44
486.427	201.44
486.645	226.44
486.863	268.44
487.081	273.44
487.299	262.44
487.517	280.44
487.735	327.44
487.953	361.44
488.171	351.44
488.389	329.44
488.607	288.44
488.825	281.44
489.043	245.44
489.261	278.44
489.479	270.44
489.696	283.44
489.914	272.44
490.132	291.44
490.35	316.44
490.568	315.44
490.786	345.44
491.003	358.44
491.221	360.44
491.439	378.44
491.657	395.44
491.874	431.44
492.092	448.44
492.31	475.44
492.527	431.44
492.745	435.44
492.963	399.44
493.18	385.44
493.398	392.44
493.615	367.44
493.833	370.44
494.05	370.44
494.268	342.44
494.485	373.44
494.703	363.44
494.92	378.44
495.138	354.44
495.355	374.44
495.573	339.44
495.79	341.44
496.008	361.44
496.225	352.44
496.442	331.44
496.66	340.44
496.877	336.44
497.094	330.44
497.312	316.44
497.529	343.44
497.746	307.44
497.963	312.44
498.181	270.44
498.398	266.44
498.615	278.44
498.832	283.44
499.049	304.44
499.267	313.44
499.484	339.44
499.701	377.44
499.918	436.44
500.135	457.44
500.352	500.44
500.569	512.44
500.786	516.44
501.003	456.44
501.22	434.44
501.437	400.44
501.654	361.44
501.871	346.44
502.088	328.44
502.305	332.44
502.522	288.44
502.739	309.44
502.956	309.44
503.172	281.44
503.389	271.44
503.606	258.44
503.823	248.44
504.04	266.44
504.256	260.44
504.473	263.44
504.69	264.44
504.907	293.44
