Data from SampD_HRD10591_00098.txt Node
Date: Mon Jan 19 11:48:11 EST 2026
User: Yrep
Spectrometer: HR+D1059
Trigger mode: 0
Integration Time (sec): 3.443000E-1
Scans to average: 1
Electric dark correction enabled: true
Nonlinearity correction enabled: false
Boxcar width: 0
XAxis mode: Wavelengths
Number of Pixels in Spectrum: 2048
>>>>>Begin Spectral Data<<<<<
223.165	-16.94
223.4	-16.94
223.635	-16.94
223.869	-16.94
224.104	-32.94
224.338	-23.94
224.573	-12.94
224.808	-6.94
225.042	4.06
225.277	-5.94
225.511	2.06
225.746	9.06
225.98	4.06
226.215	19.06
226.449	8.06
226.683	29.06
226.918	20.06
227.152	21.06
227.387	44.06
227.621	43.06
227.856	54.06
228.09	46.06
228.324	35.06
228.559	71.06
228.793	69.06
229.027	81.06
229.262	85.06
229.496	87.06
229.73	66.06
229.964	87.06
230.199	69.06
230.433	91.06
230.667	89.06
230.901	83.06
231.136	74.06
231.37	98.06
231.604	83.06
231.838	90.06
232.072	102.06
232.306	84.06
232.541	93.06
232.775	75.06
233.009	87.06
233.243	81.06
233.477	89.06
233.711	86.06
233.945	100.06
234.179	98.06
234.413	101.06
234.647	94.06
234.881	84.06
235.115	87.06
235.349	91.06
235.583	83.06
235.817	91.06
236.051	92.06
236.285	78.06
236.519	86.06
236.753	83.06
236.987	88.06
237.221	93.06
237.455	85.06
237.689	81.06
237.922	87.06
238.156	92.06
238.39	69.06
238.624	73.06
238.858	75.06
239.091	74.06
239.325	83.06
239.559	87.06
239.793	98.06
240.027	92.06
240.26	94.06
240.494	97.06
240.728	112.06
240.961	83.06
241.195	99.06
241.429	91.06
241.662	78.06
241.896	90.06
242.13	95.06
242.363	83.06
242.597	75.06
242.83	88.06
243.064	85.06
243.298	87.06
243.531	86.06
243.765	94.06
243.998	88.06
244.232	82.06
244.465	99.06
244.699	96.06
244.932	87.06
245.166	104.06
245.399	87.06
245.633	106.06
245.866	98.06
246.099	90.06
246.333	98.06
246.566	93.06
246.8	85.06
247.033	90.06
247.266	85.06
247.5	92.06
247.733	85.06
247.966	93.06
248.2	77.06
248.433	100.06
248.666	101.06
248.899	94.06
249.133	95.06
249.366	106.06
249.599	94.06
249.832	88.06
250.066	110.06
250.299	97.06
250.532	93.06
250.765	78.06
250.998	92.06
251.231	85.06
251.465	86.06
251.698	78.06
251.931	89.06
252.164	89.06
252.397	103.06
252.63	104.06
252.863	95.06
253.096	87.06
253.329	105.06
253.562	97.06
253.795	102.06
254.028	109.06
254.261	99.06
254.494	99.06
254.727	93.06
254.96	98.06
255.193	86.06
255.426	77.06
255.659	94.06
255.892	106.06
256.124	104.06
256.357	101.06
256.59	103.06
256.823	101.06
257.056	91.06
257.289	84.06
257.521	91.06
257.754	87.06
257.987	95.06
258.22	113.06
258.452	90.06
258.685	90.06
258.918	95.06
259.151	84.06
259.383	105.06
259.616	110.06
259.849	111.06
260.081	111.06
260.314	111.06
260.547	95.06
260.779	94.06
261.012	101.06
261.244	105.06
261.477	108.06
261.71	111.06
261.942	94.06
262.175	92.06
262.407	101.06
262.64	87.06
262.872	93.06
263.105	104.06
263.337	106.06
263.57	97.06
263.802	92.06
264.035	101.06
264.267	110.06
264.499	105.06
264.732	118.06
264.964	105.06
265.197	109.06
265.429	106.06
265.661	113.06
265.894	99.06
266.126	103.06
266.358	96.06
266.591	91.06
266.823	106.06
267.055	100.06
267.287	96.06
267.52	109.06
267.752	110.06
267.984	104.06
268.216	109.06
268.448	108.06
268.681	100.06
268.913	108.06
269.145	111.06
269.377	105.06
269.609	110.06
269.841	116.06
270.073	109.06
270.306	109.06
270.538	98.06
270.77	92.06
271.002	102.06
271.234	98.06
271.466	119.06
271.698	107.06
271.93	96.06
272.162	115.06
272.394	129.06
272.626	103.06
272.858	102.06
273.09	112.06
273.322	113.06
273.553	92.06
273.785	119.06
274.017	114.06
274.249	109.06
274.481	105.06
274.713	99.06
274.945	106.06
275.176	105.06
275.408	120.06
275.64	104.06
275.872	109.06
276.104	119.06
276.335	112.06
276.567	120.06
276.799	113.06
277.031	113.06
277.262	93.06
277.494	109.06
277.726	115.06
277.957	106.06
278.189	116.06
278.421	117.06
278.652	117.06
278.884	123.06
279.115	126.06
279.347	109.06
279.579	97.06
279.81	103.06
280.042	134.06
280.273	109.06
280.505	124.06
280.736	112.06
280.968	111.06
281.199	108.06
281.431	128.06
281.662	115.06
281.894	107.06
282.125	110.06
282.356	106.06
282.588	117.06
282.819	115.06
283.051	119.06
283.282	105.06
283.513	124.06
283.745	116.06
283.976	110.06
284.207	105.06
284.439	123.06
284.67	112.06
284.901	107.06
285.132	102.06
285.364	120.06
285.595	110.06
285.826	121.06
286.057	109.06
286.288	110.06
286.52	118.06
286.751	112.06
286.982	128.06
287.213	108.06
287.444	117.06
287.675	107.06
287.906	120.06
288.138	114.06
288.369	101.06
288.6	108.06
288.831	109.06
289.062	126.06
289.293	134.06
289.524	114.06
289.755	107.06
289.986	115.06
290.217	125.06
290.448	107.06
290.679	99.06
290.91	130.06
291.141	118.06
291.371	116.06
291.602	123.06
291.833	111.06
292.064	126.06
292.295	129.06
292.526	124.06
292.757	109.06
292.987	97.06
293.218	117.06
293.449	116.06
293.68	123.06
293.91	122.06
294.141	137.06
294.372	118.06
294.603	122.06
294.833	115.06
295.064	104.06
295.295	138.06
295.525	135.06
295.756	131.06
295.987	126.06
296.217	106.06
296.448	119.06
296.679	116.06
296.909	138.06
297.14	127.06
297.37	126.06
297.601	130.06
297.831	125.06
298.062	123.06
298.292	119.06
298.523	135.06
298.753	110.06
298.984	134.06
299.214	119.06
299.445	131.06
299.675	122.06
299.905	117.06
300.136	128.06
300.366	125.06
300.597	123.06
300.827	132.06
301.057	117.06
301.288	123.06
301.518	127.06
301.748	126.06
301.979	164.06
302.209	121.06
302.439	125.06
302.669	127.06
302.9	119.06
303.13	128.06
303.36	143.06
303.59	125.06
303.82	140.06
304.051	139.06
304.281	121.06
304.511	124.06
304.741	119.06
304.971	101.06
305.201	141.06
305.431	131.06
305.661	141.06
305.891	115.06
306.121	129.06
306.352	106.06
306.582	116.06
306.812	134.06
307.042	121.06
307.272	123.06
307.502	130.06
307.731	118.06
307.961	122.06
308.191	113.06
308.421	111.06
308.651	131.06
308.881	129.06
309.111	119.06
309.341	131.06
309.571	118.06
309.8	121.06
310.03	123.06
310.26	122.06
310.49	134.06
310.72	140.06
310.949	124.06
311.179	128.06
311.409	128.06
311.639	134.06
311.868	148.06
312.098	136.06
312.328	119.06
312.557	125.06
312.787	121.06
313.017	123.06
313.246	129.06
313.476	127.06
313.706	124.06
313.935	111.06
314.165	123.06
314.394	130.06
314.624	124.06
314.853	123.06
315.083	124.06
315.312	135.06
315.542	122.06
315.771	136.06
316.001	123.06
316.23	126.06
316.46	123.06
316.689	137.06
316.919	132.06
317.148	142.06
317.377	134.06
317.607	135.06
317.836	111.06
318.065	107.06
318.295	132.06
318.524	118.06
318.753	111.06
318.983	132.06
319.212	129.06
319.441	142.06
319.67	127.06
319.9	133.06
320.129	119.06
320.358	127.06
320.587	132.06
320.816	120.06
321.046	141.06
321.275	139.06
321.504	138.06
321.733	136.06
321.962	123.06
322.191	117.06
322.42	125.06
322.649	139.06
322.878	133.06
323.108	131.06
323.337	135.06
323.566	127.06
323.795	130.06
324.024	134.06
324.253	121.06
324.482	134.06
324.71	131.06
324.939	134.06
325.168	114.06
325.397	126.06
325.626	158.06
325.855	129.06
326.084	136.06
326.313	142.06
326.542	132.06
326.77	151.06
326.999	135.06
327.228	135.06
327.457	133.06
327.686	119.06
327.914	119.06
328.143	133.06
328.372	136.06
328.6	141.06
328.829	146.06
329.058	134.06
329.287	127.06
329.515	129.06
329.744	141.06
329.972	133.06
330.201	136.06
330.43	124.06
330.658	137.06
330.887	129.06
331.115	118.06
331.344	145.06
331.572	137.06
331.801	151.06
332.03	129.06
332.258	141.06
332.486	143.06
332.715	145.06
332.943	140.06
333.172	163.06
333.4	165.06
333.629	163.06
333.857	154.06
334.085	157.06
334.314	152.06
334.542	138.06
334.771	143.06
334.999	150.06
335.227	151.06
335.455	143.06
335.684	143.06
335.912	156.06
336.14	145.06
336.369	154.06
336.597	145.06
336.825	148.06
337.053	161.06
337.281	128.06
337.51	135.06
337.738	139.06
337.966	129.06
338.194	145.06
338.422	138.06
338.65	144.06
338.878	129.06
339.106	139.06
339.334	146.06
339.562	135.06
339.79	130.06
340.018	142.06
340.246	129.06
340.474	138.06
340.702	129.06
340.93	131.06
341.158	133.06
341.386	131.06
341.614	122.06
341.842	146.06
342.07	126.06
342.298	131.06
342.526	145.06
342.754	145.06
342.981	123.06
343.209	155.06
343.437	151.06
343.665	145.06
343.893	150.06
344.12	159.06
344.348	143.06
344.576	149.06
344.804	151.06
345.031	158.06
345.259	146.06
345.487	145.06
345.714	127.06
345.942	141.06
346.17	141.06
346.397	132.06
346.625	126.06
346.853	136.06
347.08	128.06
347.308	133.06
347.535	114.06
347.763	136.06
347.99	145.06
348.218	139.06
348.445	125.06
348.673	120.06
348.9	123.06
349.128	134.06
349.355	130.06
349.583	133.06
349.81	132.06
350.037	138.06
350.265	126.06
350.492	130.06
350.72	133.06
350.947	145.06
351.174	138.06
351.402	139.06
351.629	129.06
351.856	126.06
352.083	132.06
352.311	130.06
352.538	143.06
352.765	123.06
352.992	143.06
353.22	139.06
353.447	121.06
353.674	138.06
353.901	153.06
354.128	146.06
354.355	150.06
354.583	140.06
354.81	132.06
355.037	128.06
355.264	131.06
355.491	134.06
355.718	136.06
355.945	156.06
356.172	140.06
356.399	132.06
356.626	134.06
356.853	111.06
357.08	122.06
357.307	131.06
357.534	124.06
357.761	133.06
357.988	138.06
358.215	130.06
358.441	127.06
358.668	123.06
358.895	131.06
359.122	161.06
359.349	119.06
359.576	121.06
359.802	135.06
360.029	130.06
360.256	131.06
360.483	137.06
360.709	131.06
360.936	123.06
361.163	142.06
361.39	133.06
361.616	132.06
361.843	122.06
362.07	127.06
362.296	122.06
362.523	130.06
362.749	136.06
362.976	130.06
363.203	140.06
363.429	127.06
363.656	132.06
363.882	142.06
364.109	146.06
364.335	135.06
364.562	129.06
364.788	151.06
365.015	148.06
365.241	135.06
365.468	151.06
365.694	142.06
365.92	139.06
366.147	113.06
366.373	123.06
366.599	139.06
366.826	145.06
367.052	140.06
367.278	146.06
367.505	141.06
367.731	161.06
367.957	130.06
368.184	143.06
368.41	138.06
368.636	145.06
368.862	158.06
369.089	148.06
369.315	137.06
369.541	143.06
369.767	143.06
369.993	150.06
370.219	133.06
370.445	155.06
370.672	149.06
370.898	149.06
371.124	150.06
371.35	149.06
371.576	151.06
371.802	156.06
372.028	161.06
372.254	159.06
372.48	159.06
372.706	156.06
372.932	140.06
373.158	147.06
373.384	157.06
373.61	179.06
373.835	161.06
374.061	145.06
374.287	136.06
374.513	151.06
374.739	174.06
374.965	163.06
375.191	162.06
375.416	165.06
375.642	166.06
375.868	176.06
376.094	157.06
376.319	165.06
376.545	160.06
376.771	150.06
376.997	153.06
377.222	163.06
377.448	168.06
377.674	164.06
377.899	162.06
378.125	151.06
378.35	162.06
378.576	153.06
378.802	160.06
379.027	162.06
379.253	174.06
379.478	162.06
379.704	180.06
379.929	150.06
380.155	162.06
380.38	168.06
380.606	158.06
380.831	162.06
381.057	183.06
381.282	166.06
381.507	166.06
381.733	174.06
381.958	180.06
382.184	172.06
382.409	170.06
382.634	178.06
382.86	187.06
383.085	195.06
383.31	169.06
383.535	173.06
383.761	194.06
383.986	189.06
384.211	193.06
384.436	194.06
384.662	202.06
384.887	194.06
385.112	177.06
385.337	204.06
385.562	186.06
385.787	198.06
386.013	188.06
386.238	203.06
386.463	188.06
386.688	215.06
386.913	183.06
387.138	200.06
387.363	198.06
387.588	207.06
387.813	200.06
388.038	202.06
388.263	202.06
388.488	198.06
388.713	194.06
388.938	181.06
389.163	193.06
389.387	191.06
389.612	179.06
389.837	189.06
390.062	205.06
390.287	209.06
390.512	195.06
390.736	201.06
390.961	203.06
391.186	207.06
391.411	211.06
391.636	211.06
391.86	198.06
392.085	222.06
392.31	196.06
392.534	209.06
392.759	214.06
392.984	200.06
393.208	211.06
393.433	211.06
393.658	215.06
393.882	197.06
394.107	228.06
394.331	225.06
394.556	211.06
394.78	220.06
395.005	221.06
395.229	217.06
395.454	233.06
395.678	226.06
395.903	213.06
396.127	222.06
396.352	206.06
396.576	226.06
396.801	215.06
397.025	202.06
397.249	211.06
397.474	238.06
397.698	219.06
397.922	221.06
398.147	235.06
398.371	234.06
398.595	230.06
398.82	234.06
399.044	250.06
399.268	260.06
399.492	292.06
399.717	307.06
399.941	277.06
400.165	277.06
400.389	258.06
400.613	253.06
400.837	234.06
401.062	231.06
401.286	261.06
401.51	233.06
401.734	257.06
401.958	254.06
402.182	239.06
402.406	239.06
402.63	244.06
402.854	242.06
403.078	240.06
403.302	246.06
403.526	263.06
403.75	260.06
403.974	260.06
404.198	275.06
404.422	267.06
404.645	260.06
404.869	253.06
405.093	262.06
405.317	293.06
405.541	264.06
405.765	275.06
405.988	263.06
406.212	261.06
406.436	262.06
406.66	278.06
406.883	267.06
407.107	271.06
407.331	285.06
407.555	277.06
407.778	286.06
408.002	277.06
408.226	265.06
408.449	270.06
408.673	277.06
408.896	266.06
409.12	275.06
409.344	276.06
409.567	274.06
409.791	283.06
410.014	283.06
410.238	280.06
410.461	266.06
410.685	256.06
410.908	278.06
411.132	297.06
411.355	259.06
411.578	279.06
411.802	250.06
412.025	270.06
412.249	266.06
412.472	265.06
412.695	252.06
412.919	256.06
413.142	251.06
413.365	273.06
413.589	258.06
413.812	257.06
414.035	255.06
414.258	267.06
414.482	268.06
414.705	274.06
414.928	269.06
415.151	276.06
415.374	275.06
415.597	269.06
415.821	273.06
416.044	251.06
416.267	277.06
416.49	263.06
416.713	261.06
416.936	266.06
417.159	274.06
417.382	261.06
417.605	273.06
417.828	278.06
418.051	292.06
418.274	293.06
418.497	293.06
418.72	302.06
418.943	288.06
419.166	303.06
419.389	303.06
419.611	315.06
419.834	288.06
420.057	307.06
420.28	293.06
420.503	294.06
420.726	280.06
420.948	282.06
421.171	292.06
421.394	287.06
421.617	301.06
421.839	298.06
422.062	297.06
422.285	300.06
422.507	282.06
422.73	255.06
422.953	274.06
423.175	283.06
423.398	290.06
423.621	285.06
423.843	282.06
424.066	309.06
424.288	301.06
424.511	315.06
424.733	296.06
424.956	303.06
425.178	297.06
425.401	283.06
425.623	272.06
425.846	268.06
426.068	266.06
426.291	274.06
426.513	277.06
426.735	270.06
426.958	272.06
427.18	259.06
427.402	275.06
427.625	278.06
427.847	260.06
428.069	261.06
428.292	271.06
428.514	276.06
428.736	265.06
428.958	263.06
429.181	278.06
429.403	258.06
429.625	264.06
429.847	269.06
430.069	267.06
430.292	269.06
430.514	277.06
430.736	251.06
430.958	260.06
431.18	249.06
431.402	255.06
431.624	251.06
431.846	218.06
432.068	192.06
432.29	193.06
432.512	228.06
432.734	255.06
432.956	285.06
433.178	282.06
433.4	261.06
433.622	285.06
433.844	263.06
434.066	234.06
434.287	232.06
434.509	208.06
434.731	203.06
434.953	247.06
435.175	257.06
435.397	252.06
435.618	233.06
435.84	234.06
436.062	235.06
436.284	274.06
436.505	241.06
436.727	271.06
436.949	252.06
437.17	259.06
437.392	252.06
437.614	228.06
437.835	230.06
438.057	231.06
438.278	230.06
438.5	257.06
438.721	261.06
438.943	280.06
439.165	274.06
439.386	274.06
439.608	278.06
439.829	300.06
440.05	296.06
440.272	291.06
440.493	290.06
440.715	278.06
440.936	287.06
441.158	296.06
441.379	302.06
441.6	303.06
441.822	316.06
442.043	319.06
442.264	308.06
442.486	303.06
442.707	270.06
442.928	278.06
443.149	295.06
443.371	297.06
443.592	285.06
443.813	282.06
444.034	313.06
444.255	307.06
444.476	313.06
444.698	333.06
444.919	322.06
445.14	578.06
445.361	436.06
445.582	323.06
445.803	299.06
446.024	310.06
446.245	307.06
446.466	322.06
446.687	314.06
446.908	318.06
447.129	335.06
447.35	326.06
447.571	304.06
447.792	296.06
448.013	277.06
448.234	283.06
448.455	281.06
448.675	267.06
448.896	293.06
449.117	285.06
449.338	265.06
449.559	267.06
449.779	270.06
450	282.06
450.221	261.06
450.442	273.06
450.662	272.06
450.883	262.06
451.104	284.06
451.324	269.06
451.545	250.06
451.766	254.06
451.986	234.06
452.207	256.06
452.428	236.06
452.648	227.06
452.869	220.06
453.089	217.06
453.31	213.06
453.53	202.06
453.751	194.06
453.971	185.06
454.192	201.06
454.412	212.06
454.633	215.06
454.853	220.06
455.073	231.06
455.294	228.06
455.514	249.06
455.734	228.06
455.955	215.06
456.175	200.06
456.395	216.06
456.616	200.06
456.836	207.06
457.056	199.06
457.276	197.06
457.497	183.06
457.717	184.06
457.937	193.06
458.157	166.06
458.377	182.06
458.598	174.06
458.818	172.06
459.038	163.06
459.258	178.06
459.478	175.06
459.698	174.06
459.918	179.06
460.138	220.06
460.358	225.06
460.578	237.06
460.798	222.06
461.018	243.06
461.238	235.06
461.458	243.06
461.678	236.06
461.898	233.06
462.118	243.06
462.338	248.06
462.558	255.06
462.777	242.06
462.997	256.06
463.217	278.06
463.437	242.06
463.657	241.06
463.876	254.06
464.096	244.06
464.316	248.06
464.536	249.06
464.755	249.06
464.975	238.06
465.195	238.06
465.414	242.06
465.634	237.06
465.854	226.06
466.073	233.06
466.293	259.06
466.512	236.06
466.732	251.06
466.951	270.06
467.171	262.06
467.391	255.06
467.61	238.06
467.829	268.06
468.049	238.06
468.268	261.06
468.488	266.06
468.707	265.06
468.927	272.06
469.146	275.06
469.365	297.06
469.585	296.06
469.804	278.06
470.023	278.06
470.243	285.06
470.462	295.06
470.681	314.06
470.901	294.06
471.12	282.06
471.339	284.06
471.558	282.06
471.777	278.06
471.997	270.06
472.216	245.06
472.435	227.06
472.654	215.06
472.873	199.06
473.092	226.06
473.311	236.06
473.53	239.06
473.749	236.06
473.968	235.06
474.187	234.06
474.406	203.06
474.625	244.06
474.844	270.06
475.063	239.06
475.282	249.06
475.501	212.06
475.72	229.06
475.939	218.06
476.158	236.06
476.377	239.06
476.596	239.06
476.814	199.06
477.033	207.06
477.252	239.06
477.471	249.06
477.69	272.06
477.908	273.06
478.127	286.06
478.346	271.06
478.564	279.06
478.783	263.06
479.002	273.06
479.22	258.06
479.439	265.06
479.658	234.06
479.876	234.06
480.095	217.06
480.313	241.06
480.532	243.06
480.751	226.06
480.969	199.06
481.188	198.06
481.406	178.06
481.624	178.06
481.843	182.06
482.061	200.06
482.28	229.06
482.498	229.06
482.717	207.06
482.935	253.06
483.153	287.06
483.372	300.06
483.59	291.06
483.808	268.06
484.027	251.06
484.245	254.06
484.463	289.06
484.681	295.06
484.9	264.06
485.118	263.06
485.336	259.06
485.554	230.06
485.772	196.06
485.99	200.06
486.209	220.06
486.427	209.06
486.645	251.06
486.863	279.06
487.081	282.06
487.299	254.06
487.517	273.06
487.735	350.06
487.953	366.06
488.171	371.06
488.389	327.06
488.607	300.06
488.825	255.06
489.043	262.06
489.261	283.06
489.479	263.06
489.696	278.06
489.914	291.06
490.132	289.06
490.35	304.06
490.568	344.06
490.786	351.06
491.003	364.06
491.221	376.06
491.439	353.06
491.657	383.06
491.874	437.06
492.092	441.06
492.31	489.06
492.527	446.06
492.745	419.06
492.963	396.06
493.18	391.06
493.398	387.06
493.615	382.06
493.833	380.06
494.05	363.06
494.268	358.06
494.485	368.06
494.703	341.06
494.92	379.06
495.138	362.06
495.355	363.06
495.573	364.06
495.79	368.06
496.008	350.06
496.225	337.06
496.442	371.06
496.66	345.06
496.877	346.06
497.094	354.06
497.312	347.06
497.529	333.06
497.746	326.06
497.963	308.06
498.181	303.06
498.398	268.06
498.615	283.06
498.832	285.06
499.049	307.06
499.267	340.06
499.484	354.06
499.701	380.06
499.918	396.06
500.135	450.06
500.352	503.06
500.569	508.06
500.786	518.06
501.003	476.06
501.22	443.06
501.437	390.06
501.654	348.06
501.871	326.06
502.088	311.06
502.305	309.06
502.522	321.06
502.739	296.06
502.956	298.06
503.172	278.06
503.389	273.06
503.606	266.06
503.823	274.06
504.04	269.06
504.256	250.06
504.473	261.06
