Data from SampD_HRD10591_00058.txt Node
Date: Mon Jan 19 11:47:58 EST 2026
User: Yrep
Spectrometer: HR+D1059
Trigger mode: 0
Integration Time (sec): 3.443000E-1
Scans to average: 1
Electric dark correction enabled: true
Nonlinearity correction enabled: false
Boxcar width: 0
XAxis mode: Wavelengths
Number of Pixels in Spectrum: 2048
>>>>>Begin Spectral Data<<<<<
223.165	-19.19
223.4	-19.19
223.635	-19.19
223.869	-29.19
224.104	-30.19
224.338	-8.19
224.573	-19.19
224.808	2.81
225.042	-19.19
225.277	-5.19
225.511	-1.19
225.746	5.81
225.98	14.81
226.215	15.81
226.449	28.81
226.683	15.81
226.918	14.81
227.152	32.81
227.387	25.81
227.621	50.81
227.856	38.81
228.09	31.81
228.324	56.81
228.559	64.81
228.793	67.81
229.027	70.81
229.262	68.81
229.496	65.81
229.73	80.81
229.964	70.81
230.199	80.81
230.433	67.81
230.667	89.81
230.901	71.81
231.136	81.81
231.37	95.81
231.604	79.81
231.838	71.81
232.072	92.81
232.306	84.81
232.541	81.81
232.775	79.81
233.009	94.81
233.243	87.81
233.477	75.81
233.711	93.81
233.945	70.81
234.179	78.81
234.413	72.81
234.647	91.81
234.881	86.81
235.115	83.81
235.349	98.81
235.583	85.81
235.817	83.81
236.051	73.81
236.285	76.81
236.519	79.81
236.753	94.81
236.987	90.81
237.221	81.81
237.455	73.81
237.689	78.81
237.922	73.81
238.156	82.81
238.39	48.81
238.624	74.81
238.858	78.81
239.091	70.81
239.325	84.81
239.559	93.81
239.793	90.81
240.027	94.81
240.26	81.81
240.494	87.81
240.728	82.81
240.961	79.81
241.195	96.81
241.429	111.81
241.662	70.81
241.896	69.81
242.13	71.81
242.363	86.81
242.597	72.81
242.83	97.81
243.064	80.81
243.298	81.81
243.531	95.81
243.765	74.81
243.998	79.81
244.232	96.81
244.465	83.81
244.699	70.81
244.932	82.81
245.166	99.81
245.399	97.81
245.633	94.81
245.866	83.81
246.099	85.81
246.333	87.81
246.566	93.81
246.8	83.81
247.033	90.81
247.266	90.81
247.5	79.81
247.733	82.81
247.966	71.81
248.2	82.81
248.433	91.81
248.666	88.81
248.899	78.81
249.133	88.81
249.366	92.81
249.599	91.81
249.832	99.81
250.066	102.81
250.299	84.81
250.532	87.81
250.765	86.81
250.998	72.81
251.231	98.81
251.465	96.81
251.698	84.81
251.931	85.81
252.164	88.81
252.397	98.81
252.63	86.81
252.863	92.81
253.096	87.81
253.329	108.81
253.562	82.81
253.795	95.81
254.028	85.81
254.261	75.81
254.494	104.81
254.727	104.81
254.96	94.81
255.193	104.81
255.426	101.81
255.659	90.81
255.892	97.81
256.124	87.81
256.357	92.81
256.59	88.81
256.823	93.81
257.056	91.81
257.289	89.81
257.521	100.81
257.754	93.81
257.987	82.81
258.22	99.81
258.452	88.81
258.685	94.81
258.918	111.81
259.151	100.81
259.383	107.81
259.616	102.81
259.849	91.81
260.081	96.81
260.314	98.81
260.547	104.81
260.779	89.81
261.012	99.81
261.244	109.81
261.477	111.81
261.71	88.81
261.942	100.81
262.175	95.81
262.407	100.81
262.64	96.81
262.872	108.81
263.105	97.81
263.337	115.81
263.57	91.81
263.802	100.81
264.035	87.81
264.267	88.81
264.499	101.81
264.732	91.81
264.964	86.81
265.197	89.81
265.429	102.81
265.661	110.81
265.894	88.81
266.126	96.81
266.358	103.81
266.591	103.81
266.823	92.81
267.055	94.81
267.287	107.81
267.52	103.81
267.752	104.81
267.984	118.81
268.216	102.81
268.448	112.81
268.681	108.81
268.913	102.81
269.145	106.81
269.377	108.81
269.609	81.81
269.841	106.81
270.073	117.81
270.306	117.81
270.538	112.81
270.77	100.81
271.002	112.81
271.234	108.81
271.466	103.81
271.698	112.81
271.93	108.81
272.162	112.81
272.394	108.81
272.626	105.81
272.858	96.81
273.09	99.81
273.322	89.81
273.553	107.81
273.785	108.81
274.017	104.81
274.249	100.81
274.481	99.81
274.713	88.81
274.945	105.81
275.176	106.81
275.408	105.81
275.64	101.81
275.872	101.81
276.104	101.81
276.335	116.81
276.567	100.81
276.799	100.81
277.031	97.81
277.262	119.81
277.494	114.81
277.726	103.81
277.957	95.81
278.189	103.81
278.421	112.81
278.652	104.81
278.884	112.81
279.115	102.81
279.347	100.81
279.579	110.81
279.81	104.81
280.042	121.81
280.273	101.81
280.505	107.81
280.736	111.81
280.968	104.81
281.199	116.81
281.431	126.81
281.662	136.81
281.894	123.81
282.125	117.81
282.356	105.81
282.588	109.81
282.819	116.81
283.051	122.81
283.282	130.81
283.513	120.81
283.745	116.81
283.976	115.81
284.207	118.81
284.439	114.81
284.67	111.81
284.901	129.81
285.132	117.81
285.364	117.81
285.595	111.81
285.826	118.81
286.057	115.81
286.288	92.81
286.52	110.81
286.751	123.81
286.982	104.81
287.213	119.81
287.444	114.81
287.675	99.81
287.906	122.81
288.138	108.81
288.369	116.81
288.6	111.81
288.831	120.81
289.062	130.81
289.293	127.81
289.524	121.81
289.755	100.81
289.986	110.81
290.217	127.81
290.448	119.81
290.679	117.81
290.91	125.81
291.141	115.81
291.371	114.81
291.602	117.81
291.833	99.81
292.064	132.81
292.295	123.81
292.526	112.81
292.757	114.81
292.987	112.81
293.218	118.81
293.449	115.81
293.68	119.81
293.91	123.81
294.141	115.81
294.372	114.81
294.603	115.81
294.833	135.81
295.064	110.81
295.295	107.81
295.525	111.81
295.756	128.81
295.987	112.81
296.217	119.81
296.448	107.81
296.679	104.81
296.909	127.81
297.14	118.81
297.37	120.81
297.601	124.81
297.831	127.81
298.062	121.81
298.292	119.81
298.523	122.81
298.753	118.81
298.984	125.81
299.214	114.81
299.445	106.81
299.675	114.81
299.905	122.81
300.136	129.81
300.366	132.81
300.597	129.81
300.827	126.81
301.057	119.81
301.288	124.81
301.518	115.81
301.748	127.81
301.979	168.81
302.209	142.81
302.439	127.81
302.669	108.81
302.9	118.81
303.13	126.81
303.36	106.81
303.59	114.81
303.82	115.81
304.051	138.81
304.281	130.81
304.511	127.81
304.741	135.81
304.971	132.81
305.201	118.81
305.431	119.81
305.661	120.81
305.891	120.81
306.121	133.81
306.352	137.81
306.582	128.81
306.812	123.81
307.042	106.81
307.272	124.81
307.502	109.81
307.731	115.81
307.961	122.81
308.191	128.81
308.421	123.81
308.651	119.81
308.881	130.81
309.111	113.81
309.341	101.81
309.571	115.81
309.8	124.81
310.03	110.81
310.26	119.81
310.49	120.81
310.72	120.81
310.949	122.81
311.179	117.81
311.409	106.81
311.639	118.81
311.868	137.81
312.098	128.81
312.328	121.81
312.557	128.81
312.787	121.81
313.017	114.81
313.246	131.81
313.476	132.81
313.706	124.81
313.935	116.81
314.165	131.81
314.394	129.81
314.624	127.81
314.853	127.81
315.083	129.81
315.312	124.81
315.542	144.81
315.771	131.81
316.001	126.81
316.23	131.81
316.46	120.81
316.689	125.81
316.919	119.81
317.148	130.81
317.377	135.81
317.607	121.81
317.836	124.81
318.065	120.81
318.295	129.81
318.524	133.81
318.753	140.81
318.983	129.81
319.212	117.81
319.441	116.81
319.67	119.81
319.9	122.81
320.129	123.81
320.358	125.81
320.587	128.81
320.816	119.81
321.046	136.81
321.275	124.81
321.504	111.81
321.733	120.81
321.962	140.81
322.191	143.81
322.42	118.81
322.649	123.81
322.878	131.81
323.108	122.81
323.337	117.81
323.566	146.81
323.795	135.81
324.024	139.81
324.253	129.81
324.482	119.81
324.71	130.81
324.939	126.81
325.168	127.81
325.397	125.81
325.626	131.81
325.855	120.81
326.084	128.81
326.313	140.81
326.542	132.81
326.77	123.81
326.999	144.81
327.228	130.81
327.457	132.81
327.686	132.81
327.914	131.81
328.143	126.81
328.372	127.81
328.6	141.81
328.829	128.81
329.058	112.81
329.287	126.81
329.515	131.81
329.744	131.81
329.972	138.81
330.201	127.81
330.43	134.81
330.658	127.81
330.887	137.81
331.115	144.81
331.344	118.81
331.572	143.81
331.801	137.81
332.03	133.81
332.258	131.81
332.486	131.81
332.715	149.81
332.943	139.81
333.172	137.81
333.4	142.81
333.629	153.81
333.857	161.81
334.085	157.81
334.314	163.81
334.542	148.81
334.771	151.81
334.999	142.81
335.227	167.81
335.455	135.81
335.684	142.81
335.912	139.81
336.14	129.81
336.369	144.81
336.597	131.81
336.825	136.81
337.053	124.81
337.281	132.81
337.51	134.81
337.738	140.81
337.966	128.81
338.194	136.81
338.422	140.81
338.65	137.81
338.878	136.81
339.106	128.81
339.334	144.81
339.562	142.81
339.79	133.81
340.018	114.81
340.246	129.81
340.474	141.81
340.702	137.81
340.93	120.81
341.158	133.81
341.386	137.81
341.614	130.81
341.842	132.81
342.07	136.81
342.298	144.81
342.526	132.81
342.754	130.81
342.981	139.81
343.209	140.81
343.437	167.81
343.665	155.81
343.893	132.81
344.12	161.81
344.348	134.81
344.576	134.81
344.804	141.81
345.031	124.81
345.259	124.81
345.487	121.81
345.714	124.81
345.942	147.81
346.17	130.81
346.397	124.81
346.625	124.81
346.853	132.81
347.08	120.81
347.308	146.81
347.535	143.81
347.763	128.81
347.99	137.81
348.218	144.81
348.445	127.81
348.673	119.81
348.9	131.81
349.128	139.81
349.355	130.81
349.583	137.81
349.81	144.81
350.037	123.81
350.265	131.81
350.492	130.81
350.72	116.81
350.947	132.81
351.174	136.81
351.402	122.81
351.629	140.81
351.856	121.81
352.083	136.81
352.311	127.81
352.538	159.81
352.765	146.81
352.992	137.81
353.22	148.81
353.447	139.81
353.674	132.81
353.901	145.81
354.128	137.81
354.355	131.81
354.583	127.81
354.81	131.81
355.037	140.81
355.264	125.81
355.491	134.81
355.718	134.81
355.945	129.81
356.172	129.81
356.399	115.81
356.626	130.81
356.853	117.81
357.08	133.81
357.307	128.81
357.534	122.81
357.761	138.81
357.988	135.81
358.215	131.81
358.441	128.81
358.668	129.81
358.895	133.81
359.122	113.81
359.349	136.81
359.576	139.81
359.802	118.81
360.029	139.81
360.256	126.81
360.483	134.81
360.709	147.81
360.936	146.81
361.163	118.81
361.39	139.81
361.616	145.81
361.843	112.81
362.07	142.81
362.296	125.81
362.523	131.81
362.749	134.81
362.976	125.81
363.203	146.81
363.429	148.81
363.656	149.81
363.882	122.81
364.109	127.81
364.335	144.81
364.562	127.81
364.788	128.81
365.015	126.81
365.241	124.81
365.468	131.81
365.694	136.81
365.92	127.81
366.147	133.81
366.373	133.81
366.599	130.81
366.826	125.81
367.052	122.81
367.278	137.81
367.505	140.81
367.731	135.81
367.957	137.81
368.184	135.81
368.41	142.81
368.636	154.81
368.862	135.81
369.089	149.81
369.315	130.81
369.541	149.81
369.767	146.81
369.993	156.81
370.219	147.81
370.445	138.81
370.672	140.81
370.898	158.81
371.124	144.81
371.35	140.81
371.576	136.81
371.802	152.81
372.028	132.81
372.254	154.81
372.48	156.81
372.706	161.81
372.932	154.81
373.158	150.81
373.384	163.81
373.61	169.81
373.835	161.81
374.061	152.81
374.287	150.81
374.513	158.81
374.739	185.81
374.965	145.81
375.191	153.81
375.416	152.81
375.642	169.81
375.868	165.81
376.094	155.81
376.319	157.81
376.545	153.81
376.771	157.81
376.997	160.81
377.222	146.81
377.448	164.81
377.674	162.81
377.899	176.81
378.125	156.81
378.35	164.81
378.576	156.81
378.802	152.81
379.027	165.81
379.253	172.81
379.478	160.81
379.704	150.81
379.929	164.81
380.155	165.81
380.38	163.81
380.606	159.81
380.831	163.81
381.057	178.81
381.282	170.81
381.507	162.81
381.733	155.81
381.958	162.81
382.184	170.81
382.409	171.81
382.634	171.81
382.86	177.81
383.085	176.81
383.31	188.81
383.535	164.81
383.761	175.81
383.986	188.81
384.211	179.81
384.436	176.81
384.662	192.81
384.887	184.81
385.112	173.81
385.337	180.81
385.562	192.81
385.787	188.81
386.013	190.81
386.238	186.81
386.463	178.81
386.688	222.81
386.913	180.81
387.138	182.81
387.363	183.81
387.588	212.81
387.813	189.81
388.038	190.81
388.263	194.81
388.488	208.81
388.713	193.81
388.938	178.81
389.163	187.81
389.387	194.81
389.612	208.81
389.837	185.81
390.062	218.81
390.287	195.81
390.512	198.81
390.736	190.81
390.961	185.81
391.186	207.81
391.411	212.81
391.636	204.81
391.86	210.81
392.085	211.81
392.31	201.81
392.534	200.81
392.759	219.81
392.984	207.81
393.208	213.81
393.433	216.81
393.658	206.81
393.882	216.81
394.107	208.81
394.331	212.81
394.556	199.81
394.78	220.81
395.005	214.81
395.229	217.81
395.454	207.81
395.678	226.81
395.903	216.81
396.127	215.81
396.352	213.81
396.576	212.81
396.801	206.81
397.025	226.81
397.249	211.81
397.474	203.81
397.698	217.81
397.922	208.81
398.147	235.81
398.371	222.81
398.595	223.81
398.82	222.81
399.044	245.81
399.268	267.81
399.492	300.81
399.717	296.81
399.941	263.81
400.165	262.81
400.389	261.81
400.613	256.81
400.837	234.81
401.062	229.81
401.286	229.81
401.51	224.81
401.734	247.81
401.958	247.81
402.182	237.81
402.406	236.81
402.63	246.81
402.854	243.81
403.078	257.81
403.302	255.81
403.526	262.81
403.75	266.81
403.974	247.81
404.198	273.81
404.422	286.81
404.645	262.81
404.869	259.81
405.093	278.81
405.317	256.81
405.541	253.81
405.765	247.81
405.988	253.81
406.212	261.81
406.436	273.81
406.66	272.81
406.883	268.81
407.107	270.81
407.331	278.81
407.555	260.81
407.778	266.81
408.002	257.81
408.226	286.81
408.449	274.81
408.673	259.81
408.896	270.81
409.12	267.81
409.344	260.81
409.567	273.81
409.791	266.81
410.014	274.81
410.238	272.81
410.461	267.81
410.685	273.81
410.908	264.81
411.132	291.81
411.355	274.81
411.578	259.81
411.802	277.81
412.025	246.81
412.249	276.81
412.472	251.81
412.695	256.81
412.919	265.81
413.142	249.81
413.365	244.81
413.589	268.81
413.812	260.81
414.035	250.81
414.258	274.81
414.482	267.81
414.705	267.81
414.928	247.81
415.151	265.81
415.374	255.81
415.597	253.81
415.821	254.81
416.044	255.81
416.267	254.81
416.49	274.81
416.713	269.81
416.936	276.81
417.159	266.81
417.382	265.81
417.605	253.81
417.828	261.81
418.051	270.81
418.274	278.81
418.497	256.81
418.72	273.81
418.943	276.81
419.166	303.81
419.389	312.81
419.611	282.81
419.834	269.81
420.057	282.81
420.28	263.81
420.503	295.81
420.726	274.81
420.948	261.81
421.171	272.81
421.394	282.81
421.617	284.81
421.839	301.81
422.062	288.81
422.285	279.81
422.507	279.81
422.73	278.81
422.953	268.81
423.175	286.81
423.398	274.81
423.621	282.81
423.843	279.81
424.066	292.81
424.288	299.81
424.511	297.81
424.733	290.81
424.956	282.81
425.178	295.81
425.401	298.81
425.623	277.81
425.846	271.81
426.068	279.81
426.291	272.81
426.513	261.81
426.735	262.81
426.958	262.81
427.18	275.81
427.402	272.81
427.625	268.81
427.847	256.81
428.069	270.81
428.292	246.81
428.514	254.81
428.736	271.81
428.958	263.81
429.181	249.81
429.403	248.81
429.625	242.81
429.847	249.81
430.069	261.81
430.292	274.81
430.514	250.81
430.736	254.81
430.958	261.81
431.18	246.81
431.402	249.81
431.624	229.81
431.846	212.81
432.068	190.81
432.29	189.81
432.512	227.81
432.734	263.81
432.956	274.81
433.178	267.81
433.4	284.81
433.622	283.81
433.844	262.81
434.066	228.81
434.287	206.81
434.509	188.81
434.731	216.81
434.953	241.81
435.175	251.81
435.397	278.81
435.618	228.81
435.84	228.81
436.062	237.81
436.284	257.81
436.505	261.81
436.727	254.81
436.949	247.81
437.17	263.81
437.392	243.81
437.614	240.81
437.835	208.81
438.057	203.81
438.278	218.81
438.5	252.81
438.721	268.81
438.943	264.81
439.165	276.81
439.386	262.81
439.608	288.81
439.829	267.81
440.05	280.81
440.272	297.81
440.493	315.81
440.715	296.81
440.936	278.81
441.158	303.81
441.379	296.81
441.6	314.81
441.822	308.81
442.043	304.81
442.264	295.81
442.486	282.81
442.707	303.81
442.928	282.81
443.149	295.81
443.371	302.81
443.592	273.81
443.813	296.81
444.034	291.81
444.255	311.81
444.476	296.81
444.698	323.81
444.919	311.81
445.14	575.81
445.361	429.81
445.582	320.81
445.803	278.81
446.024	308.81
446.245	322.81
446.466	288.81
446.687	315.81
446.908	315.81
447.129	294.81
447.35	311.81
447.571	316.81
447.792	297.81
448.013	274.81
448.234	286.81
448.455	272.81
448.675	295.81
448.896	259.81
449.117	285.81
449.338	252.81
449.559	269.81
449.779	262.81
450	262.81
450.221	257.81
450.442	261.81
450.662	256.81
450.883	257.81
451.104	260.81
451.324	265.81
451.545	258.81
451.766	251.81
451.986	243.81
452.207	251.81
452.428	227.81
452.648	239.81
452.869	217.81
453.089	227.81
453.31	214.81
453.53	195.81
453.751	187.81
453.971	198.81
454.192	203.81
454.412	203.81
454.633	225.81
454.853	226.81
455.073	228.81
455.294	241.81
455.514	227.81
455.734	225.81
455.955	222.81
456.175	205.81
456.395	190.81
456.616	199.81
456.836	199.81
457.056	188.81
457.276	203.81
457.497	189.81
457.717	201.81
457.937	207.81
458.157	206.81
458.377	191.81
458.598	178.81
458.818	170.81
459.038	156.81
459.258	154.81
459.478	172.81
459.698	179.81
459.918	198.81
460.138	213.81
460.358	213.81
460.578	256.81
460.798	234.81
461.018	236.81
461.238	239.81
461.458	222.81
461.678	223.81
461.898	220.81
462.118	227.81
462.338	244.81
462.558	228.81
462.777	257.81
462.997	261.81
463.217	274.81
463.437	259.81
463.657	238.81
463.876	247.81
464.096	244.81
464.316	245.81
464.536	254.81
464.755	254.81
464.975	239.81
465.195	244.81
465.414	235.81
465.634	227.81
465.854	223.81
466.073	241.81
466.293	249.81
466.512	227.81
466.732	248.81
466.951	253.81
467.171	266.81
467.391	256.81
467.61	276.81
467.829	252.81
468.049	245.81
468.268	252.81
468.488	236.81
468.707	242.81
468.927	278.81
469.146	251.81
469.365	256.81
469.585	273.81
469.804	272.81
470.023	280.81
470.243	303.81
470.462	272.81
470.681	283.81
470.901	270.81
471.12	271.81
471.339	270.81
471.558	270.81
471.777	263.81
471.997	264.81
472.216	248.81
472.435	218.81
472.654	196.81
472.873	206.81
473.092	228.81
473.311	231.81
473.53	226.81
473.749	245.81
473.968	254.81
474.187	216.81
474.406	211.81
474.625	248.81
474.844	240.81
475.063	238.81
475.282	238.81
475.501	219.81
475.72	218.81
475.939	235.81
476.158	232.81
476.377	237.81
476.596	225.81
476.814	220.81
477.033	199.81
477.252	208.81
477.471	252.81
477.69	258.81
477.908	275.81
478.127	274.81
478.346	270.81
478.564	282.81
478.783	289.81
479.002	279.81
479.22	274.81
479.439	279.81
479.658	243.81
479.876	228.81
480.095	223.81
480.313	241.81
480.532	247.81
480.751	206.81
480.969	203.81
481.188	186.81
481.406	169.81
481.624	176.81
481.843	186.81
482.061	169.81
482.28	214.81
482.498	224.81
482.717	214.81
482.935	239.81
483.153	278.81
483.372	280.81
483.59	286.81
483.808	277.81
484.027	260.81
484.245	249.81
484.463	267.81
484.681	262.81
484.9	277.81
485.118	259.81
485.336	254.81
485.554	228.81
485.772	212.81
485.99	198.81
486.209	210.81
486.427	207.81
486.645	240.81
486.863	284.81
487.081	276.81
487.299	254.81
487.517	272.81
487.735	333.81
487.953	374.81
488.171	357.81
488.389	347.81
488.607	283.81
488.825	274.81
489.043	236.81
489.261	260.81
489.479	266.81
489.696	276.81
489.914	254.81
490.132	284.81
490.35	311.81
490.568	321.81
490.786	338.81
491.003	344.81
491.221	355.81
491.439	375.81
491.657	367.81
491.874	434.81
492.092	452.81
492.31	515.81
492.527	470.81
492.745	402.81
492.963	402.81
493.18	392.81
493.398	382.81
493.615	376.81
493.833	384.81
494.05	371.81
494.268	351.81
494.485	340.81
494.703	338.81
494.92	356.81
495.138	373.81
495.355	377.81
495.573	351.81
495.79	376.81
496.008	347.81
496.225	352.81
496.442	335.81
496.66	347.81
496.877	313.81
497.094	358.81
497.312	329.81
497.529	320.81
497.746	314.81
497.963	288.81
498.181	291.81
498.398	276.81
498.615	270.81
498.832	291.81
499.049	306.81
499.267	320.81
499.484	339.81
499.701	389.81
499.918	415.81
500.135	452.81
500.352	483.81
500.569	495.81
500.786	512.81
501.003	454.81
501.22	393.81
501.437	393.81
501.654	370.81
501.871	339.81
502.088	321.81
502.305	304.81
502.522	315.81
502.739	321.81
502.956	282.81
503.172	260.81
503.389	265.81
503.606	252.81
503.823	260.81
504.04	262.81
504.256	275.81
504.473	257.81
504.69	278.81
