Data from SampD_HRD10591_00035.txt Node
Date: Mon Jan 19 11:47:50 EST 2026
User: Yrep
Spectrometer: HR+D1059
Trigger mode: 0
Integration Time (sec): 3.443000E-1
Scans to average: 1
Electric dark correction enabled: true
Nonlinearity correction enabled: false
Boxcar width: 0
XAxis mode: Wavelengths
Number of Pixels in Spectrum: 2048
>>>>>Begin Spectral Data<<<<<
223.165	-25.12
223.4	-25.12
223.635	-25.12
223.869	-21.12
224.104	-22.12
224.338	-10.12
224.573	-18.12
224.808	-33.12
225.042	10.88
225.277	-12.12
225.511	-12.12
225.746	6.88
225.98	3.88
226.215	30.88
226.449	15.88
226.683	27.88
226.918	25.88
227.152	31.88
227.387	46.88
227.621	35.88
227.856	48.88
228.09	60.88
228.324	49.88
228.559	62.88
228.793	52.88
229.027	74.88
229.262	55.88
229.496	55.88
229.73	60.88
229.964	60.88
230.199	74.88
230.433	67.88
230.667	88.88
230.901	68.88
231.136	82.88
231.37	80.88
231.604	88.88
231.838	87.88
232.072	85.88
232.306	78.88
232.541	76.88
232.775	88.88
233.009	91.88
233.243	88.88
233.477	91.88
233.711	87.88
233.945	73.88
234.179	82.88
234.413	95.88
234.647	99.88
234.881	95.88
235.115	81.88
235.349	72.88
235.583	94.88
235.817	95.88
236.051	82.88
236.285	89.88
236.519	78.88
236.753	102.88
236.987	97.88
237.221	83.88
237.455	89.88
237.689	95.88
237.922	91.88
238.156	87.88
238.39	78.88
238.624	95.88
238.858	79.88
239.091	75.88
239.325	75.88
239.559	81.88
239.793	79.88
240.027	85.88
240.26	87.88
240.494	91.88
240.728	87.88
240.961	74.88
241.195	76.88
241.429	94.88
241.662	78.88
241.896	89.88
242.13	80.88
242.363	67.88
242.597	81.88
242.83	98.88
243.064	88.88
243.298	92.88
243.531	80.88
243.765	86.88
243.998	88.88
244.232	90.88
244.465	98.88
244.699	83.88
244.932	80.88
245.166	83.88
245.399	84.88
245.633	88.88
245.866	83.88
246.099	79.88
246.333	85.88
246.566	72.88
246.8	81.88
247.033	74.88
247.266	76.88
247.5	100.88
247.733	91.88
247.966	78.88
248.2	91.88
248.433	89.88
248.666	86.88
248.899	87.88
249.133	92.88
249.366	97.88
249.599	90.88
249.832	87.88
250.066	102.88
250.299	84.88
250.532	94.88
250.765	83.88
250.998	84.88
251.231	94.88
251.465	87.88
251.698	97.88
251.931	88.88
252.164	89.88
252.397	80.88
252.63	110.88
252.863	86.88
253.096	96.88
253.329	107.88
253.562	95.88
253.795	78.88
254.028	99.88
254.261	94.88
254.494	89.88
254.727	98.88
254.96	80.88
255.193	90.88
255.426	79.88
255.659	84.88
255.892	94.88
256.124	88.88
256.357	100.88
256.59	95.88
256.823	94.88
257.056	102.88
257.289	86.88
257.521	102.88
257.754	90.88
257.987	90.88
258.22	110.88
258.452	101.88
258.685	87.88
258.918	95.88
259.151	96.88
259.383	102.88
259.616	99.88
259.849	99.88
260.081	94.88
260.314	107.88
260.547	95.88
260.779	109.88
261.012	99.88
261.244	91.88
261.477	115.88
261.71	98.88
261.942	94.88
262.175	110.88
262.407	108.88
262.64	98.88
262.872	98.88
263.105	94.88
263.337	100.88
263.57	98.88
263.802	106.88
264.035	98.88
264.267	99.88
264.499	92.88
264.732	101.88
264.964	102.88
265.197	105.88
265.429	102.88
265.661	102.88
265.894	114.88
266.126	100.88
266.358	101.88
266.591	98.88
266.823	98.88
267.055	96.88
267.287	109.88
267.52	90.88
267.752	79.88
267.984	101.88
268.216	84.88
268.448	112.88
268.681	106.88
268.913	113.88
269.145	105.88
269.377	119.88
269.609	100.88
269.841	100.88
270.073	119.88
270.306	96.88
270.538	105.88
270.77	103.88
271.002	95.88
271.234	114.88
271.466	102.88
271.698	84.88
271.93	94.88
272.162	106.88
272.394	111.88
272.626	112.88
272.858	119.88
273.09	101.88
273.322	108.88
273.553	125.88
273.785	106.88
274.017	100.88
274.249	107.88
274.481	112.88
274.713	99.88
274.945	107.88
275.176	91.88
275.408	108.88
275.64	118.88
275.872	112.88
276.104	104.88
276.335	98.88
276.567	123.88
276.799	107.88
277.031	98.88
277.262	107.88
277.494	108.88
277.726	105.88
277.957	114.88
278.189	107.88
278.421	109.88
278.652	107.88
278.884	97.88
279.115	108.88
279.347	114.88
279.579	104.88
279.81	104.88
280.042	112.88
280.273	115.88
280.505	113.88
280.736	107.88
280.968	112.88
281.199	102.88
281.431	108.88
281.662	122.88
281.894	112.88
282.125	107.88
282.356	115.88
282.588	109.88
282.819	96.88
283.051	107.88
283.282	115.88
283.513	117.88
283.745	118.88
283.976	115.88
284.207	126.88
284.439	120.88
284.67	118.88
284.901	121.88
285.132	116.88
285.364	110.88
285.595	126.88
285.826	115.88
286.057	115.88
286.288	118.88
286.52	119.88
286.751	110.88
286.982	102.88
287.213	97.88
287.444	118.88
287.675	127.88
287.906	130.88
288.138	123.88
288.369	118.88
288.6	112.88
288.831	102.88
289.062	130.88
289.293	123.88
289.524	121.88
289.755	115.88
289.986	109.88
290.217	120.88
290.448	110.88
290.679	111.88
290.91	122.88
291.141	117.88
291.371	121.88
291.602	112.88
291.833	122.88
292.064	124.88
292.295	120.88
292.526	116.88
292.757	114.88
292.987	128.88
293.218	105.88
293.449	113.88
293.68	106.88
293.91	131.88
294.141	118.88
294.372	115.88
294.603	132.88
294.833	117.88
295.064	124.88
295.295	118.88
295.525	110.88
295.756	121.88
295.987	110.88
296.217	107.88
296.448	117.88
296.679	118.88
296.909	117.88
297.14	115.88
297.37	113.88
297.601	115.88
297.831	114.88
298.062	130.88
298.292	104.88
298.523	143.88
298.753	132.88
298.984	120.88
299.214	105.88
299.445	121.88
299.675	111.88
299.905	122.88
300.136	136.88
300.366	134.88
300.597	119.88
300.827	134.88
301.057	120.88
301.288	113.88
301.518	135.88
301.748	128.88
301.979	156.88
302.209	134.88
302.439	123.88
302.669	147.88
302.9	127.88
303.13	137.88
303.36	121.88
303.59	126.88
303.82	124.88
304.051	119.88
304.281	126.88
304.511	142.88
304.741	125.88
304.971	125.88
305.201	117.88
305.431	132.88
305.661	129.88
305.891	121.88
306.121	131.88
306.352	114.88
306.582	107.88
306.812	130.88
307.042	118.88
307.272	130.88
307.502	126.88
307.731	124.88
307.961	112.88
308.191	120.88
308.421	128.88
308.651	121.88
308.881	122.88
309.111	123.88
309.341	127.88
309.571	112.88
309.8	131.88
310.03	119.88
310.26	119.88
310.49	138.88
310.72	126.88
310.949	107.88
311.179	122.88
311.409	128.88
311.639	99.88
311.868	130.88
312.098	133.88
312.328	131.88
312.557	122.88
312.787	142.88
313.017	143.88
313.246	131.88
313.476	118.88
313.706	116.88
313.935	122.88
314.165	116.88
314.394	132.88
314.624	124.88
314.853	130.88
315.083	110.88
315.312	136.88
315.542	134.88
315.771	126.88
316.001	114.88
316.23	126.88
316.46	115.88
316.689	116.88
316.919	118.88
317.148	127.88
317.377	128.88
317.607	130.88
317.836	121.88
318.065	130.88
318.295	126.88
318.524	115.88
318.753	134.88
318.983	133.88
319.212	142.88
319.441	123.88
319.67	122.88
319.9	112.88
320.129	131.88
320.358	133.88
320.587	137.88
320.816	128.88
321.046	142.88
321.275	131.88
321.504	126.88
321.733	135.88
321.962	126.88
322.191	123.88
322.42	114.88
322.649	134.88
322.878	129.88
323.108	133.88
323.337	131.88
323.566	120.88
323.795	140.88
324.024	127.88
324.253	129.88
324.482	111.88
324.71	129.88
324.939	131.88
325.168	134.88
325.397	138.88
325.626	124.88
325.855	139.88
326.084	134.88
326.313	139.88
326.542	146.88
326.77	130.88
326.999	130.88
327.228	140.88
327.457	139.88
327.686	123.88
327.914	115.88
328.143	130.88
328.372	131.88
328.6	136.88
328.829	146.88
329.058	145.88
329.287	154.88
329.515	127.88
329.744	134.88
329.972	129.88
330.201	135.88
330.43	150.88
330.658	131.88
330.887	140.88
331.115	134.88
331.344	144.88
331.572	145.88
331.801	144.88
332.03	129.88
332.258	149.88
332.486	147.88
332.715	137.88
332.943	161.88
333.172	171.88
333.4	155.88
333.629	156.88
333.857	166.88
334.085	154.88
334.314	151.88
334.542	145.88
334.771	132.88
334.999	158.88
335.227	142.88
335.455	170.88
335.684	154.88
335.912	135.88
336.14	142.88
336.369	143.88
336.597	146.88
336.825	144.88
337.053	136.88
337.281	141.88
337.51	139.88
337.738	143.88
337.966	128.88
338.194	117.88
338.422	136.88
338.65	143.88
338.878	123.88
339.106	134.88
339.334	128.88
339.562	134.88
339.79	131.88
340.018	131.88
340.246	137.88
340.474	134.88
340.702	129.88
340.93	127.88
341.158	139.88
341.386	128.88
341.614	126.88
341.842	142.88
342.07	127.88
342.298	123.88
342.526	134.88
342.754	142.88
342.981	131.88
343.209	138.88
343.437	192.88
343.665	135.88
343.893	139.88
344.12	168.88
344.348	145.88
344.576	138.88
344.804	140.88
345.031	139.88
345.259	150.88
345.487	146.88
345.714	126.88
345.942	128.88
346.17	139.88
346.397	142.88
346.625	138.88
346.853	138.88
347.08	133.88
347.308	132.88
347.535	131.88
347.763	132.88
347.99	136.88
348.218	136.88
348.445	144.88
348.673	137.88
348.9	137.88
349.128	133.88
349.355	133.88
349.583	129.88
349.81	126.88
350.037	127.88
350.265	135.88
350.492	109.88
350.72	119.88
350.947	136.88
351.174	135.88
351.402	120.88
351.629	128.88
351.856	113.88
352.083	115.88
352.311	136.88
352.538	136.88
352.765	146.88
352.992	150.88
353.22	149.88
353.447	140.88
353.674	114.88
353.901	139.88
354.128	134.88
354.355	124.88
354.583	133.88
354.81	144.88
355.037	142.88
355.264	143.88
355.491	135.88
355.718	119.88
355.945	127.88
356.172	124.88
356.399	118.88
356.626	136.88
356.853	129.88
357.08	132.88
357.307	140.88
357.534	135.88
357.761	131.88
357.988	123.88
358.215	129.88
358.441	119.88
358.668	135.88
358.895	141.88
359.122	124.88
359.349	128.88
359.576	140.88
359.802	123.88
360.029	131.88
360.256	132.88
360.483	137.88
360.709	127.88
360.936	139.88
361.163	128.88
361.39	119.88
361.616	123.88
361.843	138.88
362.07	135.88
362.296	126.88
362.523	109.88
362.749	131.88
362.976	124.88
363.203	137.88
363.429	134.88
363.656	149.88
363.882	135.88
364.109	135.88
364.335	144.88
364.562	122.88
364.788	137.88
365.015	135.88
365.241	130.88
365.468	131.88
365.694	132.88
365.92	126.88
366.147	118.88
366.373	112.88
366.599	145.88
366.826	129.88
367.052	145.88
367.278	117.88
367.505	140.88
367.731	154.88
367.957	127.88
368.184	142.88
368.41	149.88
368.636	139.88
368.862	144.88
369.089	139.88
369.315	132.88
369.541	150.88
369.767	121.88
369.993	140.88
370.219	126.88
370.445	159.88
370.672	148.88
370.898	146.88
371.124	158.88
371.35	162.88
371.576	150.88
371.802	150.88
372.028	155.88
372.254	159.88
372.48	157.88
372.706	146.88
372.932	153.88
373.158	154.88
373.384	138.88
373.61	147.88
373.835	162.88
374.061	154.88
374.287	163.88
374.513	145.88
374.739	150.88
374.965	154.88
375.191	165.88
375.416	175.88
375.642	172.88
375.868	174.88
376.094	164.88
376.319	160.88
376.545	164.88
376.771	158.88
376.997	144.88
377.222	157.88
377.448	150.88
377.674	158.88
377.899	143.88
378.125	148.88
378.35	148.88
378.576	163.88
378.802	161.88
379.027	165.88
379.253	175.88
379.478	140.88
379.704	150.88
379.929	155.88
380.155	150.88
380.38	158.88
380.606	173.88
380.831	165.88
381.057	186.88
381.282	161.88
381.507	159.88
381.733	170.88
381.958	166.88
382.184	171.88
382.409	175.88
382.634	177.88
382.86	179.88
383.085	181.88
383.31	183.88
383.535	196.88
383.761	181.88
383.986	180.88
384.211	183.88
384.436	184.88
384.662	175.88
384.887	174.88
385.112	164.88
385.337	188.88
385.562	184.88
385.787	190.88
386.013	200.88
386.238	177.88
386.463	184.88
386.688	212.88
386.913	199.88
387.138	206.88
387.363	190.88
387.588	196.88
387.813	198.88
388.038	197.88
388.263	195.88
388.488	184.88
388.713	196.88
388.938	190.88
389.163	179.88
389.387	195.88
389.612	176.88
389.837	194.88
390.062	190.88
390.287	207.88
390.512	211.88
390.736	202.88
390.961	172.88
391.186	213.88
391.411	207.88
391.636	191.88
391.86	200.88
392.085	193.88
392.31	219.88
392.534	221.88
392.759	215.88
392.984	220.88
393.208	210.88
393.433	218.88
393.658	218.88
393.882	219.88
394.107	216.88
394.331	210.88
394.556	203.88
394.78	217.88
395.005	217.88
395.229	215.88
395.454	212.88
395.678	218.88
395.903	229.88
396.127	213.88
396.352	220.88
396.576	217.88
396.801	211.88
397.025	209.88
397.249	218.88
397.474	218.88
397.698	210.88
397.922	219.88
398.147	223.88
398.371	220.88
398.595	232.88
398.82	225.88
399.044	237.88
399.268	250.88
399.492	286.88
399.717	293.88
399.941	284.88
400.165	279.88
400.389	240.88
400.613	239.88
400.837	262.88
401.062	236.88
401.286	244.88
401.51	219.88
401.734	235.88
401.958	235.88
402.182	255.88
402.406	245.88
402.63	234.88
402.854	253.88
403.078	248.88
403.302	259.88
403.526	281.88
403.75	258.88
403.974	261.88
404.198	261.88
404.422	268.88
404.645	261.88
404.869	274.88
405.093	262.88
405.317	262.88
405.541	266.88
405.765	259.88
405.988	247.88
406.212	262.88
406.436	244.88
406.66	261.88
406.883	274.88
407.107	278.88
407.331	284.88
407.555	288.88
407.778	292.88
408.002	274.88
408.226	266.88
408.449	266.88
408.673	267.88
408.896	265.88
409.12	271.88
409.344	255.88
409.567	271.88
409.791	269.88
410.014	270.88
410.238	272.88
410.461	277.88
410.685	265.88
410.908	250.88
411.132	270.88
411.355	276.88
411.578	282.88
411.802	257.88
412.025	276.88
412.249	263.88
412.472	240.88
412.695	258.88
412.919	263.88
413.142	260.88
413.365	274.88
413.589	266.88
413.812	239.88
414.035	262.88
414.258	262.88
414.482	251.88
414.705	264.88
414.928	265.88
415.151	280.88
415.374	253.88
415.597	264.88
415.821	267.88
416.044	256.88
416.267	278.88
416.49	267.88
416.713	272.88
416.936	284.88
417.159	267.88
417.382	272.88
417.605	276.88
417.828	273.88
418.051	275.88
418.274	283.88
418.497	273.88
418.72	272.88
418.943	278.88
419.166	306.88
419.389	290.88
419.611	306.88
419.834	306.88
420.057	291.88
420.28	283.88
420.503	280.88
420.726	276.88
420.948	285.88
421.171	279.88
421.394	298.88
421.617	292.88
421.839	296.88
422.062	280.88
422.285	291.88
422.507	273.88
422.73	258.88
422.953	278.88
423.175	288.88
423.398	262.88
423.621	278.88
423.843	299.88
424.066	294.88
424.288	303.88
424.511	322.88
424.733	307.88
424.956	284.88
425.178	296.88
425.401	306.88
425.623	286.88
425.846	270.88
426.068	267.88
426.291	268.88
426.513	258.88
426.735	260.88
426.958	273.88
427.18	278.88
427.402	260.88
427.625	262.88
427.847	252.88
428.069	261.88
428.292	252.88
428.514	247.88
428.736	262.88
428.958	255.88
429.181	268.88
429.403	265.88
429.625	256.88
429.847	236.88
430.069	258.88
430.292	259.88
430.514	246.88
430.736	245.88
430.958	267.88
431.18	267.88
431.402	253.88
431.624	246.88
431.846	222.88
432.068	197.88
432.29	202.88
432.512	220.88
432.734	259.88
432.956	272.88
433.178	274.88
433.4	254.88
433.622	251.88
433.844	250.88
434.066	225.88
434.287	202.88
434.509	195.88
434.731	213.88
434.953	254.88
435.175	250.88
435.397	274.88
435.618	241.88
435.84	210.88
436.062	236.88
436.284	245.88
436.505	251.88
436.727	263.88
436.949	262.88
437.17	251.88
437.392	250.88
437.614	239.88
437.835	208.88
438.057	228.88
438.278	224.88
438.5	255.88
438.721	258.88
438.943	279.88
439.165	282.88
439.386	277.88
439.608	293.88
439.829	298.88
440.05	307.88
440.272	278.88
440.493	282.88
440.715	286.88
440.936	303.88
441.158	297.88
441.379	289.88
441.6	299.88
441.822	295.88
442.043	300.88
442.264	300.88
442.486	292.88
442.707	303.88
442.928	286.88
443.149	280.88
443.371	293.88
443.592	303.88
443.813	285.88
444.034	310.88
444.255	312.88
444.476	323.88
444.698	323.88
444.919	320.88
445.14	564.88
445.361	426.88
445.582	322.88
445.803	308.88
446.024	291.88
446.245	331.88
446.466	301.88
446.687	310.88
446.908	335.88
447.129	314.88
447.35	322.88
447.571	286.88
447.792	279.88
448.013	289.88
448.234	290.88
448.455	276.88
448.675	282.88
448.896	276.88
449.117	273.88
449.338	274.88
449.559	261.88
449.779	275.88
450	244.88
450.221	259.88
450.442	270.88
450.662	274.88
450.883	272.88
451.104	282.88
451.324	255.88
451.545	270.88
451.766	238.88
451.986	239.88
452.207	261.88
452.428	241.88
452.648	228.88
452.869	211.88
453.089	217.88
453.31	206.88
453.53	201.88
453.751	205.88
453.971	196.88
454.192	219.88
454.412	194.88
454.633	218.88
454.853	218.88
455.073	227.88
455.294	216.88
455.514	215.88
455.734	225.88
455.955	230.88
456.175	219.88
456.395	197.88
456.616	200.88
456.836	208.88
457.056	194.88
457.276	202.88
457.497	176.88
457.717	191.88
457.937	197.88
458.157	190.88
458.377	183.88
458.598	170.88
458.818	171.88
459.038	167.88
459.258	180.88
459.478	184.88
459.698	178.88
459.918	209.88
460.138	203.88
460.358	230.88
460.578	251.88
460.798	244.88
461.018	233.88
461.238	227.88
461.458	238.88
461.678	220.88
461.898	236.88
462.118	246.88
462.338	238.88
462.558	258.88
462.777	244.88
462.997	272.88
463.217	248.88
463.437	252.88
463.657	264.88
463.876	260.88
464.096	241.88
464.316	234.88
464.536	258.88
464.755	241.88
464.975	249.88
465.195	231.88
465.414	224.88
465.634	237.88
465.854	211.88
466.073	215.88
466.293	255.88
466.512	251.88
466.732	248.88
466.951	259.88
467.171	258.88
467.391	246.88
467.61	266.88
467.829	252.88
468.049	264.88
468.268	256.88
468.488	265.88
468.707	272.88
468.927	278.88
469.146	265.88
469.365	279.88
469.585	288.88
469.804	280.88
470.023	280.88
470.243	278.88
470.462	286.88
470.681	272.88
470.901	285.88
471.12	281.88
471.339	282.88
471.558	278.88
471.777	276.88
471.997	249.88
472.216	239.88
472.435	219.88
472.654	181.88
472.873	199.88
473.092	214.88
473.311	228.88
473.53	230.88
473.749	227.88
473.968	231.88
474.187	225.88
474.406	226.88
474.625	245.88
474.844	239.88
475.063	236.88
475.282	224.88
475.501	206.88
475.72	226.88
475.939	243.88
476.158	245.88
476.377	239.88
476.596	223.88
476.814	212.88
477.033	201.88
477.252	210.88
477.471	234.88
477.69	257.88
477.908	271.88
478.127	282.88
478.346	277.88
478.564	266.88
478.783	262.88
479.002	289.88
479.22	272.88
479.439	274.88
479.658	248.88
479.876	225.88
480.095	234.88
480.313	240.88
480.532	251.88
480.751	219.88
480.969	182.88
481.188	180.88
481.406	197.88
481.624	185.88
481.843	193.88
482.061	199.88
482.28	207.88
482.498	218.88
482.717	214.88
482.935	244.88
483.153	282.88
483.372	278.88
483.59	291.88
483.808	274.88
484.027	255.88
484.245	262.88
484.463	288.88
484.681	278.88
484.9	262.88
485.118	257.88
485.336	238.88
485.554	222.88
485.772	190.88
485.99	206.88
486.209	215.88
486.427	217.88
486.645	241.88
486.863	256.88
487.081	261.88
487.299	246.88
487.517	273.88
487.735	316.88
487.953	380.88
488.171	369.88
488.389	331.88
488.607	295.88
488.825	264.88
489.043	246.88
489.261	265.88
489.479	270.88
489.696	274.88
489.914	278.88
490.132	287.88
490.35	314.88
490.568	326.88
490.786	336.88
491.003	362.88
491.221	375.88
491.439	377.88
491.657	385.88
491.874	432.88
492.092	483.88
492.31	478.88
492.527	465.88
492.745	415.88
492.963	407.88
493.18	398.88
493.398	392.88
493.615	378.88
493.833	354.88
494.05	354.88
494.268	355.88
494.485	384.88
494.703	382.88
494.92	357.88
495.138	371.88
495.355	352.88
495.573	388.88
495.79	362.88
496.008	356.88
496.225	381.88
496.442	373.88
496.66	368.88
496.877	346.88
497.094	352.88
497.312	351.88
497.529	311.88
497.746	315.88
497.963	294.88
498.181	294.88
498.398	269.88
498.615	283.88
498.832	290.88
499.049	309.88
499.267	345.88
499.484	367.88
499.701	379.88
499.918	421.88
500.135	466.88
500.352	522.88
500.569	504.88
500.786	513.88
501.003	479.88
501.22	460.88
501.437	418.88
501.654	344.88
501.871	344.88
502.088	322.88
502.305	318.88
502.522	311.88
502.739	306.88
502.956	280.88
503.172	275.88
503.389	264.88
503.606	256.88
503.823	259.88
504.04	261.88
504.256	262.88
504.473	257.88
504.69	260.88
