Data from SampD_HRD10591_00018.txt Node
Date: Mon Jan 19 11:47:44 EST 2026
User: Yrep
Spectrometer: HR+D1059
Trigger mode: 0
Integration Time (sec): 3.443000E-1
Scans to average: 1
Electric dark correction enabled: true
Nonlinearity correction enabled: false
Boxcar width: 0
XAxis mode: Wavelengths
Number of Pixels in Spectrum: 2048
>>>>>Begin Spectral Data<<<<<
223.165	-29.31
223.4	-29.31
223.635	-29.31
223.869	-26.31
224.104	-13.31
224.338	-5.31
224.573	-13.31
224.808	-15.31
225.042	-3.31
225.277	5.69
225.511	1.69
225.746	-1.31
225.98	5.69
226.215	3.69
226.449	23.69
226.683	14.69
226.918	22.69
227.152	29.69
227.387	33.69
227.621	43.69
227.856	44.69
228.09	42.69
228.324	43.69
228.559	65.69
228.793	71.69
229.027	66.69
229.262	63.69
229.496	72.69
229.73	68.69
229.964	75.69
230.199	78.69
230.433	74.69
230.667	80.69
230.901	101.69
231.136	94.69
231.37	86.69
231.604	83.69
231.838	67.69
232.072	72.69
232.306	80.69
232.541	74.69
232.775	81.69
233.009	91.69
233.243	72.69
233.477	97.69
233.711	95.69
233.945	77.69
234.179	77.69
234.413	80.69
234.647	84.69
234.881	83.69
235.115	85.69
235.349	83.69
235.583	93.69
235.817	75.69
236.051	93.69
236.285	80.69
236.519	72.69
236.753	94.69
236.987	79.69
237.221	84.69
237.455	83.69
237.689	78.69
237.922	78.69
238.156	82.69
238.39	78.69
238.624	78.69
238.858	81.69
239.091	73.69
239.325	88.69
239.559	94.69
239.793	84.69
240.027	97.69
240.26	75.69
240.494	90.69
240.728	69.69
240.961	86.69
241.195	93.69
241.429	91.69
241.662	78.69
241.896	67.69
242.13	64.69
242.363	70.69
242.597	77.69
242.83	97.69
243.064	83.69
243.298	90.69
243.531	86.69
243.765	93.69
243.998	82.69
244.232	102.69
244.465	102.69
244.699	87.69
244.932	99.69
245.166	105.69
245.399	87.69
245.633	84.69
245.866	78.69
246.099	79.69
246.333	79.69
246.566	96.69
246.8	77.69
247.033	83.69
247.266	84.69
247.5	95.69
247.733	83.69
247.966	99.69
248.2	80.69
248.433	82.69
248.666	79.69
248.899	78.69
249.133	75.69
249.366	83.69
249.599	87.69
249.832	97.69
250.066	101.69
250.299	87.69
250.532	106.69
250.765	86.69
250.998	84.69
251.231	87.69
251.465	78.69
251.698	65.69
251.931	88.69
252.164	94.69
252.397	101.69
252.63	98.69
252.863	92.69
253.096	83.69
253.329	89.69
253.562	100.69
253.795	89.69
254.028	99.69
254.261	94.69
254.494	95.69
254.727	107.69
254.96	117.69
255.193	90.69
255.426	78.69
255.659	95.69
255.892	94.69
256.124	90.69
256.357	100.69
256.59	87.69
256.823	99.69
257.056	93.69
257.289	100.69
257.521	107.69
257.754	95.69
257.987	103.69
258.22	87.69
258.452	102.69
258.685	92.69
258.918	98.69
259.151	95.69
259.383	87.69
259.616	81.69
259.849	102.69
260.081	85.69
260.314	80.69
260.547	93.69
260.779	93.69
261.012	97.69
261.244	93.69
261.477	120.69
261.71	95.69
261.942	91.69
262.175	95.69
262.407	92.69
262.64	90.69
262.872	81.69
263.105	91.69
263.337	97.69
263.57	95.69
263.802	92.69
264.035	96.69
264.267	92.69
264.499	90.69
264.732	101.69
264.964	114.69
265.197	109.69
265.429	109.69
265.661	108.69
265.894	101.69
266.126	96.69
266.358	104.69
266.591	99.69
266.823	91.69
267.055	98.69
267.287	103.69
267.52	100.69
267.752	114.69
267.984	96.69
268.216	90.69
268.448	102.69
268.681	87.69
268.913	103.69
269.145	104.69
269.377	102.69
269.609	100.69
269.841	113.69
270.073	96.69
270.306	100.69
270.538	95.69
270.77	94.69
271.002	95.69
271.234	102.69
271.466	111.69
271.698	102.69
271.93	107.69
272.162	115.69
272.394	108.69
272.626	111.69
272.858	107.69
273.09	114.69
273.322	109.69
273.553	112.69
273.785	94.69
274.017	113.69
274.249	107.69
274.481	110.69
274.713	105.69
274.945	101.69
275.176	89.69
275.408	103.69
275.64	112.69
275.872	105.69
276.104	112.69
276.335	102.69
276.567	117.69
276.799	85.69
277.031	88.69
277.262	96.69
277.494	102.69
277.726	96.69
277.957	89.69
278.189	94.69
278.421	94.69
278.652	105.69
278.884	94.69
279.115	108.69
279.347	117.69
279.579	105.69
279.81	114.69
280.042	97.69
280.273	109.69
280.505	116.69
280.736	110.69
280.968	112.69
281.199	99.69
281.431	104.69
281.662	105.69
281.894	102.69
282.125	105.69
282.356	116.69
282.588	103.69
282.819	119.69
283.051	126.69
283.282	106.69
283.513	129.69
283.745	105.69
283.976	101.69
284.207	121.69
284.439	125.69
284.67	115.69
284.901	111.69
285.132	109.69
285.364	118.69
285.595	122.69
285.826	100.69
286.057	115.69
286.288	92.69
286.52	117.69
286.751	113.69
286.982	108.69
287.213	113.69
287.444	112.69
287.675	99.69
287.906	125.69
288.138	95.69
288.369	118.69
288.6	112.69
288.831	114.69
289.062	119.69
289.293	104.69
289.524	100.69
289.755	104.69
289.986	114.69
290.217	113.69
290.448	97.69
290.679	110.69
290.91	117.69
291.141	105.69
291.371	119.69
291.602	118.69
291.833	115.69
292.064	127.69
292.295	121.69
292.526	113.69
292.757	115.69
292.987	123.69
293.218	121.69
293.449	119.69
293.68	100.69
293.91	127.69
294.141	123.69
294.372	121.69
294.603	116.69
294.833	100.69
295.064	113.69
295.295	115.69
295.525	101.69
295.756	111.69
295.987	117.69
296.217	106.69
296.448	111.69
296.679	115.69
296.909	126.69
297.14	110.69
297.37	127.69
297.601	115.69
297.831	111.69
298.062	115.69
298.292	120.69
298.523	125.69
298.753	111.69
298.984	130.69
299.214	110.69
299.445	121.69
299.675	117.69
299.905	122.69
300.136	111.69
300.366	114.69
300.597	117.69
300.827	130.69
301.057	125.69
301.288	126.69
301.518	103.69
301.748	128.69
301.979	168.69
302.209	128.69
302.439	114.69
302.669	116.69
302.9	109.69
303.13	131.69
303.36	129.69
303.59	117.69
303.82	113.69
304.051	126.69
304.281	132.69
304.511	139.69
304.741	120.69
304.971	109.69
305.201	117.69
305.431	131.69
305.661	122.69
305.891	121.69
306.121	128.69
306.352	127.69
306.582	131.69
306.812	114.69
307.042	112.69
307.272	129.69
307.502	124.69
307.731	117.69
307.961	114.69
308.191	114.69
308.421	125.69
308.651	124.69
308.881	117.69
309.111	109.69
309.341	113.69
309.571	118.69
309.8	110.69
310.03	138.69
310.26	110.69
310.49	123.69
310.72	123.69
310.949	122.69
311.179	128.69
311.409	126.69
311.639	119.69
311.868	122.69
312.098	129.69
312.328	114.69
312.557	126.69
312.787	110.69
313.017	134.69
313.246	128.69
313.476	125.69
313.706	126.69
313.935	130.69
314.165	123.69
314.394	117.69
314.624	135.69
314.853	130.69
315.083	126.69
315.312	129.69
315.542	128.69
315.771	126.69
316.001	115.69
316.23	100.69
316.46	116.69
316.689	132.69
316.919	128.69
317.148	125.69
317.377	119.69
317.607	117.69
317.836	132.69
318.065	131.69
318.295	126.69
318.524	116.69
318.753	119.69
318.983	114.69
319.212	118.69
319.441	135.69
319.67	128.69
319.9	134.69
320.129	114.69
320.358	138.69
320.587	131.69
320.816	121.69
321.046	101.69
321.275	135.69
321.504	115.69
321.733	134.69
321.962	101.69
322.191	127.69
322.42	115.69
322.649	117.69
322.878	126.69
323.108	113.69
323.337	133.69
323.566	106.69
323.795	117.69
324.024	120.69
324.253	119.69
324.482	128.69
324.71	122.69
324.939	141.69
325.168	119.69
325.397	126.69
325.626	132.69
325.855	121.69
326.084	126.69
326.313	125.69
326.542	121.69
326.77	136.69
326.999	110.69
327.228	118.69
327.457	117.69
327.686	129.69
327.914	120.69
328.143	130.69
328.372	124.69
328.6	122.69
328.829	129.69
329.058	109.69
329.287	139.69
329.515	115.69
329.744	138.69
329.972	121.69
330.201	126.69
330.43	127.69
330.658	136.69
330.887	136.69
331.115	126.69
331.344	143.69
331.572	128.69
331.801	117.69
332.03	141.69
332.258	143.69
332.486	134.69
332.715	134.69
332.943	139.69
333.172	153.69
333.4	134.69
333.629	157.69
333.857	148.69
334.085	159.69
334.314	142.69
334.542	141.69
334.771	144.69
334.999	160.69
335.227	150.69
335.455	144.69
335.684	151.69
335.912	147.69
336.14	139.69
336.369	135.69
336.597	129.69
336.825	151.69
337.053	141.69
337.281	146.69
337.51	149.69
337.738	138.69
337.966	131.69
338.194	132.69
338.422	125.69
338.65	133.69
338.878	135.69
339.106	143.69
339.334	145.69
339.562	129.69
339.79	116.69
340.018	136.69
340.246	127.69
340.474	139.69
340.702	123.69
340.93	126.69
341.158	123.69
341.386	120.69
341.614	131.69
341.842	118.69
342.07	136.69
342.298	123.69
342.526	134.69
342.754	126.69
342.981	116.69
343.209	125.69
343.437	161.69
343.665	130.69
343.893	142.69
344.12	146.69
344.348	131.69
344.576	143.69
344.804	133.69
345.031	122.69
345.259	126.69
345.487	137.69
345.714	130.69
345.942	122.69
346.17	144.69
346.397	124.69
346.625	136.69
346.853	131.69
347.08	121.69
347.308	127.69
347.535	132.69
347.763	128.69
347.99	117.69
348.218	131.69
348.445	131.69
348.673	118.69
348.9	137.69
349.128	131.69
349.355	131.69
349.583	126.69
349.81	136.69
350.037	119.69
350.265	124.69
350.492	137.69
350.72	120.69
350.947	109.69
351.174	121.69
351.402	130.69
351.629	136.69
351.856	115.69
352.083	125.69
352.311	126.69
352.538	128.69
352.765	144.69
352.992	147.69
353.22	128.69
353.447	112.69
353.674	130.69
353.901	148.69
354.128	113.69
354.355	126.69
354.583	118.69
354.81	136.69
355.037	144.69
355.264	125.69
355.491	134.69
355.718	133.69
355.945	126.69
356.172	135.69
356.399	126.69
356.626	113.69
356.853	147.69
357.08	141.69
357.307	135.69
357.534	122.69
357.761	153.69
357.988	134.69
358.215	141.69
358.441	129.69
358.668	115.69
358.895	120.69
359.122	115.69
359.349	131.69
359.576	121.69
359.802	133.69
360.029	132.69
360.256	126.69
360.483	120.69
360.709	125.69
360.936	127.69
361.163	132.69
361.39	133.69
361.616	114.69
361.843	133.69
362.07	128.69
362.296	141.69
362.523	117.69
362.749	131.69
362.976	141.69
363.203	127.69
363.429	126.69
363.656	130.69
363.882	128.69
364.109	143.69
364.335	131.69
364.562	122.69
364.788	127.69
365.015	121.69
365.241	134.69
365.468	129.69
365.694	115.69
365.92	141.69
366.147	113.69
366.373	128.69
366.599	126.69
366.826	123.69
367.052	118.69
367.278	145.69
367.505	127.69
367.731	149.69
367.957	144.69
368.184	126.69
368.41	147.69
368.636	138.69
368.862	157.69
369.089	134.69
369.315	147.69
369.541	154.69
369.767	151.69
369.993	142.69
370.219	153.69
370.445	141.69
370.672	138.69
370.898	145.69
371.124	140.69
371.35	161.69
371.576	149.69
371.802	146.69
372.028	144.69
372.254	143.69
372.48	129.69
372.706	159.69
372.932	149.69
373.158	148.69
373.384	143.69
373.61	158.69
373.835	159.69
374.061	147.69
374.287	162.69
374.513	163.69
374.739	154.69
374.965	162.69
375.191	166.69
375.416	158.69
375.642	162.69
375.868	162.69
376.094	152.69
376.319	157.69
376.545	130.69
376.771	157.69
376.997	141.69
377.222	158.69
377.448	160.69
377.674	175.69
377.899	153.69
378.125	167.69
378.35	143.69
378.576	169.69
378.802	146.69
379.027	173.69
379.253	166.69
379.478	164.69
379.704	161.69
379.929	176.69
380.155	153.69
380.38	161.69
380.606	138.69
380.831	156.69
381.057	183.69
381.282	157.69
381.507	150.69
381.733	175.69
381.958	154.69
382.184	181.69
382.409	174.69
382.634	178.69
382.86	163.69
383.085	174.69
383.31	176.69
383.535	173.69
383.761	185.69
383.986	177.69
384.211	179.69
384.436	183.69
384.662	171.69
384.887	187.69
385.112	182.69
385.337	179.69
385.562	177.69
385.787	195.69
386.013	184.69
386.238	175.69
386.463	163.69
386.688	205.69
386.913	179.69
387.138	186.69
387.363	191.69
387.588	209.69
387.813	193.69
388.038	201.69
388.263	177.69
388.488	183.69
388.713	182.69
388.938	182.69
389.163	168.69
389.387	177.69
389.612	184.69
389.837	187.69
390.062	182.69
390.287	206.69
390.512	194.69
390.736	198.69
390.961	189.69
391.186	215.69
391.411	197.69
391.636	209.69
391.86	184.69
392.085	201.69
392.31	216.69
392.534	192.69
392.759	216.69
392.984	198.69
393.208	199.69
393.433	207.69
393.658	206.69
393.882	223.69
394.107	203.69
394.331	214.69
394.556	211.69
394.78	224.69
395.005	220.69
395.229	210.69
395.454	214.69
395.678	209.69
395.903	196.69
396.127	228.69
396.352	197.69
396.576	202.69
396.801	185.69
397.025	195.69
397.249	219.69
397.474	230.69
397.698	229.69
397.922	222.69
398.147	229.69
398.371	214.69
398.595	229.69
398.82	225.69
399.044	235.69
399.268	258.69
399.492	282.69
399.717	296.69
399.941	279.69
400.165	267.69
400.389	254.69
400.613	255.69
400.837	235.69
401.062	235.69
401.286	229.69
401.51	236.69
401.734	236.69
401.958	258.69
402.182	236.69
402.406	221.69
402.63	235.69
402.854	242.69
403.078	239.69
403.302	247.69
403.526	259.69
403.75	260.69
403.974	256.69
404.198	258.69
404.422	264.69
404.645	263.69
404.869	254.69
405.093	252.69
405.317	242.69
405.541	258.69
405.765	267.69
405.988	262.69
406.212	262.69
406.436	235.69
406.66	270.69
406.883	263.69
407.107	277.69
407.331	261.69
407.555	285.69
407.778	266.69
408.002	271.69
408.226	267.69
408.449	266.69
408.673	275.69
408.896	265.69
409.12	257.69
409.344	273.69
409.567	265.69
409.791	264.69
410.014	265.69
410.238	255.69
410.461	278.69
410.685	275.69
410.908	262.69
411.132	259.69
411.355	250.69
411.578	258.69
411.802	264.69
412.025	242.69
412.249	273.69
412.472	281.69
412.695	263.69
412.919	261.69
413.142	247.69
413.365	254.69
413.589	250.69
413.812	261.69
414.035	272.69
414.258	254.69
414.482	258.69
414.705	262.69
414.928	266.69
415.151	264.69
415.374	242.69
415.597	249.69
415.821	249.69
416.044	267.69
416.267	269.69
416.49	249.69
416.713	258.69
416.936	275.69
417.159	259.69
417.382	246.69
417.605	257.69
417.828	253.69
418.051	273.69
418.274	273.69
418.497	286.69
418.72	274.69
418.943	270.69
419.166	284.69
419.389	288.69
419.611	280.69
419.834	273.69
420.057	278.69
420.28	275.69
420.503	286.69
420.726	281.69
420.948	291.69
421.171	266.69
421.394	287.69
421.617	295.69
421.839	299.69
422.062	287.69
422.285	278.69
422.507	289.69
422.73	272.69
422.953	260.69
423.175	266.69
423.398	287.69
423.621	294.69
423.843	286.69
424.066	272.69
424.288	293.69
424.511	310.69
424.733	304.69
424.956	314.69
425.178	289.69
425.401	293.69
425.623	279.69
425.846	275.69
426.068	263.69
426.291	264.69
426.513	271.69
426.735	277.69
426.958	266.69
427.18	267.69
427.402	259.69
427.625	269.69
427.847	270.69
428.069	243.69
428.292	264.69
428.514	240.69
428.736	247.69
428.958	266.69
429.181	272.69
429.403	233.69
429.625	250.69
429.847	247.69
430.069	266.69
430.292	274.69
430.514	271.69
430.736	256.69
430.958	271.69
431.18	253.69
431.402	256.69
431.624	241.69
431.846	207.69
432.068	191.69
432.29	196.69
432.512	220.69
432.734	245.69
432.956	265.69
433.178	273.69
433.4	281.69
433.622	276.69
433.844	253.69
434.066	243.69
434.287	201.69
434.509	199.69
434.731	206.69
434.953	232.69
435.175	255.69
435.397	265.69
435.618	233.69
435.84	223.69
436.062	230.69
436.284	256.69
436.505	249.69
436.727	249.69
436.949	261.69
437.17	262.69
437.392	261.69
437.614	227.69
437.835	200.69
438.057	200.69
438.278	227.69
438.5	247.69
438.721	249.69
438.943	274.69
439.165	273.69
439.386	277.69
439.608	277.69
439.829	295.69
440.05	277.69
440.272	290.69
440.493	299.69
440.715	297.69
440.936	279.69
441.158	323.69
441.379	305.69
441.6	313.69
441.822	299.69
442.043	313.69
442.264	304.69
442.486	308.69
442.707	290.69
442.928	287.69
443.149	289.69
443.371	286.69
443.592	279.69
443.813	317.69
444.034	287.69
444.255	310.69
444.476	299.69
444.698	320.69
444.919	333.69
445.14	572.69
445.361	419.69
445.582	313.69
445.803	291.69
446.024	299.69
446.245	313.69
446.466	292.69
446.687	303.69
446.908	307.69
447.129	314.69
447.35	300.69
447.571	276.69
447.792	300.69
448.013	275.69
448.234	285.69
448.455	278.69
448.675	271.69
448.896	282.69
449.117	260.69
449.338	281.69
449.559	277.69
449.779	257.69
450	260.69
450.221	259.69
450.442	274.69
450.662	272.69
450.883	259.69
451.104	263.69
451.324	242.69
451.545	256.69
451.766	250.69
451.986	252.69
452.207	258.69
452.428	227.69
452.648	230.69
452.869	231.69
453.089	211.69
453.31	199.69
453.53	183.69
453.751	201.69
453.971	194.69
454.192	185.69
454.412	197.69
454.633	204.69
454.853	209.69
455.073	237.69
455.294	229.69
455.514	223.69
455.734	232.69
455.955	215.69
456.175	201.69
456.395	198.69
456.616	213.69
456.836	198.69
457.056	186.69
457.276	199.69
457.497	201.69
457.717	182.69
457.937	195.69
458.157	185.69
458.377	188.69
458.598	178.69
458.818	161.69
459.038	167.69
459.258	165.69
459.478	170.69
459.698	183.69
459.918	177.69
460.138	198.69
460.358	223.69
460.578	242.69
460.798	237.69
461.018	252.69
461.238	235.69
461.458	237.69
461.678	224.69
461.898	222.69
462.118	241.69
462.338	252.69
462.558	240.69
462.777	235.69
462.997	252.69
463.217	261.69
463.437	251.69
463.657	251.69
463.876	236.69
464.096	241.69
464.316	238.69
464.536	234.69
464.755	243.69
464.975	252.69
465.195	236.69
465.414	224.69
465.634	222.69
465.854	231.69
466.073	243.69
466.293	234.69
466.512	242.69
466.732	237.69
466.951	264.69
467.171	251.69
467.391	249.69
467.61	241.69
467.829	260.69
468.049	266.69
468.268	248.69
468.488	251.69
468.707	274.69
468.927	257.69
469.146	247.69
469.365	253.69
469.585	270.69
469.804	271.69
470.023	275.69
470.243	274.69
470.462	282.69
470.681	278.69
470.901	274.69
471.12	266.69
471.339	277.69
471.558	246.69
471.777	259.69
471.997	277.69
472.216	242.69
472.435	217.69
472.654	210.69
472.873	207.69
473.092	229.69
473.311	217.69
473.53	236.69
473.749	226.69
473.968	238.69
474.187	222.69
474.406	222.69
474.625	235.69
474.844	245.69
475.063	229.69
475.282	225.69
475.501	232.69
475.72	230.69
475.939	219.69
476.158	234.69
476.377	245.69
476.596	225.69
476.814	208.69
477.033	209.69
477.252	212.69
477.471	234.69
477.69	277.69
477.908	281.69
478.127	282.69
478.346	271.69
478.564	270.69
478.783	265.69
479.002	269.69
479.22	269.69
479.439	292.69
479.658	262.69
479.876	235.69
480.095	210.69
480.313	239.69
480.532	259.69
480.751	221.69
480.969	214.69
481.188	177.69
481.406	186.69
481.624	179.69
481.843	186.69
482.061	186.69
482.28	210.69
482.498	211.69
482.717	207.69
482.935	241.69
483.153	286.69
483.372	285.69
483.59	272.69
483.808	260.69
484.027	246.69
484.245	253.69
484.463	257.69
484.681	296.69
484.9	284.69
485.118	259.69
485.336	245.69
485.554	209.69
485.772	190.69
485.99	207.69
486.209	208.69
486.427	213.69
486.645	241.69
486.863	263.69
487.081	261.69
487.299	257.69
487.517	271.69
487.735	329.69
487.953	344.69
488.171	353.69
488.389	327.69
488.607	288.69
488.825	262.69
489.043	269.69
489.261	257.69
489.479	271.69
489.696	285.69
489.914	266.69
490.132	274.69
490.35	325.69
490.568	311.69
490.786	347.69
491.003	330.69
491.221	367.69
491.439	362.69
491.657	392.69
491.874	428.69
492.092	444.69
492.31	488.69
492.527	450.69
492.745	432.69
492.963	404.69
493.18	392.69
493.398	371.69
493.615	359.69
493.833	359.69
494.05	371.69
494.268	356.69
494.485	342.69
494.703	357.69
494.92	348.69
495.138	353.69
495.355	353.69
495.573	346.69
495.79	331.69
496.008	357.69
496.225	341.69
496.442	347.69
496.66	354.69
496.877	353.69
497.094	349.69
497.312	322.69
497.529	326.69
497.746	317.69
497.963	293.69
498.181	273.69
498.398	279.69
498.615	294.69
498.832	277.69
499.049	294.69
499.267	304.69
499.484	335.69
499.701	366.69
499.918	407.69
500.135	447.69
500.352	497.69
500.569	503.69
500.786	506.69
501.003	455.69
501.22	419.69
501.437	407.69
501.654	353.69
501.871	343.69
502.088	341.69
502.305	329.69
502.522	317.69
502.739	309.69
502.956	297.69
503.172	283.69
503.389	255.69
503.606	274.69
503.823	250.69
504.04	257.69
504.256	244.69
504.473	253.69
504.69	247.69
504.907	286.69
