Data from SampD_HRD10591_00055.txt Node
Date: Mon Jan 19 11:47:57 EST 2026
User: Yrep
Spectrometer: HR+D1059
Trigger mode: 0
Integration Time (sec): 3.443000E-1
Scans to average: 1
Electric dark correction enabled: true
Nonlinearity correction enabled: false
Boxcar width: 0
XAxis mode: Wavelengths
Number of Pixels in Spectrum: 2048
>>>>>Begin Spectral Data<<<<<
223.165	-15.44
223.4	-15.44
223.635	-15.44
223.869	-22.44
224.104	-22.44
224.338	-6.44
224.573	-15.44
224.808	-19.44
225.042	-1.44
225.277	-15.44
225.511	-8.44
225.746	7.56
225.98	5.56
226.215	21.56
226.449	12.56
226.683	14.56
226.918	23.56
227.152	41.56
227.387	36.56
227.621	44.56
227.856	44.56
228.09	50.56
228.324	39.56
228.559	60.56
228.793	58.56
229.027	57.56
229.262	58.56
229.496	57.56
229.73	66.56
229.964	90.56
230.199	63.56
230.433	61.56
230.667	66.56
230.901	76.56
231.136	66.56
231.37	67.56
231.604	77.56
231.838	79.56
232.072	61.56
232.306	88.56
232.541	80.56
232.775	72.56
233.009	74.56
233.243	80.56
233.477	80.56
233.711	86.56
233.945	83.56
234.179	78.56
234.413	84.56
234.647	71.56
234.881	71.56
235.115	61.56
235.349	65.56
235.583	74.56
235.817	76.56
236.051	79.56
236.285	77.56
236.519	70.56
236.753	72.56
236.987	75.56
237.221	74.56
237.455	80.56
237.689	78.56
237.922	74.56
238.156	87.56
238.39	84.56
238.624	61.56
238.858	77.56
239.091	76.56
239.325	71.56
239.559	64.56
239.793	79.56
240.027	83.56
240.26	66.56
240.494	80.56
240.728	75.56
240.961	85.56
241.195	92.56
241.429	70.56
241.662	62.56
241.896	69.56
242.13	80.56
242.363	77.56
242.597	59.56
242.83	76.56
243.064	74.56
243.298	81.56
243.531	80.56
243.765	71.56
243.998	89.56
244.232	98.56
244.465	90.56
244.699	86.56
244.932	96.56
245.166	79.56
245.399	85.56
245.633	74.56
245.866	77.56
246.099	79.56
246.333	76.56
246.566	73.56
246.8	81.56
247.033	82.56
247.266	69.56
247.5	86.56
247.733	76.56
247.966	102.56
248.2	82.56
248.433	81.56
248.666	71.56
248.899	86.56
249.133	85.56
249.366	82.56
249.599	77.56
249.832	81.56
250.066	74.56
250.299	76.56
250.532	67.56
250.765	83.56
250.998	82.56
251.231	71.56
251.465	77.56
251.698	84.56
251.931	75.56
252.164	84.56
252.397	88.56
252.63	79.56
252.863	68.56
253.096	76.56
253.329	82.56
253.562	87.56
253.795	90.56
254.028	86.56
254.261	67.56
254.494	68.56
254.727	89.56
254.96	80.56
255.193	93.56
255.426	76.56
255.659	78.56
255.892	91.56
256.124	77.56
256.357	74.56
256.59	67.56
256.823	79.56
257.056	75.56
257.289	85.56
257.521	90.56
257.754	77.56
257.987	62.56
258.22	83.56
258.452	75.56
258.685	82.56
258.918	85.56
259.151	85.56
259.383	83.56
259.616	82.56
259.849	68.56
260.081	81.56
260.314	82.56
260.547	79.56
260.779	89.56
261.012	78.56
261.244	75.56
261.477	97.56
261.71	92.56
261.942	96.56
262.175	93.56
262.407	72.56
262.64	81.56
262.872	96.56
263.105	79.56
263.337	95.56
263.57	76.56
263.802	86.56
264.035	91.56
264.267	84.56
264.499	100.56
264.732	78.56
264.964	87.56
265.197	71.56
265.429	79.56
265.661	104.56
265.894	82.56
266.126	93.56
266.358	87.56
266.591	70.56
266.823	82.56
267.055	87.56
267.287	95.56
267.52	88.56
267.752	89.56
267.984	83.56
268.216	78.56
268.448	102.56
268.681	94.56
268.913	81.56
269.145	91.56
269.377	92.56
269.609	79.56
269.841	95.56
270.073	94.56
270.306	86.56
270.538	89.56
270.77	65.56
271.002	78.56
271.234	101.56
271.466	102.56
271.698	77.56
271.93	94.56
272.162	97.56
272.394	88.56
272.626	82.56
272.858	74.56
273.09	82.56
273.322	110.56
273.553	86.56
273.785	80.56
274.017	84.56
274.249	91.56
274.481	87.56
274.713	88.56
274.945	91.56
275.176	100.56
275.408	92.56
275.64	77.56
275.872	85.56
276.104	89.56
276.335	104.56
276.567	93.56
276.799	88.56
277.031	83.56
277.262	93.56
277.494	98.56
277.726	95.56
277.957	108.56
278.189	84.56
278.421	97.56
278.652	93.56
278.884	105.56
279.115	100.56
279.347	87.56
279.579	97.56
279.81	89.56
280.042	90.56
280.273	100.56
280.505	104.56
280.736	98.56
280.968	92.56
281.199	86.56
281.431	98.56
281.662	98.56
281.894	104.56
282.125	90.56
282.356	95.56
282.588	102.56
282.819	84.56
283.051	71.56
283.282	106.56
283.513	95.56
283.745	96.56
283.976	96.56
284.207	92.56
284.439	83.56
284.67	102.56
284.901	99.56
285.132	98.56
285.364	94.56
285.595	86.56
285.826	105.56
286.057	94.56
286.288	101.56
286.52	86.56
286.751	100.56
286.982	95.56
287.213	99.56
287.444	101.56
287.675	97.56
287.906	92.56
288.138	96.56
288.369	101.56
288.6	90.56
288.831	87.56
289.062	79.56
289.293	96.56
289.524	91.56
289.755	100.56
289.986	90.56
290.217	95.56
290.448	100.56
290.679	104.56
290.91	102.56
291.141	100.56
291.371	74.56
291.602	82.56
291.833	92.56
292.064	84.56
292.295	90.56
292.526	90.56
292.757	96.56
292.987	95.56
293.218	93.56
293.449	84.56
293.68	95.56
293.91	92.56
294.141	109.56
294.372	87.56
294.603	102.56
294.833	88.56
295.064	94.56
295.295	87.56
295.525	96.56
295.756	103.56
295.987	98.56
296.217	97.56
296.448	93.56
296.679	96.56
296.909	91.56
297.14	95.56
297.37	88.56
297.601	95.56
297.831	91.56
298.062	108.56
298.292	103.56
298.523	102.56
298.753	84.56
298.984	89.56
299.214	92.56
299.445	103.56
299.675	83.56
299.905	107.56
300.136	115.56
300.366	99.56
300.597	92.56
300.827	97.56
301.057	84.56
301.288	100.56
301.518	96.56
301.748	92.56
301.979	144.56
302.209	102.56
302.439	101.56
302.669	103.56
302.9	105.56
303.13	72.56
303.36	90.56
303.59	90.56
303.82	98.56
304.051	87.56
304.281	103.56
304.511	91.56
304.741	94.56
304.971	113.56
305.201	111.56
305.431	103.56
305.661	87.56
305.891	104.56
306.121	97.56
306.352	95.56
306.582	104.56
306.812	103.56
307.042	102.56
307.272	92.56
307.502	78.56
307.731	95.56
307.961	103.56
308.191	89.56
308.421	112.56
308.651	88.56
308.881	86.56
309.111	91.56
309.341	87.56
309.571	86.56
309.8	102.56
310.03	83.56
310.26	90.56
310.49	111.56
310.72	88.56
310.949	82.56
311.179	94.56
311.409	87.56
311.639	95.56
311.868	94.56
312.098	109.56
312.328	98.56
312.557	108.56
312.787	94.56
313.017	92.56
313.246	102.56
313.476	92.56
313.706	92.56
313.935	98.56
314.165	105.56
314.394	98.56
314.624	106.56
314.853	96.56
315.083	99.56
315.312	91.56
315.542	102.56
315.771	95.56
316.001	89.56
316.23	97.56
316.46	106.56
316.689	94.56
316.919	99.56
317.148	93.56
317.377	106.56
317.607	91.56
317.836	115.56
318.065	88.56
318.295	96.56
318.524	114.56
318.753	109.56
318.983	103.56
319.212	106.56
319.441	118.56
319.67	103.56
319.9	90.56
320.129	91.56
320.358	99.56
320.587	99.56
320.816	93.56
321.046	99.56
321.275	108.56
321.504	88.56
321.733	101.56
321.962	104.56
322.191	101.56
322.42	89.56
322.649	103.56
322.878	104.56
323.108	104.56
323.337	103.56
323.566	98.56
323.795	94.56
324.024	104.56
324.253	80.56
324.482	94.56
324.71	115.56
324.939	104.56
325.168	105.56
325.397	111.56
325.626	122.56
325.855	102.56
326.084	103.56
326.313	101.56
326.542	110.56
326.77	100.56
326.999	89.56
327.228	103.56
327.457	98.56
327.686	93.56
327.914	94.56
328.143	119.56
328.372	107.56
328.6	112.56
328.829	100.56
329.058	99.56
329.287	94.56
329.515	101.56
329.744	108.56
329.972	98.56
330.201	105.56
330.43	97.56
330.658	99.56
330.887	104.56
331.115	102.56
331.344	113.56
331.572	110.56
331.801	86.56
332.03	105.56
332.258	104.56
332.486	110.56
332.715	102.56
332.943	127.56
333.172	114.56
333.4	119.56
333.629	103.56
333.857	115.56
334.085	123.56
334.314	126.56
334.542	112.56
334.771	101.56
334.999	100.56
335.227	103.56
335.455	97.56
335.684	125.56
335.912	112.56
336.14	99.56
336.369	110.56
336.597	99.56
336.825	117.56
337.053	101.56
337.281	101.56
337.51	108.56
337.738	100.56
337.966	102.56
338.194	102.56
338.422	103.56
338.65	123.56
338.878	112.56
339.106	102.56
339.334	114.56
339.562	90.56
339.79	97.56
340.018	112.56
340.246	112.56
340.474	100.56
340.702	102.56
340.93	95.56
341.158	108.56
341.386	103.56
341.614	113.56
341.842	86.56
342.07	82.56
342.298	97.56
342.526	105.56
342.754	116.56
342.981	114.56
343.209	87.56
343.437	130.56
343.665	116.56
343.893	98.56
344.12	128.56
344.348	116.56
344.576	112.56
344.804	112.56
345.031	99.56
345.259	102.56
345.487	95.56
345.714	107.56
345.942	119.56
346.17	101.56
346.397	108.56
346.625	101.56
346.853	114.56
347.08	108.56
347.308	99.56
347.535	90.56
347.763	104.56
347.99	110.56
348.218	108.56
348.445	103.56
348.673	86.56
348.9	102.56
349.128	111.56
349.355	124.56
349.583	106.56
349.81	75.56
350.037	94.56
350.265	97.56
350.492	96.56
350.72	98.56
350.947	112.56
351.174	104.56
351.402	104.56
351.629	92.56
351.856	106.56
352.083	96.56
352.311	87.56
352.538	99.56
352.765	99.56
352.992	124.56
353.22	111.56
353.447	112.56
353.674	105.56
353.901	112.56
354.128	92.56
354.355	95.56
354.583	110.56
354.81	103.56
355.037	114.56
355.264	101.56
355.491	105.56
355.718	106.56
355.945	96.56
356.172	90.56
356.399	107.56
356.626	95.56
356.853	99.56
357.08	110.56
357.307	101.56
357.534	105.56
357.761	103.56
357.988	112.56
358.215	99.56
358.441	95.56
358.668	101.56
358.895	107.56
359.122	114.56
359.349	94.56
359.576	103.56
359.802	92.56
360.029	105.56
360.256	114.56
360.483	105.56
360.709	90.56
360.936	105.56
361.163	111.56
361.39	98.56
361.616	98.56
361.843	101.56
362.07	92.56
362.296	111.56
362.523	96.56
362.749	104.56
362.976	87.56
363.203	104.56
363.429	95.56
363.656	96.56
363.882	91.56
364.109	105.56
364.335	110.56
364.562	101.56
364.788	94.56
365.015	109.56
365.241	111.56
365.468	109.56
365.694	104.56
365.92	104.56
366.147	106.56
366.373	101.56
366.599	97.56
366.826	92.56
367.052	93.56
367.278	116.56
367.505	101.56
367.731	123.56
367.957	104.56
368.184	104.56
368.41	98.56
368.636	100.56
368.862	118.56
369.089	107.56
369.315	115.56
369.541	98.56
369.767	103.56
369.993	112.56
370.219	100.56
370.445	117.56
370.672	109.56
370.898	104.56
371.124	108.56
371.35	117.56
371.576	110.56
371.802	125.56
372.028	114.56
372.254	102.56
372.48	103.56
372.706	109.56
372.932	121.56
373.158	123.56
373.384	112.56
373.61	115.56
373.835	136.56
374.061	114.56
374.287	129.56
374.513	110.56
374.739	100.56
374.965	107.56
375.191	123.56
375.416	101.56
375.642	106.56
375.868	129.56
376.094	113.56
376.319	116.56
376.545	107.56
376.771	103.56
376.997	119.56
377.222	110.56
377.448	118.56
377.674	105.56
377.899	110.56
378.125	122.56
378.35	116.56
378.576	110.56
378.802	106.56
379.027	124.56
379.253	104.56
379.478	126.56
379.704	117.56
379.929	100.56
380.155	114.56
380.38	109.56
380.606	124.56
380.831	117.56
381.057	126.56
381.282	108.56
381.507	129.56
381.733	111.56
381.958	116.56
382.184	113.56
382.409	118.56
382.634	120.56
382.86	108.56
383.085	120.56
383.31	118.56
383.535	129.56
383.761	123.56
383.986	126.56
384.211	116.56
384.436	110.56
384.662	138.56
384.887	118.56
385.112	129.56
385.337	136.56
385.562	107.56
385.787	122.56
386.013	123.56
386.238	123.56
386.463	132.56
386.688	173.56
386.913	122.56
387.138	130.56
387.363	135.56
387.588	123.56
387.813	140.56
388.038	127.56
388.263	134.56
388.488	112.56
388.713	141.56
388.938	124.56
389.163	131.56
389.387	140.56
389.612	122.56
389.837	132.56
390.062	132.56
390.287	136.56
390.512	116.56
390.736	135.56
390.961	130.56
391.186	139.56
391.411	128.56
391.636	124.56
391.86	130.56
392.085	141.56
392.31	117.56
392.534	143.56
392.759	147.56
392.984	145.56
393.208	135.56
393.433	126.56
393.658	140.56
393.882	134.56
394.107	129.56
394.331	146.56
394.556	133.56
394.78	152.56
395.005	143.56
395.229	139.56
395.454	146.56
395.678	126.56
395.903	127.56
396.127	163.56
396.352	147.56
396.576	141.56
396.801	136.56
397.025	142.56
397.249	148.56
397.474	164.56
397.698	144.56
397.922	144.56
398.147	142.56
398.371	140.56
398.595	152.56
398.82	138.56
399.044	153.56
399.268	168.56
399.492	158.56
399.717	190.56
399.941	166.56
400.165	181.56
400.389	158.56
400.613	160.56
400.837	142.56
401.062	143.56
401.286	141.56
401.51	165.56
401.734	147.56
401.958	144.56
402.182	160.56
402.406	157.56
402.63	146.56
402.854	156.56
403.078	175.56
403.302	168.56
403.526	168.56
403.75	172.56
403.974	175.56
404.198	176.56
404.422	180.56
404.645	167.56
404.869	167.56
405.093	168.56
405.317	158.56
405.541	162.56
405.765	168.56
405.988	163.56
406.212	168.56
406.436	181.56
406.66	181.56
406.883	174.56
407.107	191.56
407.331	180.56
407.555	171.56
407.778	173.56
408.002	177.56
408.226	158.56
408.449	160.56
408.673	169.56
408.896	162.56
409.12	170.56
409.344	168.56
409.567	159.56
409.791	160.56
410.014	176.56
410.238	185.56
410.461	167.56
410.685	169.56
410.908	158.56
411.132	171.56
411.355	144.56
411.578	170.56
411.802	155.56
412.025	154.56
412.249	187.56
412.472	166.56
412.695	166.56
412.919	167.56
413.142	174.56
413.365	176.56
413.589	158.56
413.812	153.56
414.035	171.56
414.258	186.56
414.482	166.56
414.705	178.56
414.928	171.56
415.151	165.56
415.374	159.56
415.597	166.56
415.821	169.56
416.044	163.56
416.267	162.56
416.49	171.56
416.713	170.56
416.936	175.56
417.159	172.56
417.382	170.56
417.605	164.56
417.828	179.56
418.051	176.56
418.274	182.56
418.497	183.56
418.72	196.56
418.943	177.56
419.166	186.56
419.389	178.56
419.611	196.56
419.834	180.56
420.057	188.56
420.28	160.56
420.503	188.56
420.726	185.56
420.948	168.56
421.171	173.56
421.394	174.56
421.617	166.56
421.839	184.56
422.062	178.56
422.285	190.56
422.507	177.56
422.73	164.56
422.953	163.56
423.175	177.56
423.398	186.56
423.621	176.56
423.843	180.56
424.066	185.56
424.288	165.56
424.511	176.56
424.733	166.56
424.956	178.56
425.178	190.56
425.401	174.56
425.623	196.56
425.846	180.56
426.068	163.56
426.291	165.56
426.513	173.56
426.735	171.56
426.958	172.56
427.18	178.56
427.402	179.56
427.625	162.56
427.847	174.56
428.069	162.56
428.292	166.56
428.514	176.56
428.736	176.56
428.958	167.56
429.181	151.56
429.403	159.56
429.625	155.56
429.847	162.56
430.069	143.56
430.292	176.56
430.514	150.56
430.736	171.56
430.958	164.56
431.18	170.56
431.402	166.56
431.624	133.56
431.846	144.56
432.068	140.56
432.29	146.56
432.512	162.56
432.734	158.56
432.956	167.56
433.178	160.56
433.4	186.56
433.622	169.56
433.844	167.56
434.066	166.56
434.287	137.56
434.509	115.56
434.731	139.56
434.953	161.56
435.175	167.56
435.397	174.56
435.618	153.56
435.84	142.56
436.062	162.56
436.284	164.56
436.505	162.56
436.727	166.56
436.949	171.56
437.17	152.56
437.392	148.56
437.614	156.56
437.835	131.56
438.057	128.56
438.278	154.56
438.5	160.56
438.721	171.56
438.943	167.56
439.165	172.56
439.386	168.56
439.608	183.56
439.829	196.56
440.05	192.56
440.272	179.56
440.493	172.56
440.715	197.56
440.936	186.56
441.158	175.56
441.379	181.56
441.6	179.56
441.822	211.56
442.043	183.56
442.264	188.56
442.486	172.56
442.707	179.56
442.928	168.56
443.149	183.56
443.371	199.56
443.592	186.56
443.813	166.56
444.034	180.56
444.255	187.56
444.476	198.56
444.698	204.56
444.919	198.56
445.14	460.56
445.361	303.56
445.582	202.56
445.803	187.56
446.024	191.56
446.245	195.56
446.466	187.56
446.687	197.56
446.908	172.56
447.129	201.56
447.35	184.56
447.571	199.56
447.792	184.56
448.013	189.56
448.234	191.56
448.455	178.56
448.675	161.56
448.896	159.56
449.117	165.56
449.338	153.56
449.559	179.56
449.779	156.56
450	165.56
450.221	163.56
450.442	171.56
450.662	164.56
450.883	175.56
451.104	167.56
451.324	170.56
451.545	179.56
451.766	159.56
451.986	158.56
452.207	152.56
452.428	167.56
452.648	175.56
452.869	160.56
453.089	136.56
453.31	138.56
453.53	127.56
453.751	112.56
453.971	117.56
454.192	142.56
454.412	150.56
454.633	133.56
454.853	140.56
455.073	142.56
455.294	131.56
455.514	160.56
455.734	142.56
455.955	136.56
456.175	128.56
456.395	139.56
456.616	142.56
456.836	142.56
457.056	129.56
457.276	134.56
457.497	128.56
457.717	140.56
457.937	144.56
458.157	138.56
458.377	114.56
458.598	122.56
458.818	108.56
459.038	114.56
459.258	120.56
459.478	115.56
459.698	118.56
459.918	123.56
460.138	141.56
460.358	140.56
460.578	154.56
460.798	166.56
461.018	164.56
461.238	154.56
461.458	148.56
461.678	154.56
461.898	146.56
462.118	162.56
462.338	144.56
462.558	157.56
462.777	167.56
462.997	172.56
463.217	173.56
463.437	171.56
463.657	173.56
463.876	146.56
464.096	169.56
464.316	143.56
464.536	146.56
464.755	167.56
464.975	169.56
465.195	158.56
465.414	158.56
465.634	156.56
465.854	135.56
466.073	160.56
466.293	154.56
466.512	159.56
466.732	158.56
466.951	182.56
467.171	175.56
467.391	158.56
467.61	167.56
467.829	164.56
468.049	181.56
468.268	172.56
468.488	180.56
468.707	176.56
468.927	166.56
469.146	166.56
469.365	167.56
469.585	182.56
469.804	186.56
470.023	187.56
470.243	180.56
470.462	178.56
470.681	190.56
470.901	186.56
471.12	190.56
471.339	191.56
471.558	170.56
471.777	173.56
471.997	162.56
472.216	166.56
472.435	160.56
472.654	134.56
472.873	134.56
473.092	139.56
473.311	146.56
473.53	162.56
473.749	147.56
473.968	155.56
474.187	147.56
474.406	149.56
474.625	147.56
474.844	177.56
475.063	153.56
475.282	154.56
475.501	133.56
475.72	161.56
475.939	160.56
476.158	160.56
476.377	153.56
476.596	140.56
476.814	130.56
477.033	127.56
477.252	143.56
477.471	175.56
477.69	162.56
477.908	195.56
478.127	182.56
478.346	171.56
478.564	176.56
478.783	164.56
479.002	180.56
479.22	159.56
479.439	181.56
479.658	168.56
479.876	141.56
480.095	140.56
480.313	142.56
480.532	167.56
480.751	147.56
480.969	144.56
481.188	118.56
481.406	130.56
481.624	119.56
481.843	135.56
482.061	121.56
482.28	121.56
482.498	138.56
482.717	130.56
482.935	164.56
483.153	174.56
483.372	197.56
483.59	186.56
483.808	183.56
484.027	172.56
484.245	162.56
484.463	164.56
484.681	192.56
484.9	173.56
485.118	161.56
485.336	151.56
485.554	139.56
485.772	157.56
485.99	156.56
486.209	142.56
486.427	145.56
486.645	139.56
486.863	173.56
487.081	175.56
487.299	188.56
487.517	173.56
487.735	196.56
487.953	237.56
488.171	216.56
488.389	195.56
488.607	196.56
488.825	169.56
489.043	148.56
489.261	174.56
489.479	162.56
489.696	177.56
489.914	164.56
490.132	184.56
490.35	207.56
490.568	209.56
490.786	206.56
491.003	214.56
491.221	213.56
491.439	252.56
491.657	224.56
491.874	260.56
492.092	251.56
492.31	272.56
492.527	280.56
492.745	253.56
492.963	232.56
493.18	244.56
493.398	235.56
493.615	219.56
493.833	228.56
494.05	222.56
494.268	205.56
494.485	212.56
494.703	228.56
494.92	200.56
495.138	229.56
495.355	222.56
495.573	231.56
495.79	203.56
496.008	211.56
496.225	209.56
496.442	193.56
496.66	210.56
496.877	215.56
497.094	231.56
497.312	210.56
497.529	206.56
497.746	200.56
497.963	173.56
498.181	176.56
498.398	174.56
498.615	167.56
498.832	175.56
499.049	199.56
499.267	202.56
499.484	196.56
499.701	198.56
499.918	247.56
500.135	287.56
500.352	268.56
500.569	290.56
500.786	278.56
501.003	278.56
501.22	258.56
501.437	237.56
501.654	209.56
501.871	206.56
502.088	194.56
502.305	186.56
502.522	196.56
502.739	191.56
502.956	183.56
503.172	185.56
503.389	175.56
503.606	154.56
503.823	172.56
504.04	178.56
504.256	172.56
504.473	163.56
504.69	178.56
504.907	179.56
505.123	184.56
505.34	175.56
505.557	139.56
505.773	155.56
505.99	148.56
506.207	153.56
506.423	145.56
506.64	174.56
506.856	164.56
507.073	150.56
507.289	147.56
507.506	152.56
507.722	145.56
507.939	149.56
508.155	154.56
