Data from SampD_HRD10591_00092.txt Node
Date: Mon Jan 19 11:48:09 EST 2026
User: Yrep
Spectrometer: HR+D1059
Trigger mode: 0
Integration Time (sec): 3.443000E-1
Scans to average: 1
Electric dark correction enabled: true
Nonlinearity correction enabled: false
Boxcar width: 0
XAxis mode: Wavelengths
Number of Pixels in Spectrum: 2048
>>>>>Begin Spectral Data<<<<<
223.165	-16.81
223.4	-16.81
223.635	-16.81
223.869	-25.81
224.104	-29.81
224.338	-16.81
224.573	-20.81
224.808	-21.81
225.042	2.19
225.277	5.19
225.511	-0.81
225.746	6.19
225.98	3.19
226.215	12.19
226.449	8.19
226.683	18.19
226.918	33.19
227.152	44.19
227.387	42.19
227.621	43.19
227.856	37.19
228.09	39.19
228.324	44.19
228.559	68.19
228.793	52.19
229.027	56.19
229.262	74.19
229.496	78.19
229.73	71.19
229.964	73.19
230.199	67.19
230.433	68.19
230.667	79.19
230.901	88.19
231.136	104.19
231.37	85.19
231.604	91.19
231.838	90.19
232.072	89.19
232.306	83.19
232.541	81.19
232.775	78.19
233.009	81.19
233.243	77.19
233.477	86.19
233.711	95.19
233.945	77.19
234.179	86.19
234.413	85.19
234.647	103.19
234.881	93.19
235.115	85.19
235.349	82.19
235.583	81.19
235.817	85.19
236.051	79.19
236.285	72.19
236.519	87.19
236.753	71.19
236.987	73.19
237.221	82.19
237.455	72.19
237.689	91.19
237.922	85.19
238.156	70.19
238.39	90.19
238.624	83.19
238.858	88.19
239.091	84.19
239.325	85.19
239.559	92.19
239.793	78.19
240.027	91.19
240.26	81.19
240.494	82.19
240.728	94.19
240.961	73.19
241.195	82.19
241.429	86.19
241.662	95.19
241.896	89.19
242.13	67.19
242.363	75.19
242.597	71.19
242.83	76.19
243.064	90.19
243.298	73.19
243.531	83.19
243.765	93.19
243.998	71.19
244.232	86.19
244.465	95.19
244.699	88.19
244.932	95.19
245.166	86.19
245.399	87.19
245.633	84.19
245.866	79.19
246.099	85.19
246.333	83.19
246.566	98.19
246.8	91.19
247.033	87.19
247.266	107.19
247.5	89.19
247.733	82.19
247.966	85.19
248.2	77.19
248.433	74.19
248.666	87.19
248.899	81.19
249.133	93.19
249.366	97.19
249.599	85.19
249.832	85.19
250.066	95.19
250.299	88.19
250.532	95.19
250.765	87.19
250.998	81.19
251.231	97.19
251.465	88.19
251.698	85.19
251.931	93.19
252.164	94.19
252.397	84.19
252.63	77.19
252.863	88.19
253.096	66.19
253.329	92.19
253.562	97.19
253.795	91.19
254.028	100.19
254.261	90.19
254.494	100.19
254.727	93.19
254.96	86.19
255.193	88.19
255.426	94.19
255.659	94.19
255.892	90.19
256.124	99.19
256.357	89.19
256.59	106.19
256.823	82.19
257.056	97.19
257.289	95.19
257.521	96.19
257.754	99.19
257.987	81.19
258.22	96.19
258.452	94.19
258.685	90.19
258.918	95.19
259.151	87.19
259.383	110.19
259.616	90.19
259.849	86.19
260.081	93.19
260.314	106.19
260.547	91.19
260.779	98.19
261.012	91.19
261.244	92.19
261.477	106.19
261.71	80.19
261.942	98.19
262.175	95.19
262.407	102.19
262.64	92.19
262.872	104.19
263.105	98.19
263.337	96.19
263.57	94.19
263.802	85.19
264.035	105.19
264.267	95.19
264.499	92.19
264.732	106.19
264.964	94.19
265.197	95.19
265.429	102.19
265.661	99.19
265.894	106.19
266.126	101.19
266.358	100.19
266.591	93.19
266.823	107.19
267.055	104.19
267.287	103.19
267.52	97.19
267.752	104.19
267.984	110.19
268.216	105.19
268.448	120.19
268.681	110.19
268.913	110.19
269.145	104.19
269.377	125.19
269.609	93.19
269.841	111.19
270.073	117.19
270.306	102.19
270.538	110.19
270.77	91.19
271.002	91.19
271.234	103.19
271.466	105.19
271.698	103.19
271.93	104.19
272.162	108.19
272.394	106.19
272.626	105.19
272.858	102.19
273.09	107.19
273.322	97.19
273.553	109.19
273.785	101.19
274.017	90.19
274.249	118.19
274.481	91.19
274.713	106.19
274.945	115.19
275.176	105.19
275.408	122.19
275.64	111.19
275.872	114.19
276.104	110.19
276.335	113.19
276.567	87.19
276.799	111.19
277.031	116.19
277.262	114.19
277.494	111.19
277.726	122.19
277.957	98.19
278.189	116.19
278.421	115.19
278.652	114.19
278.884	100.19
279.115	106.19
279.347	102.19
279.579	115.19
279.81	102.19
280.042	103.19
280.273	120.19
280.505	107.19
280.736	112.19
280.968	105.19
281.199	106.19
281.431	104.19
281.662	120.19
281.894	129.19
282.125	109.19
282.356	111.19
282.588	106.19
282.819	114.19
283.051	111.19
283.282	115.19
283.513	118.19
283.745	96.19
283.976	114.19
284.207	109.19
284.439	125.19
284.67	119.19
284.901	118.19
285.132	118.19
285.364	99.19
285.595	105.19
285.826	108.19
286.057	122.19
286.288	115.19
286.52	116.19
286.751	102.19
286.982	109.19
287.213	106.19
287.444	130.19
287.675	105.19
287.906	116.19
288.138	115.19
288.369	119.19
288.6	113.19
288.831	129.19
289.062	109.19
289.293	115.19
289.524	117.19
289.755	115.19
289.986	109.19
290.217	111.19
290.448	123.19
290.679	124.19
290.91	125.19
291.141	99.19
291.371	123.19
291.602	116.19
291.833	129.19
292.064	116.19
292.295	115.19
292.526	115.19
292.757	121.19
292.987	115.19
293.218	111.19
293.449	107.19
293.68	122.19
293.91	114.19
294.141	117.19
294.372	102.19
294.603	113.19
294.833	114.19
295.064	119.19
295.295	127.19
295.525	121.19
295.756	128.19
295.987	110.19
296.217	125.19
296.448	131.19
296.679	114.19
296.909	108.19
297.14	127.19
297.37	132.19
297.601	148.19
297.831	131.19
298.062	130.19
298.292	118.19
298.523	129.19
298.753	109.19
298.984	122.19
299.214	132.19
299.445	134.19
299.675	123.19
299.905	124.19
300.136	129.19
300.366	118.19
300.597	112.19
300.827	106.19
301.057	123.19
301.288	144.19
301.518	131.19
301.748	129.19
301.979	147.19
302.209	128.19
302.439	130.19
302.669	125.19
302.9	125.19
303.13	127.19
303.36	114.19
303.59	120.19
303.82	124.19
304.051	126.19
304.281	135.19
304.511	130.19
304.741	119.19
304.971	118.19
305.201	122.19
305.431	126.19
305.661	115.19
305.891	118.19
306.121	121.19
306.352	118.19
306.582	123.19
306.812	124.19
307.042	116.19
307.272	126.19
307.502	125.19
307.731	126.19
307.961	121.19
308.191	106.19
308.421	122.19
308.651	128.19
308.881	124.19
309.111	127.19
309.341	120.19
309.571	119.19
309.8	119.19
310.03	119.19
310.26	129.19
310.49	118.19
310.72	115.19
310.949	112.19
311.179	110.19
311.409	123.19
311.639	139.19
311.868	130.19
312.098	118.19
312.328	114.19
312.557	136.19
312.787	120.19
313.017	139.19
313.246	128.19
313.476	124.19
313.706	123.19
313.935	120.19
314.165	130.19
314.394	122.19
314.624	126.19
314.853	129.19
315.083	132.19
315.312	129.19
315.542	115.19
315.771	129.19
316.001	128.19
316.23	130.19
316.46	133.19
316.689	119.19
316.919	126.19
317.148	118.19
317.377	137.19
317.607	134.19
317.836	127.19
318.065	125.19
318.295	125.19
318.524	134.19
318.753	121.19
318.983	128.19
319.212	138.19
319.441	128.19
319.67	115.19
319.9	121.19
320.129	130.19
320.358	137.19
320.587	132.19
320.816	116.19
321.046	112.19
321.275	130.19
321.504	125.19
321.733	132.19
321.962	142.19
322.191	122.19
322.42	115.19
322.649	120.19
322.878	133.19
323.108	134.19
323.337	163.19
323.566	125.19
323.795	126.19
324.024	124.19
324.253	133.19
324.482	120.19
324.71	118.19
324.939	130.19
325.168	123.19
325.397	139.19
325.626	139.19
325.855	146.19
326.084	117.19
326.313	145.19
326.542	128.19
326.77	131.19
326.999	122.19
327.228	114.19
327.457	132.19
327.686	144.19
327.914	140.19
328.143	137.19
328.372	123.19
328.6	113.19
328.829	122.19
329.058	104.19
329.287	138.19
329.515	142.19
329.744	134.19
329.972	145.19
330.201	126.19
330.43	126.19
330.658	136.19
330.887	118.19
331.115	131.19
331.344	122.19
331.572	133.19
331.801	137.19
332.03	136.19
332.258	149.19
332.486	126.19
332.715	145.19
332.943	152.19
333.172	170.19
333.4	143.19
333.629	160.19
333.857	147.19
334.085	162.19
334.314	133.19
334.542	140.19
334.771	157.19
334.999	136.19
335.227	162.19
335.455	158.19
335.684	149.19
335.912	160.19
336.14	159.19
336.369	130.19
336.597	141.19
336.825	129.19
337.053	137.19
337.281	154.19
337.51	133.19
337.738	132.19
337.966	141.19
338.194	143.19
338.422	131.19
338.65	141.19
338.878	134.19
339.106	138.19
339.334	131.19
339.562	132.19
339.79	126.19
340.018	142.19
340.246	149.19
340.474	121.19
340.702	130.19
340.93	137.19
341.158	130.19
341.386	136.19
341.614	133.19
341.842	126.19
342.07	117.19
342.298	127.19
342.526	129.19
342.754	125.19
342.981	141.19
343.209	138.19
343.437	155.19
343.665	154.19
343.893	147.19
344.12	151.19
344.348	150.19
344.576	141.19
344.804	126.19
345.031	137.19
345.259	139.19
345.487	131.19
345.714	130.19
345.942	124.19
346.17	137.19
346.397	139.19
346.625	129.19
346.853	143.19
347.08	123.19
347.308	123.19
347.535	127.19
347.763	135.19
347.99	139.19
348.218	130.19
348.445	138.19
348.673	124.19
348.9	135.19
349.128	137.19
349.355	128.19
349.583	143.19
349.81	136.19
350.037	134.19
350.265	133.19
350.492	137.19
350.72	127.19
350.947	134.19
351.174	128.19
351.402	126.19
351.629	131.19
351.856	134.19
352.083	102.19
352.311	128.19
352.538	129.19
352.765	125.19
352.992	146.19
353.22	141.19
353.447	118.19
353.674	125.19
353.901	131.19
354.128	132.19
354.355	123.19
354.583	134.19
354.81	149.19
355.037	135.19
355.264	147.19
355.491	112.19
355.718	112.19
355.945	141.19
356.172	131.19
356.399	130.19
356.626	142.19
356.853	119.19
357.08	129.19
357.307	132.19
357.534	131.19
357.761	128.19
357.988	150.19
358.215	130.19
358.441	128.19
358.668	130.19
358.895	137.19
359.122	128.19
359.349	138.19
359.576	125.19
359.802	119.19
360.029	139.19
360.256	146.19
360.483	117.19
360.709	125.19
360.936	144.19
361.163	137.19
361.39	143.19
361.616	126.19
361.843	126.19
362.07	145.19
362.296	126.19
362.523	112.19
362.749	125.19
362.976	134.19
363.203	133.19
363.429	133.19
363.656	131.19
363.882	127.19
364.109	128.19
364.335	122.19
364.562	124.19
364.788	121.19
365.015	110.19
365.241	119.19
365.468	126.19
365.694	120.19
365.92	135.19
366.147	132.19
366.373	133.19
366.599	130.19
366.826	131.19
367.052	142.19
367.278	143.19
367.505	129.19
367.731	141.19
367.957	137.19
368.184	128.19
368.41	131.19
368.636	145.19
368.862	147.19
369.089	135.19
369.315	146.19
369.541	132.19
369.767	150.19
369.993	165.19
370.219	133.19
370.445	134.19
370.672	153.19
370.898	145.19
371.124	140.19
371.35	130.19
371.576	144.19
371.802	139.19
372.028	163.19
372.254	173.19
372.48	161.19
372.706	149.19
372.932	144.19
373.158	150.19
373.384	146.19
373.61	160.19
373.835	168.19
374.061	158.19
374.287	162.19
374.513	159.19
374.739	148.19
374.965	160.19
375.191	165.19
375.416	144.19
375.642	152.19
375.868	140.19
376.094	157.19
376.319	161.19
376.545	142.19
376.771	139.19
376.997	157.19
377.222	156.19
377.448	161.19
377.674	151.19
377.899	160.19
378.125	156.19
378.35	158.19
378.576	166.19
378.802	160.19
379.027	147.19
379.253	176.19
379.478	154.19
379.704	143.19
379.929	163.19
380.155	160.19
380.38	158.19
380.606	164.19
380.831	164.19
381.057	181.19
381.282	158.19
381.507	163.19
381.733	160.19
381.958	182.19
382.184	170.19
382.409	160.19
382.634	168.19
382.86	157.19
383.085	174.19
383.31	179.19
383.535	184.19
383.761	186.19
383.986	170.19
384.211	178.19
384.436	192.19
384.662	188.19
384.887	172.19
385.112	182.19
385.337	187.19
385.562	181.19
385.787	169.19
386.013	196.19
386.238	187.19
386.463	184.19
386.688	211.19
386.913	181.19
387.138	203.19
387.363	197.19
387.588	194.19
387.813	172.19
388.038	177.19
388.263	208.19
388.488	188.19
388.713	175.19
388.938	184.19
389.163	171.19
389.387	182.19
389.612	183.19
389.837	190.19
390.062	194.19
390.287	214.19
390.512	207.19
390.736	180.19
390.961	207.19
391.186	189.19
391.411	210.19
391.636	208.19
391.86	216.19
392.085	209.19
392.31	202.19
392.534	196.19
392.759	213.19
392.984	214.19
393.208	195.19
393.433	216.19
393.658	214.19
393.882	197.19
394.107	219.19
394.331	207.19
394.556	208.19
394.78	213.19
395.005	203.19
395.229	215.19
395.454	209.19
395.678	226.19
395.903	196.19
396.127	217.19
396.352	198.19
396.576	189.19
396.801	219.19
397.025	200.19
397.249	205.19
397.474	224.19
397.698	212.19
397.922	215.19
398.147	215.19
398.371	220.19
398.595	211.19
398.82	237.19
399.044	245.19
399.268	258.19
399.492	279.19
399.717	295.19
399.941	286.19
400.165	258.19
400.389	245.19
400.613	237.19
400.837	243.19
401.062	260.19
401.286	239.19
401.51	256.19
401.734	246.19
401.958	240.19
402.182	229.19
402.406	243.19
402.63	241.19
402.854	245.19
403.078	239.19
403.302	254.19
403.526	255.19
403.75	259.19
403.974	255.19
404.198	254.19
404.422	261.19
404.645	250.19
404.869	266.19
405.093	266.19
405.317	259.19
405.541	273.19
405.765	262.19
405.988	245.19
406.212	260.19
406.436	269.19
406.66	280.19
406.883	263.19
407.107	294.19
407.331	263.19
407.555	283.19
407.778	275.19
408.002	281.19
408.226	264.19
408.449	257.19
408.673	261.19
408.896	251.19
409.12	255.19
409.344	263.19
409.567	265.19
409.791	278.19
410.014	296.19
410.238	269.19
410.461	276.19
410.685	280.19
410.908	266.19
411.132	275.19
411.355	251.19
411.578	282.19
411.802	267.19
412.025	257.19
412.249	259.19
412.472	264.19
412.695	255.19
412.919	260.19
413.142	253.19
413.365	278.19
413.589	250.19
413.812	256.19
414.035	258.19
414.258	264.19
414.482	258.19
414.705	271.19
414.928	257.19
415.151	265.19
415.374	277.19
415.597	261.19
415.821	248.19
416.044	257.19
416.267	257.19
416.49	278.19
416.713	260.19
416.936	272.19
417.159	259.19
417.382	271.19
417.605	259.19
417.828	279.19
418.051	276.19
418.274	267.19
418.497	287.19
418.72	273.19
418.943	274.19
419.166	286.19
419.389	296.19
419.611	273.19
419.834	268.19
420.057	279.19
420.28	262.19
420.503	269.19
420.726	280.19
420.948	274.19
421.171	267.19
421.394	293.19
421.617	279.19
421.839	288.19
422.062	282.19
422.285	261.19
422.507	262.19
422.73	269.19
422.953	245.19
423.175	273.19
423.398	264.19
423.621	296.19
423.843	300.19
424.066	296.19
424.288	285.19
424.511	300.19
424.733	298.19
424.956	293.19
425.178	289.19
425.401	302.19
425.623	287.19
425.846	272.19
426.068	275.19
426.291	266.19
426.513	271.19
426.735	254.19
426.958	259.19
427.18	256.19
427.402	277.19
427.625	267.19
427.847	256.19
428.069	276.19
428.292	269.19
428.514	269.19
428.736	244.19
428.958	285.19
429.181	256.19
429.403	273.19
429.625	257.19
429.847	271.19
430.069	267.19
430.292	265.19
430.514	245.19
430.736	238.19
430.958	258.19
431.18	254.19
431.402	256.19
431.624	244.19
431.846	213.19
432.068	176.19
432.29	207.19
432.512	238.19
432.734	244.19
432.956	266.19
433.178	253.19
433.4	262.19
433.622	254.19
433.844	263.19
434.066	239.19
434.287	214.19
434.509	180.19
434.731	202.19
434.953	233.19
435.175	269.19
435.397	256.19
435.618	233.19
435.84	229.19
436.062	221.19
436.284	254.19
436.505	249.19
436.727	262.19
436.949	258.19
437.17	254.19
437.392	254.19
437.614	248.19
437.835	218.19
438.057	216.19
438.278	225.19
438.5	248.19
438.721	261.19
438.943	271.19
439.165	273.19
439.386	291.19
439.608	292.19
439.829	299.19
440.05	290.19
440.272	297.19
440.493	295.19
440.715	289.19
440.936	294.19
441.158	282.19
441.379	319.19
441.6	331.19
441.822	306.19
442.043	311.19
442.264	292.19
442.486	292.19
442.707	289.19
442.928	295.19
443.149	299.19
443.371	297.19
443.592	281.19
443.813	291.19
444.034	289.19
444.255	299.19
444.476	303.19
444.698	317.19
444.919	326.19
445.14	581.19
445.361	439.19
445.582	313.19
445.803	286.19
446.024	295.19
446.245	293.19
446.466	318.19
446.687	303.19
446.908	305.19
447.129	296.19
447.35	294.19
447.571	317.19
447.792	270.19
448.013	283.19
448.234	294.19
448.455	279.19
448.675	280.19
448.896	277.19
449.117	271.19
449.338	256.19
449.559	293.19
449.779	277.19
450	273.19
450.221	272.19
450.442	250.19
450.662	258.19
450.883	253.19
451.104	276.19
451.324	248.19
451.545	241.19
451.766	256.19
451.986	245.19
452.207	225.19
452.428	250.19
452.648	220.19
452.869	228.19
453.089	222.19
453.31	215.19
453.53	195.19
453.751	197.19
453.971	195.19
454.192	193.19
454.412	213.19
454.633	232.19
454.853	223.19
455.073	219.19
455.294	211.19
455.514	216.19
455.734	209.19
455.955	200.19
456.175	205.19
456.395	207.19
456.616	198.19
456.836	204.19
457.056	210.19
457.276	204.19
457.497	189.19
457.717	187.19
457.937	191.19
458.157	183.19
458.377	181.19
458.598	166.19
458.818	162.19
459.038	161.19
459.258	183.19
459.478	170.19
459.698	168.19
459.918	193.19
460.138	215.19
460.358	224.19
460.578	251.19
460.798	230.19
461.018	255.19
461.238	234.19
461.458	231.19
461.678	223.19
461.898	236.19
462.118	241.19
462.338	238.19
462.558	256.19
462.777	251.19
462.997	262.19
463.217	254.19
463.437	271.19
463.657	251.19
463.876	245.19
464.096	249.19
464.316	245.19
464.536	242.19
464.755	256.19
464.975	258.19
465.195	258.19
465.414	229.19
465.634	246.19
465.854	232.19
466.073	235.19
466.293	247.19
466.512	246.19
466.732	231.19
466.951	265.19
467.171	243.19
467.391	263.19
467.61	235.19
467.829	247.19
468.049	257.19
468.268	255.19
468.488	246.19
468.707	248.19
468.927	252.19
469.146	250.19
469.365	265.19
469.585	264.19
469.804	249.19
470.023	269.19
470.243	287.19
470.462	281.19
470.681	257.19
470.901	273.19
471.12	276.19
471.339	297.19
471.558	270.19
471.777	262.19
471.997	270.19
472.216	241.19
472.435	213.19
472.654	187.19
472.873	189.19
473.092	217.19
473.311	221.19
473.53	230.19
473.749	242.19
473.968	242.19
474.187	211.19
474.406	210.19
474.625	232.19
474.844	241.19
475.063	243.19
475.282	229.19
475.501	232.19
475.72	227.19
475.939	239.19
476.158	234.19
476.377	240.19
476.596	237.19
476.814	220.19
477.033	193.19
477.252	222.19
477.471	230.19
477.69	257.19
477.908	281.19
478.127	265.19
478.346	271.19
478.564	271.19
478.783	247.19
479.002	281.19
479.22	272.19
479.439	259.19
479.658	241.19
479.876	231.19
480.095	220.19
480.313	232.19
480.532	230.19
480.751	220.19
480.969	199.19
481.188	187.19
481.406	179.19
481.624	177.19
481.843	177.19
482.061	193.19
482.28	224.19
482.498	201.19
482.717	198.19
482.935	231.19
483.153	282.19
483.372	297.19
483.59	283.19
483.808	271.19
484.027	248.19
484.245	249.19
484.463	260.19
484.681	285.19
484.9	257.19
485.118	263.19
485.336	241.19
485.554	210.19
485.772	190.19
485.99	197.19
486.209	205.19
486.427	217.19
486.645	241.19
486.863	272.19
487.081	260.19
487.299	251.19
487.517	279.19
487.735	349.19
487.953	351.19
488.171	346.19
488.389	341.19
488.607	282.19
488.825	263.19
489.043	235.19
489.261	257.19
489.479	259.19
489.696	275.19
489.914	276.19
490.132	289.19
490.35	320.19
490.568	311.19
490.786	351.19
491.003	345.19
491.221	365.19
491.439	392.19
491.657	384.19
491.874	427.19
492.092	450.19
492.31	471.19
492.527	451.19
492.745	426.19
492.963	394.19
493.18	397.19
493.398	378.19
493.615	375.19
493.833	360.19
494.05	353.19
494.268	358.19
494.485	359.19
494.703	354.19
494.92	358.19
495.138	351.19
495.355	381.19
495.573	350.19
495.79	339.19
496.008	349.19
496.225	324.19
496.442	358.19
496.66	356.19
496.877	325.19
497.094	368.19
497.312	333.19
497.529	328.19
497.746	306.19
497.963	308.19
498.181	264.19
498.398	256.19
498.615	281.19
498.832	289.19
499.049	287.19
499.267	318.19
499.484	324.19
499.701	384.19
499.918	408.19
500.135	440.19
500.352	497.19
500.569	488.19
500.786	501.19
501.003	478.19
501.22	433.19
501.437	399.19
501.654	375.19
501.871	331.19
502.088	327.19
502.305	323.19
502.522	314.19
502.739	289.19
502.956	287.19
503.172	279.19
503.389	251.19
503.606	253.19
503.823	266.19
504.04	266.19
504.256	262.19
504.473	262.19
504.69	259.19
504.907	285.19
