Data from SampD_HRD10591_00015.txt Node
Date: Mon Jan 19 11:47:43 EST 2026
User: Yrep
Spectrometer: HR+D1059
Trigger mode: 0
Integration Time (sec): 3.443000E-1
Scans to average: 1
Electric dark correction enabled: true
Nonlinearity correction enabled: false
Boxcar width: 0
XAxis mode: Wavelengths
Number of Pixels in Spectrum: 2048
>>>>>Begin Spectral Data<<<<<
223.165	-18.44
223.4	-18.44
223.635	-18.44
223.869	-14.44
224.104	-23.44
224.338	-10.44
224.573	-9.44
224.808	-16.44
225.042	2.56
225.277	5.56
225.511	-3.44
225.746	-1.44
225.98	1.56
226.215	18.56
226.449	17.56
226.683	12.56
226.918	6.56
227.152	32.56
227.387	44.56
227.621	38.56
227.856	50.56
228.09	38.56
228.324	53.56
228.559	66.56
228.793	69.56
229.027	75.56
229.262	61.56
229.496	64.56
229.73	67.56
229.964	79.56
230.199	55.56
230.433	72.56
230.667	78.56
230.901	73.56
231.136	74.56
231.37	75.56
231.604	80.56
231.838	72.56
232.072	79.56
232.306	87.56
232.541	85.56
232.775	87.56
233.009	89.56
233.243	93.56
233.477	77.56
233.711	79.56
233.945	77.56
234.179	85.56
234.413	77.56
234.647	81.56
234.881	80.56
235.115	84.56
235.349	91.56
235.583	76.56
235.817	83.56
236.051	90.56
236.285	76.56
236.519	84.56
236.753	92.56
236.987	62.56
237.221	68.56
237.455	82.56
237.689	82.56
237.922	72.56
238.156	89.56
238.39	78.56
238.624	79.56
238.858	85.56
239.091	71.56
239.325	76.56
239.559	83.56
239.793	91.56
240.027	89.56
240.26	85.56
240.494	94.56
240.728	83.56
240.961	98.56
241.195	72.56
241.429	91.56
241.662	69.56
241.896	97.56
242.13	85.56
242.363	78.56
242.597	72.56
242.83	78.56
243.064	94.56
243.298	93.56
243.531	74.56
243.765	86.56
243.998	102.56
244.232	102.56
244.465	90.56
244.699	97.56
244.932	83.56
245.166	77.56
245.399	85.56
245.633	91.56
245.866	82.56
246.099	86.56
246.333	88.56
246.566	79.56
246.8	80.56
247.033	99.56
247.266	94.56
247.5	93.56
247.733	74.56
247.966	82.56
248.2	87.56
248.433	86.56
248.666	83.56
248.899	88.56
249.133	94.56
249.366	83.56
249.599	96.56
249.832	82.56
250.066	90.56
250.299	94.56
250.532	92.56
250.765	88.56
250.998	92.56
251.231	85.56
251.465	103.56
251.698	87.56
251.931	96.56
252.164	89.56
252.397	94.56
252.63	80.56
252.863	99.56
253.096	96.56
253.329	92.56
253.562	98.56
253.795	100.56
254.028	90.56
254.261	75.56
254.494	97.56
254.727	105.56
254.96	86.56
255.193	99.56
255.426	87.56
255.659	88.56
255.892	88.56
256.124	91.56
256.357	99.56
256.59	92.56
256.823	91.56
257.056	95.56
257.289	98.56
257.521	87.56
257.754	81.56
257.987	75.56
258.22	86.56
258.452	88.56
258.685	93.56
258.918	98.56
259.151	95.56
259.383	108.56
259.616	113.56
259.849	94.56
260.081	110.56
260.314	107.56
260.547	104.56
260.779	86.56
261.012	100.56
261.244	102.56
261.477	112.56
261.71	103.56
261.942	98.56
262.175	96.56
262.407	94.56
262.64	97.56
262.872	103.56
263.105	96.56
263.337	108.56
263.57	102.56
263.802	88.56
264.035	99.56
264.267	107.56
264.499	104.56
264.732	105.56
264.964	95.56
265.197	106.56
265.429	98.56
265.661	87.56
265.894	99.56
266.126	106.56
266.358	106.56
266.591	99.56
266.823	87.56
267.055	99.56
267.287	99.56
267.52	99.56
267.752	98.56
267.984	120.56
268.216	109.56
268.448	92.56
268.681	98.56
268.913	103.56
269.145	101.56
269.377	105.56
269.609	102.56
269.841	108.56
270.073	107.56
270.306	109.56
270.538	121.56
270.77	83.56
271.002	92.56
271.234	108.56
271.466	109.56
271.698	116.56
271.93	110.56
272.162	111.56
272.394	96.56
272.626	101.56
272.858	99.56
273.09	110.56
273.322	111.56
273.553	114.56
273.785	111.56
274.017	103.56
274.249	98.56
274.481	121.56
274.713	94.56
274.945	99.56
275.176	92.56
275.408	119.56
275.64	117.56
275.872	113.56
276.104	108.56
276.335	110.56
276.567	118.56
276.799	96.56
277.031	102.56
277.262	98.56
277.494	131.56
277.726	111.56
277.957	121.56
278.189	99.56
278.421	101.56
278.652	110.56
278.884	108.56
279.115	114.56
279.347	102.56
279.579	100.56
279.81	104.56
280.042	114.56
280.273	107.56
280.505	109.56
280.736	118.56
280.968	116.56
281.199	101.56
281.431	104.56
281.662	115.56
281.894	122.56
282.125	99.56
282.356	100.56
282.588	127.56
282.819	113.56
283.051	109.56
283.282	100.56
283.513	130.56
283.745	124.56
283.976	122.56
284.207	117.56
284.439	112.56
284.67	111.56
284.901	103.56
285.132	108.56
285.364	107.56
285.595	110.56
285.826	115.56
286.057	110.56
286.288	112.56
286.52	126.56
286.751	121.56
286.982	115.56
287.213	95.56
287.444	135.56
287.675	114.56
287.906	113.56
288.138	120.56
288.369	109.56
288.6	108.56
288.831	117.56
289.062	114.56
289.293	98.56
289.524	124.56
289.755	105.56
289.986	108.56
290.217	106.56
290.448	117.56
290.679	124.56
290.91	123.56
291.141	96.56
291.371	118.56
291.602	115.56
291.833	106.56
292.064	126.56
292.295	116.56
292.526	116.56
292.757	115.56
292.987	131.56
293.218	113.56
293.449	122.56
293.68	118.56
293.91	107.56
294.141	118.56
294.372	125.56
294.603	118.56
294.833	108.56
295.064	113.56
295.295	122.56
295.525	113.56
295.756	107.56
295.987	123.56
296.217	131.56
296.448	129.56
296.679	121.56
296.909	122.56
297.14	108.56
297.37	119.56
297.601	131.56
297.831	111.56
298.062	136.56
298.292	127.56
298.523	128.56
298.753	114.56
298.984	124.56
299.214	126.56
299.445	115.56
299.675	126.56
299.905	129.56
300.136	125.56
300.366	128.56
300.597	127.56
300.827	121.56
301.057	129.56
301.288	129.56
301.518	119.56
301.748	109.56
301.979	164.56
302.209	118.56
302.439	131.56
302.669	119.56
302.9	135.56
303.13	122.56
303.36	132.56
303.59	122.56
303.82	131.56
304.051	130.56
304.281	118.56
304.511	128.56
304.741	122.56
304.971	126.56
305.201	127.56
305.431	140.56
305.661	123.56
305.891	119.56
306.121	121.56
306.352	129.56
306.582	100.56
306.812	140.56
307.042	113.56
307.272	115.56
307.502	115.56
307.731	119.56
307.961	116.56
308.191	115.56
308.421	117.56
308.651	121.56
308.881	114.56
309.111	135.56
309.341	134.56
309.571	108.56
309.8	117.56
310.03	121.56
310.26	108.56
310.49	121.56
310.72	123.56
310.949	140.56
311.179	135.56
311.409	112.56
311.639	142.56
311.868	130.56
312.098	137.56
312.328	125.56
312.557	126.56
312.787	140.56
313.017	130.56
313.246	127.56
313.476	110.56
313.706	126.56
313.935	121.56
314.165	116.56
314.394	118.56
314.624	130.56
314.853	138.56
315.083	128.56
315.312	119.56
315.542	129.56
315.771	122.56
316.001	126.56
316.23	114.56
316.46	129.56
316.689	130.56
316.919	122.56
317.148	139.56
317.377	135.56
317.607	120.56
317.836	121.56
318.065	131.56
318.295	127.56
318.524	119.56
318.753	126.56
318.983	135.56
319.212	137.56
319.441	132.56
319.67	138.56
319.9	129.56
320.129	123.56
320.358	131.56
320.587	120.56
320.816	126.56
321.046	132.56
321.275	142.56
321.504	128.56
321.733	135.56
321.962	122.56
322.191	136.56
322.42	127.56
322.649	124.56
322.878	138.56
323.108	129.56
323.337	118.56
323.566	123.56
323.795	120.56
324.024	124.56
324.253	130.56
324.482	131.56
324.71	119.56
324.939	156.56
325.168	133.56
325.397	127.56
325.626	142.56
325.855	124.56
326.084	138.56
326.313	130.56
326.542	131.56
326.77	150.56
326.999	131.56
327.228	119.56
327.457	132.56
327.686	114.56
327.914	141.56
328.143	155.56
328.372	127.56
328.6	139.56
328.829	130.56
329.058	139.56
329.287	131.56
329.515	135.56
329.744	138.56
329.972	130.56
330.201	135.56
330.43	145.56
330.658	132.56
330.887	133.56
331.115	124.56
331.344	130.56
331.572	135.56
331.801	132.56
332.03	138.56
332.258	140.56
332.486	153.56
332.715	134.56
332.943	146.56
333.172	151.56
333.4	155.56
333.629	150.56
333.857	144.56
334.085	165.56
334.314	139.56
334.542	152.56
334.771	154.56
334.999	138.56
335.227	147.56
335.455	152.56
335.684	147.56
335.912	148.56
336.14	152.56
336.369	128.56
336.597	139.56
336.825	144.56
337.053	148.56
337.281	144.56
337.51	142.56
337.738	142.56
337.966	131.56
338.194	128.56
338.422	119.56
338.65	145.56
338.878	155.56
339.106	132.56
339.334	142.56
339.562	130.56
339.79	129.56
340.018	142.56
340.246	125.56
340.474	139.56
340.702	137.56
340.93	130.56
341.158	140.56
341.386	137.56
341.614	152.56
341.842	123.56
342.07	141.56
342.298	139.56
342.526	127.56
342.754	132.56
342.981	144.56
343.209	129.56
343.437	172.56
343.665	144.56
343.893	143.56
344.12	162.56
344.348	142.56
344.576	140.56
344.804	137.56
345.031	117.56
345.259	131.56
345.487	142.56
345.714	129.56
345.942	146.56
346.17	137.56
346.397	142.56
346.625	140.56
346.853	146.56
347.08	145.56
347.308	137.56
347.535	151.56
347.763	137.56
347.99	132.56
348.218	124.56
348.445	141.56
348.673	120.56
348.9	135.56
349.128	157.56
349.355	138.56
349.583	137.56
349.81	128.56
350.037	127.56
350.265	128.56
350.492	121.56
350.72	137.56
350.947	118.56
351.174	136.56
351.402	132.56
351.629	130.56
351.856	137.56
352.083	136.56
352.311	130.56
352.538	134.56
352.765	131.56
352.992	152.56
353.22	119.56
353.447	126.56
353.674	149.56
353.901	144.56
354.128	158.56
354.355	132.56
354.583	136.56
354.81	134.56
355.037	124.56
355.264	137.56
355.491	128.56
355.718	134.56
355.945	132.56
356.172	132.56
356.399	142.56
356.626	122.56
356.853	130.56
357.08	134.56
357.307	144.56
357.534	142.56
357.761	124.56
357.988	126.56
358.215	142.56
358.441	123.56
358.668	131.56
358.895	146.56
359.122	141.56
359.349	129.56
359.576	140.56
359.802	130.56
360.029	143.56
360.256	125.56
360.483	135.56
360.709	125.56
360.936	142.56
361.163	138.56
361.39	141.56
361.616	142.56
361.843	129.56
362.07	127.56
362.296	132.56
362.523	129.56
362.749	128.56
362.976	135.56
363.203	146.56
363.429	142.56
363.656	134.56
363.882	117.56
364.109	131.56
364.335	136.56
364.562	134.56
364.788	134.56
365.015	146.56
365.241	126.56
365.468	146.56
365.694	133.56
365.92	128.56
366.147	129.56
366.373	127.56
366.599	133.56
366.826	145.56
367.052	119.56
367.278	148.56
367.505	133.56
367.731	147.56
367.957	134.56
368.184	126.56
368.41	130.56
368.636	136.56
368.862	135.56
369.089	136.56
369.315	131.56
369.541	142.56
369.767	142.56
369.993	149.56
370.219	135.56
370.445	121.56
370.672	144.56
370.898	149.56
371.124	148.56
371.35	164.56
371.576	137.56
371.802	148.56
372.028	142.56
372.254	164.56
372.48	148.56
372.706	147.56
372.932	148.56
373.158	158.56
373.384	160.56
373.61	173.56
373.835	174.56
374.061	143.56
374.287	144.56
374.513	153.56
374.739	166.56
374.965	182.56
375.191	173.56
375.416	178.56
375.642	176.56
375.868	168.56
376.094	154.56
376.319	146.56
376.545	155.56
376.771	148.56
376.997	154.56
377.222	165.56
377.448	169.56
377.674	165.56
377.899	158.56
378.125	155.56
378.35	159.56
378.576	144.56
378.802	164.56
379.027	169.56
379.253	170.56
379.478	156.56
379.704	156.56
379.929	165.56
380.155	151.56
380.38	154.56
380.606	177.56
380.831	180.56
381.057	186.56
381.282	180.56
381.507	168.56
381.733	166.56
381.958	160.56
382.184	175.56
382.409	171.56
382.634	172.56
382.86	179.56
383.085	178.56
383.31	173.56
383.535	191.56
383.761	188.56
383.986	187.56
384.211	166.56
384.436	167.56
384.662	170.56
384.887	181.56
385.112	172.56
385.337	195.56
385.562	167.56
385.787	173.56
386.013	184.56
386.238	182.56
386.463	180.56
386.688	207.56
386.913	178.56
387.138	180.56
387.363	186.56
387.588	206.56
387.813	185.56
388.038	218.56
388.263	194.56
388.488	203.56
388.713	197.56
388.938	191.56
389.163	195.56
389.387	205.56
389.612	188.56
389.837	194.56
390.062	177.56
390.287	187.56
390.512	196.56
390.736	184.56
390.961	207.56
391.186	217.56
391.411	220.56
391.636	210.56
391.86	208.56
392.085	211.56
392.31	211.56
392.534	201.56
392.759	221.56
392.984	208.56
393.208	212.56
393.433	197.56
393.658	203.56
393.882	206.56
394.107	208.56
394.331	225.56
394.556	207.56
394.78	206.56
395.005	228.56
395.229	220.56
395.454	235.56
395.678	217.56
395.903	222.56
396.127	208.56
396.352	205.56
396.576	204.56
396.801	202.56
397.025	208.56
397.249	223.56
397.474	235.56
397.698	219.56
397.922	236.56
398.147	219.56
398.371	223.56
398.595	227.56
398.82	231.56
399.044	236.56
399.268	261.56
399.492	270.56
399.717	294.56
399.941	291.56
400.165	265.56
400.389	279.56
400.613	245.56
400.837	224.56
401.062	224.56
401.286	249.56
401.51	254.56
401.734	245.56
401.958	241.56
402.182	239.56
402.406	253.56
402.63	251.56
402.854	253.56
403.078	251.56
403.302	247.56
403.526	256.56
403.75	258.56
403.974	260.56
404.198	264.56
404.422	279.56
404.645	269.56
404.869	285.56
405.093	273.56
405.317	258.56
405.541	247.56
405.765	246.56
405.988	250.56
406.212	280.56
406.436	262.56
406.66	264.56
406.883	265.56
407.107	273.56
407.331	278.56
407.555	274.56
407.778	284.56
408.002	261.56
408.226	272.56
408.449	279.56
408.673	266.56
408.896	267.56
409.12	271.56
409.344	269.56
409.567	273.56
409.791	276.56
410.014	282.56
410.238	256.56
410.461	274.56
410.685	275.56
410.908	268.56
411.132	270.56
411.355	260.56
411.578	254.56
411.802	277.56
412.025	260.56
412.249	260.56
412.472	271.56
412.695	259.56
412.919	262.56
413.142	262.56
413.365	264.56
413.589	282.56
413.812	235.56
414.035	258.56
414.258	275.56
414.482	271.56
414.705	251.56
414.928	252.56
415.151	255.56
415.374	261.56
415.597	262.56
415.821	261.56
416.044	259.56
416.267	274.56
416.49	272.56
416.713	271.56
416.936	262.56
417.159	268.56
417.382	271.56
417.605	261.56
417.828	265.56
418.051	268.56
418.274	287.56
418.497	272.56
418.72	292.56
418.943	279.56
419.166	308.56
419.389	311.56
419.611	286.56
419.834	279.56
420.057	308.56
420.28	288.56
420.503	292.56
420.726	260.56
420.948	270.56
421.171	262.56
421.394	298.56
421.617	255.56
421.839	290.56
422.062	288.56
422.285	267.56
422.507	277.56
422.73	276.56
422.953	275.56
423.175	258.56
423.398	286.56
423.621	272.56
423.843	281.56
424.066	295.56
424.288	314.56
424.511	312.56
424.733	292.56
424.956	278.56
425.178	292.56
425.401	288.56
425.623	292.56
425.846	286.56
426.068	283.56
426.291	251.56
426.513	254.56
426.735	282.56
426.958	286.56
427.18	252.56
427.402	262.56
427.625	268.56
427.847	259.56
428.069	242.56
428.292	274.56
428.514	267.56
428.736	246.56
428.958	243.56
429.181	262.56
429.403	274.56
429.625	251.56
429.847	247.56
430.069	281.56
430.292	252.56
430.514	260.56
430.736	284.56
430.958	256.56
431.18	244.56
431.402	253.56
431.624	235.56
431.846	215.56
432.068	185.56
432.29	206.56
432.512	236.56
432.734	248.56
432.956	251.56
433.178	295.56
433.4	275.56
433.622	277.56
433.844	261.56
434.066	226.56
434.287	213.56
434.509	182.56
434.731	219.56
434.953	250.56
435.175	259.56
435.397	263.56
435.618	241.56
435.84	210.56
436.062	236.56
436.284	238.56
436.505	260.56
436.727	264.56
436.949	268.56
437.17	249.56
437.392	236.56
437.614	241.56
437.835	207.56
438.057	198.56
438.278	210.56
438.5	241.56
438.721	267.56
438.943	277.56
439.165	278.56
439.386	280.56
439.608	275.56
439.829	291.56
440.05	302.56
440.272	296.56
440.493	290.56
440.715	299.56
440.936	300.56
441.158	301.56
441.379	308.56
441.6	300.56
441.822	298.56
442.043	301.56
442.264	307.56
442.486	304.56
442.707	296.56
442.928	288.56
443.149	284.56
443.371	306.56
443.592	295.56
443.813	290.56
444.034	298.56
444.255	314.56
444.476	303.56
444.698	326.56
444.919	330.56
445.14	510.56
445.361	419.56
445.582	315.56
445.803	295.56
446.024	299.56
446.245	313.56
446.466	310.56
446.687	323.56
446.908	319.56
447.129	303.56
447.35	306.56
447.571	287.56
447.792	270.56
448.013	267.56
448.234	279.56
448.455	297.56
448.675	273.56
448.896	258.56
449.117	250.56
449.338	283.56
449.559	263.56
449.779	278.56
450	264.56
450.221	256.56
450.442	262.56
450.662	260.56
450.883	273.56
451.104	255.56
451.324	274.56
451.545	244.56
451.766	250.56
451.986	248.56
452.207	239.56
452.428	240.56
452.648	248.56
452.869	241.56
453.089	201.56
453.31	212.56
453.53	195.56
453.751	180.56
453.971	202.56
454.192	202.56
454.412	198.56
454.633	211.56
454.853	206.56
455.073	218.56
455.294	228.56
455.514	238.56
455.734	227.56
455.955	211.56
456.175	215.56
456.395	202.56
456.616	199.56
456.836	217.56
457.056	198.56
457.276	196.56
457.497	172.56
457.717	203.56
457.937	194.56
458.157	201.56
458.377	178.56
458.598	198.56
458.818	169.56
459.038	174.56
459.258	164.56
459.478	166.56
459.698	190.56
459.918	204.56
460.138	233.56
460.358	225.56
460.578	241.56
460.798	228.56
461.018	238.56
461.238	258.56
461.458	255.56
461.678	250.56
461.898	238.56
462.118	239.56
462.338	245.56
462.558	246.56
462.777	259.56
462.997	273.56
463.217	285.56
463.437	251.56
463.657	228.56
463.876	228.56
464.096	246.56
464.316	254.56
464.536	235.56
464.755	256.56
464.975	241.56
465.195	246.56
465.414	235.56
465.634	246.56
465.854	220.56
466.073	230.56
466.293	234.56
466.512	251.56
466.732	257.56
466.951	239.56
467.171	243.56
467.391	256.56
467.61	272.56
467.829	272.56
468.049	264.56
468.268	268.56
468.488	245.56
468.707	262.56
468.927	267.56
469.146	265.56
469.365	279.56
469.585	264.56
469.804	288.56
470.023	284.56
470.243	266.56
470.462	286.56
470.681	282.56
470.901	287.56
471.12	282.56
471.339	280.56
471.558	271.56
471.777	251.56
471.997	252.56
472.216	249.56
472.435	208.56
472.654	200.56
472.873	215.56
473.092	196.56
473.311	230.56
473.53	230.56
473.749	263.56
473.968	250.56
474.187	231.56
474.406	220.56
474.625	246.56
474.844	234.56
475.063	236.56
475.282	227.56
475.501	218.56
475.72	223.56
475.939	224.56
476.158	240.56
476.377	228.56
476.596	221.56
476.814	196.56
477.033	191.56
477.252	221.56
477.471	236.56
477.69	262.56
477.908	272.56
478.127	280.56
478.346	249.56
478.564	274.56
478.783	263.56
479.002	276.56
479.22	266.56
479.439	263.56
479.658	235.56
479.876	226.56
480.095	218.56
480.313	244.56
480.532	253.56
480.751	233.56
480.969	173.56
481.188	184.56
481.406	189.56
481.624	179.56
481.843	155.56
482.061	192.56
482.28	212.56
482.498	219.56
482.717	214.56
482.935	236.56
483.153	274.56
483.372	297.56
483.59	271.56
483.808	265.56
484.027	235.56
484.245	262.56
484.463	273.56
484.681	307.56
484.9	262.56
485.118	270.56
485.336	252.56
485.554	222.56
485.772	192.56
485.99	214.56
486.209	218.56
486.427	207.56
486.645	247.56
486.863	263.56
487.081	261.56
487.299	252.56
487.517	281.56
487.735	346.56
487.953	339.56
488.171	345.56
488.389	324.56
488.607	297.56
488.825	265.56
489.043	257.56
489.261	260.56
489.479	270.56
489.696	270.56
489.914	273.56
490.132	288.56
490.35	311.56
490.568	331.56
490.786	347.56
491.003	359.56
491.221	369.56
491.439	379.56
491.657	379.56
491.874	445.56
492.092	451.56
492.31	502.56
492.527	454.56
492.745	418.56
492.963	404.56
493.18	391.56
493.398	395.56
493.615	365.56
493.833	365.56
494.05	369.56
494.268	359.56
494.485	380.56
494.703	374.56
494.92	353.56
495.138	366.56
495.355	361.56
495.573	366.56
495.79	350.56
496.008	348.56
496.225	342.56
496.442	327.56
496.66	361.56
496.877	364.56
497.094	356.56
497.312	331.56
497.529	328.56
497.746	327.56
497.963	304.56
498.181	284.56
498.398	280.56
498.615	281.56
498.832	273.56
499.049	304.56
499.267	345.56
499.484	347.56
499.701	389.56
499.918	414.56
500.135	459.56
500.352	493.56
500.569	501.56
500.786	530.56
501.003	454.56
501.22	416.56
501.437	390.56
501.654	377.56
501.871	330.56
502.088	314.56
502.305	329.56
502.522	310.56
502.739	301.56
502.956	289.56
503.172	280.56
503.389	268.56
503.606	262.56
503.823	254.56
504.04	265.56
504.256	271.56
504.473	264.56
504.69	276.56
504.907	268.56
