Data from SampD_HRD10591_00093.txt Node
Date: Mon Jan 19 11:48:10 EST 2026
User: Yrep
Spectrometer: HR+D1059
Trigger mode: 0
Integration Time (sec): 3.443000E-1
Scans to average: 1
Electric dark correction enabled: true
Nonlinearity correction enabled: false
Boxcar width: 0
XAxis mode: Wavelengths
Number of Pixels in Spectrum: 2048
>>>>>Begin Spectral Data<<<<<
223.165	-12.38
223.4	-12.38
223.635	-12.38
223.869	-29.38
224.104	-29.38
224.338	-8.38
224.573	-22.38
224.808	3.62
225.042	-2.38
225.277	-5.38
225.511	9.62
225.746	5.62
225.98	-3.38
226.215	9.62
226.449	5.62
226.683	14.62
226.918	15.62
227.152	48.62
227.387	34.62
227.621	34.62
227.856	37.62
228.09	33.62
228.324	46.62
228.559	49.62
228.793	57.62
229.027	47.62
229.262	65.62
229.496	74.62
229.73	90.62
229.964	77.62
230.199	73.62
230.433	71.62
230.667	68.62
230.901	71.62
231.136	102.62
231.37	91.62
231.604	89.62
231.838	91.62
232.072	94.62
232.306	87.62
232.541	94.62
232.775	84.62
233.009	87.62
233.243	82.62
233.477	93.62
233.711	90.62
233.945	94.62
234.179	98.62
234.413	80.62
234.647	80.62
234.881	71.62
235.115	75.62
235.349	95.62
235.583	98.62
235.817	77.62
236.051	92.62
236.285	83.62
236.519	91.62
236.753	79.62
236.987	80.62
237.221	87.62
237.455	78.62
237.689	94.62
237.922	74.62
238.156	79.62
238.39	62.62
238.624	85.62
238.858	74.62
239.091	79.62
239.325	77.62
239.559	79.62
239.793	88.62
240.027	79.62
240.26	87.62
240.494	82.62
240.728	59.62
240.961	73.62
241.195	89.62
241.429	94.62
241.662	77.62
241.896	72.62
242.13	90.62
242.363	91.62
242.597	69.62
242.83	75.62
243.064	75.62
243.298	77.62
243.531	88.62
243.765	82.62
243.998	89.62
244.232	83.62
244.465	77.62
244.699	69.62
244.932	64.62
245.166	80.62
245.399	91.62
245.633	95.62
245.866	82.62
246.099	91.62
246.333	102.62
246.566	81.62
246.8	89.62
247.033	98.62
247.266	99.62
247.5	97.62
247.733	84.62
247.966	97.62
248.2	81.62
248.433	82.62
248.666	81.62
248.899	94.62
249.133	77.62
249.366	93.62
249.599	90.62
249.832	79.62
250.066	85.62
250.299	68.62
250.532	97.62
250.765	79.62
250.998	81.62
251.231	84.62
251.465	89.62
251.698	82.62
251.931	94.62
252.164	79.62
252.397	93.62
252.63	93.62
252.863	65.62
253.096	91.62
253.329	91.62
253.562	81.62
253.795	95.62
254.028	104.62
254.261	90.62
254.494	88.62
254.727	89.62
254.96	75.62
255.193	93.62
255.426	87.62
255.659	97.62
255.892	90.62
256.124	86.62
256.357	79.62
256.59	97.62
256.823	90.62
257.056	93.62
257.289	102.62
257.521	93.62
257.754	95.62
257.987	82.62
258.22	91.62
258.452	93.62
258.685	104.62
258.918	91.62
259.151	83.62
259.383	91.62
259.616	93.62
259.849	112.62
260.081	104.62
260.314	101.62
260.547	104.62
260.779	94.62
261.012	95.62
261.244	97.62
261.477	98.62
261.71	102.62
261.942	103.62
262.175	104.62
262.407	102.62
262.64	90.62
262.872	77.62
263.105	91.62
263.337	113.62
263.57	101.62
263.802	97.62
264.035	90.62
264.267	102.62
264.499	94.62
264.732	102.62
264.964	99.62
265.197	107.62
265.429	113.62
265.661	110.62
265.894	104.62
266.126	96.62
266.358	105.62
266.591	104.62
266.823	103.62
267.055	98.62
267.287	108.62
267.52	98.62
267.752	95.62
267.984	102.62
268.216	95.62
268.448	118.62
268.681	113.62
268.913	121.62
269.145	99.62
269.377	103.62
269.609	96.62
269.841	115.62
270.073	88.62
270.306	86.62
270.538	115.62
270.77	105.62
271.002	109.62
271.234	94.62
271.466	112.62
271.698	105.62
271.93	105.62
272.162	110.62
272.394	112.62
272.626	104.62
272.858	96.62
273.09	97.62
273.322	88.62
273.553	97.62
273.785	114.62
274.017	107.62
274.249	117.62
274.481	112.62
274.713	104.62
274.945	104.62
275.176	94.62
275.408	103.62
275.64	102.62
275.872	107.62
276.104	105.62
276.335	115.62
276.567	97.62
276.799	89.62
277.031	97.62
277.262	103.62
277.494	105.62
277.726	126.62
277.957	93.62
278.189	97.62
278.421	108.62
278.652	114.62
278.884	112.62
279.115	112.62
279.347	94.62
279.579	93.62
279.81	109.62
280.042	109.62
280.273	103.62
280.505	110.62
280.736	107.62
280.968	107.62
281.199	105.62
281.431	104.62
281.662	106.62
281.894	103.62
282.125	95.62
282.356	110.62
282.588	109.62
282.819	131.62
283.051	121.62
283.282	104.62
283.513	123.62
283.745	95.62
283.976	103.62
284.207	116.62
284.439	111.62
284.67	117.62
284.901	114.62
285.132	122.62
285.364	120.62
285.595	113.62
285.826	109.62
286.057	111.62
286.288	118.62
286.52	104.62
286.751	113.62
286.982	102.62
287.213	112.62
287.444	121.62
287.675	118.62
287.906	133.62
288.138	114.62
288.369	121.62
288.6	115.62
288.831	119.62
289.062	118.62
289.293	128.62
289.524	118.62
289.755	112.62
289.986	109.62
290.217	115.62
290.448	112.62
290.679	135.62
290.91	119.62
291.141	125.62
291.371	125.62
291.602	105.62
291.833	101.62
292.064	107.62
292.295	114.62
292.526	123.62
292.757	102.62
292.987	122.62
293.218	126.62
293.449	107.62
293.68	114.62
293.91	114.62
294.141	118.62
294.372	104.62
294.603	125.62
294.833	117.62
295.064	113.62
295.295	117.62
295.525	122.62
295.756	109.62
295.987	107.62
296.217	128.62
296.448	126.62
296.679	116.62
296.909	124.62
297.14	112.62
297.37	123.62
297.601	122.62
297.831	116.62
298.062	118.62
298.292	119.62
298.523	129.62
298.753	120.62
298.984	131.62
299.214	125.62
299.445	115.62
299.675	123.62
299.905	119.62
300.136	124.62
300.366	116.62
300.597	119.62
300.827	125.62
301.057	109.62
301.288	118.62
301.518	120.62
301.748	127.62
301.979	156.62
302.209	115.62
302.439	131.62
302.669	118.62
302.9	117.62
303.13	116.62
303.36	122.62
303.59	116.62
303.82	125.62
304.051	124.62
304.281	128.62
304.511	120.62
304.741	120.62
304.971	129.62
305.201	143.62
305.431	103.62
305.661	130.62
305.891	120.62
306.121	116.62
306.352	122.62
306.582	126.62
306.812	136.62
307.042	120.62
307.272	114.62
307.502	126.62
307.731	120.62
307.961	122.62
308.191	119.62
308.421	126.62
308.651	118.62
308.881	132.62
309.111	108.62
309.341	119.62
309.571	116.62
309.8	125.62
310.03	112.62
310.26	110.62
310.49	119.62
310.72	120.62
310.949	123.62
311.179	135.62
311.409	125.62
311.639	122.62
311.868	108.62
312.098	132.62
312.328	109.62
312.557	130.62
312.787	120.62
313.017	134.62
313.246	124.62
313.476	133.62
313.706	130.62
313.935	133.62
314.165	128.62
314.394	117.62
314.624	119.62
314.853	127.62
315.083	122.62
315.312	123.62
315.542	133.62
315.771	118.62
316.001	127.62
316.23	127.62
316.46	129.62
316.689	144.62
316.919	118.62
317.148	126.62
317.377	130.62
317.607	122.62
317.836	116.62
318.065	118.62
318.295	126.62
318.524	131.62
318.753	125.62
318.983	117.62
319.212	123.62
319.441	120.62
319.67	122.62
319.9	128.62
320.129	122.62
320.358	124.62
320.587	111.62
320.816	129.62
321.046	105.62
321.275	127.62
321.504	110.62
321.733	133.62
321.962	122.62
322.191	121.62
322.42	122.62
322.649	133.62
322.878	127.62
323.108	136.62
323.337	122.62
323.566	133.62
323.795	131.62
324.024	127.62
324.253	120.62
324.482	136.62
324.71	120.62
324.939	111.62
325.168	125.62
325.397	123.62
325.626	117.62
325.855	141.62
326.084	136.62
326.313	142.62
326.542	131.62
326.77	135.62
326.999	129.62
327.228	132.62
327.457	127.62
327.686	143.62
327.914	126.62
328.143	136.62
328.372	107.62
328.6	129.62
328.829	127.62
329.058	129.62
329.287	131.62
329.515	118.62
329.744	150.62
329.972	127.62
330.201	135.62
330.43	132.62
330.658	128.62
330.887	134.62
331.115	130.62
331.344	130.62
331.572	128.62
331.801	124.62
332.03	139.62
332.258	132.62
332.486	146.62
332.715	136.62
332.943	141.62
333.172	145.62
333.4	135.62
333.629	147.62
333.857	155.62
334.085	160.62
334.314	141.62
334.542	139.62
334.771	138.62
334.999	150.62
335.227	140.62
335.455	126.62
335.684	154.62
335.912	152.62
336.14	151.62
336.369	143.62
336.597	137.62
336.825	133.62
337.053	129.62
337.281	135.62
337.51	139.62
337.738	152.62
337.966	123.62
338.194	124.62
338.422	126.62
338.65	136.62
338.878	151.62
339.106	141.62
339.334	133.62
339.562	138.62
339.79	122.62
340.018	126.62
340.246	133.62
340.474	121.62
340.702	128.62
340.93	137.62
341.158	127.62
341.386	118.62
341.614	136.62
341.842	147.62
342.07	127.62
342.298	125.62
342.526	135.62
342.754	128.62
342.981	133.62
343.209	134.62
343.437	168.62
343.665	132.62
343.893	143.62
344.12	143.62
344.348	129.62
344.576	133.62
344.804	129.62
345.031	136.62
345.259	128.62
345.487	137.62
345.714	129.62
345.942	135.62
346.17	115.62
346.397	133.62
346.625	147.62
346.853	127.62
347.08	127.62
347.308	134.62
347.535	135.62
347.763	130.62
347.99	135.62
348.218	134.62
348.445	137.62
348.673	123.62
348.9	143.62
349.128	128.62
349.355	107.62
349.583	114.62
349.81	121.62
350.037	127.62
350.265	131.62
350.492	130.62
350.72	143.62
350.947	149.62
351.174	132.62
351.402	137.62
351.629	143.62
351.856	118.62
352.083	118.62
352.311	125.62
352.538	122.62
352.765	127.62
352.992	147.62
353.22	127.62
353.447	126.62
353.674	138.62
353.901	138.62
354.128	123.62
354.355	112.62
354.583	123.62
354.81	142.62
355.037	131.62
355.264	136.62
355.491	133.62
355.718	133.62
355.945	125.62
356.172	127.62
356.399	122.62
356.626	125.62
356.853	134.62
357.08	138.62
357.307	127.62
357.534	124.62
357.761	133.62
357.988	138.62
358.215	122.62
358.441	136.62
358.668	132.62
358.895	123.62
359.122	116.62
359.349	129.62
359.576	136.62
359.802	131.62
360.029	128.62
360.256	119.62
360.483	140.62
360.709	139.62
360.936	144.62
361.163	134.62
361.39	132.62
361.616	153.62
361.843	119.62
362.07	115.62
362.296	140.62
362.523	130.62
362.749	136.62
362.976	128.62
363.203	136.62
363.429	123.62
363.656	123.62
363.882	122.62
364.109	143.62
364.335	136.62
364.562	116.62
364.788	120.62
365.015	130.62
365.241	131.62
365.468	129.62
365.694	131.62
365.92	135.62
366.147	134.62
366.373	125.62
366.599	145.62
366.826	125.62
367.052	145.62
367.278	141.62
367.505	146.62
367.731	160.62
367.957	133.62
368.184	139.62
368.41	134.62
368.636	126.62
368.862	142.62
369.089	155.62
369.315	132.62
369.541	136.62
369.767	135.62
369.993	154.62
370.219	149.62
370.445	162.62
370.672	148.62
370.898	136.62
371.124	152.62
371.35	129.62
371.576	158.62
371.802	154.62
372.028	155.62
372.254	160.62
372.48	161.62
372.706	158.62
372.932	145.62
373.158	169.62
373.384	161.62
373.61	158.62
373.835	137.62
374.061	159.62
374.287	150.62
374.513	152.62
374.739	149.62
374.965	139.62
375.191	159.62
375.416	159.62
375.642	145.62
375.868	174.62
376.094	160.62
376.319	156.62
376.545	156.62
376.771	162.62
376.997	143.62
377.222	151.62
377.448	166.62
377.674	161.62
377.899	158.62
378.125	153.62
378.35	151.62
378.576	167.62
378.802	157.62
379.027	163.62
379.253	168.62
379.478	164.62
379.704	154.62
379.929	170.62
380.155	154.62
380.38	161.62
380.606	166.62
380.831	145.62
381.057	176.62
381.282	160.62
381.507	181.62
381.733	155.62
381.958	179.62
382.184	174.62
382.409	164.62
382.634	147.62
382.86	189.62
383.085	175.62
383.31	166.62
383.535	179.62
383.761	172.62
383.986	193.62
384.211	177.62
384.436	178.62
384.662	184.62
384.887	176.62
385.112	174.62
385.337	176.62
385.562	192.62
385.787	193.62
386.013	180.62
386.238	193.62
386.463	193.62
386.688	222.62
386.913	186.62
387.138	184.62
387.363	177.62
387.588	177.62
387.813	193.62
388.038	193.62
388.263	187.62
388.488	177.62
388.713	188.62
388.938	209.62
389.163	184.62
389.387	178.62
389.612	181.62
389.837	179.62
390.062	197.62
390.287	202.62
390.512	198.62
390.736	197.62
390.961	195.62
391.186	198.62
391.411	207.62
391.636	228.62
391.86	216.62
392.085	230.62
392.31	222.62
392.534	214.62
392.759	208.62
392.984	213.62
393.208	196.62
393.433	205.62
393.658	205.62
393.882	215.62
394.107	213.62
394.331	217.62
394.556	226.62
394.78	199.62
395.005	219.62
395.229	211.62
395.454	214.62
395.678	214.62
395.903	209.62
396.127	202.62
396.352	214.62
396.576	221.62
396.801	219.62
397.025	214.62
397.249	218.62
397.474	230.62
397.698	202.62
397.922	239.62
398.147	212.62
398.371	210.62
398.595	231.62
398.82	235.62
399.044	241.62
399.268	256.62
399.492	280.62
399.717	305.62
399.941	282.62
400.165	266.62
400.389	259.62
400.613	251.62
400.837	242.62
401.062	231.62
401.286	235.62
401.51	230.62
401.734	249.62
401.958	240.62
402.182	242.62
402.406	229.62
402.63	230.62
402.854	227.62
403.078	253.62
403.302	247.62
403.526	254.62
403.75	269.62
403.974	259.62
404.198	264.62
404.422	262.62
404.645	258.62
404.869	249.62
405.093	259.62
405.317	272.62
405.541	247.62
405.765	259.62
405.988	253.62
406.212	257.62
406.436	265.62
406.66	267.62
406.883	258.62
407.107	297.62
407.331	285.62
407.555	288.62
407.778	279.62
408.002	276.62
408.226	269.62
408.449	275.62
408.673	268.62
408.896	266.62
409.12	273.62
409.344	257.62
409.567	281.62
409.791	264.62
410.014	272.62
410.238	249.62
410.461	265.62
410.685	279.62
410.908	265.62
411.132	276.62
411.355	264.62
411.578	259.62
411.802	267.62
412.025	250.62
412.249	265.62
412.472	254.62
412.695	266.62
412.919	262.62
413.142	261.62
413.365	261.62
413.589	259.62
413.812	262.62
414.035	250.62
414.258	265.62
414.482	243.62
414.705	266.62
414.928	248.62
415.151	273.62
415.374	263.62
415.597	258.62
415.821	267.62
416.044	263.62
416.267	270.62
416.49	266.62
416.713	278.62
416.936	271.62
417.159	279.62
417.382	265.62
417.605	255.62
417.828	275.62
418.051	278.62
418.274	276.62
418.497	273.62
418.72	294.62
418.943	289.62
419.166	269.62
419.389	294.62
419.611	296.62
419.834	289.62
420.057	280.62
420.28	285.62
420.503	266.62
420.726	268.62
420.948	273.62
421.171	286.62
421.394	287.62
421.617	295.62
421.839	278.62
422.062	298.62
422.285	278.62
422.507	271.62
422.73	266.62
422.953	271.62
423.175	283.62
423.398	285.62
423.621	298.62
423.843	281.62
424.066	305.62
424.288	295.62
424.511	310.62
424.733	308.62
424.956	301.62
425.178	287.62
425.401	281.62
425.623	299.62
425.846	283.62
426.068	277.62
426.291	260.62
426.513	270.62
426.735	259.62
426.958	262.62
427.18	265.62
427.402	261.62
427.625	251.62
427.847	245.62
428.069	260.62
428.292	264.62
428.514	251.62
428.736	260.62
428.958	263.62
429.181	271.62
429.403	270.62
429.625	272.62
429.847	276.62
430.069	256.62
430.292	269.62
430.514	269.62
430.736	264.62
430.958	244.62
431.18	258.62
431.402	242.62
431.624	238.62
431.846	200.62
432.068	199.62
432.29	202.62
432.512	241.62
432.734	257.62
432.956	271.62
433.178	278.62
433.4	279.62
433.622	266.62
433.844	267.62
434.066	233.62
434.287	227.62
434.509	189.62
434.731	222.62
434.953	241.62
435.175	243.62
435.397	255.62
435.618	232.62
435.84	214.62
436.062	223.62
436.284	250.62
436.505	259.62
436.727	266.62
436.949	257.62
437.17	258.62
437.392	240.62
437.614	244.62
437.835	207.62
438.057	211.62
438.278	234.62
438.5	242.62
438.721	258.62
438.943	264.62
439.165	260.62
439.386	279.62
439.608	304.62
439.829	298.62
440.05	293.62
440.272	280.62
440.493	292.62
440.715	287.62
440.936	280.62
441.158	281.62
441.379	293.62
441.6	318.62
441.822	308.62
442.043	306.62
442.264	293.62
442.486	286.62
442.707	280.62
442.928	296.62
443.149	298.62
443.371	307.62
443.592	286.62
443.813	279.62
444.034	281.62
444.255	306.62
444.476	300.62
444.698	327.62
444.919	320.62
445.14	591.62
445.361	440.62
445.582	321.62
445.803	297.62
446.024	298.62
446.245	322.62
446.466	308.62
446.687	310.62
446.908	304.62
447.129	328.62
447.35	307.62
447.571	291.62
447.792	276.62
448.013	283.62
448.234	289.62
448.455	270.62
448.675	264.62
448.896	271.62
449.117	273.62
449.338	255.62
449.559	255.62
449.779	262.62
450	273.62
450.221	265.62
450.442	270.62
450.662	263.62
450.883	269.62
451.104	260.62
451.324	252.62
451.545	263.62
451.766	262.62
451.986	241.62
452.207	233.62
452.428	228.62
452.648	234.62
452.869	231.62
453.089	211.62
453.31	205.62
453.53	185.62
453.751	195.62
453.971	183.62
454.192	194.62
454.412	203.62
454.633	215.62
454.853	216.62
455.073	222.62
455.294	237.62
455.514	230.62
455.734	211.62
455.955	220.62
456.175	210.62
456.395	195.62
456.616	194.62
456.836	206.62
457.056	179.62
457.276	177.62
457.497	202.62
457.717	191.62
457.937	192.62
458.157	207.62
458.377	189.62
458.598	196.62
458.818	157.62
459.038	170.62
459.258	159.62
459.478	166.62
459.698	198.62
459.918	187.62
460.138	202.62
460.358	224.62
460.578	225.62
460.798	242.62
461.018	245.62
461.238	238.62
461.458	239.62
461.678	233.62
461.898	229.62
462.118	249.62
462.338	249.62
462.558	249.62
462.777	230.62
462.997	254.62
463.217	272.62
463.437	265.62
463.657	251.62
463.876	233.62
464.096	251.62
464.316	241.62
464.536	243.62
464.755	259.62
464.975	246.62
465.195	245.62
465.414	234.62
465.634	231.62
465.854	227.62
466.073	238.62
466.293	244.62
466.512	240.62
466.732	261.62
466.951	232.62
467.171	270.62
467.391	267.62
467.61	275.62
467.829	270.62
468.049	250.62
468.268	269.62
468.488	244.62
468.707	257.62
468.927	260.62
469.146	250.62
469.365	274.62
469.585	249.62
469.804	287.62
470.023	282.62
470.243	286.62
470.462	274.62
470.681	262.62
470.901	275.62
471.12	277.62
471.339	287.62
471.558	270.62
471.777	266.62
471.997	259.62
472.216	239.62
472.435	207.62
472.654	189.62
472.873	226.62
473.092	216.62
473.311	234.62
473.53	245.62
473.749	240.62
473.968	234.62
474.187	235.62
474.406	227.62
474.625	235.62
474.844	247.62
475.063	249.62
475.282	242.62
475.501	227.62
475.72	229.62
475.939	237.62
476.158	247.62
476.377	249.62
476.596	229.62
476.814	210.62
477.033	185.62
477.252	209.62
477.471	247.62
477.69	250.62
477.908	278.62
478.127	291.62
478.346	278.62
478.564	279.62
478.783	264.62
479.002	263.62
479.22	283.62
479.439	276.62
479.658	245.62
479.876	213.62
480.095	212.62
480.313	250.62
480.532	239.62
480.751	230.62
480.969	193.62
481.188	181.62
481.406	180.62
481.624	196.62
481.843	187.62
482.061	202.62
482.28	213.62
482.498	199.62
482.717	201.62
482.935	224.62
483.153	289.62
483.372	282.62
483.59	267.62
483.808	256.62
484.027	241.62
484.245	245.62
484.463	261.62
484.681	286.62
484.9	267.62
485.118	246.62
485.336	237.62
485.554	223.62
485.772	209.62
485.99	206.62
486.209	207.62
486.427	213.62
486.645	245.62
486.863	264.62
487.081	274.62
487.299	255.62
487.517	267.62
487.735	336.62
487.953	357.62
488.171	351.62
488.389	317.62
488.607	301.62
488.825	251.62
489.043	247.62
489.261	256.62
489.479	261.62
489.696	291.62
489.914	269.62
490.132	289.62
490.35	324.62
490.568	329.62
490.786	355.62
491.003	351.62
491.221	361.62
491.439	384.62
491.657	392.62
491.874	430.62
492.092	454.62
492.31	497.62
492.527	464.62
492.745	413.62
492.963	410.62
493.18	414.62
493.398	378.62
493.615	380.62
493.833	371.62
494.05	358.62
494.268	360.62
494.485	361.62
494.703	374.62
494.92	366.62
495.138	356.62
495.355	368.62
495.573	351.62
495.79	354.62
496.008	354.62
496.225	354.62
496.442	345.62
496.66	362.62
496.877	341.62
497.094	351.62
497.312	341.62
497.529	340.62
497.746	348.62
497.963	296.62
498.181	275.62
498.398	258.62
498.615	277.62
498.832	269.62
499.049	309.62
499.267	322.62
499.484	359.62
499.701	383.62
499.918	416.62
500.135	453.62
500.352	500.62
500.569	494.62
500.786	499.62
501.003	479.62
501.22	418.62
501.437	393.62
501.654	354.62
501.871	337.62
502.088	341.62
502.305	339.62
502.522	327.62
502.739	296.62
502.956	292.62
503.172	279.62
503.389	250.62
503.606	262.62
503.823	263.62
504.04	239.62
504.256	261.62
504.473	260.62
504.69	261.62
504.907	259.62
