Data from SampD_HRD10591_00004.txt Node
Date: Mon Jan 19 11:47:39 EST 2026
User: Yrep
Spectrometer: HR+D1059
Trigger mode: 0
Integration Time (sec): 3.443000E-1
Scans to average: 1
Electric dark correction enabled: true
Nonlinearity correction enabled: false
Boxcar width: 0
XAxis mode: Wavelengths
Number of Pixels in Spectrum: 2048
>>>>>Begin Spectral Data<<<<<
223.165	-17.62
223.4	-17.62
223.635	-17.62
223.869	-21.62
224.104	-19.62
224.338	-5.62
224.573	-7.62
224.808	-12.62
225.042	-4.62
225.277	-13.62
225.511	-6.62
225.746	12.38
225.98	6.38
226.215	26.38
226.449	2.38
226.683	10.38
226.918	21.38
227.152	30.38
227.387	40.38
227.621	34.38
227.856	48.38
228.09	51.38
228.324	70.38
228.559	71.38
228.793	61.38
229.027	63.38
229.262	68.38
229.496	76.38
229.73	70.38
229.964	73.38
230.199	72.38
230.433	80.38
230.667	90.38
230.901	101.38
231.136	86.38
231.37	84.38
231.604	96.38
231.838	85.38
232.072	90.38
232.306	83.38
232.541	94.38
232.775	72.38
233.009	82.38
233.243	87.38
233.477	96.38
233.711	97.38
233.945	75.38
234.179	86.38
234.413	100.38
234.647	87.38
234.881	90.38
235.115	93.38
235.349	91.38
235.583	92.38
235.817	79.38
236.051	81.38
236.285	84.38
236.519	77.38
236.753	94.38
236.987	68.38
237.221	81.38
237.455	88.38
237.689	75.38
237.922	88.38
238.156	77.38
238.39	84.38
238.624	70.38
238.858	88.38
239.091	81.38
239.325	67.38
239.559	80.38
239.793	75.38
240.027	88.38
240.26	98.38
240.494	85.38
240.728	88.38
240.961	89.38
241.195	94.38
241.429	109.38
241.662	82.38
241.896	91.38
242.13	76.38
242.363	97.38
242.597	82.38
242.83	75.38
243.064	98.38
243.298	88.38
243.531	76.38
243.765	73.38
243.998	89.38
244.232	96.38
244.465	83.38
244.699	75.38
244.932	103.38
245.166	86.38
245.399	111.38
245.633	94.38
245.866	91.38
246.099	90.38
246.333	99.38
246.566	74.38
246.8	95.38
247.033	96.38
247.266	85.38
247.5	87.38
247.733	77.38
247.966	86.38
248.2	91.38
248.433	90.38
248.666	91.38
248.899	88.38
249.133	85.38
249.366	105.38
249.599	94.38
249.832	97.38
250.066	93.38
250.299	86.38
250.532	88.38
250.765	73.38
250.998	90.38
251.231	84.38
251.465	96.38
251.698	81.38
251.931	94.38
252.164	88.38
252.397	86.38
252.63	88.38
252.863	85.38
253.096	85.38
253.329	93.38
253.562	84.38
253.795	83.38
254.028	108.38
254.261	96.38
254.494	92.38
254.727	96.38
254.96	91.38
255.193	81.38
255.426	83.38
255.659	97.38
255.892	102.38
256.124	94.38
256.357	91.38
256.59	101.38
256.823	96.38
257.056	100.38
257.289	109.38
257.521	107.38
257.754	95.38
257.987	87.38
258.22	98.38
258.452	87.38
258.685	92.38
258.918	92.38
259.151	107.38
259.383	91.38
259.616	81.38
259.849	101.38
260.081	93.38
260.314	89.38
260.547	92.38
260.779	80.38
261.012	100.38
261.244	109.38
261.477	91.38
261.71	99.38
261.942	103.38
262.175	90.38
262.407	95.38
262.64	103.38
262.872	93.38
263.105	88.38
263.337	98.38
263.57	88.38
263.802	100.38
264.035	90.38
264.267	101.38
264.499	102.38
264.732	93.38
264.964	124.38
265.197	90.38
265.429	103.38
265.661	105.38
265.894	96.38
266.126	111.38
266.358	99.38
266.591	111.38
266.823	91.38
267.055	101.38
267.287	102.38
267.52	103.38
267.752	108.38
267.984	117.38
268.216	98.38
268.448	129.38
268.681	122.38
268.913	101.38
269.145	80.38
269.377	97.38
269.609	88.38
269.841	109.38
270.073	96.38
270.306	112.38
270.538	106.38
270.77	100.38
271.002	102.38
271.234	110.38
271.466	101.38
271.698	118.38
271.93	103.38
272.162	102.38
272.394	109.38
272.626	100.38
272.858	101.38
273.09	102.38
273.322	98.38
273.553	111.38
273.785	112.38
274.017	118.38
274.249	118.38
274.481	103.38
274.713	106.38
274.945	109.38
275.176	107.38
275.408	110.38
275.64	112.38
275.872	99.38
276.104	103.38
276.335	102.38
276.567	116.38
276.799	99.38
277.031	97.38
277.262	104.38
277.494	112.38
277.726	116.38
277.957	117.38
278.189	115.38
278.421	105.38
278.652	98.38
278.884	113.38
279.115	119.38
279.347	98.38
279.579	109.38
279.81	109.38
280.042	117.38
280.273	91.38
280.505	100.38
280.736	127.38
280.968	113.38
281.199	117.38
281.431	121.38
281.662	113.38
281.894	114.38
282.125	105.38
282.356	115.38
282.588	98.38
282.819	120.38
283.051	124.38
283.282	115.38
283.513	117.38
283.745	127.38
283.976	113.38
284.207	118.38
284.439	116.38
284.67	101.38
284.901	109.38
285.132	98.38
285.364	106.38
285.595	110.38
285.826	106.38
286.057	115.38
286.288	109.38
286.52	117.38
286.751	121.38
286.982	126.38
287.213	105.38
287.444	114.38
287.675	128.38
287.906	129.38
288.138	113.38
288.369	126.38
288.6	125.38
288.831	110.38
289.062	136.38
289.293	114.38
289.524	104.38
289.755	117.38
289.986	100.38
290.217	103.38
290.448	102.38
290.679	112.38
290.91	104.38
291.141	113.38
291.371	122.38
291.602	106.38
291.833	112.38
292.064	112.38
292.295	114.38
292.526	129.38
292.757	119.38
292.987	120.38
293.218	117.38
293.449	124.38
293.68	112.38
293.91	124.38
294.141	110.38
294.372	124.38
294.603	117.38
294.833	115.38
295.064	115.38
295.295	120.38
295.525	113.38
295.756	125.38
295.987	132.38
296.217	124.38
296.448	119.38
296.679	109.38
296.909	117.38
297.14	124.38
297.37	133.38
297.601	129.38
297.831	120.38
298.062	121.38
298.292	109.38
298.523	132.38
298.753	113.38
298.984	121.38
299.214	126.38
299.445	138.38
299.675	138.38
299.905	117.38
300.136	127.38
300.366	120.38
300.597	131.38
300.827	124.38
301.057	130.38
301.288	129.38
301.518	125.38
301.748	100.38
301.979	161.38
302.209	128.38
302.439	126.38
302.669	117.38
302.9	118.38
303.13	116.38
303.36	139.38
303.59	113.38
303.82	125.38
304.051	140.38
304.281	118.38
304.511	130.38
304.741	119.38
304.971	122.38
305.201	140.38
305.431	124.38
305.661	139.38
305.891	129.38
306.121	128.38
306.352	133.38
306.582	123.38
306.812	113.38
307.042	119.38
307.272	121.38
307.502	131.38
307.731	139.38
307.961	126.38
308.191	119.38
308.421	114.38
308.651	113.38
308.881	120.38
309.111	105.38
309.341	120.38
309.571	114.38
309.8	144.38
310.03	123.38
310.26	104.38
310.49	120.38
310.72	120.38
310.949	107.38
311.179	116.38
311.409	130.38
311.639	118.38
311.868	139.38
312.098	125.38
312.328	141.38
312.557	117.38
312.787	117.38
313.017	122.38
313.246	127.38
313.476	144.38
313.706	129.38
313.935	127.38
314.165	123.38
314.394	140.38
314.624	134.38
314.853	140.38
315.083	125.38
315.312	118.38
315.542	128.38
315.771	119.38
316.001	121.38
316.23	136.38
316.46	122.38
316.689	120.38
316.919	109.38
317.148	128.38
317.377	110.38
317.607	133.38
317.836	122.38
318.065	117.38
318.295	133.38
318.524	110.38
318.753	116.38
318.983	128.38
319.212	129.38
319.441	117.38
319.67	135.38
319.9	129.38
320.129	122.38
320.358	117.38
320.587	130.38
320.816	129.38
321.046	135.38
321.275	132.38
321.504	131.38
321.733	156.38
321.962	128.38
322.191	99.38
322.42	118.38
322.649	132.38
322.878	129.38
323.108	133.38
323.337	126.38
323.566	128.38
323.795	146.38
324.024	133.38
324.253	128.38
324.482	131.38
324.71	130.38
324.939	134.38
325.168	128.38
325.397	131.38
325.626	128.38
325.855	120.38
326.084	130.38
326.313	134.38
326.542	141.38
326.77	146.38
326.999	144.38
327.228	125.38
327.457	135.38
327.686	120.38
327.914	135.38
328.143	129.38
328.372	138.38
328.6	133.38
328.829	126.38
329.058	124.38
329.287	140.38
329.515	126.38
329.744	140.38
329.972	133.38
330.201	151.38
330.43	134.38
330.658	131.38
330.887	145.38
331.115	138.38
331.344	136.38
331.572	156.38
331.801	142.38
332.03	137.38
332.258	133.38
332.486	157.38
332.715	149.38
332.943	138.38
333.172	141.38
333.4	145.38
333.629	166.38
333.857	147.38
334.085	160.38
334.314	159.38
334.542	125.38
334.771	141.38
334.999	154.38
335.227	152.38
335.455	137.38
335.684	156.38
335.912	146.38
336.14	140.38
336.369	154.38
336.597	130.38
336.825	136.38
337.053	128.38
337.281	132.38
337.51	146.38
337.738	142.38
337.966	142.38
338.194	127.38
338.422	135.38
338.65	134.38
338.878	133.38
339.106	129.38
339.334	143.38
339.562	149.38
339.79	131.38
340.018	140.38
340.246	151.38
340.474	136.38
340.702	144.38
340.93	122.38
341.158	121.38
341.386	117.38
341.614	130.38
341.842	134.38
342.07	135.38
342.298	123.38
342.526	128.38
342.754	129.38
342.981	136.38
343.209	138.38
343.437	164.38
343.665	141.38
343.893	162.38
344.12	153.38
344.348	131.38
344.576	127.38
344.804	122.38
345.031	150.38
345.259	141.38
345.487	136.38
345.714	118.38
345.942	136.38
346.17	139.38
346.397	135.38
346.625	147.38
346.853	160.38
347.08	123.38
347.308	145.38
347.535	121.38
347.763	130.38
347.99	139.38
348.218	133.38
348.445	124.38
348.673	131.38
348.9	135.38
349.128	136.38
349.355	122.38
349.583	148.38
349.81	130.38
350.037	144.38
350.265	129.38
350.492	128.38
350.72	120.38
350.947	125.38
351.174	140.38
351.402	129.38
351.629	134.38
351.856	127.38
352.083	139.38
352.311	129.38
352.538	126.38
352.765	133.38
352.992	127.38
353.22	143.38
353.447	131.38
353.674	127.38
353.901	125.38
354.128	127.38
354.355	124.38
354.583	129.38
354.81	129.38
355.037	141.38
355.264	128.38
355.491	128.38
355.718	111.38
355.945	144.38
356.172	137.38
356.399	126.38
356.626	136.38
356.853	134.38
357.08	132.38
357.307	117.38
357.534	128.38
357.761	132.38
357.988	147.38
358.215	152.38
358.441	136.38
358.668	128.38
358.895	139.38
359.122	150.38
359.349	137.38
359.576	155.38
359.802	115.38
360.029	138.38
360.256	141.38
360.483	130.38
360.709	118.38
360.936	142.38
361.163	116.38
361.39	132.38
361.616	124.38
361.843	142.38
362.07	122.38
362.296	144.38
362.523	126.38
362.749	129.38
362.976	123.38
363.203	141.38
363.429	125.38
363.656	128.38
363.882	135.38
364.109	128.38
364.335	132.38
364.562	142.38
364.788	123.38
365.015	144.38
365.241	133.38
365.468	133.38
365.694	131.38
365.92	132.38
366.147	127.38
366.373	125.38
366.599	124.38
366.826	134.38
367.052	135.38
367.278	130.38
367.505	146.38
367.731	159.38
367.957	139.38
368.184	130.38
368.41	143.38
368.636	143.38
368.862	148.38
369.089	132.38
369.315	146.38
369.541	152.38
369.767	163.38
369.993	147.38
370.219	150.38
370.445	144.38
370.672	132.38
370.898	143.38
371.124	139.38
371.35	138.38
371.576	157.38
371.802	135.38
372.028	140.38
372.254	143.38
372.48	147.38
372.706	153.38
372.932	173.38
373.158	149.38
373.384	164.38
373.61	152.38
373.835	148.38
374.061	171.38
374.287	152.38
374.513	152.38
374.739	152.38
374.965	160.38
375.191	151.38
375.416	164.38
375.642	174.38
375.868	173.38
376.094	159.38
376.319	158.38
376.545	160.38
376.771	163.38
376.997	157.38
377.222	172.38
377.448	168.38
377.674	153.38
377.899	155.38
378.125	150.38
378.35	164.38
378.576	171.38
378.802	165.38
379.027	166.38
379.253	145.38
379.478	144.38
379.704	169.38
379.929	152.38
380.155	133.38
380.38	174.38
380.606	160.38
380.831	155.38
381.057	188.38
381.282	156.38
381.507	188.38
381.733	156.38
381.958	170.38
382.184	166.38
382.409	190.38
382.634	156.38
382.86	174.38
383.085	181.38
383.31	185.38
383.535	189.38
383.761	189.38
383.986	179.38
384.211	180.38
384.436	168.38
384.662	181.38
384.887	171.38
385.112	158.38
385.337	194.38
385.562	188.38
385.787	186.38
386.013	210.38
386.238	199.38
386.463	195.38
386.688	209.38
386.913	185.38
387.138	186.38
387.363	178.38
387.588	188.38
387.813	213.38
388.038	186.38
388.263	199.38
388.488	180.38
388.713	174.38
388.938	187.38
389.163	195.38
389.387	206.38
389.612	197.38
389.837	179.38
390.062	217.38
390.287	202.38
390.512	217.38
390.736	204.38
390.961	182.38
391.186	193.38
391.411	196.38
391.636	194.38
391.86	192.38
392.085	200.38
392.31	193.38
392.534	203.38
392.759	212.38
392.984	193.38
393.208	209.38
393.433	203.38
393.658	210.38
393.882	210.38
394.107	220.38
394.331	211.38
394.556	197.38
394.78	204.38
395.005	212.38
395.229	205.38
395.454	214.38
395.678	205.38
395.903	220.38
396.127	224.38
396.352	213.38
396.576	213.38
396.801	210.38
397.025	213.38
397.249	212.38
397.474	238.38
397.698	219.38
397.922	228.38
398.147	226.38
398.371	235.38
398.595	229.38
398.82	225.38
399.044	253.38
399.268	260.38
399.492	288.38
399.717	278.38
399.941	273.38
400.165	253.38
400.389	260.38
400.613	250.38
400.837	239.38
401.062	226.38
401.286	230.38
401.51	234.38
401.734	221.38
401.958	243.38
402.182	258.38
402.406	243.38
402.63	253.38
402.854	253.38
403.078	252.38
403.302	264.38
403.526	261.38
403.75	259.38
403.974	278.38
404.198	272.38
404.422	265.38
404.645	258.38
404.869	269.38
405.093	268.38
405.317	251.38
405.541	248.38
405.765	263.38
405.988	261.38
406.212	264.38
406.436	261.38
406.66	286.38
406.883	270.38
407.107	282.38
407.331	263.38
407.555	288.38
407.778	279.38
408.002	293.38
408.226	279.38
408.449	270.38
408.673	272.38
408.896	274.38
409.12	264.38
409.344	262.38
409.567	271.38
409.791	269.38
410.014	276.38
410.238	274.38
410.461	267.38
410.685	279.38
410.908	277.38
411.132	283.38
411.355	277.38
411.578	276.38
411.802	257.38
412.025	269.38
412.249	269.38
412.472	267.38
412.695	266.38
412.919	244.38
413.142	266.38
413.365	278.38
413.589	266.38
413.812	252.38
414.035	264.38
414.258	262.38
414.482	270.38
414.705	267.38
414.928	268.38
415.151	278.38
415.374	269.38
415.597	250.38
415.821	290.38
416.044	262.38
416.267	277.38
416.49	264.38
416.713	272.38
416.936	281.38
417.159	265.38
417.382	284.38
417.605	265.38
417.828	296.38
418.051	273.38
418.274	282.38
418.497	284.38
418.72	294.38
418.943	286.38
419.166	299.38
419.389	291.38
419.611	309.38
419.834	287.38
420.057	289.38
420.28	275.38
420.503	293.38
420.726	276.38
420.948	280.38
421.171	296.38
421.394	296.38
421.617	300.38
421.839	297.38
422.062	287.38
422.285	280.38
422.507	267.38
422.73	288.38
422.953	259.38
423.175	276.38
423.398	266.38
423.621	280.38
423.843	302.38
424.066	298.38
424.288	314.38
424.511	306.38
424.733	290.38
424.956	294.38
425.178	290.38
425.401	285.38
425.623	272.38
425.846	284.38
426.068	251.38
426.291	276.38
426.513	268.38
426.735	263.38
426.958	259.38
427.18	272.38
427.402	284.38
427.625	253.38
427.847	258.38
428.069	268.38
428.292	261.38
428.514	273.38
428.736	272.38
428.958	267.38
429.181	260.38
429.403	257.38
429.625	262.38
429.847	255.38
430.069	241.38
430.292	259.38
430.514	258.38
430.736	266.38
430.958	245.38
431.18	255.38
431.402	249.38
431.624	226.38
431.846	210.38
432.068	181.38
432.29	221.38
432.512	227.38
432.734	247.38
432.956	282.38
433.178	294.38
433.4	278.38
433.622	289.38
433.844	272.38
434.066	232.38
434.287	206.38
434.509	192.38
434.731	211.38
434.953	240.38
435.175	262.38
435.397	258.38
435.618	234.38
435.84	231.38
436.062	241.38
436.284	238.38
436.505	267.38
436.727	282.38
436.949	260.38
437.17	268.38
437.392	248.38
437.614	233.38
437.835	213.38
438.057	211.38
438.278	231.38
438.5	241.38
438.721	280.38
438.943	283.38
439.165	281.38
439.386	281.38
439.608	294.38
439.829	295.38
440.05	299.38
440.272	297.38
440.493	293.38
440.715	279.38
440.936	297.38
441.158	299.38
441.379	292.38
441.6	329.38
441.822	312.38
442.043	311.38
442.264	279.38
442.486	283.38
442.707	291.38
442.928	284.38
443.149	301.38
443.371	291.38
443.592	294.38
443.813	292.38
444.034	300.38
444.255	303.38
444.476	303.38
444.698	315.38
444.919	339.38
445.14	506.38
445.361	407.38
445.582	310.38
445.803	289.38
446.024	309.38
446.245	308.38
446.466	308.38
446.687	318.38
446.908	317.38
447.129	309.38
447.35	303.38
447.571	308.38
447.792	296.38
448.013	291.38
448.234	286.38
448.455	280.38
448.675	269.38
448.896	288.38
449.117	274.38
449.338	260.38
449.559	274.38
449.779	280.38
450	270.38
450.221	266.38
450.442	258.38
450.662	263.38
450.883	278.38
451.104	274.38
451.324	259.38
451.545	244.38
451.766	254.38
451.986	242.38
452.207	254.38
452.428	240.38
452.648	252.38
452.869	226.38
453.089	227.38
453.31	216.38
453.53	196.38
453.751	201.38
453.971	206.38
454.192	195.38
454.412	194.38
454.633	209.38
454.853	226.38
455.073	229.38
455.294	228.38
455.514	224.38
455.734	225.38
455.955	219.38
456.175	216.38
456.395	205.38
456.616	204.38
456.836	208.38
457.056	199.38
457.276	192.38
457.497	182.38
457.717	191.38
457.937	213.38
458.157	187.38
458.377	206.38
458.598	175.38
458.818	169.38
459.038	163.38
459.258	176.38
459.478	187.38
459.698	197.38
459.918	203.38
460.138	204.38
460.358	233.38
460.578	246.38
460.798	237.38
461.018	232.38
461.238	232.38
461.458	233.38
461.678	242.38
461.898	237.38
462.118	259.38
462.338	265.38
462.558	246.38
462.777	237.38
462.997	263.38
463.217	280.38
463.437	259.38
463.657	253.38
463.876	234.38
464.096	268.38
464.316	254.38
464.536	238.38
464.755	256.38
464.975	247.38
465.195	248.38
465.414	246.38
465.634	240.38
465.854	221.38
466.073	236.38
466.293	254.38
466.512	237.38
466.732	261.38
466.951	273.38
467.171	266.38
467.391	257.38
467.61	254.38
467.829	249.38
468.049	257.38
468.268	253.38
468.488	259.38
468.707	256.38
468.927	276.38
469.146	265.38
469.365	254.38
469.585	291.38
469.804	276.38
470.023	284.38
470.243	297.38
470.462	286.38
470.681	279.38
470.901	296.38
471.12	272.38
471.339	278.38
471.558	272.38
471.777	260.38
471.997	260.38
472.216	238.38
472.435	222.38
472.654	210.38
472.873	212.38
473.092	242.38
473.311	230.38
473.53	215.38
473.749	238.38
473.968	237.38
474.187	221.38
474.406	228.38
474.625	242.38
474.844	238.38
475.063	243.38
475.282	229.38
475.501	223.38
475.72	243.38
475.939	211.38
476.158	233.38
476.377	239.38
476.596	245.38
476.814	212.38
477.033	219.38
477.252	220.38
477.471	250.38
477.69	279.38
477.908	263.38
478.127	284.38
478.346	262.38
478.564	263.38
478.783	257.38
479.002	287.38
479.22	296.38
479.439	272.38
479.658	233.38
479.876	232.38
480.095	216.38
480.313	249.38
480.532	245.38
480.751	229.38
480.969	193.38
481.188	183.38
481.406	186.38
481.624	188.38
481.843	195.38
482.061	190.38
482.28	228.38
482.498	220.38
482.717	198.38
482.935	254.38
483.153	277.38
483.372	290.38
483.59	272.38
483.808	255.38
484.027	257.38
484.245	236.38
484.463	265.38
484.681	285.38
484.9	288.38
485.118	283.38
485.336	251.38
485.554	232.38
485.772	210.38
485.99	216.38
486.209	238.38
486.427	220.38
486.645	249.38
486.863	287.38
487.081	256.38
487.299	249.38
487.517	301.38
487.735	340.38
487.953	374.38
488.171	370.38
488.389	314.38
488.607	294.38
488.825	266.38
489.043	253.38
489.261	256.38
489.479	258.38
489.696	274.38
489.914	264.38
490.132	288.38
490.35	328.38
490.568	326.38
490.786	347.38
491.003	372.38
491.221	361.38
491.439	377.38
491.657	414.38
491.874	415.38
492.092	446.38
492.31	467.38
492.527	438.38
492.745	406.38
492.963	390.38
493.18	402.38
493.398	385.38
493.615	387.38
493.833	373.38
494.05	376.38
494.268	376.38
494.485	360.38
494.703	358.38
494.92	346.38
495.138	356.38
495.355	377.38
495.573	353.38
495.79	357.38
496.008	354.38
496.225	356.38
496.442	343.38
496.66	336.38
496.877	340.38
497.094	349.38
497.312	345.38
497.529	320.38
497.746	323.38
497.963	310.38
498.181	298.38
498.398	264.38
498.615	285.38
498.832	274.38
499.049	280.38
499.267	323.38
499.484	343.38
499.701	404.38
499.918	420.38
500.135	448.38
500.352	528.38
500.569	496.38
500.786	509.38
501.003	484.38
501.22	411.38
501.437	403.38
501.654	386.38
501.871	340.38
502.088	315.38
502.305	319.38
502.522	329.38
502.739	300.38
502.956	297.38
503.172	285.38
503.389	272.38
503.606	262.38
503.823	256.38
504.04	253.38
504.256	256.38
504.473	264.38
504.69	284.38
504.907	280.38
