Data from SampD_HRD10591_00002.txt Node
Date: Mon Jan 19 11:47:38 EST 2026
User: Yrep
Spectrometer: HR+D1059
Trigger mode: 0
Integration Time (sec): 3.443000E-1
Scans to average: 1
Electric dark correction enabled: true
Nonlinearity correction enabled: false
Boxcar width: 0
XAxis mode: Wavelengths
Number of Pixels in Spectrum: 2048
>>>>>Begin Spectral Data<<<<<
223.165	-27.25
223.4	-27.25
223.635	-27.25
223.869	-17.25
224.104	-15.25
224.338	1.75
224.573	-27.25
224.808	-30.25
225.042	-12.25
225.277	-20.25
225.511	-10.25
225.746	7.75
225.98	15.75
226.215	30.75
226.449	21.75
226.683	17.75
226.918	30.75
227.152	33.75
227.387	37.75
227.621	45.75
227.856	45.75
228.09	47.75
228.324	58.75
228.559	62.75
228.793	55.75
229.027	61.75
229.262	59.75
229.496	47.75
229.73	64.75
229.964	73.75
230.199	84.75
230.433	66.75
230.667	94.75
230.901	73.75
231.136	70.75
231.37	78.75
231.604	71.75
231.838	96.75
232.072	86.75
232.306	86.75
232.541	75.75
232.775	71.75
233.009	68.75
233.243	86.75
233.477	75.75
233.711	85.75
233.945	94.75
234.179	83.75
234.413	102.75
234.647	95.75
234.881	73.75
235.115	78.75
235.349	74.75
235.583	82.75
235.817	74.75
236.051	67.75
236.285	93.75
236.519	80.75
236.753	84.75
236.987	78.75
237.221	78.75
237.455	76.75
237.689	88.75
237.922	83.75
238.156	78.75
238.39	79.75
238.624	68.75
238.858	82.75
239.091	79.75
239.325	65.75
239.559	88.75
239.793	88.75
240.027	74.75
240.26	82.75
240.494	75.75
240.728	85.75
240.961	67.75
241.195	88.75
241.429	87.75
241.662	76.75
241.896	79.75
242.13	74.75
242.363	78.75
242.597	73.75
242.83	78.75
243.064	75.75
243.298	86.75
243.531	69.75
243.765	68.75
243.998	88.75
244.232	81.75
244.465	80.75
244.699	86.75
244.932	84.75
245.166	91.75
245.399	76.75
245.633	86.75
245.866	80.75
246.099	83.75
246.333	83.75
246.566	94.75
246.8	83.75
247.033	74.75
247.266	75.75
247.5	79.75
247.733	76.75
247.966	98.75
248.2	88.75
248.433	80.75
248.666	92.75
248.899	75.75
249.133	54.75
249.366	90.75
249.599	86.75
249.832	84.75
250.066	82.75
250.299	83.75
250.532	99.75
250.765	80.75
250.998	87.75
251.231	82.75
251.465	83.75
251.698	90.75
251.931	93.75
252.164	90.75
252.397	89.75
252.63	96.75
252.863	88.75
253.096	81.75
253.329	84.75
253.562	82.75
253.795	90.75
254.028	97.75
254.261	104.75
254.494	76.75
254.727	97.75
254.96	95.75
255.193	83.75
255.426	84.75
255.659	92.75
255.892	96.75
256.124	71.75
256.357	90.75
256.59	91.75
256.823	82.75
257.056	94.75
257.289	84.75
257.521	82.75
257.754	89.75
257.987	97.75
258.22	102.75
258.452	75.75
258.685	74.75
258.918	87.75
259.151	74.75
259.383	102.75
259.616	85.75
259.849	88.75
260.081	105.75
260.314	87.75
260.547	88.75
260.779	95.75
261.012	95.75
261.244	90.75
261.477	106.75
261.71	85.75
261.942	99.75
262.175	79.75
262.407	96.75
262.64	97.75
262.872	96.75
263.105	91.75
263.337	103.75
263.57	86.75
263.802	83.75
264.035	87.75
264.267	93.75
264.499	78.75
264.732	100.75
264.964	102.75
265.197	95.75
265.429	97.75
265.661	91.75
265.894	92.75
266.126	86.75
266.358	89.75
266.591	90.75
266.823	97.75
267.055	75.75
267.287	97.75
267.52	82.75
267.752	86.75
267.984	89.75
268.216	76.75
268.448	98.75
268.681	99.75
268.913	97.75
269.145	95.75
269.377	96.75
269.609	77.75
269.841	83.75
270.073	85.75
270.306	72.75
270.538	91.75
270.77	95.75
271.002	97.75
271.234	89.75
271.466	93.75
271.698	89.75
271.93	106.75
272.162	86.75
272.394	84.75
272.626	98.75
272.858	100.75
273.09	80.75
273.322	102.75
273.553	82.75
273.785	83.75
274.017	87.75
274.249	75.75
274.481	97.75
274.713	108.75
274.945	90.75
275.176	88.75
275.408	112.75
275.64	94.75
275.872	103.75
276.104	104.75
276.335	88.75
276.567	95.75
276.799	86.75
277.031	74.75
277.262	83.75
277.494	107.75
277.726	93.75
277.957	102.75
278.189	99.75
278.421	94.75
278.652	97.75
278.884	96.75
279.115	102.75
279.347	103.75
279.579	89.75
279.81	93.75
280.042	93.75
280.273	102.75
280.505	97.75
280.736	98.75
280.968	108.75
281.199	97.75
281.431	99.75
281.662	96.75
281.894	88.75
282.125	96.75
282.356	94.75
282.588	95.75
282.819	94.75
283.051	104.75
283.282	97.75
283.513	104.75
283.745	108.75
283.976	101.75
284.207	112.75
284.439	90.75
284.67	99.75
284.901	89.75
285.132	88.75
285.364	99.75
285.595	98.75
285.826	103.75
286.057	103.75
286.288	98.75
286.52	92.75
286.751	103.75
286.982	103.75
287.213	103.75
287.444	103.75
287.675	114.75
287.906	89.75
288.138	88.75
288.369	100.75
288.6	93.75
288.831	105.75
289.062	99.75
289.293	96.75
289.524	92.75
289.755	98.75
289.986	100.75
290.217	96.75
290.448	99.75
290.679	113.75
290.91	115.75
291.141	103.75
291.371	96.75
291.602	107.75
291.833	114.75
292.064	108.75
292.295	110.75
292.526	94.75
292.757	92.75
292.987	92.75
293.218	103.75
293.449	108.75
293.68	106.75
293.91	108.75
294.141	101.75
294.372	91.75
294.603	117.75
294.833	98.75
295.064	81.75
295.295	114.75
295.525	102.75
295.756	91.75
295.987	96.75
296.217	110.75
296.448	100.75
296.679	108.75
296.909	119.75
297.14	114.75
297.37	86.75
297.601	108.75
297.831	90.75
298.062	100.75
298.292	102.75
298.523	115.75
298.753	116.75
298.984	94.75
299.214	99.75
299.445	106.75
299.675	111.75
299.905	107.75
300.136	116.75
300.366	99.75
300.597	94.75
300.827	96.75
301.057	99.75
301.288	101.75
301.518	109.75
301.748	98.75
301.979	148.75
302.209	107.75
302.439	106.75
302.669	100.75
302.9	99.75
303.13	113.75
303.36	90.75
303.59	107.75
303.82	102.75
304.051	102.75
304.281	93.75
304.511	100.75
304.741	95.75
304.971	113.75
305.201	104.75
305.431	106.75
305.661	93.75
305.891	111.75
306.121	106.75
306.352	103.75
306.582	100.75
306.812	104.75
307.042	101.75
307.272	109.75
307.502	108.75
307.731	107.75
307.961	111.75
308.191	110.75
308.421	106.75
308.651	95.75
308.881	94.75
309.111	104.75
309.341	87.75
309.571	106.75
309.8	103.75
310.03	94.75
310.26	94.75
310.49	104.75
310.72	106.75
310.949	97.75
311.179	98.75
311.409	96.75
311.639	100.75
311.868	105.75
312.098	112.75
312.328	107.75
312.557	121.75
312.787	111.75
313.017	115.75
313.246	108.75
313.476	114.75
313.706	112.75
313.935	102.75
314.165	105.75
314.394	99.75
314.624	107.75
314.853	103.75
315.083	102.75
315.312	107.75
315.542	104.75
315.771	104.75
316.001	98.75
316.23	100.75
316.46	91.75
316.689	90.75
316.919	124.75
317.148	115.75
317.377	126.75
317.607	107.75
317.836	111.75
318.065	108.75
318.295	114.75
318.524	91.75
318.753	103.75
318.983	96.75
319.212	99.75
319.441	85.75
319.67	115.75
319.9	90.75
320.129	121.75
320.358	110.75
320.587	98.75
320.816	101.75
321.046	107.75
321.275	101.75
321.504	111.75
321.733	91.75
321.962	82.75
322.191	105.75
322.42	109.75
322.649	92.75
322.878	107.75
323.108	103.75
323.337	103.75
323.566	97.75
323.795	113.75
324.024	106.75
324.253	105.75
324.482	107.75
324.71	104.75
324.939	110.75
325.168	114.75
325.397	104.75
325.626	104.75
325.855	108.75
326.084	98.75
326.313	103.75
326.542	105.75
326.77	110.75
326.999	105.75
327.228	105.75
327.457	107.75
327.686	103.75
327.914	102.75
328.143	114.75
328.372	116.75
328.6	99.75
328.829	104.75
329.058	96.75
329.287	108.75
329.515	103.75
329.744	112.75
329.972	98.75
330.201	115.75
330.43	114.75
330.658	106.75
330.887	105.75
331.115	116.75
331.344	104.75
331.572	118.75
331.801	117.75
332.03	115.75
332.258	113.75
332.486	116.75
332.715	119.75
332.943	117.75
333.172	105.75
333.4	108.75
333.629	124.75
333.857	107.75
334.085	120.75
334.314	119.75
334.542	120.75
334.771	113.75
334.999	115.75
335.227	113.75
335.455	109.75
335.684	124.75
335.912	121.75
336.14	114.75
336.369	108.75
336.597	108.75
336.825	112.75
337.053	117.75
337.281	107.75
337.51	101.75
337.738	108.75
337.966	96.75
338.194	107.75
338.422	102.75
338.65	122.75
338.878	102.75
339.106	99.75
339.334	107.75
339.562	118.75
339.79	118.75
340.018	104.75
340.246	101.75
340.474	119.75
340.702	107.75
340.93	106.75
341.158	107.75
341.386	107.75
341.614	107.75
341.842	112.75
342.07	109.75
342.298	112.75
342.526	89.75
342.754	100.75
342.981	115.75
343.209	116.75
343.437	142.75
343.665	102.75
343.893	113.75
344.12	113.75
344.348	113.75
344.576	116.75
344.804	100.75
345.031	112.75
345.259	99.75
345.487	113.75
345.714	99.75
345.942	105.75
346.17	111.75
346.397	103.75
346.625	112.75
346.853	116.75
347.08	107.75
347.308	113.75
347.535	108.75
347.763	114.75
347.99	114.75
348.218	122.75
348.445	111.75
348.673	120.75
348.9	119.75
349.128	102.75
349.355	114.75
349.583	100.75
349.81	103.75
350.037	123.75
350.265	105.75
350.492	112.75
350.72	107.75
350.947	100.75
351.174	112.75
351.402	104.75
351.629	92.75
351.856	106.75
352.083	94.75
352.311	102.75
352.538	106.75
352.765	110.75
352.992	118.75
353.22	102.75
353.447	103.75
353.674	121.75
353.901	123.75
354.128	105.75
354.355	94.75
354.583	99.75
354.81	91.75
355.037	106.75
355.264	112.75
355.491	109.75
355.718	119.75
355.945	111.75
356.172	116.75
356.399	113.75
356.626	103.75
356.853	104.75
357.08	109.75
357.307	95.75
357.534	112.75
357.761	91.75
357.988	106.75
358.215	111.75
358.441	107.75
358.668	101.75
358.895	106.75
359.122	104.75
359.349	93.75
359.576	102.75
359.802	101.75
360.029	97.75
360.256	107.75
360.483	115.75
360.709	105.75
360.936	115.75
361.163	107.75
361.39	82.75
361.616	88.75
361.843	109.75
362.07	112.75
362.296	112.75
362.523	108.75
362.749	106.75
362.976	108.75
363.203	119.75
363.429	100.75
363.656	117.75
363.882	111.75
364.109	107.75
364.335	100.75
364.562	115.75
364.788	100.75
365.015	105.75
365.241	106.75
365.468	101.75
365.694	104.75
365.92	108.75
366.147	102.75
366.373	108.75
366.599	98.75
366.826	91.75
367.052	118.75
367.278	109.75
367.505	103.75
367.731	116.75
367.957	99.75
368.184	108.75
368.41	98.75
368.636	113.75
368.862	116.75
369.089	105.75
369.315	113.75
369.541	118.75
369.767	106.75
369.993	120.75
370.219	105.75
370.445	98.75
370.672	116.75
370.898	110.75
371.124	103.75
371.35	109.75
371.576	112.75
371.802	114.75
372.028	113.75
372.254	119.75
372.48	103.75
372.706	121.75
372.932	114.75
373.158	118.75
373.384	122.75
373.61	124.75
373.835	108.75
374.061	103.75
374.287	106.75
374.513	121.75
374.739	118.75
374.965	120.75
375.191	117.75
375.416	113.75
375.642	120.75
375.868	128.75
376.094	124.75
376.319	128.75
376.545	121.75
376.771	117.75
376.997	117.75
377.222	128.75
377.448	128.75
377.674	108.75
377.899	103.75
378.125	114.75
378.35	114.75
378.576	103.75
378.802	108.75
379.027	105.75
379.253	118.75
379.478	119.75
379.704	111.75
379.929	104.75
380.155	122.75
380.38	119.75
380.606	118.75
380.831	131.75
381.057	131.75
381.282	120.75
381.507	135.75
381.733	128.75
381.958	123.75
382.184	126.75
382.409	124.75
382.634	119.75
382.86	121.75
383.085	143.75
383.31	122.75
383.535	132.75
383.761	123.75
383.986	128.75
384.211	137.75
384.436	129.75
384.662	120.75
384.887	130.75
385.112	123.75
385.337	120.75
385.562	122.75
385.787	130.75
386.013	128.75
386.238	134.75
386.463	137.75
386.688	162.75
386.913	124.75
387.138	122.75
387.363	105.75
387.588	137.75
387.813	133.75
388.038	139.75
388.263	133.75
388.488	121.75
388.713	127.75
388.938	140.75
389.163	131.75
389.387	135.75
389.612	123.75
389.837	127.75
390.062	131.75
390.287	127.75
390.512	134.75
390.736	133.75
390.961	127.75
391.186	128.75
391.411	145.75
391.636	155.75
391.86	135.75
392.085	142.75
392.31	138.75
392.534	146.75
392.759	168.75
392.984	139.75
393.208	128.75
393.433	127.75
393.658	156.75
393.882	154.75
394.107	138.75
394.331	150.75
394.556	143.75
394.78	147.75
395.005	148.75
395.229	161.75
395.454	139.75
395.678	158.75
395.903	146.75
396.127	152.75
396.352	175.75
396.576	151.75
396.801	140.75
397.025	122.75
397.249	139.75
397.474	164.75
397.698	139.75
397.922	156.75
398.147	149.75
398.371	154.75
398.595	147.75
398.82	146.75
399.044	142.75
399.268	160.75
399.492	183.75
399.717	191.75
399.941	171.75
400.165	175.75
400.389	160.75
400.613	146.75
400.837	162.75
401.062	144.75
401.286	143.75
401.51	147.75
401.734	161.75
401.958	154.75
402.182	164.75
402.406	166.75
402.63	166.75
402.854	156.75
403.078	163.75
403.302	162.75
403.526	165.75
403.75	166.75
403.974	169.75
404.198	182.75
404.422	178.75
404.645	174.75
404.869	161.75
405.093	170.75
405.317	179.75
405.541	149.75
405.765	163.75
405.988	171.75
406.212	179.75
406.436	155.75
406.66	175.75
406.883	184.75
407.107	198.75
407.331	170.75
407.555	179.75
407.778	177.75
408.002	183.75
408.226	171.75
408.449	176.75
408.673	167.75
408.896	163.75
409.12	173.75
409.344	196.75
409.567	161.75
409.791	170.75
410.014	182.75
410.238	172.75
410.461	172.75
410.685	168.75
410.908	168.75
411.132	163.75
411.355	181.75
411.578	176.75
411.802	160.75
412.025	165.75
412.249	176.75
412.472	160.75
412.695	168.75
412.919	169.75
413.142	155.75
413.365	175.75
413.589	151.75
413.812	162.75
414.035	172.75
414.258	175.75
414.482	160.75
414.705	183.75
414.928	168.75
415.151	178.75
415.374	148.75
415.597	166.75
415.821	159.75
416.044	151.75
416.267	183.75
416.49	169.75
416.713	160.75
416.936	176.75
417.159	172.75
417.382	161.75
417.605	166.75
417.828	161.75
418.051	177.75
418.274	170.75
418.497	182.75
418.72	197.75
418.943	196.75
419.166	178.75
419.389	179.75
419.611	183.75
419.834	196.75
420.057	190.75
420.28	176.75
420.503	182.75
420.726	179.75
420.948	171.75
421.171	180.75
421.394	174.75
421.617	180.75
421.839	193.75
422.062	180.75
422.285	182.75
422.507	163.75
422.73	184.75
422.953	156.75
423.175	150.75
423.398	182.75
423.621	178.75
423.843	177.75
424.066	192.75
424.288	162.75
424.511	185.75
424.733	174.75
424.956	190.75
425.178	196.75
425.401	183.75
425.623	182.75
425.846	182.75
426.068	191.75
426.291	175.75
426.513	170.75
426.735	182.75
426.958	176.75
427.18	176.75
427.402	176.75
427.625	183.75
427.847	178.75
428.069	158.75
428.292	166.75
428.514	164.75
428.736	172.75
428.958	156.75
429.181	158.75
429.403	165.75
429.625	170.75
429.847	170.75
430.069	168.75
430.292	186.75
430.514	162.75
430.736	158.75
430.958	185.75
431.18	171.75
431.402	168.75
431.624	162.75
431.846	151.75
432.068	130.75
432.29	152.75
432.512	168.75
432.734	162.75
432.956	155.75
433.178	171.75
433.4	180.75
433.622	189.75
433.844	179.75
434.066	175.75
434.287	153.75
434.509	132.75
434.731	135.75
434.953	166.75
435.175	168.75
435.397	191.75
435.618	162.75
435.84	151.75
436.062	144.75
436.284	168.75
436.505	176.75
436.727	167.75
436.949	171.75
437.17	167.75
437.392	150.75
437.614	165.75
437.835	138.75
438.057	152.75
438.278	152.75
438.5	164.75
438.721	165.75
438.943	166.75
439.165	179.75
439.386	192.75
439.608	196.75
439.829	199.75
440.05	192.75
440.272	186.75
440.493	191.75
440.715	187.75
440.936	182.75
441.158	193.75
441.379	190.75
441.6	193.75
441.822	199.75
442.043	190.75
442.264	179.75
442.486	185.75
442.707	195.75
442.928	173.75
443.149	196.75
443.371	183.75
443.592	190.75
443.813	189.75
444.034	182.75
444.255	184.75
444.476	187.75
444.698	195.75
444.919	191.75
445.14	384.75
445.361	294.75
445.582	198.75
445.803	187.75
446.024	184.75
446.245	199.75
446.466	194.75
446.687	182.75
446.908	198.75
447.129	206.75
447.35	199.75
447.571	198.75
447.792	194.75
448.013	181.75
448.234	184.75
448.455	171.75
448.675	191.75
448.896	185.75
449.117	167.75
449.338	182.75
449.559	177.75
449.779	180.75
450	170.75
450.221	172.75
450.442	166.75
450.662	167.75
450.883	170.75
451.104	177.75
451.324	172.75
451.545	160.75
451.766	171.75
451.986	163.75
452.207	164.75
452.428	144.75
452.648	150.75
452.869	148.75
453.089	153.75
453.31	157.75
453.53	139.75
453.751	148.75
453.971	132.75
454.192	134.75
454.412	144.75
454.633	126.75
454.853	152.75
455.073	150.75
455.294	158.75
455.514	162.75
455.734	160.75
455.955	154.75
456.175	137.75
456.395	136.75
456.616	140.75
456.836	143.75
457.056	160.75
457.276	136.75
457.497	140.75
457.717	136.75
457.937	142.75
458.157	120.75
458.377	146.75
458.598	125.75
458.818	126.75
459.038	128.75
459.258	119.75
459.478	124.75
459.698	129.75
459.918	158.75
460.138	146.75
460.358	144.75
460.578	166.75
460.798	152.75
461.018	138.75
461.238	164.75
461.458	162.75
461.678	167.75
461.898	159.75
462.118	160.75
462.338	162.75
462.558	168.75
462.777	173.75
462.997	185.75
463.217	167.75
463.437	172.75
463.657	178.75
463.876	170.75
464.096	160.75
464.316	163.75
464.536	168.75
464.755	158.75
464.975	155.75
465.195	179.75
465.414	158.75
465.634	166.75
465.854	151.75
466.073	161.75
466.293	151.75
466.512	180.75
466.732	153.75
466.951	163.75
467.171	178.75
467.391	165.75
467.61	174.75
467.829	170.75
468.049	151.75
468.268	165.75
468.488	173.75
468.707	168.75
468.927	182.75
469.146	181.75
469.365	165.75
469.585	163.75
469.804	177.75
470.023	163.75
470.243	173.75
470.462	180.75
470.681	185.75
470.901	165.75
471.12	165.75
471.339	185.75
471.558	169.75
471.777	166.75
471.997	164.75
472.216	155.75
472.435	155.75
472.654	145.75
472.873	150.75
473.092	146.75
473.311	160.75
473.53	155.75
473.749	160.75
473.968	172.75
474.187	162.75
474.406	166.75
474.625	156.75
474.844	169.75
475.063	170.75
475.282	150.75
475.501	151.75
475.72	179.75
475.939	162.75
476.158	148.75
476.377	157.75
476.596	157.75
476.814	150.75
477.033	143.75
477.252	143.75
477.471	151.75
477.69	177.75
477.908	158.75
478.127	176.75
478.346	190.75
478.564	184.75
478.783	177.75
479.002	185.75
479.22	169.75
479.439	174.75
479.658	162.75
479.876	139.75
480.095	150.75
480.313	162.75
480.532	168.75
480.751	150.75
480.969	147.75
481.188	127.75
481.406	138.75
481.624	139.75
481.843	125.75
482.061	115.75
482.28	152.75
482.498	149.75
482.717	126.75
482.935	164.75
483.153	174.75
483.372	166.75
483.59	192.75
483.808	162.75
484.027	166.75
484.245	178.75
484.463	166.75
484.681	192.75
484.9	185.75
485.118	166.75
485.336	147.75
485.554	122.75
485.772	134.75
485.99	134.75
486.209	149.75
486.427	157.75
486.645	151.75
486.863	178.75
487.081	182.75
487.299	170.75
487.517	175.75
487.735	209.75
487.953	212.75
488.171	208.75
488.389	212.75
488.607	194.75
488.825	178.75
489.043	169.75
489.261	150.75
489.479	175.75
489.696	187.75
489.914	171.75
490.132	192.75
490.35	204.75
490.568	208.75
490.786	228.75
491.003	223.75
491.221	218.75
491.439	231.75
491.657	238.75
491.874	265.75
492.092	275.75
492.31	290.75
492.527	255.75
492.745	253.75
492.963	244.75
493.18	248.75
493.398	224.75
493.615	224.75
493.833	216.75
494.05	231.75
494.268	212.75
494.485	225.75
494.703	225.75
494.92	225.75
495.138	206.75
495.355	212.75
495.573	231.75
495.79	219.75
496.008	230.75
496.225	221.75
496.442	227.75
496.66	225.75
496.877	210.75
497.094	223.75
497.312	206.75
497.529	222.75
497.746	193.75
497.963	185.75
498.181	202.75
498.398	166.75
498.615	186.75
498.832	179.75
499.049	167.75
499.267	200.75
499.484	224.75
499.701	233.75
499.918	237.75
500.135	255.75
500.352	289.75
500.569	291.75
500.786	282.75
501.003	265.75
501.22	251.75
501.437	239.75
501.654	230.75
501.871	227.75
502.088	201.75
502.305	200.75
502.522	185.75
502.739	199.75
502.956	193.75
503.172	180.75
503.389	177.75
503.606	166.75
503.823	180.75
504.04	168.75
504.256	168.75
504.473	163.75
504.69	181.75
504.907	185.75
505.123	160.75
505.34	157.75
505.557	161.75
505.773	163.75
505.99	175.75
506.207	164.75
506.423	164.75
506.64	173.75
506.856	147.75
