Data from SampD_HRD10591_00027.txt Node
Date: Mon Jan 19 11:47:47 EST 2026
User: Yrep
Spectrometer: HR+D1059
Trigger mode: 0
Integration Time (sec): 3.443000E-1
Scans to average: 1
Electric dark correction enabled: true
Nonlinearity correction enabled: false
Boxcar width: 0
XAxis mode: Wavelengths
Number of Pixels in Spectrum: 2048
>>>>>Begin Spectral Data<<<<<
223.165	-24.88
223.4	-24.88
223.635	-24.88
223.869	-31.88
224.104	-37.88
224.338	-12.88
224.573	-16.88
224.808	-13.88
225.042	6.12
225.277	-3.88
225.511	-7.88
225.746	6.12
225.98	8.12
226.215	13.12
226.449	22.12
226.683	25.12
226.918	31.12
227.152	38.12
227.387	40.12
227.621	54.12
227.856	57.12
228.09	40.12
228.324	46.12
228.559	68.12
228.793	79.12
229.027	75.12
229.262	67.12
229.496	70.12
229.73	71.12
229.964	75.12
230.199	67.12
230.433	76.12
230.667	84.12
230.901	85.12
231.136	95.12
231.37	87.12
231.604	79.12
231.838	93.12
232.072	93.12
232.306	89.12
232.541	83.12
232.775	87.12
233.009	87.12
233.243	82.12
233.477	87.12
233.711	99.12
233.945	86.12
234.179	91.12
234.413	90.12
234.647	90.12
234.881	90.12
235.115	89.12
235.349	67.12
235.583	74.12
235.817	81.12
236.051	87.12
236.285	87.12
236.519	83.12
236.753	80.12
236.987	71.12
237.221	86.12
237.455	79.12
237.689	77.12
237.922	76.12
238.156	87.12
238.39	80.12
238.624	80.12
238.858	73.12
239.091	81.12
239.325	75.12
239.559	79.12
239.793	73.12
240.027	79.12
240.26	93.12
240.494	84.12
240.728	82.12
240.961	77.12
241.195	79.12
241.429	81.12
241.662	91.12
241.896	67.12
242.13	66.12
242.363	76.12
242.597	75.12
242.83	89.12
243.064	100.12
243.298	80.12
243.531	82.12
243.765	85.12
243.998	82.12
244.232	70.12
244.465	86.12
244.699	89.12
244.932	76.12
245.166	73.12
245.399	75.12
245.633	86.12
245.866	80.12
246.099	85.12
246.333	83.12
246.566	75.12
246.8	87.12
247.033	83.12
247.266	86.12
247.5	91.12
247.733	69.12
247.966	93.12
248.2	88.12
248.433	76.12
248.666	81.12
248.899	83.12
249.133	81.12
249.366	105.12
249.599	82.12
249.832	83.12
250.066	97.12
250.299	102.12
250.532	93.12
250.765	81.12
250.998	84.12
251.231	96.12
251.465	87.12
251.698	83.12
251.931	83.12
252.164	85.12
252.397	100.12
252.63	68.12
252.863	79.12
253.096	79.12
253.329	90.12
253.562	93.12
253.795	97.12
254.028	91.12
254.261	81.12
254.494	87.12
254.727	77.12
254.96	90.12
255.193	73.12
255.426	76.12
255.659	87.12
255.892	103.12
256.124	99.12
256.357	86.12
256.59	83.12
256.823	81.12
257.056	80.12
257.289	88.12
257.521	93.12
257.754	102.12
257.987	101.12
258.22	100.12
258.452	85.12
258.685	97.12
258.918	79.12
259.151	89.12
259.383	92.12
259.616	98.12
259.849	92.12
260.081	105.12
260.314	88.12
260.547	86.12
260.779	93.12
261.012	89.12
261.244	88.12
261.477	106.12
261.71	73.12
261.942	94.12
262.175	91.12
262.407	88.12
262.64	93.12
262.872	95.12
263.105	90.12
263.337	104.12
263.57	106.12
263.802	97.12
264.035	92.12
264.267	102.12
264.499	99.12
264.732	99.12
264.964	98.12
265.197	79.12
265.429	86.12
265.661	84.12
265.894	92.12
266.126	100.12
266.358	103.12
266.591	95.12
266.823	93.12
267.055	83.12
267.287	85.12
267.52	111.12
267.752	95.12
267.984	104.12
268.216	96.12
268.448	103.12
268.681	97.12
268.913	103.12
269.145	99.12
269.377	101.12
269.609	88.12
269.841	100.12
270.073	111.12
270.306	95.12
270.538	88.12
270.77	91.12
271.002	82.12
271.234	98.12
271.466	97.12
271.698	92.12
271.93	98.12
272.162	108.12
272.394	100.12
272.626	74.12
272.858	115.12
273.09	96.12
273.322	92.12
273.553	93.12
273.785	100.12
274.017	101.12
274.249	92.12
274.481	92.12
274.713	87.12
274.945	106.12
275.176	90.12
275.408	97.12
275.64	88.12
275.872	105.12
276.104	94.12
276.335	96.12
276.567	95.12
276.799	91.12
277.031	102.12
277.262	104.12
277.494	98.12
277.726	95.12
277.957	89.12
278.189	97.12
278.421	91.12
278.652	108.12
278.884	98.12
279.115	108.12
279.347	103.12
279.579	82.12
279.81	98.12
280.042	100.12
280.273	96.12
280.505	94.12
280.736	101.12
280.968	108.12
281.199	98.12
281.431	99.12
281.662	102.12
281.894	95.12
282.125	94.12
282.356	102.12
282.588	89.12
282.819	116.12
283.051	101.12
283.282	93.12
283.513	92.12
283.745	104.12
283.976	87.12
284.207	99.12
284.439	105.12
284.67	122.12
284.901	109.12
285.132	93.12
285.364	108.12
285.595	96.12
285.826	104.12
286.057	88.12
286.288	102.12
286.52	107.12
286.751	87.12
286.982	100.12
287.213	99.12
287.444	95.12
287.675	99.12
287.906	107.12
288.138	105.12
288.369	112.12
288.6	105.12
288.831	106.12
289.062	106.12
289.293	108.12
289.524	113.12
289.755	95.12
289.986	94.12
290.217	118.12
290.448	101.12
290.679	104.12
290.91	108.12
291.141	90.12
291.371	106.12
291.602	95.12
291.833	79.12
292.064	95.12
292.295	86.12
292.526	110.12
292.757	99.12
292.987	111.12
293.218	102.12
293.449	86.12
293.68	103.12
293.91	100.12
294.141	115.12
294.372	107.12
294.603	117.12
294.833	98.12
295.064	109.12
295.295	102.12
295.525	84.12
295.756	105.12
295.987	95.12
296.217	99.12
296.448	109.12
296.679	89.12
296.909	106.12
297.14	97.12
297.37	115.12
297.601	106.12
297.831	89.12
298.062	106.12
298.292	105.12
298.523	100.12
298.753	108.12
298.984	96.12
299.214	109.12
299.445	109.12
299.675	108.12
299.905	125.12
300.136	107.12
300.366	101.12
300.597	113.12
300.827	106.12
301.057	105.12
301.288	114.12
301.518	99.12
301.748	99.12
301.979	132.12
302.209	110.12
302.439	103.12
302.669	100.12
302.9	89.12
303.13	114.12
303.36	111.12
303.59	109.12
303.82	105.12
304.051	109.12
304.281	107.12
304.511	104.12
304.741	116.12
304.971	104.12
305.201	108.12
305.431	96.12
305.661	98.12
305.891	102.12
306.121	105.12
306.352	102.12
306.582	91.12
306.812	114.12
307.042	99.12
307.272	100.12
307.502	108.12
307.731	112.12
307.961	99.12
308.191	106.12
308.421	82.12
308.651	118.12
308.881	107.12
309.111	91.12
309.341	108.12
309.571	107.12
309.8	114.12
310.03	108.12
310.26	108.12
310.49	96.12
310.72	101.12
310.949	113.12
311.179	102.12
311.409	103.12
311.639	141.12
311.868	115.12
312.098	99.12
312.328	114.12
312.557	113.12
312.787	99.12
313.017	115.12
313.246	112.12
313.476	93.12
313.706	113.12
313.935	92.12
314.165	101.12
314.394	119.12
314.624	113.12
314.853	108.12
315.083	101.12
315.312	113.12
315.542	103.12
315.771	111.12
316.001	101.12
316.23	106.12
316.46	98.12
316.689	109.12
316.919	100.12
317.148	103.12
317.377	121.12
317.607	100.12
317.836	107.12
318.065	100.12
318.295	94.12
318.524	95.12
318.753	100.12
318.983	100.12
319.212	113.12
319.441	102.12
319.67	104.12
319.9	121.12
320.129	116.12
320.358	115.12
320.587	106.12
320.816	114.12
321.046	103.12
321.275	103.12
321.504	112.12
321.733	112.12
321.962	103.12
322.191	107.12
322.42	112.12
322.649	115.12
322.878	99.12
323.108	109.12
323.337	113.12
323.566	112.12
323.795	101.12
324.024	88.12
324.253	109.12
324.482	107.12
324.71	101.12
324.939	105.12
325.168	90.12
325.397	98.12
325.626	108.12
325.855	109.12
326.084	98.12
326.313	109.12
326.542	95.12
326.77	102.12
326.999	103.12
327.228	100.12
327.457	107.12
327.686	105.12
327.914	120.12
328.143	112.12
328.372	115.12
328.6	104.12
328.829	101.12
329.058	108.12
329.287	115.12
329.515	104.12
329.744	115.12
329.972	104.12
330.201	104.12
330.43	113.12
330.658	102.12
330.887	101.12
331.115	106.12
331.344	102.12
331.572	98.12
331.801	114.12
332.03	126.12
332.258	106.12
332.486	120.12
332.715	116.12
332.943	112.12
333.172	125.12
333.4	130.12
333.629	125.12
333.857	121.12
334.085	128.12
334.314	121.12
334.542	131.12
334.771	121.12
334.999	128.12
335.227	119.12
335.455	116.12
335.684	129.12
335.912	131.12
336.14	113.12
336.369	108.12
336.597	103.12
336.825	115.12
337.053	108.12
337.281	110.12
337.51	115.12
337.738	122.12
337.966	112.12
338.194	105.12
338.422	108.12
338.65	103.12
338.878	116.12
339.106	111.12
339.334	114.12
339.562	109.12
339.79	117.12
340.018	106.12
340.246	109.12
340.474	118.12
340.702	118.12
340.93	107.12
341.158	101.12
341.386	113.12
341.614	124.12
341.842	111.12
342.07	115.12
342.298	110.12
342.526	114.12
342.754	107.12
342.981	113.12
343.209	112.12
343.437	140.12
343.665	117.12
343.893	123.12
344.12	118.12
344.348	111.12
344.576	103.12
344.804	108.12
345.031	107.12
345.259	114.12
345.487	117.12
345.714	113.12
345.942	116.12
346.17	125.12
346.397	112.12
346.625	109.12
346.853	116.12
347.08	103.12
347.308	115.12
347.535	113.12
347.763	107.12
347.99	134.12
348.218	111.12
348.445	117.12
348.673	91.12
348.9	105.12
349.128	106.12
349.355	105.12
349.583	127.12
349.81	110.12
350.037	103.12
350.265	113.12
350.492	109.12
350.72	104.12
350.947	101.12
351.174	114.12
351.402	108.12
351.629	103.12
351.856	107.12
352.083	97.12
352.311	107.12
352.538	106.12
352.765	106.12
352.992	122.12
353.22	115.12
353.447	109.12
353.674	100.12
353.901	107.12
354.128	114.12
354.355	109.12
354.583	121.12
354.81	109.12
355.037	120.12
355.264	120.12
355.491	114.12
355.718	92.12
355.945	107.12
356.172	108.12
356.399	95.12
356.626	102.12
356.853	104.12
357.08	110.12
357.307	93.12
357.534	93.12
357.761	99.12
357.988	104.12
358.215	113.12
358.441	109.12
358.668	100.12
358.895	110.12
359.122	104.12
359.349	100.12
359.576	104.12
359.802	96.12
360.029	122.12
360.256	109.12
360.483	108.12
360.709	111.12
360.936	116.12
361.163	107.12
361.39	120.12
361.616	105.12
361.843	110.12
362.07	102.12
362.296	116.12
362.523	105.12
362.749	115.12
362.976	98.12
363.203	123.12
363.429	117.12
363.656	108.12
363.882	92.12
364.109	107.12
364.335	122.12
364.562	118.12
364.788	118.12
365.015	124.12
365.241	93.12
365.468	115.12
365.694	109.12
365.92	114.12
366.147	109.12
366.373	109.12
366.599	99.12
366.826	107.12
367.052	103.12
367.278	119.12
367.505	101.12
367.731	132.12
367.957	121.12
368.184	108.12
368.41	103.12
368.636	116.12
368.862	121.12
369.089	117.12
369.315	109.12
369.541	131.12
369.767	113.12
369.993	116.12
370.219	109.12
370.445	120.12
370.672	109.12
370.898	125.12
371.124	103.12
371.35	117.12
371.576	114.12
371.802	113.12
372.028	99.12
372.254	134.12
372.48	115.12
372.706	103.12
372.932	119.12
373.158	96.12
373.384	125.12
373.61	129.12
373.835	121.12
374.061	118.12
374.287	124.12
374.513	117.12
374.739	109.12
374.965	128.12
375.191	112.12
375.416	121.12
375.642	117.12
375.868	124.12
376.094	119.12
376.319	127.12
376.545	123.12
376.771	127.12
376.997	122.12
377.222	121.12
377.448	110.12
377.674	121.12
377.899	123.12
378.125	123.12
378.35	123.12
378.576	125.12
378.802	117.12
379.027	129.12
379.253	130.12
379.478	134.12
379.704	123.12
379.929	134.12
380.155	124.12
380.38	151.12
380.606	119.12
380.831	127.12
381.057	141.12
381.282	129.12
381.507	116.12
381.733	138.12
381.958	122.12
382.184	121.12
382.409	115.12
382.634	136.12
382.86	119.12
383.085	127.12
383.31	139.12
383.535	120.12
383.761	134.12
383.986	144.12
384.211	122.12
384.436	128.12
384.662	139.12
384.887	129.12
385.112	135.12
385.337	128.12
385.562	131.12
385.787	130.12
386.013	144.12
386.238	119.12
386.463	147.12
386.688	162.12
386.913	140.12
387.138	137.12
387.363	134.12
387.588	155.12
387.813	140.12
388.038	160.12
388.263	136.12
388.488	133.12
388.713	135.12
388.938	124.12
389.163	130.12
389.387	139.12
389.612	141.12
389.837	156.12
390.062	135.12
390.287	155.12
390.512	141.12
390.736	119.12
390.961	127.12
391.186	139.12
391.411	143.12
391.636	146.12
391.86	136.12
392.085	147.12
392.31	138.12
392.534	140.12
392.759	128.12
392.984	150.12
393.208	151.12
393.433	155.12
393.658	145.12
393.882	165.12
394.107	167.12
394.331	143.12
394.556	153.12
394.78	152.12
395.005	140.12
395.229	151.12
395.454	169.12
395.678	147.12
395.903	154.12
396.127	165.12
396.352	157.12
396.576	138.12
396.801	143.12
397.025	129.12
397.249	156.12
397.474	154.12
397.698	162.12
397.922	154.12
398.147	160.12
398.371	149.12
398.595	157.12
398.82	162.12
399.044	159.12
399.268	164.12
399.492	187.12
399.717	201.12
399.941	188.12
400.165	158.12
400.389	163.12
400.613	157.12
400.837	171.12
401.062	163.12
401.286	156.12
401.51	176.12
401.734	165.12
401.958	162.12
402.182	166.12
402.406	164.12
402.63	146.12
402.854	185.12
403.078	181.12
403.302	167.12
403.526	152.12
403.75	179.12
403.974	177.12
404.198	167.12
404.422	170.12
404.645	140.12
404.869	161.12
405.093	172.12
405.317	164.12
405.541	177.12
405.765	160.12
405.988	168.12
406.212	175.12
406.436	191.12
406.66	184.12
406.883	169.12
407.107	178.12
407.331	177.12
407.555	180.12
407.778	170.12
408.002	181.12
408.226	164.12
408.449	184.12
408.673	170.12
408.896	175.12
409.12	175.12
409.344	189.12
409.567	177.12
409.791	176.12
410.014	179.12
410.238	179.12
410.461	180.12
410.685	172.12
410.908	194.12
411.132	197.12
411.355	186.12
411.578	191.12
411.802	171.12
412.025	157.12
412.249	161.12
412.472	149.12
412.695	172.12
412.919	171.12
413.142	167.12
413.365	169.12
413.589	154.12
413.812	169.12
414.035	173.12
414.258	166.12
414.482	184.12
414.705	172.12
414.928	167.12
415.151	177.12
415.374	182.12
415.597	181.12
415.821	161.12
416.044	185.12
416.267	177.12
416.49	174.12
416.713	180.12
416.936	168.12
417.159	160.12
417.382	178.12
417.605	163.12
417.828	176.12
418.051	167.12
418.274	167.12
418.497	170.12
418.72	183.12
418.943	178.12
419.166	185.12
419.389	183.12
419.611	176.12
419.834	179.12
420.057	208.12
420.28	197.12
420.503	196.12
420.726	168.12
420.948	188.12
421.171	184.12
421.394	185.12
421.617	187.12
421.839	183.12
422.062	192.12
422.285	186.12
422.507	173.12
422.73	163.12
422.953	173.12
423.175	180.12
423.398	172.12
423.621	183.12
423.843	197.12
424.066	194.12
424.288	192.12
424.511	196.12
424.733	195.12
424.956	190.12
425.178	191.12
425.401	202.12
425.623	188.12
425.846	188.12
426.068	178.12
426.291	168.12
426.513	179.12
426.735	172.12
426.958	181.12
427.18	191.12
427.402	177.12
427.625	181.12
427.847	176.12
428.069	172.12
428.292	181.12
428.514	168.12
428.736	161.12
428.958	153.12
429.181	175.12
429.403	167.12
429.625	169.12
429.847	174.12
430.069	183.12
430.292	175.12
430.514	188.12
430.736	169.12
430.958	167.12
431.18	146.12
431.402	174.12
431.624	156.12
431.846	133.12
432.068	135.12
432.29	138.12
432.512	159.12
432.734	167.12
432.956	173.12
433.178	178.12
433.4	177.12
433.622	197.12
433.844	172.12
434.066	156.12
434.287	131.12
434.509	108.12
434.731	130.12
434.953	164.12
435.175	176.12
435.397	173.12
435.618	159.12
435.84	139.12
436.062	158.12
436.284	167.12
436.505	172.12
436.727	181.12
436.949	175.12
437.17	169.12
437.392	160.12
437.614	151.12
437.835	133.12
438.057	135.12
438.278	158.12
438.5	159.12
438.721	185.12
438.943	188.12
439.165	182.12
439.386	189.12
439.608	193.12
439.829	178.12
440.05	201.12
440.272	192.12
440.493	196.12
440.715	173.12
440.936	184.12
441.158	208.12
441.379	209.12
441.6	183.12
441.822	197.12
442.043	185.12
442.264	192.12
442.486	194.12
442.707	187.12
442.928	177.12
443.149	176.12
443.371	208.12
443.592	184.12
443.813	207.12
444.034	181.12
444.255	193.12
444.476	199.12
444.698	213.12
444.919	218.12
445.14	434.12
445.361	315.12
445.582	194.12
445.803	183.12
446.024	182.12
446.245	201.12
446.466	197.12
446.687	184.12
446.908	202.12
447.129	209.12
447.35	202.12
447.571	180.12
447.792	183.12
448.013	191.12
448.234	183.12
448.455	181.12
448.675	182.12
448.896	163.12
449.117	163.12
449.338	182.12
449.559	196.12
449.779	163.12
450	177.12
450.221	162.12
450.442	175.12
450.662	191.12
450.883	162.12
451.104	174.12
451.324	173.12
451.545	165.12
451.766	154.12
451.986	154.12
452.207	173.12
452.428	159.12
452.648	165.12
452.869	154.12
453.089	144.12
453.31	131.12
453.53	145.12
453.751	140.12
453.971	136.12
454.192	131.12
454.412	136.12
454.633	152.12
454.853	162.12
455.073	156.12
455.294	171.12
455.514	160.12
455.734	146.12
455.955	142.12
456.175	143.12
456.395	160.12
456.616	145.12
456.836	137.12
457.056	125.12
457.276	133.12
457.497	146.12
457.717	130.12
457.937	135.12
458.157	129.12
458.377	130.12
458.598	123.12
458.818	121.12
459.038	123.12
459.258	136.12
459.478	136.12
459.698	127.12
459.918	132.12
460.138	133.12
460.358	146.12
460.578	167.12
460.798	155.12
461.018	163.12
461.238	172.12
461.458	168.12
461.678	149.12
461.898	152.12
462.118	169.12
462.338	148.12
462.558	169.12
462.777	173.12
462.997	176.12
463.217	183.12
463.437	173.12
463.657	161.12
463.876	167.12
464.096	168.12
464.316	145.12
464.536	153.12
464.755	169.12
464.975	156.12
465.195	178.12
465.414	162.12
465.634	166.12
465.854	163.12
466.073	163.12
466.293	163.12
466.512	160.12
466.732	162.12
466.951	166.12
467.171	170.12
467.391	179.12
467.61	166.12
467.829	180.12
468.049	162.12
468.268	157.12
468.488	174.12
468.707	175.12
468.927	162.12
469.146	171.12
469.365	182.12
469.585	172.12
469.804	183.12
470.023	196.12
470.243	175.12
470.462	181.12
470.681	175.12
470.901	164.12
471.12	179.12
471.339	176.12
471.558	200.12
471.777	184.12
471.997	185.12
472.216	154.12
472.435	146.12
472.654	137.12
472.873	146.12
473.092	145.12
473.311	151.12
473.53	161.12
473.749	157.12
473.968	167.12
474.187	159.12
474.406	129.12
474.625	177.12
474.844	173.12
475.063	159.12
475.282	163.12
475.501	148.12
475.72	169.12
475.939	161.12
476.158	148.12
476.377	151.12
476.596	164.12
476.814	139.12
477.033	149.12
477.252	152.12
477.471	156.12
477.69	168.12
477.908	169.12
478.127	187.12
478.346	179.12
478.564	179.12
478.783	160.12
479.002	195.12
479.22	181.12
479.439	178.12
479.658	161.12
479.876	170.12
480.095	148.12
480.313	151.12
480.532	180.12
480.751	151.12
480.969	128.12
481.188	137.12
481.406	127.12
481.624	125.12
481.843	124.12
482.061	140.12
482.28	145.12
482.498	157.12
482.717	152.12
482.935	173.12
483.153	191.12
483.372	184.12
483.59	207.12
483.808	172.12
484.027	165.12
484.245	166.12
484.463	161.12
484.681	177.12
484.9	172.12
485.118	185.12
485.336	147.12
485.554	148.12
485.772	135.12
485.99	148.12
486.209	160.12
486.427	155.12
486.645	178.12
486.863	175.12
487.081	175.12
487.299	170.12
487.517	181.12
487.735	194.12
487.953	231.12
488.171	216.12
488.389	213.12
488.607	199.12
488.825	169.12
489.043	159.12
489.261	173.12
489.479	176.12
489.696	187.12
489.914	190.12
490.132	181.12
490.35	205.12
490.568	219.12
490.786	208.12
491.003	226.12
491.221	239.12
491.439	249.12
491.657	237.12
491.874	260.12
492.092	276.12
492.31	297.12
492.527	259.12
492.745	245.12
492.963	248.12
493.18	249.12
493.398	232.12
493.615	225.12
493.833	233.12
494.05	232.12
494.268	219.12
494.485	225.12
494.703	223.12
494.92	223.12
495.138	211.12
495.355	233.12
495.573	239.12
495.79	220.12
496.008	223.12
496.225	217.12
496.442	199.12
496.66	216.12
496.877	219.12
497.094	225.12
497.312	207.12
497.529	200.12
497.746	200.12
497.963	173.12
498.181	171.12
498.398	163.12
498.615	186.12
498.832	177.12
499.049	207.12
499.267	208.12
499.484	211.12
499.701	224.12
499.918	257.12
500.135	260.12
500.352	279.12
500.569	292.12
500.786	306.12
501.003	275.12
501.22	259.12
501.437	225.12
501.654	228.12
501.871	203.12
502.088	200.12
502.305	218.12
502.522	185.12
502.739	200.12
502.956	204.12
503.172	185.12
503.389	177.12
503.606	192.12
503.823	184.12
504.04	169.12
504.256	164.12
504.473	163.12
504.69	184.12
504.907	164.12
505.123	167.12
505.34	170.12
505.557	168.12
505.773	167.12
505.99	149.12
506.207	171.12
