Data from SampD_HRD10591_00005.txt Node
Date: Mon Jan 19 11:47:39 EST 2026
User: Yrep
Spectrometer: HR+D1059
Trigger mode: 0
Integration Time (sec): 3.443000E-1
Scans to average: 1
Electric dark correction enabled: true
Nonlinearity correction enabled: false
Boxcar width: 0
XAxis mode: Wavelengths
Number of Pixels in Spectrum: 2048
>>>>>Begin Spectral Data<<<<<
223.165	-16.81
223.4	-16.81
223.635	-16.81
223.869	-30.81
224.104	-28.81
224.338	0.19
224.573	-21.81
224.808	6.19
225.042	-2.81
225.277	-9.81
225.511	-3.81
225.746	14.19
225.98	3.19
226.215	3.19
226.449	11.19
226.683	11.19
226.918	26.19
227.152	39.19
227.387	35.19
227.621	32.19
227.856	42.19
228.09	47.19
228.324	56.19
228.559	53.19
228.793	62.19
229.027	70.19
229.262	80.19
229.496	69.19
229.73	73.19
229.964	76.19
230.199	73.19
230.433	64.19
230.667	77.19
230.901	82.19
231.136	68.19
231.37	81.19
231.604	83.19
231.838	73.19
232.072	75.19
232.306	97.19
232.541	81.19
232.775	90.19
233.009	77.19
233.243	76.19
233.477	83.19
233.711	84.19
233.945	88.19
234.179	69.19
234.413	86.19
234.647	85.19
234.881	70.19
235.115	72.19
235.349	75.19
235.583	85.19
235.817	77.19
236.051	86.19
236.285	82.19
236.519	80.19
236.753	65.19
236.987	89.19
237.221	93.19
237.455	72.19
237.689	79.19
237.922	73.19
238.156	93.19
238.39	84.19
238.624	63.19
238.858	73.19
239.091	79.19
239.325	68.19
239.559	79.19
239.793	81.19
240.027	82.19
240.26	72.19
240.494	70.19
240.728	66.19
240.961	63.19
241.195	68.19
241.429	81.19
241.662	84.19
241.896	91.19
242.13	63.19
242.363	75.19
242.597	71.19
242.83	73.19
243.064	69.19
243.298	68.19
243.531	79.19
243.765	75.19
243.998	81.19
244.232	89.19
244.465	82.19
244.699	80.19
244.932	65.19
245.166	80.19
245.399	82.19
245.633	72.19
245.866	79.19
246.099	89.19
246.333	78.19
246.566	68.19
246.8	79.19
247.033	72.19
247.266	77.19
247.5	79.19
247.733	82.19
247.966	87.19
248.2	75.19
248.433	83.19
248.666	81.19
248.899	78.19
249.133	89.19
249.366	81.19
249.599	75.19
249.832	76.19
250.066	79.19
250.299	80.19
250.532	86.19
250.765	83.19
250.998	69.19
251.231	79.19
251.465	84.19
251.698	75.19
251.931	90.19
252.164	73.19
252.397	86.19
252.63	104.19
252.863	85.19
253.096	69.19
253.329	88.19
253.562	97.19
253.795	87.19
254.028	96.19
254.261	67.19
254.494	68.19
254.727	76.19
254.96	79.19
255.193	65.19
255.426	72.19
255.659	77.19
255.892	97.19
256.124	83.19
256.357	80.19
256.59	83.19
256.823	79.19
257.056	91.19
257.289	91.19
257.521	89.19
257.754	80.19
257.987	79.19
258.22	86.19
258.452	95.19
258.685	85.19
258.918	86.19
259.151	85.19
259.383	80.19
259.616	83.19
259.849	69.19
260.081	78.19
260.314	91.19
260.547	81.19
260.779	76.19
261.012	94.19
261.244	85.19
261.477	87.19
261.71	84.19
261.942	88.19
262.175	79.19
262.407	95.19
262.64	65.19
262.872	82.19
263.105	96.19
263.337	91.19
263.57	77.19
263.802	86.19
264.035	77.19
264.267	81.19
264.499	95.19
264.732	92.19
264.964	67.19
265.197	84.19
265.429	85.19
265.661	84.19
265.894	88.19
266.126	100.19
266.358	91.19
266.591	84.19
266.823	79.19
267.055	87.19
267.287	87.19
267.52	80.19
267.752	100.19
267.984	85.19
268.216	97.19
268.448	91.19
268.681	106.19
268.913	91.19
269.145	87.19
269.377	83.19
269.609	72.19
269.841	90.19
270.073	89.19
270.306	81.19
270.538	100.19
270.77	88.19
271.002	97.19
271.234	86.19
271.466	93.19
271.698	71.19
271.93	75.19
272.162	74.19
272.394	91.19
272.626	88.19
272.858	100.19
273.09	92.19
273.322	92.19
273.553	88.19
273.785	86.19
274.017	80.19
274.249	109.19
274.481	105.19
274.713	82.19
274.945	91.19
275.176	79.19
275.408	69.19
275.64	94.19
275.872	89.19
276.104	94.19
276.335	94.19
276.567	93.19
276.799	96.19
277.031	70.19
277.262	78.19
277.494	95.19
277.726	93.19
277.957	95.19
278.189	101.19
278.421	85.19
278.652	82.19
278.884	81.19
279.115	79.19
279.347	87.19
279.579	91.19
279.81	98.19
280.042	87.19
280.273	92.19
280.505	103.19
280.736	94.19
280.968	86.19
281.199	88.19
281.431	107.19
281.662	79.19
281.894	89.19
282.125	102.19
282.356	107.19
282.588	96.19
282.819	91.19
283.051	99.19
283.282	79.19
283.513	106.19
283.745	98.19
283.976	95.19
284.207	81.19
284.439	92.19
284.67	99.19
284.901	104.19
285.132	86.19
285.364	95.19
285.595	102.19
285.826	96.19
286.057	94.19
286.288	96.19
286.52	104.19
286.751	98.19
286.982	97.19
287.213	95.19
287.444	93.19
287.675	96.19
287.906	90.19
288.138	80.19
288.369	95.19
288.6	96.19
288.831	100.19
289.062	95.19
289.293	97.19
289.524	79.19
289.755	108.19
289.986	103.19
290.217	91.19
290.448	88.19
290.679	100.19
290.91	112.19
291.141	95.19
291.371	90.19
291.602	95.19
291.833	101.19
292.064	109.19
292.295	94.19
292.526	93.19
292.757	100.19
292.987	94.19
293.218	95.19
293.449	97.19
293.68	84.19
293.91	100.19
294.141	102.19
294.372	95.19
294.603	105.19
294.833	106.19
295.064	106.19
295.295	86.19
295.525	94.19
295.756	89.19
295.987	88.19
296.217	111.19
296.448	99.19
296.679	111.19
296.909	104.19
297.14	113.19
297.37	88.19
297.601	103.19
297.831	101.19
298.062	101.19
298.292	109.19
298.523	105.19
298.753	88.19
298.984	103.19
299.214	109.19
299.445	105.19
299.675	97.19
299.905	106.19
300.136	104.19
300.366	88.19
300.597	95.19
300.827	105.19
301.057	87.19
301.288	97.19
301.518	112.19
301.748	104.19
301.979	140.19
302.209	102.19
302.439	88.19
302.669	94.19
302.9	102.19
303.13	96.19
303.36	95.19
303.59	97.19
303.82	113.19
304.051	100.19
304.281	106.19
304.511	110.19
304.741	112.19
304.971	103.19
305.201	109.19
305.431	109.19
305.661	108.19
305.891	103.19
306.121	105.19
306.352	101.19
306.582	97.19
306.812	83.19
307.042	104.19
307.272	92.19
307.502	98.19
307.731	102.19
307.961	117.19
308.191	93.19
308.421	102.19
308.651	89.19
308.881	102.19
309.111	102.19
309.341	99.19
309.571	97.19
309.8	87.19
310.03	112.19
310.26	101.19
310.49	85.19
310.72	89.19
310.949	93.19
311.179	94.19
311.409	104.19
311.639	85.19
311.868	94.19
312.098	100.19
312.328	91.19
312.557	107.19
312.787	113.19
313.017	110.19
313.246	105.19
313.476	107.19
313.706	88.19
313.935	96.19
314.165	84.19
314.394	98.19
314.624	90.19
314.853	99.19
315.083	107.19
315.312	107.19
315.542	108.19
315.771	97.19
316.001	104.19
316.23	122.19
316.46	87.19
316.689	98.19
316.919	101.19
317.148	93.19
317.377	112.19
317.607	100.19
317.836	99.19
318.065	111.19
318.295	105.19
318.524	101.19
318.753	95.19
318.983	111.19
319.212	94.19
319.441	94.19
319.67	113.19
319.9	104.19
320.129	87.19
320.358	95.19
320.587	101.19
320.816	100.19
321.046	92.19
321.275	101.19
321.504	97.19
321.733	103.19
321.962	89.19
322.191	95.19
322.42	107.19
322.649	103.19
322.878	105.19
323.108	115.19
323.337	92.19
323.566	101.19
323.795	92.19
324.024	97.19
324.253	103.19
324.482	112.19
324.71	86.19
324.939	93.19
325.168	111.19
325.397	112.19
325.626	102.19
325.855	104.19
326.084	94.19
326.313	106.19
326.542	106.19
326.77	103.19
326.999	94.19
327.228	113.19
327.457	111.19
327.686	102.19
327.914	111.19
328.143	106.19
328.372	116.19
328.6	113.19
328.829	107.19
329.058	98.19
329.287	104.19
329.515	113.19
329.744	109.19
329.972	102.19
330.201	104.19
330.43	102.19
330.658	96.19
330.887	99.19
331.115	97.19
331.344	108.19
331.572	123.19
331.801	107.19
332.03	111.19
332.258	118.19
332.486	112.19
332.715	124.19
332.943	119.19
333.172	117.19
333.4	120.19
333.629	126.19
333.857	106.19
334.085	108.19
334.314	108.19
334.542	96.19
334.771	112.19
334.999	118.19
335.227	133.19
335.455	102.19
335.684	128.19
335.912	101.19
336.14	111.19
336.369	116.19
336.597	109.19
336.825	116.19
337.053	116.19
337.281	119.19
337.51	94.19
337.738	99.19
337.966	114.19
338.194	97.19
338.422	109.19
338.65	112.19
338.878	103.19
339.106	102.19
339.334	115.19
339.562	113.19
339.79	105.19
340.018	111.19
340.246	100.19
340.474	124.19
340.702	113.19
340.93	108.19
341.158	103.19
341.386	104.19
341.614	89.19
341.842	101.19
342.07	96.19
342.298	116.19
342.526	107.19
342.754	105.19
342.981	118.19
343.209	105.19
343.437	135.19
343.665	112.19
343.893	126.19
344.12	101.19
344.348	121.19
344.576	115.19
344.804	101.19
345.031	102.19
345.259	101.19
345.487	109.19
345.714	100.19
345.942	101.19
346.17	98.19
346.397	105.19
346.625	111.19
346.853	98.19
347.08	88.19
347.308	101.19
347.535	95.19
347.763	106.19
347.99	101.19
348.218	116.19
348.445	117.19
348.673	94.19
348.9	117.19
349.128	104.19
349.355	123.19
349.583	111.19
349.81	108.19
350.037	97.19
350.265	120.19
350.492	104.19
350.72	111.19
350.947	104.19
351.174	105.19
351.402	103.19
351.629	105.19
351.856	107.19
352.083	107.19
352.311	95.19
352.538	113.19
352.765	102.19
352.992	128.19
353.22	99.19
353.447	92.19
353.674	111.19
353.901	107.19
354.128	108.19
354.355	93.19
354.583	95.19
354.81	99.19
355.037	108.19
355.264	111.19
355.491	111.19
355.718	92.19
355.945	116.19
356.172	106.19
356.399	96.19
356.626	86.19
356.853	124.19
357.08	98.19
357.307	103.19
357.534	101.19
357.761	102.19
357.988	105.19
358.215	101.19
358.441	106.19
358.668	109.19
358.895	110.19
359.122	119.19
359.349	88.19
359.576	105.19
359.802	91.19
360.029	119.19
360.256	101.19
360.483	98.19
360.709	83.19
360.936	116.19
361.163	101.19
361.39	96.19
361.616	104.19
361.843	100.19
362.07	98.19
362.296	111.19
362.523	99.19
362.749	98.19
362.976	103.19
363.203	120.19
363.429	105.19
363.656	103.19
363.882	100.19
364.109	101.19
364.335	106.19
364.562	123.19
364.788	91.19
365.015	116.19
365.241	106.19
365.468	110.19
365.694	113.19
365.92	104.19
366.147	99.19
366.373	107.19
366.599	95.19
366.826	93.19
367.052	109.19
367.278	114.19
367.505	112.19
367.731	127.19
367.957	103.19
368.184	96.19
368.41	111.19
368.636	103.19
368.862	115.19
369.089	109.19
369.315	101.19
369.541	118.19
369.767	125.19
369.993	127.19
370.219	121.19
370.445	123.19
370.672	119.19
370.898	117.19
371.124	113.19
371.35	96.19
371.576	110.19
371.802	118.19
372.028	105.19
372.254	109.19
372.48	136.19
372.706	103.19
372.932	100.19
373.158	112.19
373.384	113.19
373.61	116.19
373.835	124.19
374.061	105.19
374.287	125.19
374.513	118.19
374.739	116.19
374.965	109.19
375.191	120.19
375.416	122.19
375.642	131.19
375.868	118.19
376.094	116.19
376.319	108.19
376.545	107.19
376.771	125.19
376.997	129.19
377.222	111.19
377.448	114.19
377.674	107.19
377.899	109.19
378.125	117.19
378.35	127.19
378.576	111.19
378.802	118.19
379.027	122.19
379.253	120.19
379.478	111.19
379.704	111.19
379.929	104.19
380.155	113.19
380.38	119.19
380.606	120.19
380.831	127.19
381.057	149.19
381.282	111.19
381.507	120.19
381.733	111.19
381.958	116.19
382.184	126.19
382.409	131.19
382.634	124.19
382.86	114.19
383.085	131.19
383.31	129.19
383.535	150.19
383.761	132.19
383.986	124.19
384.211	119.19
384.436	136.19
384.662	120.19
384.887	131.19
385.112	126.19
385.337	121.19
385.562	134.19
385.787	148.19
386.013	135.19
386.238	132.19
386.463	134.19
386.688	172.19
386.913	128.19
387.138	117.19
387.363	119.19
387.588	147.19
387.813	141.19
388.038	136.19
388.263	139.19
388.488	119.19
388.713	117.19
388.938	126.19
389.163	132.19
389.387	128.19
389.612	131.19
389.837	137.19
390.062	153.19
390.287	147.19
390.512	133.19
390.736	121.19
390.961	133.19
391.186	130.19
391.411	129.19
391.636	143.19
391.86	141.19
392.085	159.19
392.31	140.19
392.534	144.19
392.759	146.19
392.984	145.19
393.208	141.19
393.433	149.19
393.658	152.19
393.882	145.19
394.107	147.19
394.331	131.19
394.556	144.19
394.78	145.19
395.005	159.19
395.229	140.19
395.454	155.19
395.678	152.19
395.903	153.19
396.127	147.19
396.352	133.19
396.576	131.19
396.801	147.19
397.025	140.19
397.249	172.19
397.474	148.19
397.698	157.19
397.922	149.19
398.147	171.19
398.371	147.19
398.595	138.19
398.82	156.19
399.044	162.19
399.268	180.19
399.492	176.19
399.717	192.19
399.941	180.19
400.165	170.19
400.389	165.19
400.613	165.19
400.837	181.19
401.062	166.19
401.286	157.19
401.51	160.19
401.734	158.19
401.958	156.19
402.182	158.19
402.406	155.19
402.63	165.19
402.854	162.19
403.078	163.19
403.302	152.19
403.526	168.19
403.75	174.19
403.974	163.19
404.198	175.19
404.422	166.19
404.645	169.19
404.869	177.19
405.093	185.19
405.317	171.19
405.541	168.19
405.765	158.19
405.988	177.19
406.212	184.19
406.436	170.19
406.66	166.19
406.883	182.19
407.107	193.19
407.331	186.19
407.555	198.19
407.778	182.19
408.002	167.19
408.226	182.19
408.449	167.19
408.673	184.19
408.896	175.19
409.12	165.19
409.344	173.19
409.567	179.19
409.791	176.19
410.014	191.19
410.238	168.19
410.461	176.19
410.685	175.19
410.908	159.19
411.132	180.19
411.355	182.19
411.578	182.19
411.802	165.19
412.025	160.19
412.249	168.19
412.472	168.19
412.695	174.19
412.919	165.19
413.142	168.19
413.365	165.19
413.589	181.19
413.812	177.19
414.035	174.19
414.258	167.19
414.482	174.19
414.705	169.19
414.928	171.19
415.151	169.19
415.374	163.19
415.597	177.19
415.821	167.19
416.044	166.19
416.267	175.19
416.49	149.19
416.713	163.19
416.936	176.19
417.159	148.19
417.382	173.19
417.605	174.19
417.828	165.19
418.051	177.19
418.274	191.19
418.497	179.19
418.72	179.19
418.943	189.19
419.166	179.19
419.389	166.19
419.611	191.19
419.834	193.19
420.057	185.19
420.28	180.19
420.503	159.19
420.726	175.19
420.948	174.19
421.171	172.19
421.394	176.19
421.617	188.19
421.839	167.19
422.062	187.19
422.285	179.19
422.507	174.19
422.73	163.19
422.953	179.19
423.175	174.19
423.398	161.19
423.621	196.19
423.843	181.19
424.066	176.19
424.288	179.19
424.511	207.19
424.733	186.19
424.956	182.19
425.178	180.19
425.401	200.19
425.623	198.19
425.846	198.19
426.068	166.19
426.291	166.19
426.513	164.19
426.735	175.19
426.958	175.19
427.18	168.19
427.402	180.19
427.625	176.19
427.847	163.19
428.069	179.19
428.292	174.19
428.514	164.19
428.736	183.19
428.958	173.19
429.181	184.19
429.403	168.19
429.625	169.19
429.847	165.19
430.069	166.19
430.292	175.19
430.514	151.19
430.736	165.19
430.958	166.19
431.18	159.19
431.402	156.19
431.624	147.19
431.846	137.19
432.068	131.19
432.29	140.19
432.512	157.19
432.734	166.19
432.956	190.19
433.178	191.19
433.4	194.19
433.622	183.19
433.844	169.19
434.066	139.19
434.287	143.19
434.509	126.19
434.731	142.19
434.953	159.19
435.175	165.19
435.397	169.19
435.618	167.19
435.84	149.19
436.062	155.19
436.284	174.19
436.505	172.19
436.727	167.19
436.949	174.19
437.17	164.19
437.392	165.19
437.614	158.19
437.835	146.19
438.057	136.19
438.278	143.19
438.5	155.19
438.721	169.19
438.943	175.19
439.165	160.19
439.386	175.19
439.608	197.19
439.829	172.19
440.05	179.19
440.272	190.19
440.493	179.19
440.715	179.19
440.936	196.19
441.158	194.19
441.379	187.19
441.6	188.19
441.822	200.19
442.043	184.19
442.264	189.19
442.486	186.19
442.707	186.19
442.928	189.19
443.149	186.19
443.371	186.19
443.592	170.19
443.813	187.19
444.034	192.19
444.255	200.19
444.476	212.19
444.698	198.19
444.919	197.19
445.14	395.19
445.361	283.19
445.582	208.19
445.803	186.19
446.024	168.19
446.245	188.19
446.466	192.19
446.687	181.19
446.908	206.19
447.129	199.19
447.35	210.19
447.571	198.19
447.792	186.19
448.013	168.19
448.234	194.19
448.455	174.19
448.675	172.19
448.896	181.19
449.117	169.19
449.338	177.19
449.559	178.19
449.779	169.19
450	164.19
450.221	165.19
450.442	182.19
450.662	168.19
450.883	175.19
451.104	165.19
451.324	176.19
451.545	162.19
451.766	163.19
451.986	149.19
452.207	159.19
452.428	165.19
452.648	145.19
452.869	152.19
453.089	149.19
453.31	137.19
453.53	141.19
453.751	136.19
453.971	123.19
454.192	134.19
454.412	144.19
454.633	139.19
454.853	156.19
455.073	142.19
455.294	159.19
455.514	161.19
455.734	152.19
455.955	139.19
456.175	148.19
456.395	142.19
456.616	140.19
456.836	135.19
457.056	134.19
457.276	145.19
457.497	128.19
457.717	142.19
457.937	126.19
458.157	121.19
458.377	126.19
458.598	130.19
458.818	125.19
459.038	124.19
459.258	135.19
459.478	117.19
459.698	131.19
459.918	144.19
460.138	141.19
460.358	150.19
460.578	169.19
460.798	170.19
461.018	162.19
461.238	157.19
461.458	161.19
461.678	155.19
461.898	168.19
462.118	161.19
462.338	159.19
462.558	169.19
462.777	166.19
462.997	165.19
463.217	153.19
463.437	161.19
463.657	169.19
463.876	164.19
464.096	169.19
464.316	168.19
464.536	160.19
464.755	172.19
464.975	151.19
465.195	165.19
465.414	168.19
465.634	162.19
465.854	150.19
466.073	144.19
466.293	146.19
466.512	168.19
466.732	163.19
466.951	168.19
467.171	155.19
467.391	148.19
467.61	158.19
467.829	172.19
468.049	176.19
468.268	166.19
468.488	159.19
468.707	172.19
468.927	169.19
469.146	175.19
469.365	179.19
469.585	164.19
469.804	181.19
470.023	179.19
470.243	175.19
470.462	188.19
470.681	176.19
470.901	173.19
471.12	179.19
471.339	176.19
471.558	179.19
471.777	188.19
471.997	168.19
472.216	152.19
472.435	149.19
472.654	141.19
472.873	142.19
473.092	162.19
473.311	155.19
473.53	158.19
473.749	157.19
473.968	161.19
474.187	168.19
474.406	164.19
474.625	164.19
474.844	171.19
475.063	163.19
475.282	145.19
475.501	166.19
475.72	169.19
475.939	149.19
476.158	154.19
476.377	165.19
476.596	144.19
476.814	152.19
477.033	144.19
477.252	151.19
477.471	146.19
477.69	167.19
477.908	184.19
478.127	182.19
478.346	167.19
478.564	188.19
478.783	179.19
479.002	188.19
479.22	168.19
479.439	180.19
479.658	155.19
479.876	147.19
480.095	132.19
480.313	149.19
480.532	155.19
480.751	158.19
480.969	130.19
481.188	116.19
481.406	139.19
481.624	120.19
481.843	125.19
482.061	129.19
482.28	152.19
482.498	135.19
482.717	134.19
482.935	146.19
483.153	179.19
483.372	189.19
483.59	182.19
483.808	170.19
484.027	177.19
484.245	175.19
484.463	166.19
484.681	194.19
484.9	164.19
485.118	192.19
485.336	170.19
485.554	153.19
485.772	143.19
485.99	134.19
486.209	148.19
486.427	150.19
486.645	176.19
486.863	165.19
487.081	163.19
487.299	174.19
487.517	192.19
487.735	214.19
487.953	220.19
488.171	231.19
488.389	189.19
488.607	186.19
488.825	181.19
489.043	157.19
489.261	177.19
489.479	182.19
489.696	182.19
489.914	177.19
490.132	196.19
490.35	193.19
490.568	198.19
490.786	216.19
491.003	216.19
491.221	214.19
491.439	231.19
491.657	231.19
491.874	264.19
492.092	264.19
492.31	284.19
492.527	260.19
492.745	233.19
492.963	240.19
493.18	236.19
493.398	227.19
493.615	230.19
493.833	222.19
494.05	219.19
494.268	223.19
494.485	226.19
494.703	224.19
494.92	229.19
495.138	218.19
495.355	221.19
495.573	216.19
495.79	214.19
496.008	222.19
496.225	230.19
496.442	214.19
496.66	231.19
496.877	203.19
497.094	221.19
497.312	201.19
497.529	207.19
497.746	188.19
497.963	191.19
498.181	171.19
498.398	157.19
498.615	164.19
498.832	172.19
499.049	191.19
499.267	215.19
499.484	211.19
499.701	232.19
499.918	261.19
500.135	267.19
500.352	278.19
500.569	288.19
500.786	293.19
501.003	279.19
501.22	248.19
501.437	251.19
501.654	226.19
501.871	207.19
502.088	190.19
502.305	207.19
502.522	186.19
502.739	197.19
502.956	187.19
503.172	181.19
503.389	180.19
503.606	177.19
503.823	181.19
504.04	170.19
504.256	176.19
504.473	158.19
504.69	159.19
504.907	184.19
505.123	167.19
505.34	161.19
505.557	170.19
505.773	159.19
505.99	176.19
506.207	158.19
506.423	158.19
506.64	154.19
506.856	166.19
507.073	154.19
507.289	168.19
507.506	151.19
507.722	145.19
