Data from SampD_HRD10591_00001.txt Node
Date: Mon Jan 19 11:47:38 EST 2026
User: Yrep
Spectrometer: HR+D1059
Trigger mode: 0
Integration Time (sec): 3.443000E-1
Scans to average: 1
Electric dark correction enabled: true
Nonlinearity correction enabled: false
Boxcar width: 0
XAxis mode: Wavelengths
Number of Pixels in Spectrum: 2048
>>>>>Begin Spectral Data<<<<<
223.165	-27.94
223.4	-27.94
223.635	-27.94
223.869	-17.94
224.104	-34.94
224.338	-15.94
224.573	-19.94
224.808	-4.94
225.042	-1.94
225.277	-16.94
225.511	-1.94
225.746	10.06
225.98	-1.94
226.215	12.06
226.449	31.06
226.683	33.06
226.918	21.06
227.152	37.06
227.387	52.06
227.621	38.06
227.856	41.06
228.09	55.06
228.324	51.06
228.559	54.06
228.793	69.06
229.027	77.06
229.262	64.06
229.496	71.06
229.73	70.06
229.964	92.06
230.199	76.06
230.433	68.06
230.667	81.06
230.901	90.06
231.136	78.06
231.37	86.06
231.604	97.06
231.838	92.06
232.072	97.06
232.306	107.06
232.541	78.06
232.775	84.06
233.009	83.06
233.243	92.06
233.477	89.06
233.711	96.06
233.945	86.06
234.179	78.06
234.413	97.06
234.647	85.06
234.881	76.06
235.115	67.06
235.349	99.06
235.583	106.06
235.817	76.06
236.051	87.06
236.285	84.06
236.519	94.06
236.753	82.06
236.987	93.06
237.221	90.06
237.455	74.06
237.689	95.06
237.922	94.06
238.156	86.06
238.39	87.06
238.624	84.06
238.858	74.06
239.091	73.06
239.325	74.06
239.559	83.06
239.793	91.06
240.027	94.06
240.26	86.06
240.494	90.06
240.728	70.06
240.961	81.06
241.195	102.06
241.429	90.06
241.662	95.06
241.896	74.06
242.13	86.06
242.363	81.06
242.597	78.06
242.83	85.06
243.064	90.06
243.298	71.06
243.531	70.06
243.765	77.06
243.998	101.06
244.232	98.06
244.465	95.06
244.699	92.06
244.932	85.06
245.166	98.06
245.399	87.06
245.633	107.06
245.866	73.06
246.099	85.06
246.333	94.06
246.566	96.06
246.8	85.06
247.033	87.06
247.266	82.06
247.5	85.06
247.733	96.06
247.966	93.06
248.2	91.06
248.433	93.06
248.666	86.06
248.899	92.06
249.133	93.06
249.366	108.06
249.599	93.06
249.832	101.06
250.066	87.06
250.299	93.06
250.532	93.06
250.765	92.06
250.998	78.06
251.231	99.06
251.465	93.06
251.698	75.06
251.931	95.06
252.164	87.06
252.397	101.06
252.63	93.06
252.863	85.06
253.096	82.06
253.329	107.06
253.562	93.06
253.795	99.06
254.028	113.06
254.261	102.06
254.494	91.06
254.727	102.06
254.96	81.06
255.193	94.06
255.426	79.06
255.659	90.06
255.892	95.06
256.124	91.06
256.357	104.06
256.59	115.06
256.823	101.06
257.056	93.06
257.289	104.06
257.521	108.06
257.754	108.06
257.987	94.06
258.22	97.06
258.452	105.06
258.685	84.06
258.918	90.06
259.151	94.06
259.383	105.06
259.616	93.06
259.849	101.06
260.081	99.06
260.314	90.06
260.547	86.06
260.779	99.06
261.012	109.06
261.244	99.06
261.477	107.06
261.71	97.06
261.942	103.06
262.175	106.06
262.407	82.06
262.64	106.06
262.872	109.06
263.105	103.06
263.337	94.06
263.57	107.06
263.802	110.06
264.035	108.06
264.267	103.06
264.499	99.06
264.732	120.06
264.964	95.06
265.197	95.06
265.429	96.06
265.661	93.06
265.894	101.06
266.126	110.06
266.358	114.06
266.591	109.06
266.823	102.06
267.055	110.06
267.287	87.06
267.52	94.06
267.752	107.06
267.984	105.06
268.216	102.06
268.448	107.06
268.681	115.06
268.913	116.06
269.145	89.06
269.377	101.06
269.609	95.06
269.841	101.06
270.073	91.06
270.306	125.06
270.538	107.06
270.77	95.06
271.002	109.06
271.234	105.06
271.466	119.06
271.698	118.06
271.93	109.06
272.162	109.06
272.394	97.06
272.626	92.06
272.858	105.06
273.09	114.06
273.322	113.06
273.553	102.06
273.785	97.06
274.017	108.06
274.249	97.06
274.481	108.06
274.713	102.06
274.945	112.06
275.176	110.06
275.408	113.06
275.64	110.06
275.872	109.06
276.104	112.06
276.335	110.06
276.567	116.06
276.799	102.06
277.031	95.06
277.262	109.06
277.494	122.06
277.726	120.06
277.957	111.06
278.189	118.06
278.421	98.06
278.652	112.06
278.884	109.06
279.115	126.06
279.347	120.06
279.579	126.06
279.81	117.06
280.042	124.06
280.273	109.06
280.505	110.06
280.736	122.06
280.968	102.06
281.199	112.06
281.431	112.06
281.662	113.06
281.894	125.06
282.125	111.06
282.356	106.06
282.588	120.06
282.819	99.06
283.051	101.06
283.282	106.06
283.513	134.06
283.745	125.06
283.976	121.06
284.207	101.06
284.439	117.06
284.67	114.06
284.901	119.06
285.132	118.06
285.364	112.06
285.595	125.06
285.826	125.06
286.057	128.06
286.288	119.06
286.52	130.06
286.751	115.06
286.982	119.06
287.213	110.06
287.444	116.06
287.675	111.06
287.906	125.06
288.138	120.06
288.369	107.06
288.6	123.06
288.831	130.06
289.062	110.06
289.293	111.06
289.524	114.06
289.755	121.06
289.986	111.06
290.217	126.06
290.448	118.06
290.679	112.06
290.91	126.06
291.141	118.06
291.371	127.06
291.602	134.06
291.833	122.06
292.064	131.06
292.295	108.06
292.526	125.06
292.757	106.06
292.987	113.06
293.218	129.06
293.449	124.06
293.68	114.06
293.91	115.06
294.141	117.06
294.372	124.06
294.603	125.06
294.833	133.06
295.064	123.06
295.295	128.06
295.525	114.06
295.756	120.06
295.987	127.06
296.217	115.06
296.448	117.06
296.679	105.06
296.909	116.06
297.14	122.06
297.37	121.06
297.601	131.06
297.831	133.06
298.062	119.06
298.292	134.06
298.523	124.06
298.753	124.06
298.984	137.06
299.214	128.06
299.445	130.06
299.675	134.06
299.905	135.06
300.136	111.06
300.366	134.06
300.597	137.06
300.827	127.06
301.057	135.06
301.288	124.06
301.518	118.06
301.748	135.06
301.979	169.06
302.209	141.06
302.439	140.06
302.669	117.06
302.9	126.06
303.13	120.06
303.36	138.06
303.59	126.06
303.82	141.06
304.051	139.06
304.281	123.06
304.511	136.06
304.741	146.06
304.971	129.06
305.201	139.06
305.431	120.06
305.661	125.06
305.891	126.06
306.121	115.06
306.352	134.06
306.582	126.06
306.812	140.06
307.042	136.06
307.272	130.06
307.502	121.06
307.731	123.06
307.961	136.06
308.191	118.06
308.421	142.06
308.651	131.06
308.881	119.06
309.111	140.06
309.341	119.06
309.571	118.06
309.8	127.06
310.03	135.06
310.26	115.06
310.49	123.06
310.72	134.06
310.949	124.06
311.179	122.06
311.409	111.06
311.639	129.06
311.868	136.06
312.098	120.06
312.328	122.06
312.557	118.06
312.787	124.06
313.017	135.06
313.246	128.06
313.476	131.06
313.706	138.06
313.935	125.06
314.165	131.06
314.394	139.06
314.624	134.06
314.853	125.06
315.083	118.06
315.312	126.06
315.542	114.06
315.771	111.06
316.001	133.06
316.23	127.06
316.46	130.06
316.689	127.06
316.919	126.06
317.148	125.06
317.377	123.06
317.607	134.06
317.836	135.06
318.065	125.06
318.295	141.06
318.524	122.06
318.753	136.06
318.983	137.06
319.212	128.06
319.441	109.06
319.67	131.06
319.9	119.06
320.129	129.06
320.358	126.06
320.587	136.06
320.816	127.06
321.046	126.06
321.275	129.06
321.504	131.06
321.733	127.06
321.962	140.06
322.191	139.06
322.42	141.06
322.649	151.06
322.878	138.06
323.108	140.06
323.337	140.06
323.566	134.06
323.795	129.06
324.024	153.06
324.253	122.06
324.482	128.06
324.71	125.06
324.939	142.06
325.168	133.06
325.397	130.06
325.626	130.06
325.855	131.06
326.084	134.06
326.313	135.06
326.542	137.06
326.77	139.06
326.999	139.06
327.228	114.06
327.457	129.06
327.686	130.06
327.914	135.06
328.143	139.06
328.372	145.06
328.6	120.06
328.829	125.06
329.058	136.06
329.287	130.06
329.515	138.06
329.744	141.06
329.972	140.06
330.201	142.06
330.43	139.06
330.658	129.06
330.887	129.06
331.115	142.06
331.344	131.06
331.572	145.06
331.801	131.06
332.03	145.06
332.258	148.06
332.486	151.06
332.715	152.06
332.943	145.06
333.172	161.06
333.4	154.06
333.629	173.06
333.857	166.06
334.085	165.06
334.314	160.06
334.542	164.06
334.771	149.06
334.999	142.06
335.227	152.06
335.455	165.06
335.684	150.06
335.912	150.06
336.14	151.06
336.369	123.06
336.597	137.06
336.825	156.06
337.053	134.06
337.281	147.06
337.51	141.06
337.738	138.06
337.966	140.06
338.194	148.06
338.422	122.06
338.65	140.06
338.878	134.06
339.106	155.06
339.334	149.06
339.562	135.06
339.79	145.06
340.018	129.06
340.246	127.06
340.474	131.06
340.702	122.06
340.93	143.06
341.158	132.06
341.386	155.06
341.614	134.06
341.842	138.06
342.07	142.06
342.298	142.06
342.526	128.06
342.754	140.06
342.981	154.06
343.209	142.06
343.437	191.06
343.665	147.06
343.893	156.06
344.12	170.06
344.348	156.06
344.576	134.06
344.804	145.06
345.031	149.06
345.259	132.06
345.487	137.06
345.714	129.06
345.942	137.06
346.17	131.06
346.397	140.06
346.625	140.06
346.853	139.06
347.08	133.06
347.308	148.06
347.535	142.06
347.763	140.06
347.99	156.06
348.218	142.06
348.445	138.06
348.673	132.06
348.9	151.06
349.128	155.06
349.355	118.06
349.583	133.06
349.81	140.06
350.037	142.06
350.265	153.06
350.492	138.06
350.72	125.06
350.947	135.06
351.174	139.06
351.402	133.06
351.629	128.06
351.856	136.06
352.083	135.06
352.311	137.06
352.538	136.06
352.765	137.06
352.992	156.06
353.22	128.06
353.447	121.06
353.674	128.06
353.901	147.06
354.128	132.06
354.355	130.06
354.583	130.06
354.81	120.06
355.037	139.06
355.264	138.06
355.491	139.06
355.718	138.06
355.945	130.06
356.172	138.06
356.399	148.06
356.626	132.06
356.853	147.06
357.08	148.06
357.307	130.06
357.534	120.06
357.761	123.06
357.988	141.06
358.215	136.06
358.441	137.06
358.668	131.06
358.895	137.06
359.122	153.06
359.349	127.06
359.576	137.06
359.802	133.06
360.029	140.06
360.256	140.06
360.483	125.06
360.709	113.06
360.936	147.06
361.163	126.06
361.39	137.06
361.616	128.06
361.843	133.06
362.07	135.06
362.296	141.06
362.523	132.06
362.749	142.06
362.976	132.06
363.203	143.06
363.429	132.06
363.656	130.06
363.882	117.06
364.109	134.06
364.335	137.06
364.562	125.06
364.788	130.06
365.015	139.06
365.241	145.06
365.468	150.06
365.694	125.06
365.92	151.06
366.147	118.06
366.373	134.06
366.599	143.06
366.826	127.06
367.052	138.06
367.278	139.06
367.505	137.06
367.731	166.06
367.957	155.06
368.184	140.06
368.41	135.06
368.636	136.06
368.862	162.06
369.089	136.06
369.315	147.06
369.541	155.06
369.767	141.06
369.993	160.06
370.219	149.06
370.445	145.06
370.672	139.06
370.898	158.06
371.124	150.06
371.35	153.06
371.576	148.06
371.802	164.06
372.028	156.06
372.254	162.06
372.48	138.06
372.706	156.06
372.932	150.06
373.158	164.06
373.384	156.06
373.61	159.06
373.835	154.06
374.061	166.06
374.287	170.06
374.513	165.06
374.739	159.06
374.965	159.06
375.191	151.06
375.416	166.06
375.642	167.06
375.868	175.06
376.094	146.06
376.319	150.06
376.545	175.06
376.771	141.06
376.997	161.06
377.222	152.06
377.448	166.06
377.674	173.06
377.899	165.06
378.125	157.06
378.35	165.06
378.576	158.06
378.802	154.06
379.027	166.06
379.253	172.06
379.478	162.06
379.704	156.06
379.929	156.06
380.155	176.06
380.38	163.06
380.606	164.06
380.831	169.06
381.057	186.06
381.282	176.06
381.507	157.06
381.733	172.06
381.958	167.06
382.184	169.06
382.409	178.06
382.634	186.06
382.86	174.06
383.085	179.06
383.31	161.06
383.535	186.06
383.761	187.06
383.986	175.06
384.211	180.06
384.436	173.06
384.662	181.06
384.887	192.06
385.112	201.06
385.337	184.06
385.562	187.06
385.787	187.06
386.013	197.06
386.238	209.06
386.463	197.06
386.688	224.06
386.913	188.06
387.138	195.06
387.363	188.06
387.588	185.06
387.813	203.06
388.038	195.06
388.263	188.06
388.488	183.06
388.713	198.06
388.938	198.06
389.163	188.06
389.387	188.06
389.612	184.06
389.837	217.06
390.062	194.06
390.287	183.06
390.512	209.06
390.736	201.06
390.961	211.06
391.186	203.06
391.411	225.06
391.636	214.06
391.86	204.06
392.085	221.06
392.31	213.06
392.534	218.06
392.759	236.06
392.984	211.06
393.208	216.06
393.433	223.06
393.658	198.06
393.882	196.06
394.107	217.06
394.331	209.06
394.556	202.06
394.78	223.06
395.005	213.06
395.229	211.06
395.454	216.06
395.678	203.06
395.903	223.06
396.127	238.06
396.352	223.06
396.576	204.06
396.801	216.06
397.025	223.06
397.249	221.06
397.474	251.06
397.698	220.06
397.922	203.06
398.147	238.06
398.371	232.06
398.595	229.06
398.82	232.06
399.044	261.06
399.268	282.06
399.492	299.06
399.717	309.06
399.941	281.06
400.165	278.06
400.389	254.06
400.613	255.06
400.837	261.06
401.062	255.06
401.286	230.06
401.51	252.06
401.734	252.06
401.958	249.06
402.182	218.06
402.406	262.06
402.63	255.06
402.854	261.06
403.078	269.06
403.302	253.06
403.526	273.06
403.75	280.06
403.974	275.06
404.198	288.06
404.422	268.06
404.645	278.06
404.869	275.06
405.093	261.06
405.317	260.06
405.541	282.06
405.765	270.06
405.988	255.06
406.212	266.06
406.436	261.06
406.66	276.06
406.883	268.06
407.107	283.06
407.331	281.06
407.555	294.06
407.778	273.06
408.002	268.06
408.226	288.06
408.449	289.06
408.673	281.06
408.896	274.06
409.12	280.06
409.344	263.06
409.567	281.06
409.791	281.06
410.014	267.06
410.238	285.06
410.461	285.06
410.685	283.06
410.908	246.06
411.132	266.06
411.355	243.06
411.578	263.06
411.802	277.06
412.025	262.06
412.249	270.06
412.472	263.06
412.695	245.06
412.919	265.06
413.142	283.06
413.365	270.06
413.589	246.06
413.812	272.06
414.035	264.06
414.258	283.06
414.482	258.06
414.705	246.06
414.928	270.06
415.151	265.06
415.374	269.06
415.597	272.06
415.821	266.06
416.044	277.06
416.267	261.06
416.49	267.06
416.713	258.06
416.936	267.06
417.159	283.06
417.382	269.06
417.605	258.06
417.828	266.06
418.051	271.06
418.274	280.06
418.497	269.06
418.72	279.06
418.943	293.06
419.166	297.06
419.389	322.06
419.611	313.06
419.834	296.06
420.057	304.06
420.28	298.06
420.503	295.06
420.726	294.06
420.948	275.06
421.171	278.06
421.394	292.06
421.617	294.06
421.839	298.06
422.062	301.06
422.285	306.06
422.507	308.06
422.73	281.06
422.953	263.06
423.175	291.06
423.398	291.06
423.621	290.06
423.843	293.06
424.066	317.06
424.288	301.06
424.511	314.06
424.733	293.06
424.956	296.06
425.178	290.06
425.401	294.06
425.623	281.06
425.846	268.06
426.068	283.06
426.291	275.06
426.513	270.06
426.735	286.06
426.958	278.06
427.18	264.06
427.402	279.06
427.625	259.06
427.847	279.06
428.069	268.06
428.292	265.06
428.514	278.06
428.736	261.06
428.958	279.06
429.181	252.06
429.403	254.06
429.625	249.06
429.847	268.06
430.069	278.06
430.292	270.06
430.514	253.06
430.736	245.06
430.958	278.06
431.18	263.06
431.402	241.06
431.624	237.06
431.846	215.06
432.068	198.06
432.29	220.06
432.512	238.06
432.734	259.06
432.956	262.06
433.178	296.06
433.4	287.06
433.622	276.06
433.844	283.06
434.066	250.06
434.287	232.06
434.509	210.06
434.731	218.06
434.953	236.06
435.175	267.06
435.397	257.06
435.618	235.06
435.84	211.06
436.062	228.06
436.284	241.06
436.505	267.06
436.727	259.06
436.949	273.06
437.17	255.06
437.392	265.06
437.614	249.06
437.835	214.06
438.057	234.06
438.278	247.06
438.5	258.06
438.721	260.06
438.943	279.06
439.165	269.06
439.386	292.06
439.608	285.06
439.829	279.06
440.05	309.06
440.272	299.06
440.493	299.06
440.715	269.06
440.936	313.06
441.158	314.06
441.379	284.06
441.6	316.06
441.822	323.06
442.043	305.06
442.264	293.06
442.486	293.06
442.707	284.06
442.928	284.06
443.149	323.06
443.371	303.06
443.592	299.06
443.813	284.06
444.034	305.06
444.255	314.06
444.476	301.06
444.698	301.06
444.919	316.06
445.14	521.06
445.361	397.06
445.582	311.06
445.803	311.06
446.024	303.06
446.245	314.06
446.466	325.06
446.687	317.06
446.908	313.06
447.129	296.06
447.35	317.06
447.571	312.06
447.792	308.06
448.013	281.06
448.234	277.06
448.455	282.06
448.675	302.06
448.896	262.06
449.117	280.06
449.338	271.06
449.559	257.06
449.779	267.06
450	260.06
450.221	265.06
450.442	273.06
450.662	271.06
450.883	259.06
451.104	266.06
451.324	273.06
451.545	253.06
451.766	246.06
451.986	282.06
452.207	270.06
452.428	246.06
452.648	259.06
452.869	209.06
453.089	230.06
453.31	214.06
453.53	196.06
453.751	192.06
453.971	186.06
454.192	202.06
454.412	210.06
454.633	227.06
454.853	228.06
455.073	235.06
455.294	254.06
455.514	235.06
455.734	218.06
455.955	225.06
456.175	206.06
456.395	205.06
456.616	183.06
456.836	204.06
457.056	194.06
457.276	200.06
457.497	207.06
457.717	217.06
457.937	194.06
458.157	205.06
458.377	177.06
458.598	188.06
458.818	187.06
459.038	165.06
459.258	150.06
459.478	185.06
459.698	190.06
459.918	228.06
460.138	215.06
460.358	234.06
460.578	266.06
460.798	231.06
461.018	242.06
461.238	241.06
461.458	233.06
461.678	254.06
461.898	238.06
462.118	249.06
462.338	249.06
462.558	271.06
462.777	271.06
462.997	256.06
463.217	270.06
463.437	283.06
463.657	254.06
463.876	246.06
464.096	236.06
464.316	239.06
464.536	262.06
464.755	257.06
464.975	259.06
465.195	239.06
465.414	250.06
465.634	232.06
465.854	230.06
466.073	239.06
466.293	264.06
466.512	260.06
466.732	252.06
466.951	261.06
467.171	259.06
467.391	266.06
467.61	278.06
467.829	258.06
468.049	265.06
468.268	253.06
468.488	262.06
468.707	263.06
468.927	285.06
469.146	289.06
469.365	283.06
469.585	257.06
469.804	249.06
470.023	284.06
470.243	284.06
470.462	296.06
470.681	270.06
470.901	270.06
471.12	294.06
471.339	281.06
471.558	273.06
471.777	273.06
471.997	255.06
472.216	254.06
472.435	212.06
472.654	204.06
472.873	191.06
473.092	215.06
473.311	244.06
473.53	247.06
473.749	234.06
473.968	240.06
474.187	221.06
474.406	215.06
474.625	247.06
474.844	267.06
475.063	250.06
475.282	235.06
475.501	220.06
475.72	246.06
475.939	257.06
476.158	268.06
476.377	235.06
476.596	217.06
476.814	215.06
477.033	206.06
477.252	226.06
477.471	253.06
477.69	258.06
477.908	270.06
478.127	291.06
478.346	258.06
478.564	268.06
478.783	285.06
479.002	297.06
479.22	278.06
479.439	286.06
479.658	244.06
479.876	220.06
480.095	223.06
480.313	246.06
480.532	247.06
480.751	230.06
480.969	195.06
481.188	187.06
481.406	185.06
481.624	181.06
481.843	179.06
482.061	198.06
482.28	227.06
482.498	214.06
482.717	190.06
482.935	239.06
483.153	285.06
483.372	293.06
483.59	281.06
483.808	273.06
484.027	277.06
484.245	258.06
484.463	277.06
484.681	295.06
484.9	270.06
485.118	256.06
485.336	230.06
485.554	200.06
485.772	193.06
485.99	203.06
486.209	231.06
486.427	207.06
486.645	251.06
486.863	275.06
487.081	273.06
487.299	254.06
487.517	297.06
487.735	337.06
487.953	360.06
488.171	339.06
488.389	331.06
488.607	315.06
488.825	284.06
489.043	262.06
489.261	260.06
489.479	277.06
489.696	266.06
489.914	265.06
490.132	300.06
490.35	327.06
490.568	338.06
490.786	345.06
491.003	359.06
491.221	375.06
491.439	372.06
491.657	402.06
491.874	445.06
492.092	471.06
492.31	492.06
492.527	475.06
492.745	423.06
492.963	428.06
493.18	417.06
493.398	391.06
493.615	381.06
493.833	375.06
494.05	383.06
494.268	358.06
494.485	363.06
494.703	358.06
494.92	344.06
495.138	347.06
495.355	353.06
495.573	349.06
495.79	349.06
496.008	351.06
496.225	374.06
496.442	365.06
496.66	366.06
496.877	351.06
497.094	348.06
497.312	354.06
497.529	337.06
497.746	328.06
497.963	285.06
498.181	291.06
498.398	288.06
498.615	281.06
498.832	293.06
499.049	318.06
499.267	318.06
499.484	347.06
499.701	375.06
499.918	431.06
500.135	477.06
500.352	494.06
500.569	530.06
500.786	503.06
501.003	462.06
501.22	438.06
501.437	392.06
501.654	381.06
501.871	371.06
502.088	343.06
502.305	325.06
502.522	294.06
502.739	301.06
502.956	298.06
503.172	293.06
503.389	267.06
503.606	289.06
503.823	239.06
504.04	279.06
504.256	264.06
504.473	259.06
504.69	263.06
