Data from SampD_HRD10591_00028.txt Node
Date: Mon Jan 19 11:47:47 EST 2026
User: Yrep
Spectrometer: HR+D1059
Trigger mode: 0
Integration Time (sec): 3.443000E-1
Scans to average: 1
Electric dark correction enabled: true
Nonlinearity correction enabled: false
Boxcar width: 0
XAxis mode: Wavelengths
Number of Pixels in Spectrum: 2048
>>>>>Begin Spectral Data<<<<<
223.165	-17.38
223.4	-17.38
223.635	-17.38
223.869	-37.38
224.104	-29.38
224.338	-24.38
224.573	-20.38
224.808	-17.38
225.042	-11.38
225.277	-3.38
225.511	4.62
225.746	10.62
225.98	13.62
226.215	22.62
226.449	18.62
226.683	24.62
226.918	32.62
227.152	33.62
227.387	35.62
227.621	36.62
227.856	55.62
228.09	38.62
228.324	51.62
228.559	70.62
228.793	49.62
229.027	60.62
229.262	52.62
229.496	54.62
229.73	71.62
229.964	65.62
230.199	79.62
230.433	75.62
230.667	72.62
230.901	77.62
231.136	90.62
231.37	71.62
231.604	82.62
231.838	80.62
232.072	84.62
232.306	88.62
232.541	82.62
232.775	71.62
233.009	92.62
233.243	80.62
233.477	73.62
233.711	66.62
233.945	74.62
234.179	93.62
234.413	92.62
234.647	87.62
234.881	92.62
235.115	70.62
235.349	78.62
235.583	76.62
235.817	77.62
236.051	84.62
236.285	94.62
236.519	76.62
236.753	77.62
236.987	87.62
237.221	76.62
237.455	90.62
237.689	88.62
237.922	74.62
238.156	86.62
238.39	90.62
238.624	86.62
238.858	86.62
239.091	82.62
239.325	79.62
239.559	83.62
239.793	80.62
240.027	83.62
240.26	83.62
240.494	69.62
240.728	78.62
240.961	64.62
241.195	97.62
241.429	80.62
241.662	90.62
241.896	87.62
242.13	68.62
242.363	84.62
242.597	84.62
242.83	79.62
243.064	82.62
243.298	87.62
243.531	87.62
243.765	78.62
243.998	87.62
244.232	107.62
244.465	89.62
244.699	85.62
244.932	78.62
245.166	92.62
245.399	89.62
245.633	100.62
245.866	84.62
246.099	105.62
246.333	90.62
246.566	67.62
246.8	84.62
247.033	90.62
247.266	82.62
247.5	100.62
247.733	82.62
247.966	84.62
248.2	80.62
248.433	67.62
248.666	85.62
248.899	80.62
249.133	95.62
249.366	84.62
249.599	81.62
249.832	98.62
250.066	95.62
250.299	91.62
250.532	106.62
250.765	84.62
250.998	90.62
251.231	89.62
251.465	82.62
251.698	82.62
251.931	81.62
252.164	102.62
252.397	84.62
252.63	86.62
252.863	92.62
253.096	84.62
253.329	84.62
253.562	102.62
253.795	101.62
254.028	90.62
254.261	92.62
254.494	97.62
254.727	90.62
254.96	92.62
255.193	98.62
255.426	97.62
255.659	100.62
255.892	95.62
256.124	97.62
256.357	92.62
256.59	101.62
256.823	95.62
257.056	82.62
257.289	93.62
257.521	98.62
257.754	96.62
257.987	87.62
258.22	97.62
258.452	99.62
258.685	105.62
258.918	90.62
259.151	85.62
259.383	113.62
259.616	103.62
259.849	88.62
260.081	102.62
260.314	86.62
260.547	93.62
260.779	100.62
261.012	80.62
261.244	90.62
261.477	111.62
261.71	105.62
261.942	98.62
262.175	92.62
262.407	99.62
262.64	82.62
262.872	94.62
263.105	94.62
263.337	99.62
263.57	77.62
263.802	98.62
264.035	106.62
264.267	92.62
264.499	90.62
264.732	100.62
264.964	103.62
265.197	92.62
265.429	114.62
265.661	89.62
265.894	86.62
266.126	98.62
266.358	98.62
266.591	94.62
266.823	100.62
267.055	101.62
267.287	100.62
267.52	105.62
267.752	112.62
267.984	92.62
268.216	97.62
268.448	111.62
268.681	92.62
268.913	98.62
269.145	89.62
269.377	110.62
269.609	101.62
269.841	104.62
270.073	104.62
270.306	92.62
270.538	86.62
270.77	89.62
271.002	94.62
271.234	97.62
271.466	99.62
271.698	93.62
271.93	99.62
272.162	105.62
272.394	108.62
272.626	100.62
272.858	107.62
273.09	105.62
273.322	105.62
273.553	89.62
273.785	105.62
274.017	106.62
274.249	113.62
274.481	102.62
274.713	103.62
274.945	104.62
275.176	96.62
275.408	105.62
275.64	101.62
275.872	113.62
276.104	108.62
276.335	113.62
276.567	101.62
276.799	105.62
277.031	98.62
277.262	117.62
277.494	91.62
277.726	105.62
277.957	108.62
278.189	100.62
278.421	98.62
278.652	109.62
278.884	99.62
279.115	110.62
279.347	94.62
279.579	92.62
279.81	112.62
280.042	104.62
280.273	107.62
280.505	103.62
280.736	116.62
280.968	112.62
281.199	99.62
281.431	98.62
281.662	101.62
281.894	121.62
282.125	111.62
282.356	116.62
282.588	108.62
282.819	106.62
283.051	119.62
283.282	114.62
283.513	121.62
283.745	102.62
283.976	107.62
284.207	108.62
284.439	117.62
284.67	121.62
284.901	101.62
285.132	114.62
285.364	102.62
285.595	106.62
285.826	113.62
286.057	131.62
286.288	114.62
286.52	101.62
286.751	112.62
286.982	107.62
287.213	99.62
287.444	120.62
287.675	104.62
287.906	110.62
288.138	118.62
288.369	109.62
288.6	109.62
288.831	106.62
289.062	112.62
289.293	119.62
289.524	110.62
289.755	114.62
289.986	120.62
290.217	128.62
290.448	126.62
290.679	120.62
290.91	118.62
291.141	121.62
291.371	110.62
291.602	113.62
291.833	112.62
292.064	111.62
292.295	105.62
292.526	115.62
292.757	112.62
292.987	105.62
293.218	117.62
293.449	114.62
293.68	114.62
293.91	103.62
294.141	114.62
294.372	107.62
294.603	106.62
294.833	116.62
295.064	115.62
295.295	117.62
295.525	121.62
295.756	111.62
295.987	114.62
296.217	95.62
296.448	106.62
296.679	107.62
296.909	119.62
297.14	120.62
297.37	125.62
297.601	121.62
297.831	118.62
298.062	121.62
298.292	117.62
298.523	109.62
298.753	118.62
298.984	126.62
299.214	127.62
299.445	112.62
299.675	121.62
299.905	140.62
300.136	112.62
300.366	104.62
300.597	112.62
300.827	123.62
301.057	118.62
301.288	127.62
301.518	145.62
301.748	132.62
301.979	165.62
302.209	131.62
302.439	113.62
302.669	118.62
302.9	133.62
303.13	110.62
303.36	121.62
303.59	124.62
303.82	123.62
304.051	117.62
304.281	128.62
304.511	128.62
304.741	107.62
304.971	115.62
305.201	134.62
305.431	127.62
305.661	117.62
305.891	102.62
306.121	129.62
306.352	113.62
306.582	126.62
306.812	132.62
307.042	125.62
307.272	118.62
307.502	119.62
307.731	104.62
307.961	116.62
308.191	99.62
308.421	99.62
308.651	122.62
308.881	121.62
309.111	125.62
309.341	112.62
309.571	121.62
309.8	121.62
310.03	118.62
310.26	127.62
310.49	116.62
310.72	113.62
310.949	108.62
311.179	109.62
311.409	126.62
311.639	121.62
311.868	121.62
312.098	116.62
312.328	127.62
312.557	113.62
312.787	122.62
313.017	118.62
313.246	118.62
313.476	121.62
313.706	116.62
313.935	124.62
314.165	119.62
314.394	140.62
314.624	134.62
314.853	136.62
315.083	101.62
315.312	128.62
315.542	127.62
315.771	110.62
316.001	116.62
316.23	127.62
316.46	118.62
316.689	127.62
316.919	125.62
317.148	119.62
317.377	140.62
317.607	135.62
317.836	133.62
318.065	128.62
318.295	119.62
318.524	126.62
318.753	127.62
318.983	121.62
319.212	116.62
319.441	111.62
319.67	120.62
319.9	121.62
320.129	120.62
320.358	120.62
320.587	115.62
320.816	129.62
321.046	113.62
321.275	125.62
321.504	133.62
321.733	117.62
321.962	116.62
322.191	136.62
322.42	123.62
322.649	129.62
322.878	137.62
323.108	133.62
323.337	122.62
323.566	120.62
323.795	124.62
324.024	119.62
324.253	120.62
324.482	117.62
324.71	133.62
324.939	120.62
325.168	113.62
325.397	132.62
325.626	128.62
325.855	125.62
326.084	131.62
326.313	132.62
326.542	130.62
326.77	117.62
326.999	120.62
327.228	121.62
327.457	132.62
327.686	132.62
327.914	129.62
328.143	131.62
328.372	130.62
328.6	124.62
328.829	119.62
329.058	128.62
329.287	130.62
329.515	116.62
329.744	122.62
329.972	121.62
330.201	141.62
330.43	132.62
330.658	134.62
330.887	136.62
331.115	126.62
331.344	126.62
331.572	142.62
331.801	130.62
332.03	126.62
332.258	142.62
332.486	131.62
332.715	135.62
332.943	151.62
333.172	151.62
333.4	155.62
333.629	152.62
333.857	157.62
334.085	143.62
334.314	151.62
334.542	156.62
334.771	130.62
334.999	138.62
335.227	126.62
335.455	150.62
335.684	149.62
335.912	149.62
336.14	132.62
336.369	145.62
336.597	147.62
336.825	149.62
337.053	137.62
337.281	133.62
337.51	142.62
337.738	139.62
337.966	130.62
338.194	135.62
338.422	116.62
338.65	131.62
338.878	138.62
339.106	139.62
339.334	143.62
339.562	137.62
339.79	122.62
340.018	137.62
340.246	132.62
340.474	127.62
340.702	116.62
340.93	136.62
341.158	136.62
341.386	137.62
341.614	117.62
341.842	120.62
342.07	136.62
342.298	129.62
342.526	138.62
342.754	119.62
342.981	150.62
343.209	138.62
343.437	158.62
343.665	135.62
343.893	144.62
344.12	145.62
344.348	134.62
344.576	134.62
344.804	137.62
345.031	123.62
345.259	144.62
345.487	134.62
345.714	128.62
345.942	126.62
346.17	145.62
346.397	132.62
346.625	133.62
346.853	132.62
347.08	134.62
347.308	120.62
347.535	132.62
347.763	136.62
347.99	129.62
348.218	131.62
348.445	125.62
348.673	113.62
348.9	142.62
349.128	143.62
349.355	115.62
349.583	122.62
349.81	134.62
350.037	135.62
350.265	132.62
350.492	126.62
350.72	128.62
350.947	133.62
351.174	128.62
351.402	141.62
351.629	121.62
351.856	123.62
352.083	114.62
352.311	129.62
352.538	118.62
352.765	118.62
352.992	132.62
353.22	135.62
353.447	122.62
353.674	124.62
353.901	121.62
354.128	142.62
354.355	117.62
354.583	113.62
354.81	137.62
355.037	119.62
355.264	126.62
355.491	126.62
355.718	124.62
355.945	143.62
356.172	124.62
356.399	115.62
356.626	125.62
356.853	133.62
357.08	123.62
357.307	114.62
357.534	121.62
357.761	126.62
357.988	127.62
358.215	112.62
358.441	112.62
358.668	134.62
358.895	126.62
359.122	126.62
359.349	130.62
359.576	128.62
359.802	119.62
360.029	119.62
360.256	142.62
360.483	128.62
360.709	111.62
360.936	146.62
361.163	134.62
361.39	125.62
361.616	129.62
361.843	146.62
362.07	125.62
362.296	120.62
362.523	117.62
362.749	133.62
362.976	118.62
363.203	140.62
363.429	121.62
363.656	133.62
363.882	118.62
364.109	132.62
364.335	125.62
364.562	140.62
364.788	126.62
365.015	133.62
365.241	147.62
365.468	130.62
365.694	121.62
365.92	140.62
366.147	142.62
366.373	135.62
366.599	132.62
366.826	141.62
367.052	119.62
367.278	152.62
367.505	131.62
367.731	153.62
367.957	142.62
368.184	130.62
368.41	133.62
368.636	156.62
368.862	140.62
369.089	125.62
369.315	137.62
369.541	147.62
369.767	143.62
369.993	144.62
370.219	142.62
370.445	149.62
370.672	153.62
370.898	149.62
371.124	140.62
371.35	167.62
371.576	152.62
371.802	146.62
372.028	145.62
372.254	166.62
372.48	156.62
372.706	142.62
372.932	144.62
373.158	155.62
373.384	154.62
373.61	154.62
373.835	158.62
374.061	135.62
374.287	156.62
374.513	162.62
374.739	147.62
374.965	144.62
375.191	153.62
375.416	162.62
375.642	155.62
375.868	158.62
376.094	144.62
376.319	172.62
376.545	158.62
376.771	155.62
376.997	133.62
377.222	136.62
377.448	160.62
377.674	147.62
377.899	143.62
378.125	165.62
378.35	164.62
378.576	142.62
378.802	145.62
379.027	161.62
379.253	147.62
379.478	160.62
379.704	140.62
379.929	162.62
380.155	147.62
380.38	172.62
380.606	143.62
380.831	177.62
381.057	166.62
381.282	160.62
381.507	142.62
381.733	169.62
381.958	175.62
382.184	162.62
382.409	162.62
382.634	163.62
382.86	168.62
383.085	176.62
383.31	167.62
383.535	180.62
383.761	174.62
383.986	173.62
384.211	157.62
384.436	174.62
384.662	151.62
384.887	184.62
385.112	185.62
385.337	172.62
385.562	184.62
385.787	182.62
386.013	181.62
386.238	176.62
386.463	167.62
386.688	218.62
386.913	180.62
387.138	184.62
387.363	190.62
387.588	196.62
387.813	180.62
388.038	180.62
388.263	192.62
388.488	186.62
388.713	188.62
388.938	176.62
389.163	208.62
389.387	178.62
389.612	195.62
389.837	197.62
390.062	185.62
390.287	176.62
390.512	182.62
390.736	196.62
390.961	198.62
391.186	203.62
391.411	193.62
391.636	210.62
391.86	200.62
392.085	202.62
392.31	185.62
392.534	196.62
392.759	212.62
392.984	200.62
393.208	200.62
393.433	201.62
393.658	200.62
393.882	193.62
394.107	201.62
394.331	211.62
394.556	204.62
394.78	200.62
395.005	213.62
395.229	206.62
395.454	223.62
395.678	201.62
395.903	214.62
396.127	219.62
396.352	210.62
396.576	207.62
396.801	216.62
397.025	200.62
397.249	194.62
397.474	217.62
397.698	222.62
397.922	228.62
398.147	212.62
398.371	224.62
398.595	226.62
398.82	235.62
399.044	221.62
399.268	245.62
399.492	276.62
399.717	301.62
399.941	273.62
400.165	253.62
400.389	248.62
400.613	239.62
400.837	253.62
401.062	226.62
401.286	237.62
401.51	222.62
401.734	206.62
401.958	229.62
402.182	227.62
402.406	245.62
402.63	244.62
402.854	241.62
403.078	254.62
403.302	273.62
403.526	250.62
403.75	253.62
403.974	245.62
404.198	246.62
404.422	269.62
404.645	242.62
404.869	268.62
405.093	263.62
405.317	249.62
405.541	266.62
405.765	262.62
405.988	248.62
406.212	268.62
406.436	246.62
406.66	272.62
406.883	260.62
407.107	282.62
407.331	278.62
407.555	277.62
407.778	276.62
408.002	266.62
408.226	254.62
408.449	263.62
408.673	255.62
408.896	261.62
409.12	258.62
409.344	251.62
409.567	252.62
409.791	269.62
410.014	270.62
410.238	281.62
410.461	271.62
410.685	268.62
410.908	248.62
411.132	273.62
411.355	249.62
411.578	275.62
411.802	251.62
412.025	261.62
412.249	270.62
412.472	259.62
412.695	259.62
412.919	257.62
413.142	253.62
413.365	257.62
413.589	255.62
413.812	249.62
414.035	260.62
414.258	250.62
414.482	247.62
414.705	253.62
414.928	246.62
415.151	263.62
415.374	249.62
415.597	264.62
415.821	258.62
416.044	262.62
416.267	273.62
416.49	258.62
416.713	259.62
416.936	246.62
417.159	260.62
417.382	276.62
417.605	262.62
417.828	276.62
418.051	264.62
418.274	257.62
418.497	276.62
418.72	269.62
418.943	285.62
419.166	293.62
419.389	290.62
419.611	293.62
419.834	275.62
420.057	289.62
420.28	290.62
420.503	280.62
420.726	290.62
420.948	265.62
421.171	278.62
421.394	272.62
421.617	295.62
421.839	289.62
422.062	284.62
422.285	276.62
422.507	274.62
422.73	271.62
422.953	246.62
423.175	243.62
423.398	280.62
423.621	286.62
423.843	268.62
424.066	294.62
424.288	289.62
424.511	292.62
424.733	312.62
424.956	295.62
425.178	298.62
425.401	280.62
425.623	286.62
425.846	261.62
426.068	261.62
426.291	261.62
426.513	254.62
426.735	262.62
426.958	262.62
427.18	254.62
427.402	262.62
427.625	255.62
427.847	254.62
428.069	248.62
428.292	249.62
428.514	261.62
428.736	253.62
428.958	246.62
429.181	257.62
429.403	259.62
429.625	253.62
429.847	246.62
430.069	257.62
430.292	251.62
430.514	237.62
430.736	245.62
430.958	265.62
431.18	221.62
431.402	230.62
431.624	251.62
431.846	222.62
432.068	188.62
432.29	185.62
432.512	222.62
432.734	243.62
432.956	250.62
433.178	278.62
433.4	271.62
433.622	273.62
433.844	256.62
434.066	214.62
434.287	210.62
434.509	179.62
434.731	206.62
434.953	243.62
435.175	250.62
435.397	261.62
435.618	236.62
435.84	222.62
436.062	233.62
436.284	238.62
436.505	258.62
436.727	260.62
436.949	254.62
437.17	264.62
437.392	244.62
437.614	261.62
437.835	207.62
438.057	201.62
438.278	220.62
438.5	243.62
438.721	259.62
438.943	278.62
439.165	280.62
439.386	275.62
439.608	288.62
439.829	278.62
440.05	269.62
440.272	292.62
440.493	276.62
440.715	280.62
440.936	296.62
441.158	321.62
441.379	294.62
441.6	281.62
441.822	307.62
442.043	312.62
442.264	274.62
442.486	284.62
442.707	295.62
442.928	290.62
443.149	286.62
443.371	276.62
443.592	296.62
443.813	285.62
444.034	294.62
444.255	300.62
444.476	289.62
444.698	295.62
444.919	312.62
445.14	584.62
445.361	438.62
445.582	302.62
445.803	287.62
446.024	285.62
446.245	303.62
446.466	312.62
446.687	306.62
446.908	321.62
447.129	302.62
447.35	293.62
447.571	301.62
447.792	288.62
448.013	292.62
448.234	279.62
448.455	288.62
448.675	269.62
448.896	274.62
449.117	272.62
449.338	267.62
449.559	285.62
449.779	258.62
450	268.62
450.221	250.62
450.442	244.62
450.662	262.62
450.883	261.62
451.104	268.62
451.324	262.62
451.545	250.62
451.766	269.62
451.986	250.62
452.207	238.62
452.428	228.62
452.648	239.62
452.869	238.62
453.089	214.62
453.31	212.62
453.53	194.62
453.751	197.62
453.971	186.62
454.192	204.62
454.412	188.62
454.633	232.62
454.853	222.62
455.073	231.62
455.294	230.62
455.514	229.62
455.734	213.62
455.955	207.62
456.175	208.62
456.395	206.62
456.616	202.62
456.836	199.62
457.056	191.62
457.276	178.62
457.497	192.62
457.717	189.62
457.937	190.62
458.157	183.62
458.377	189.62
458.598	173.62
458.818	178.62
459.038	160.62
459.258	169.62
459.478	169.62
459.698	169.62
459.918	194.62
460.138	218.62
460.358	231.62
460.578	236.62
460.798	231.62
461.018	234.62
461.238	242.62
461.458	232.62
461.678	235.62
461.898	237.62
462.118	253.62
462.338	242.62
462.558	258.62
462.777	237.62
462.997	232.62
463.217	248.62
463.437	245.62
463.657	245.62
463.876	232.62
464.096	245.62
464.316	246.62
464.536	229.62
464.755	237.62
464.975	227.62
465.195	238.62
465.414	248.62
465.634	217.62
465.854	223.62
466.073	227.62
466.293	230.62
466.512	246.62
466.732	247.62
466.951	280.62
467.171	256.62
467.391	263.62
467.61	248.62
467.829	252.62
468.049	249.62
468.268	252.62
468.488	244.62
468.707	246.62
468.927	272.62
469.146	270.62
469.365	261.62
469.585	263.62
469.804	265.62
470.023	255.62
470.243	283.62
470.462	274.62
470.681	285.62
470.901	261.62
471.12	269.62
471.339	280.62
471.558	256.62
471.777	266.62
471.997	250.62
472.216	230.62
472.435	201.62
472.654	212.62
472.873	208.62
473.092	206.62
473.311	209.62
473.53	227.62
473.749	243.62
473.968	229.62
474.187	226.62
474.406	215.62
474.625	237.62
474.844	235.62
475.063	239.62
475.282	217.62
475.501	208.62
475.72	215.62
475.939	205.62
476.158	248.62
476.377	224.62
476.596	239.62
476.814	216.62
477.033	199.62
477.252	217.62
477.471	231.62
477.69	258.62
477.908	256.62
478.127	282.62
478.346	272.62
478.564	259.62
478.783	248.62
479.002	273.62
479.22	276.62
479.439	259.62
479.658	237.62
479.876	232.62
480.095	223.62
480.313	223.62
480.532	254.62
480.751	223.62
480.969	192.62
481.188	181.62
481.406	179.62
481.624	181.62
481.843	177.62
482.061	165.62
482.28	198.62
482.498	197.62
482.717	204.62
482.935	220.62
483.153	268.62
483.372	273.62
483.59	266.62
483.808	264.62
484.027	256.62
484.245	238.62
484.463	270.62
484.681	297.62
484.9	257.62
485.118	252.62
485.336	212.62
485.554	205.62
485.772	197.62
485.99	193.62
486.209	226.62
486.427	189.62
486.645	240.62
486.863	267.62
487.081	265.62
487.299	260.62
487.517	265.62
487.735	318.62
487.953	350.62
488.171	321.62
488.389	324.62
488.607	286.62
488.825	255.62
489.043	238.62
489.261	250.62
489.479	264.62
489.696	269.62
489.914	272.62
490.132	270.62
490.35	288.62
490.568	332.62
490.786	330.62
491.003	338.62
491.221	363.62
491.439	376.62
491.657	361.62
491.874	421.62
492.092	458.62
492.31	479.62
492.527	470.62
492.745	420.62
492.963	400.62
493.18	376.62
493.398	389.62
493.615	362.62
493.833	371.62
494.05	345.62
494.268	352.62
494.485	336.62
494.703	361.62
494.92	329.62
495.138	356.62
495.355	350.62
495.573	355.62
495.79	348.62
496.008	351.62
496.225	361.62
496.442	334.62
496.66	359.62
496.877	349.62
497.094	352.62
497.312	320.62
497.529	316.62
497.746	319.62
497.963	292.62
498.181	273.62
498.398	280.62
498.615	274.62
498.832	265.62
499.049	272.62
499.267	313.62
499.484	320.62
499.701	352.62
499.918	397.62
500.135	440.62
500.352	462.62
500.569	502.62
500.786	485.62
501.003	462.62
501.22	414.62
501.437	370.62
501.654	350.62
501.871	309.62
502.088	308.62
502.305	313.62
502.522	285.62
502.739	294.62
502.956	296.62
503.172	281.62
503.389	282.62
503.606	252.62
503.823	258.62
504.04	262.62
504.256	257.62
504.473	259.62
504.69	254.62
504.907	254.62
