Data from SampD_HRD10591_00060.txt Node
Date: Mon Jan 19 11:47:58 EST 2026
User: Yrep
Spectrometer: HR+D1059
Trigger mode: 0
Integration Time (sec): 3.443000E-1
Scans to average: 1
Electric dark correction enabled: true
Nonlinearity correction enabled: false
Boxcar width: 0
XAxis mode: Wavelengths
Number of Pixels in Spectrum: 2048
>>>>>Begin Spectral Data<<<<<
223.165	-15.5
223.4	-15.5
223.635	-15.5
223.869	-26.5
224.104	-22.5
224.338	-24.5
224.573	-13.5
224.808	-25.5
225.042	9.5
225.277	-12.5
225.511	4.5
225.746	10.5
225.98	6.5
226.215	1.5
226.449	18.5
226.683	30.5
226.918	24.5
227.152	34.5
227.387	30.5
227.621	50.5
227.856	41.5
228.09	62.5
228.324	51.5
228.559	53.5
228.793	59.5
229.027	65.5
229.262	70.5
229.496	62.5
229.73	81.5
229.964	92.5
230.199	61.5
230.433	66.5
230.667	61.5
230.901	69.5
231.136	88.5
231.37	75.5
231.604	83.5
231.838	86.5
232.072	82.5
232.306	89.5
232.541	110.5
232.775	80.5
233.009	90.5
233.243	66.5
233.477	62.5
233.711	95.5
233.945	88.5
234.179	83.5
234.413	90.5
234.647	84.5
234.881	79.5
235.115	71.5
235.349	82.5
235.583	88.5
235.817	96.5
236.051	94.5
236.285	73.5
236.519	83.5
236.753	92.5
236.987	91.5
237.221	82.5
237.455	59.5
237.689	83.5
237.922	86.5
238.156	84.5
238.39	93.5
238.624	74.5
238.858	79.5
239.091	70.5
239.325	71.5
239.559	82.5
239.793	98.5
240.027	81.5
240.26	89.5
240.494	90.5
240.728	68.5
240.961	94.5
241.195	96.5
241.429	91.5
241.662	74.5
241.896	87.5
242.13	73.5
242.363	80.5
242.597	74.5
242.83	79.5
243.064	84.5
243.298	83.5
243.531	87.5
243.765	94.5
243.998	92.5
244.232	87.5
244.465	98.5
244.699	92.5
244.932	90.5
245.166	85.5
245.399	89.5
245.633	87.5
245.866	94.5
246.099	91.5
246.333	75.5
246.566	91.5
246.8	103.5
247.033	90.5
247.266	84.5
247.5	74.5
247.733	98.5
247.966	84.5
248.2	87.5
248.433	84.5
248.666	87.5
248.899	95.5
249.133	89.5
249.366	107.5
249.599	80.5
249.832	90.5
250.066	107.5
250.299	95.5
250.532	92.5
250.765	84.5
250.998	87.5
251.231	83.5
251.465	94.5
251.698	80.5
251.931	92.5
252.164	87.5
252.397	99.5
252.63	99.5
252.863	89.5
253.096	88.5
253.329	105.5
253.562	97.5
253.795	101.5
254.028	103.5
254.261	89.5
254.494	102.5
254.727	98.5
254.96	94.5
255.193	96.5
255.426	91.5
255.659	102.5
255.892	99.5
256.124	86.5
256.357	100.5
256.59	103.5
256.823	94.5
257.056	81.5
257.289	90.5
257.521	104.5
257.754	94.5
257.987	88.5
258.22	88.5
258.452	88.5
258.685	82.5
258.918	87.5
259.151	111.5
259.383	91.5
259.616	98.5
259.849	98.5
260.081	98.5
260.314	104.5
260.547	82.5
260.779	98.5
261.012	102.5
261.244	89.5
261.477	113.5
261.71	105.5
261.942	91.5
262.175	94.5
262.407	91.5
262.64	89.5
262.872	98.5
263.105	83.5
263.337	107.5
263.57	96.5
263.802	88.5
264.035	99.5
264.267	90.5
264.499	84.5
264.732	96.5
264.964	97.5
265.197	102.5
265.429	101.5
265.661	99.5
265.894	107.5
266.126	91.5
266.358	100.5
266.591	106.5
266.823	95.5
267.055	93.5
267.287	103.5
267.52	97.5
267.752	105.5
267.984	112.5
268.216	103.5
268.448	120.5
268.681	100.5
268.913	108.5
269.145	103.5
269.377	113.5
269.609	92.5
269.841	110.5
270.073	105.5
270.306	94.5
270.538	94.5
270.77	107.5
271.002	97.5
271.234	114.5
271.466	90.5
271.698	97.5
271.93	107.5
272.162	104.5
272.394	110.5
272.626	100.5
272.858	103.5
273.09	98.5
273.322	99.5
273.553	96.5
273.785	111.5
274.017	108.5
274.249	98.5
274.481	111.5
274.713	115.5
274.945	112.5
275.176	111.5
275.408	111.5
275.64	108.5
275.872	114.5
276.104	120.5
276.335	94.5
276.567	105.5
276.799	106.5
277.031	111.5
277.262	98.5
277.494	126.5
277.726	106.5
277.957	113.5
278.189	102.5
278.421	111.5
278.652	111.5
278.884	113.5
279.115	96.5
279.347	106.5
279.579	97.5
279.81	112.5
280.042	110.5
280.273	119.5
280.505	89.5
280.736	98.5
280.968	91.5
281.199	114.5
281.431	118.5
281.662	114.5
281.894	115.5
282.125	122.5
282.356	119.5
282.588	118.5
282.819	115.5
283.051	104.5
283.282	104.5
283.513	116.5
283.745	117.5
283.976	104.5
284.207	112.5
284.439	109.5
284.67	106.5
284.901	133.5
285.132	114.5
285.364	100.5
285.595	106.5
285.826	106.5
286.057	124.5
286.288	116.5
286.52	120.5
286.751	117.5
286.982	118.5
287.213	127.5
287.444	127.5
287.675	114.5
287.906	120.5
288.138	116.5
288.369	116.5
288.6	115.5
288.831	110.5
289.062	122.5
289.293	121.5
289.524	124.5
289.755	113.5
289.986	121.5
290.217	123.5
290.448	104.5
290.679	134.5
290.91	124.5
291.141	117.5
291.371	123.5
291.602	130.5
291.833	112.5
292.064	114.5
292.295	109.5
292.526	118.5
292.757	122.5
292.987	118.5
293.218	111.5
293.449	109.5
293.68	116.5
293.91	112.5
294.141	126.5
294.372	123.5
294.603	112.5
294.833	107.5
295.064	128.5
295.295	116.5
295.525	112.5
295.756	123.5
295.987	109.5
296.217	130.5
296.448	122.5
296.679	129.5
296.909	138.5
297.14	123.5
297.37	130.5
297.601	113.5
297.831	112.5
298.062	139.5
298.292	118.5
298.523	122.5
298.753	115.5
298.984	120.5
299.214	131.5
299.445	111.5
299.675	119.5
299.905	116.5
300.136	111.5
300.366	107.5
300.597	126.5
300.827	138.5
301.057	119.5
301.288	127.5
301.518	122.5
301.748	116.5
301.979	174.5
302.209	110.5
302.439	129.5
302.669	123.5
302.9	118.5
303.13	118.5
303.36	119.5
303.59	118.5
303.82	132.5
304.051	120.5
304.281	137.5
304.511	137.5
304.741	131.5
304.971	105.5
305.201	128.5
305.431	132.5
305.661	123.5
305.891	120.5
306.121	124.5
306.352	120.5
306.582	135.5
306.812	121.5
307.042	131.5
307.272	122.5
307.502	103.5
307.731	114.5
307.961	132.5
308.191	112.5
308.421	127.5
308.651	117.5
308.881	121.5
309.111	113.5
309.341	103.5
309.571	125.5
309.8	126.5
310.03	123.5
310.26	135.5
310.49	120.5
310.72	122.5
310.949	131.5
311.179	133.5
311.409	112.5
311.639	142.5
311.868	118.5
312.098	123.5
312.328	146.5
312.557	127.5
312.787	110.5
313.017	119.5
313.246	107.5
313.476	128.5
313.706	116.5
313.935	139.5
314.165	135.5
314.394	136.5
314.624	115.5
314.853	130.5
315.083	136.5
315.312	110.5
315.542	131.5
315.771	120.5
316.001	128.5
316.23	115.5
316.46	104.5
316.689	123.5
316.919	134.5
317.148	136.5
317.377	122.5
317.607	122.5
317.836	127.5
318.065	128.5
318.295	129.5
318.524	123.5
318.753	133.5
318.983	123.5
319.212	123.5
319.441	134.5
319.67	133.5
319.9	129.5
320.129	136.5
320.358	122.5
320.587	124.5
320.816	116.5
321.046	143.5
321.275	123.5
321.504	126.5
321.733	123.5
321.962	122.5
322.191	134.5
322.42	125.5
322.649	131.5
322.878	132.5
323.108	129.5
323.337	125.5
323.566	114.5
323.795	114.5
324.024	123.5
324.253	143.5
324.482	128.5
324.71	137.5
324.939	132.5
325.168	115.5
325.397	126.5
325.626	136.5
325.855	124.5
326.084	127.5
326.313	131.5
326.542	108.5
326.77	130.5
326.999	142.5
327.228	139.5
327.457	138.5
327.686	149.5
327.914	130.5
328.143	156.5
328.372	142.5
328.6	138.5
328.829	129.5
329.058	131.5
329.287	131.5
329.515	121.5
329.744	143.5
329.972	135.5
330.201	148.5
330.43	140.5
330.658	142.5
330.887	142.5
331.115	133.5
331.344	133.5
331.572	152.5
331.801	137.5
332.03	147.5
332.258	145.5
332.486	147.5
332.715	139.5
332.943	137.5
333.172	131.5
333.4	156.5
333.629	158.5
333.857	138.5
334.085	151.5
334.314	151.5
334.542	151.5
334.771	157.5
334.999	146.5
335.227	147.5
335.455	122.5
335.684	157.5
335.912	149.5
336.14	145.5
336.369	146.5
336.597	145.5
336.825	139.5
337.053	148.5
337.281	134.5
337.51	121.5
337.738	138.5
337.966	143.5
338.194	135.5
338.422	136.5
338.65	139.5
338.878	148.5
339.106	147.5
339.334	136.5
339.562	130.5
339.79	129.5
340.018	113.5
340.246	131.5
340.474	129.5
340.702	135.5
340.93	122.5
341.158	128.5
341.386	127.5
341.614	139.5
341.842	130.5
342.07	137.5
342.298	138.5
342.526	144.5
342.754	119.5
342.981	121.5
343.209	123.5
343.437	176.5
343.665	140.5
343.893	139.5
344.12	157.5
344.348	158.5
344.576	143.5
344.804	147.5
345.031	121.5
345.259	145.5
345.487	139.5
345.714	140.5
345.942	133.5
346.17	148.5
346.397	145.5
346.625	123.5
346.853	126.5
347.08	137.5
347.308	147.5
347.535	124.5
347.763	129.5
347.99	147.5
348.218	156.5
348.445	127.5
348.673	122.5
348.9	135.5
349.128	135.5
349.355	128.5
349.583	124.5
349.81	124.5
350.037	118.5
350.265	131.5
350.492	124.5
350.72	117.5
350.947	134.5
351.174	134.5
351.402	149.5
351.629	131.5
351.856	137.5
352.083	126.5
352.311	135.5
352.538	125.5
352.765	122.5
352.992	146.5
353.22	142.5
353.447	127.5
353.674	128.5
353.901	149.5
354.128	124.5
354.355	129.5
354.583	132.5
354.81	114.5
355.037	123.5
355.264	125.5
355.491	136.5
355.718	135.5
355.945	140.5
356.172	129.5
356.399	130.5
356.626	147.5
356.853	129.5
357.08	128.5
357.307	137.5
357.534	135.5
357.761	127.5
357.988	150.5
358.215	129.5
358.441	128.5
358.668	124.5
358.895	143.5
359.122	118.5
359.349	122.5
359.576	108.5
359.802	131.5
360.029	123.5
360.256	146.5
360.483	130.5
360.709	112.5
360.936	152.5
361.163	144.5
361.39	122.5
361.616	125.5
361.843	126.5
362.07	128.5
362.296	137.5
362.523	127.5
362.749	136.5
362.976	131.5
363.203	150.5
363.429	129.5
363.656	127.5
363.882	134.5
364.109	137.5
364.335	123.5
364.562	132.5
364.788	138.5
365.015	132.5
365.241	135.5
365.468	139.5
365.694	118.5
365.92	123.5
366.147	146.5
366.373	136.5
366.599	144.5
366.826	149.5
367.052	128.5
367.278	146.5
367.505	146.5
367.731	145.5
367.957	136.5
368.184	143.5
368.41	142.5
368.636	138.5
368.862	149.5
369.089	136.5
369.315	121.5
369.541	134.5
369.767	139.5
369.993	136.5
370.219	145.5
370.445	144.5
370.672	138.5
370.898	148.5
371.124	138.5
371.35	146.5
371.576	147.5
371.802	143.5
372.028	139.5
372.254	148.5
372.48	158.5
372.706	154.5
372.932	158.5
373.158	153.5
373.384	169.5
373.61	153.5
373.835	150.5
374.061	137.5
374.287	147.5
374.513	149.5
374.739	159.5
374.965	175.5
375.191	167.5
375.416	162.5
375.642	171.5
375.868	150.5
376.094	158.5
376.319	153.5
376.545	132.5
376.771	165.5
376.997	167.5
377.222	157.5
377.448	166.5
377.674	157.5
377.899	155.5
378.125	150.5
378.35	160.5
378.576	150.5
378.802	164.5
379.027	171.5
379.253	182.5
379.478	146.5
379.704	161.5
379.929	149.5
380.155	164.5
380.38	168.5
380.606	156.5
380.831	155.5
381.057	173.5
381.282	164.5
381.507	168.5
381.733	170.5
381.958	167.5
382.184	159.5
382.409	170.5
382.634	170.5
382.86	176.5
383.085	169.5
383.31	175.5
383.535	170.5
383.761	178.5
383.986	192.5
384.211	187.5
384.436	176.5
384.662	178.5
384.887	169.5
385.112	182.5
385.337	190.5
385.562	175.5
385.787	195.5
386.013	200.5
386.238	167.5
386.463	198.5
386.688	218.5
386.913	182.5
387.138	192.5
387.363	190.5
387.588	206.5
387.813	202.5
388.038	180.5
388.263	206.5
388.488	194.5
388.713	198.5
388.938	205.5
389.163	200.5
389.387	183.5
389.612	197.5
389.837	201.5
390.062	204.5
390.287	203.5
390.512	200.5
390.736	206.5
390.961	194.5
391.186	197.5
391.411	209.5
391.636	182.5
391.86	212.5
392.085	216.5
392.31	203.5
392.534	197.5
392.759	222.5
392.984	225.5
393.208	212.5
393.433	207.5
393.658	206.5
393.882	202.5
394.107	203.5
394.331	214.5
394.556	200.5
394.78	213.5
395.005	199.5
395.229	206.5
395.454	216.5
395.678	199.5
395.903	226.5
396.127	209.5
396.352	201.5
396.576	233.5
396.801	207.5
397.025	222.5
397.249	213.5
397.474	227.5
397.698	219.5
397.922	221.5
398.147	218.5
398.371	222.5
398.595	233.5
398.82	246.5
399.044	236.5
399.268	272.5
399.492	273.5
399.717	273.5
399.941	267.5
400.165	267.5
400.389	256.5
400.613	228.5
400.837	234.5
401.062	258.5
401.286	231.5
401.51	241.5
401.734	232.5
401.958	235.5
402.182	243.5
402.406	253.5
402.63	239.5
402.854	244.5
403.078	247.5
403.302	272.5
403.526	243.5
403.75	278.5
403.974	262.5
404.198	279.5
404.422	276.5
404.645	279.5
404.869	273.5
405.093	246.5
405.317	272.5
405.541	267.5
405.765	266.5
405.988	265.5
406.212	255.5
406.436	262.5
406.66	290.5
406.883	264.5
407.107	282.5
407.331	276.5
407.555	284.5
407.778	286.5
408.002	272.5
408.226	282.5
408.449	277.5
408.673	269.5
408.896	262.5
409.12	268.5
409.344	272.5
409.567	262.5
409.791	294.5
410.014	279.5
410.238	287.5
410.461	271.5
410.685	272.5
410.908	260.5
411.132	266.5
411.355	256.5
411.578	274.5
411.802	266.5
412.025	272.5
412.249	267.5
412.472	243.5
412.695	265.5
412.919	250.5
413.142	250.5
413.365	257.5
413.589	243.5
413.812	253.5
414.035	276.5
414.258	266.5
414.482	266.5
414.705	261.5
414.928	250.5
415.151	251.5
415.374	257.5
415.597	274.5
415.821	274.5
416.044	259.5
416.267	255.5
416.49	279.5
416.713	273.5
416.936	270.5
417.159	273.5
417.382	250.5
417.605	263.5
417.828	267.5
418.051	258.5
418.274	275.5
418.497	282.5
418.72	275.5
418.943	297.5
419.166	294.5
419.389	280.5
419.611	285.5
419.834	276.5
420.057	274.5
420.28	281.5
420.503	258.5
420.726	273.5
420.948	278.5
421.171	281.5
421.394	289.5
421.617	274.5
421.839	297.5
422.062	294.5
422.285	266.5
422.507	275.5
422.73	272.5
422.953	263.5
423.175	276.5
423.398	274.5
423.621	297.5
423.843	307.5
424.066	288.5
424.288	316.5
424.511	278.5
424.733	300.5
424.956	298.5
425.178	304.5
425.401	306.5
425.623	276.5
425.846	268.5
426.068	275.5
426.291	274.5
426.513	268.5
426.735	275.5
426.958	278.5
427.18	286.5
427.402	270.5
427.625	262.5
427.847	273.5
428.069	270.5
428.292	272.5
428.514	277.5
428.736	255.5
428.958	272.5
429.181	263.5
429.403	250.5
429.625	258.5
429.847	251.5
430.069	270.5
430.292	292.5
430.514	247.5
430.736	245.5
430.958	254.5
431.18	256.5
431.402	258.5
431.624	235.5
431.846	206.5
432.068	190.5
432.29	182.5
432.512	239.5
432.734	252.5
432.956	274.5
433.178	276.5
433.4	277.5
433.622	277.5
433.844	266.5
434.066	227.5
434.287	200.5
434.509	204.5
434.731	198.5
434.953	233.5
435.175	261.5
435.397	256.5
435.618	236.5
435.84	227.5
436.062	223.5
436.284	237.5
436.505	273.5
436.727	277.5
436.949	262.5
437.17	267.5
437.392	255.5
437.614	225.5
437.835	216.5
438.057	216.5
438.278	206.5
438.5	236.5
438.721	249.5
438.943	280.5
439.165	279.5
439.386	290.5
439.608	291.5
439.829	303.5
440.05	297.5
440.272	280.5
440.493	299.5
440.715	286.5
440.936	304.5
441.158	292.5
441.379	299.5
441.6	294.5
441.822	311.5
442.043	300.5
442.264	288.5
442.486	307.5
442.707	289.5
442.928	268.5
443.149	283.5
443.371	297.5
443.592	284.5
443.813	284.5
444.034	301.5
444.255	302.5
444.476	296.5
444.698	315.5
444.919	317.5
445.14	579.5
445.361	433.5
445.582	321.5
445.803	290.5
446.024	319.5
446.245	315.5
446.466	317.5
446.687	307.5
446.908	316.5
447.129	313.5
447.35	304.5
447.571	300.5
447.792	286.5
448.013	288.5
448.234	274.5
448.455	273.5
448.675	280.5
448.896	261.5
449.117	277.5
449.338	274.5
449.559	279.5
449.779	272.5
450	268.5
450.221	280.5
450.442	282.5
450.662	278.5
450.883	265.5
451.104	274.5
451.324	268.5
451.545	264.5
451.766	255.5
451.986	255.5
452.207	242.5
452.428	245.5
452.648	248.5
452.869	212.5
453.089	208.5
453.31	216.5
453.53	203.5
453.751	190.5
453.971	202.5
454.192	192.5
454.412	198.5
454.633	212.5
454.853	233.5
455.073	213.5
455.294	229.5
455.514	230.5
455.734	217.5
455.955	217.5
456.175	214.5
456.395	187.5
456.616	190.5
456.836	190.5
457.056	194.5
457.276	190.5
457.497	190.5
457.717	181.5
457.937	202.5
458.157	177.5
458.377	202.5
458.598	181.5
458.818	173.5
459.038	177.5
459.258	166.5
459.478	158.5
459.698	176.5
459.918	212.5
460.138	208.5
460.358	212.5
460.578	226.5
460.798	236.5
461.018	255.5
461.238	242.5
461.458	248.5
461.678	227.5
461.898	245.5
462.118	244.5
462.338	233.5
462.558	250.5
462.777	242.5
462.997	267.5
463.217	263.5
463.437	244.5
463.657	252.5
463.876	235.5
464.096	246.5
464.316	241.5
464.536	241.5
464.755	242.5
464.975	249.5
465.195	251.5
465.414	226.5
465.634	224.5
465.854	240.5
466.073	231.5
466.293	243.5
466.512	241.5
466.732	256.5
466.951	264.5
467.171	279.5
467.391	256.5
467.61	235.5
467.829	240.5
468.049	271.5
468.268	248.5
468.488	259.5
468.707	254.5
468.927	273.5
469.146	247.5
469.365	290.5
469.585	263.5
469.804	279.5
470.023	276.5
470.243	271.5
470.462	278.5
470.681	278.5
470.901	280.5
471.12	264.5
471.339	277.5
471.558	278.5
471.777	267.5
471.997	259.5
472.216	233.5
472.435	223.5
472.654	207.5
472.873	203.5
473.092	214.5
473.311	231.5
473.53	226.5
473.749	249.5
473.968	227.5
474.187	198.5
474.406	216.5
474.625	251.5
474.844	260.5
475.063	225.5
475.282	218.5
475.501	224.5
475.72	231.5
475.939	246.5
476.158	239.5
476.377	250.5
476.596	226.5
476.814	215.5
477.033	197.5
477.252	208.5
477.471	225.5
477.69	252.5
477.908	258.5
478.127	270.5
478.346	272.5
478.564	273.5
478.783	255.5
479.002	269.5
479.22	278.5
479.439	286.5
479.658	243.5
479.876	226.5
480.095	231.5
480.313	227.5
480.532	245.5
480.751	208.5
480.969	206.5
481.188	184.5
481.406	180.5
481.624	178.5
481.843	183.5
482.061	192.5
482.28	224.5
482.498	223.5
482.717	197.5
482.935	227.5
483.153	283.5
483.372	292.5
483.59	286.5
483.808	265.5
484.027	243.5
484.245	264.5
484.463	274.5
484.681	286.5
484.9	275.5
485.118	259.5
485.336	246.5
485.554	206.5
485.772	202.5
485.99	211.5
486.209	220.5
486.427	207.5
486.645	231.5
486.863	279.5
487.081	281.5
487.299	279.5
487.517	277.5
487.735	341.5
487.953	356.5
488.171	354.5
488.389	345.5
488.607	294.5
488.825	252.5
489.043	238.5
489.261	242.5
489.479	264.5
489.696	259.5
489.914	271.5
490.132	283.5
490.35	312.5
490.568	318.5
490.786	359.5
491.003	357.5
491.221	371.5
491.439	396.5
491.657	407.5
491.874	424.5
492.092	458.5
492.31	466.5
492.527	447.5
492.745	434.5
492.963	411.5
493.18	395.5
493.398	357.5
493.615	376.5
493.833	378.5
494.05	345.5
494.268	331.5
494.485	343.5
494.703	369.5
494.92	348.5
495.138	360.5
495.355	368.5
495.573	352.5
495.79	364.5
496.008	330.5
496.225	364.5
496.442	336.5
496.66	345.5
496.877	360.5
497.094	356.5
497.312	336.5
497.529	327.5
497.746	314.5
497.963	293.5
498.181	277.5
498.398	295.5
498.615	278.5
498.832	280.5
499.049	284.5
499.267	312.5
499.484	355.5
499.701	370.5
499.918	389.5
500.135	437.5
500.352	482.5
500.569	486.5
500.786	497.5
501.003	475.5
501.22	411.5
501.437	393.5
501.654	362.5
501.871	322.5
502.088	326.5
502.305	308.5
502.522	292.5
502.739	299.5
502.956	289.5
503.172	267.5
503.389	267.5
503.606	255.5
503.823	241.5
504.04	264.5
504.256	257.5
504.473	257.5
504.69	255.5
504.907	267.5
505.123	268.5
505.34	251.5
505.557	251.5
505.773	249.5
505.99	247.5
506.207	243.5
506.423	237.5
506.64	225.5
506.856	232.5
507.073	247.5
507.289	229.5
507.506	237.5
507.722	229.5
507.939	222.5
508.155	215.5
508.372	228.5
508.588	210.5
508.805	197.5
509.021	194.5
509.238	193.5
509.454	176.5
509.67	199.5
509.887	188.5
510.103	184.5
510.319	164.5
510.536	162.5
510.752	170.5
510.968	159.5
511.184	150.5
511.401	148.5
511.617	179.5
511.833	159.5
512.049	174.5
512.265	180.5
512.481	165.5
512.698	186.5
512.914	164.5
513.13	168.5
513.346	181.5
513.562	166.5
513.778	171.5
513.994	172.5
514.21	160.5
514.426	188.5
514.642	163.5
514.858	183.5
515.074	171.5
515.29	179.5
515.506	171.5
515.721	163.5
515.937	171.5
516.153	167.5
516.369	172.5
516.585	177.5
516.801	178.5
517.016	178.5
517.232	203.5
517.448	196.5
517.664	209.5
517.879	210.5
518.095	199.5
518.311	192.5
518.527	185.5
518.742	207.5
518.958	203.5
519.173	207.5
519.389	192.5
519.605	208.5
519.82	185.5
520.036	218.5
520.251	187.5
520.467	202.5
520.682	176.5
520.898	178.5
521.113	157.5
521.329	171.5
521.544	165.5
521.76	178.5
521.975	174.5
522.19	168.5
522.406	184.5
522.621	180.5
522.836	185.5
523.052	210.5
