Data from SampD_HRD10591_00016.txt Node
Date: Mon Jan 19 11:47:43 EST 2026
User: Yrep
Spectrometer: HR+D1059
Trigger mode: 0
Integration Time (sec): 3.443000E-1
Scans to average: 1
Electric dark correction enabled: true
Nonlinearity correction enabled: false
Boxcar width: 0
XAxis mode: Wavelengths
Number of Pixels in Spectrum: 2048
>>>>>Begin Spectral Data<<<<<
223.165	-38.69
223.4	-38.69
223.635	-38.69
223.869	-25.69
224.104	-19.69
224.338	-25.69
224.573	-16.69
224.808	-2.69
225.042	-0.69
225.277	10.31
225.511	-4.69
225.746	10.31
225.98	7.31
226.215	5.31
226.449	13.31
226.683	20.31
226.918	36.31
227.152	31.31
227.387	38.31
227.621	46.31
227.856	44.31
228.09	51.31
228.324	46.31
228.559	55.31
228.793	48.31
229.027	67.31
229.262	83.31
229.496	80.31
229.73	66.31
229.964	77.31
230.199	79.31
230.433	66.31
230.667	71.31
230.901	73.31
231.136	75.31
231.37	88.31
231.604	88.31
231.838	84.31
232.072	78.31
232.306	81.31
232.541	80.31
232.775	82.31
233.009	91.31
233.243	80.31
233.477	78.31
233.711	76.31
233.945	93.31
234.179	82.31
234.413	96.31
234.647	93.31
234.881	80.31
235.115	84.31
235.349	73.31
235.583	81.31
235.817	79.31
236.051	66.31
236.285	71.31
236.519	66.31
236.753	85.31
236.987	70.31
237.221	97.31
237.455	81.31
237.689	81.31
237.922	79.31
238.156	75.31
238.39	79.31
238.624	73.31
238.858	79.31
239.091	83.31
239.325	78.31
239.559	91.31
239.793	83.31
240.027	92.31
240.26	72.31
240.494	80.31
240.728	74.31
240.961	87.31
241.195	79.31
241.429	96.31
241.662	85.31
241.896	97.31
242.13	88.31
242.363	73.31
242.597	78.31
242.83	84.31
243.064	94.31
243.298	71.31
243.531	79.31
243.765	81.31
243.998	90.31
244.232	104.31
244.465	82.31
244.699	90.31
244.932	70.31
245.166	84.31
245.399	71.31
245.633	88.31
245.866	83.31
246.099	73.31
246.333	82.31
246.566	78.31
246.8	89.31
247.033	84.31
247.266	75.31
247.5	74.31
247.733	81.31
247.966	77.31
248.2	83.31
248.433	84.31
248.666	82.31
248.899	73.31
249.133	81.31
249.366	74.31
249.599	88.31
249.832	90.31
250.066	113.31
250.299	79.31
250.532	70.31
250.765	82.31
250.998	80.31
251.231	81.31
251.465	87.31
251.698	86.31
251.931	91.31
252.164	85.31
252.397	90.31
252.63	86.31
252.863	86.31
253.096	101.31
253.329	82.31
253.562	79.31
253.795	97.31
254.028	102.31
254.261	83.31
254.494	95.31
254.727	96.31
254.96	73.31
255.193	74.31
255.426	65.31
255.659	88.31
255.892	97.31
256.124	79.31
256.357	77.31
256.59	94.31
256.823	79.31
257.056	69.31
257.289	92.31
257.521	89.31
257.754	78.31
257.987	75.31
258.22	93.31
258.452	94.31
258.685	81.31
258.918	66.31
259.151	88.31
259.383	84.31
259.616	82.31
259.849	83.31
260.081	101.31
260.314	87.31
260.547	93.31
260.779	81.31
261.012	82.31
261.244	95.31
261.477	112.31
261.71	80.31
261.942	76.31
262.175	98.31
262.407	91.31
262.64	98.31
262.872	98.31
263.105	85.31
263.337	72.31
263.57	87.31
263.802	88.31
264.035	89.31
264.267	95.31
264.499	85.31
264.732	106.31
264.964	90.31
265.197	104.31
265.429	105.31
265.661	90.31
265.894	92.31
266.126	91.31
266.358	81.31
266.591	95.31
266.823	94.31
267.055	98.31
267.287	96.31
267.52	91.31
267.752	105.31
267.984	88.31
268.216	90.31
268.448	102.31
268.681	100.31
268.913	104.31
269.145	86.31
269.377	95.31
269.609	84.31
269.841	97.31
270.073	97.31
270.306	97.31
270.538	90.31
270.77	88.31
271.002	73.31
271.234	86.31
271.466	109.31
271.698	94.31
271.93	103.31
272.162	101.31
272.394	92.31
272.626	98.31
272.858	84.31
273.09	89.31
273.322	99.31
273.553	94.31
273.785	96.31
274.017	82.31
274.249	94.31
274.481	100.31
274.713	74.31
274.945	104.31
275.176	97.31
275.408	88.31
275.64	93.31
275.872	69.31
276.104	100.31
276.335	89.31
276.567	88.31
276.799	98.31
277.031	95.31
277.262	101.31
277.494	78.31
277.726	96.31
277.957	96.31
278.189	103.31
278.421	93.31
278.652	93.31
278.884	98.31
279.115	94.31
279.347	94.31
279.579	86.31
279.81	92.31
280.042	98.31
280.273	98.31
280.505	95.31
280.736	107.31
280.968	104.31
281.199	103.31
281.431	85.31
281.662	84.31
281.894	98.31
282.125	98.31
282.356	94.31
282.588	91.31
282.819	85.31
283.051	86.31
283.282	98.31
283.513	103.31
283.745	90.31
283.976	90.31
284.207	87.31
284.439	94.31
284.67	105.31
284.901	101.31
285.132	95.31
285.364	98.31
285.595	94.31
285.826	102.31
286.057	90.31
286.288	88.31
286.52	99.31
286.751	99.31
286.982	91.31
287.213	88.31
287.444	96.31
287.675	117.31
287.906	108.31
288.138	90.31
288.369	113.31
288.6	106.31
288.831	102.31
289.062	111.31
289.293	113.31
289.524	106.31
289.755	93.31
289.986	85.31
290.217	106.31
290.448	107.31
290.679	108.31
290.91	105.31
291.141	94.31
291.371	110.31
291.602	99.31
291.833	105.31
292.064	89.31
292.295	103.31
292.526	103.31
292.757	104.31
292.987	84.31
293.218	104.31
293.449	106.31
293.68	84.31
293.91	98.31
294.141	108.31
294.372	106.31
294.603	100.31
294.833	96.31
295.064	92.31
295.295	103.31
295.525	113.31
295.756	105.31
295.987	98.31
296.217	93.31
296.448	112.31
296.679	117.31
296.909	110.31
297.14	90.31
297.37	101.31
297.601	101.31
297.831	83.31
298.062	105.31
298.292	93.31
298.523	88.31
298.753	102.31
298.984	104.31
299.214	96.31
299.445	111.31
299.675	101.31
299.905	110.31
300.136	93.31
300.366	95.31
300.597	101.31
300.827	97.31
301.057	91.31
301.288	93.31
301.518	107.31
301.748	91.31
301.979	146.31
302.209	112.31
302.439	107.31
302.669	103.31
302.9	103.31
303.13	106.31
303.36	105.31
303.59	99.31
303.82	96.31
304.051	104.31
304.281	107.31
304.511	113.31
304.741	97.31
304.971	96.31
305.201	107.31
305.431	97.31
305.661	102.31
305.891	110.31
306.121	105.31
306.352	99.31
306.582	92.31
306.812	100.31
307.042	99.31
307.272	93.31
307.502	95.31
307.731	114.31
307.961	110.31
308.191	95.31
308.421	112.31
308.651	110.31
308.881	97.31
309.111	102.31
309.341	102.31
309.571	99.31
309.8	90.31
310.03	93.31
310.26	109.31
310.49	111.31
310.72	100.31
310.949	96.31
311.179	105.31
311.409	103.31
311.639	102.31
311.868	121.31
312.098	115.31
312.328	119.31
312.557	87.31
312.787	96.31
313.017	117.31
313.246	95.31
313.476	102.31
313.706	113.31
313.935	95.31
314.165	96.31
314.394	93.31
314.624	99.31
314.853	113.31
315.083	86.31
315.312	111.31
315.542	86.31
315.771	97.31
316.001	111.31
316.23	105.31
316.46	94.31
316.689	101.31
316.919	105.31
317.148	105.31
317.377	111.31
317.607	110.31
317.836	115.31
318.065	102.31
318.295	103.31
318.524	103.31
318.753	112.31
318.983	101.31
319.212	91.31
319.441	92.31
319.67	103.31
319.9	116.31
320.129	96.31
320.358	123.31
320.587	102.31
320.816	103.31
321.046	110.31
321.275	114.31
321.504	103.31
321.733	104.31
321.962	95.31
322.191	83.31
322.42	109.31
322.649	105.31
322.878	120.31
323.108	110.31
323.337	120.31
323.566	95.31
323.795	121.31
324.024	120.31
324.253	112.31
324.482	104.31
324.71	90.31
324.939	111.31
325.168	99.31
325.397	111.31
325.626	98.31
325.855	113.31
326.084	98.31
326.313	114.31
326.542	102.31
326.77	118.31
326.999	113.31
327.228	105.31
327.457	106.31
327.686	103.31
327.914	107.31
328.143	116.31
328.372	119.31
328.6	103.31
328.829	107.31
329.058	113.31
329.287	96.31
329.515	94.31
329.744	105.31
329.972	105.31
330.201	114.31
330.43	120.31
330.658	109.31
330.887	113.31
331.115	119.31
331.344	119.31
331.572	104.31
331.801	122.31
332.03	114.31
332.258	111.31
332.486	112.31
332.715	106.31
332.943	103.31
333.172	120.31
333.4	105.31
333.629	110.31
333.857	124.31
334.085	128.31
334.314	124.31
334.542	118.31
334.771	115.31
334.999	109.31
335.227	99.31
335.455	118.31
335.684	120.31
335.912	122.31
336.14	103.31
336.369	114.31
336.597	125.31
336.825	111.31
337.053	106.31
337.281	113.31
337.51	108.31
337.738	116.31
337.966	117.31
338.194	102.31
338.422	117.31
338.65	128.31
338.878	126.31
339.106	104.31
339.334	125.31
339.562	111.31
339.79	96.31
340.018	103.31
340.246	102.31
340.474	105.31
340.702	108.31
340.93	99.31
341.158	118.31
341.386	110.31
341.614	117.31
341.842	110.31
342.07	124.31
342.298	124.31
342.526	118.31
342.754	101.31
342.981	96.31
343.209	106.31
343.437	132.31
343.665	122.31
343.893	116.31
344.12	128.31
344.348	103.31
344.576	106.31
344.804	107.31
345.031	108.31
345.259	122.31
345.487	101.31
345.714	114.31
345.942	119.31
346.17	113.31
346.397	100.31
346.625	106.31
346.853	102.31
347.08	106.31
347.308	106.31
347.535	106.31
347.763	111.31
347.99	125.31
348.218	120.31
348.445	106.31
348.673	109.31
348.9	106.31
349.128	108.31
349.355	92.31
349.583	99.31
349.81	98.31
350.037	109.31
350.265	115.31
350.492	97.31
350.72	98.31
350.947	94.31
351.174	88.31
351.402	111.31
351.629	113.31
351.856	95.31
352.083	99.31
352.311	107.31
352.538	103.31
352.765	120.31
352.992	122.31
353.22	98.31
353.447	106.31
353.674	102.31
353.901	128.31
354.128	102.31
354.355	109.31
354.583	104.31
354.81	113.31
355.037	97.31
355.264	91.31
355.491	120.31
355.718	107.31
355.945	106.31
356.172	109.31
356.399	95.31
356.626	106.31
356.853	105.31
357.08	95.31
357.307	107.31
357.534	109.31
357.761	126.31
357.988	101.31
358.215	115.31
358.441	101.31
358.668	101.31
358.895	105.31
359.122	97.31
359.349	98.31
359.576	103.31
359.802	101.31
360.029	92.31
360.256	103.31
360.483	92.31
360.709	97.31
360.936	122.31
361.163	108.31
361.39	110.31
361.616	110.31
361.843	118.31
362.07	105.31
362.296	99.31
362.523	88.31
362.749	97.31
362.976	105.31
363.203	116.31
363.429	108.31
363.656	105.31
363.882	112.31
364.109	96.31
364.335	124.31
364.562	110.31
364.788	92.31
365.015	108.31
365.241	103.31
365.468	110.31
365.694	118.31
365.92	112.31
366.147	103.31
366.373	113.31
366.599	105.31
366.826	102.31
367.052	105.31
367.278	119.31
367.505	118.31
367.731	133.31
367.957	114.31
368.184	113.31
368.41	115.31
368.636	120.31
368.862	112.31
369.089	114.31
369.315	102.31
369.541	130.31
369.767	114.31
369.993	101.31
370.219	107.31
370.445	107.31
370.672	104.31
370.898	104.31
371.124	114.31
371.35	101.31
371.576	116.31
371.802	106.31
372.028	112.31
372.254	121.31
372.48	114.31
372.706	103.31
372.932	109.31
373.158	116.31
373.384	120.31
373.61	126.31
373.835	106.31
374.061	117.31
374.287	127.31
374.513	111.31
374.739	117.31
374.965	112.31
375.191	106.31
375.416	131.31
375.642	122.31
375.868	127.31
376.094	133.31
376.319	118.31
376.545	135.31
376.771	106.31
376.997	98.31
377.222	107.31
377.448	124.31
377.674	113.31
377.899	130.31
378.125	135.31
378.35	123.31
378.576	121.31
378.802	111.31
379.027	105.31
379.253	123.31
379.478	111.31
379.704	114.31
379.929	95.31
380.155	126.31
380.38	121.31
380.606	106.31
380.831	107.31
381.057	114.31
381.282	109.31
381.507	123.31
381.733	125.31
381.958	117.31
382.184	134.31
382.409	126.31
382.634	127.31
382.86	121.31
383.085	119.31
383.31	117.31
383.535	119.31
383.761	117.31
383.986	120.31
384.211	140.31
384.436	138.31
384.662	127.31
384.887	128.31
385.112	125.31
385.337	119.31
385.562	137.31
385.787	133.31
386.013	139.31
386.238	122.31
386.463	131.31
386.688	149.31
386.913	138.31
387.138	143.31
387.363	126.31
387.588	148.31
387.813	143.31
388.038	133.31
388.263	128.31
388.488	123.31
388.713	131.31
388.938	138.31
389.163	141.31
389.387	136.31
389.612	119.31
389.837	129.31
390.062	141.31
390.287	129.31
390.512	133.31
390.736	141.31
390.961	135.31
391.186	141.31
391.411	136.31
391.636	151.31
391.86	152.31
392.085	142.31
392.31	143.31
392.534	133.31
392.759	153.31
392.984	161.31
393.208	137.31
393.433	130.31
393.658	153.31
393.882	141.31
394.107	143.31
394.331	138.31
394.556	143.31
394.78	157.31
395.005	152.31
395.229	135.31
395.454	138.31
395.678	149.31
395.903	155.31
396.127	142.31
396.352	151.31
396.576	136.31
396.801	154.31
397.025	155.31
397.249	154.31
397.474	159.31
397.698	158.31
397.922	143.31
398.147	154.31
398.371	155.31
398.595	154.31
398.82	148.31
399.044	163.31
399.268	176.31
399.492	173.31
399.717	179.31
399.941	177.31
400.165	181.31
400.389	169.31
400.613	158.31
400.837	149.31
401.062	166.31
401.286	165.31
401.51	143.31
401.734	169.31
401.958	175.31
402.182	154.31
402.406	162.31
402.63	161.31
402.854	169.31
403.078	159.31
403.302	157.31
403.526	176.31
403.75	180.31
403.974	175.31
404.198	161.31
404.422	194.31
404.645	165.31
404.869	176.31
405.093	154.31
405.317	176.31
405.541	162.31
405.765	183.31
405.988	166.31
406.212	172.31
406.436	179.31
406.66	184.31
406.883	150.31
407.107	169.31
407.331	174.31
407.555	182.31
407.778	178.31
408.002	181.31
408.226	175.31
408.449	159.31
408.673	173.31
408.896	162.31
409.12	171.31
409.344	175.31
409.567	176.31
409.791	173.31
410.014	169.31
410.238	172.31
410.461	167.31
410.685	167.31
410.908	176.31
411.132	182.31
411.355	181.31
411.578	180.31
411.802	172.31
412.025	165.31
412.249	171.31
412.472	168.31
412.695	178.31
412.919	156.31
413.142	162.31
413.365	170.31
413.589	159.31
413.812	171.31
414.035	190.31
414.258	171.31
414.482	161.31
414.705	174.31
414.928	181.31
415.151	187.31
415.374	177.31
415.597	171.31
415.821	163.31
416.044	172.31
416.267	186.31
416.49	183.31
416.713	178.31
416.936	172.31
417.159	179.31
417.382	162.31
417.605	189.31
417.828	178.31
418.051	166.31
418.274	174.31
418.497	183.31
418.72	166.31
418.943	193.31
419.166	176.31
419.389	191.31
419.611	189.31
419.834	193.31
420.057	177.31
420.28	172.31
420.503	156.31
420.726	183.31
420.948	201.31
421.171	192.31
421.394	200.31
421.617	206.31
421.839	184.31
422.062	192.31
422.285	162.31
422.507	165.31
422.73	184.31
422.953	194.31
423.175	182.31
423.398	180.31
423.621	196.31
423.843	181.31
424.066	184.31
424.288	198.31
424.511	194.31
424.733	191.31
424.956	184.31
425.178	183.31
425.401	176.31
425.623	183.31
425.846	164.31
426.068	174.31
426.291	161.31
426.513	181.31
426.735	193.31
426.958	188.31
427.18	175.31
427.402	175.31
427.625	163.31
427.847	174.31
428.069	171.31
428.292	159.31
428.514	166.31
428.736	178.31
428.958	160.31
429.181	169.31
429.403	163.31
429.625	169.31
429.847	175.31
430.069	184.31
430.292	188.31
430.514	184.31
430.736	169.31
430.958	167.31
431.18	155.31
431.402	169.31
431.624	142.31
431.846	145.31
432.068	135.31
432.29	141.31
432.512	157.31
432.734	158.31
432.956	169.31
433.178	161.31
433.4	178.31
433.622	197.31
433.844	166.31
434.066	161.31
434.287	139.31
434.509	146.31
434.731	137.31
434.953	155.31
435.175	146.31
435.397	165.31
435.618	144.31
435.84	145.31
436.062	149.31
436.284	157.31
436.505	171.31
436.727	171.31
436.949	159.31
437.17	153.31
437.392	163.31
437.614	165.31
437.835	144.31
438.057	146.31
438.278	136.31
438.5	150.31
438.721	182.31
438.943	182.31
439.165	184.31
439.386	189.31
439.608	181.31
439.829	169.31
440.05	194.31
440.272	177.31
440.493	181.31
440.715	182.31
440.936	178.31
441.158	192.31
441.379	187.31
441.6	194.31
441.822	200.31
442.043	205.31
442.264	202.31
442.486	193.31
442.707	185.31
442.928	179.31
443.149	187.31
443.371	201.31
443.592	186.31
443.813	179.31
444.034	188.31
444.255	206.31
444.476	183.31
444.698	197.31
444.919	207.31
445.14	458.31
445.361	312.31
445.582	209.31
445.803	205.31
446.024	186.31
446.245	196.31
446.466	195.31
446.687	200.31
446.908	194.31
447.129	192.31
447.35	198.31
447.571	186.31
447.792	172.31
448.013	173.31
448.234	187.31
448.455	176.31
448.675	176.31
448.896	176.31
449.117	174.31
449.338	158.31
449.559	184.31
449.779	173.31
450	158.31
450.221	171.31
450.442	178.31
450.662	180.31
450.883	188.31
451.104	174.31
451.324	163.31
451.545	169.31
451.766	163.31
451.986	172.31
452.207	161.31
452.428	157.31
452.648	154.31
452.869	159.31
453.089	146.31
453.31	138.31
453.53	130.31
453.751	129.31
453.971	138.31
454.192	123.31
454.412	142.31
454.633	134.31
454.853	148.31
455.073	149.31
455.294	152.31
455.514	162.31
455.734	153.31
455.955	136.31
456.175	163.31
456.395	132.31
456.616	136.31
456.836	138.31
457.056	136.31
457.276	136.31
457.497	121.31
457.717	131.31
457.937	129.31
458.157	146.31
458.377	135.31
458.598	130.31
458.818	121.31
459.038	134.31
459.258	124.31
459.478	123.31
459.698	129.31
459.918	131.31
460.138	138.31
460.358	157.31
460.578	159.31
460.798	160.31
461.018	148.31
461.238	151.31
461.458	168.31
461.678	155.31
461.898	151.31
462.118	146.31
462.338	155.31
462.558	167.31
462.777	166.31
462.997	161.31
463.217	170.31
463.437	183.31
463.657	165.31
463.876	150.31
464.096	167.31
464.316	154.31
464.536	158.31
464.755	162.31
464.975	163.31
465.195	163.31
465.414	164.31
465.634	153.31
465.854	144.31
466.073	171.31
466.293	181.31
466.512	181.31
466.732	168.31
466.951	170.31
467.171	167.31
467.391	174.31
467.61	181.31
467.829	177.31
468.049	168.31
468.268	182.31
468.488	158.31
468.707	180.31
468.927	170.31
469.146	177.31
469.365	163.31
469.585	177.31
469.804	165.31
470.023	165.31
470.243	175.31
470.462	189.31
470.681	179.31
470.901	191.31
471.12	189.31
471.339	186.31
471.558	182.31
471.777	172.31
471.997	178.31
472.216	162.31
472.435	145.31
472.654	129.31
472.873	135.31
473.092	147.31
473.311	156.31
473.53	166.31
473.749	168.31
473.968	176.31
474.187	156.31
474.406	145.31
474.625	163.31
474.844	164.31
475.063	166.31
475.282	151.31
475.501	136.31
475.72	159.31
475.939	162.31
476.158	153.31
476.377	168.31
476.596	159.31
476.814	159.31
477.033	142.31
477.252	146.31
477.471	158.31
477.69	169.31
477.908	185.31
478.127	183.31
478.346	163.31
478.564	159.31
478.783	169.31
479.002	168.31
479.22	185.31
479.439	184.31
479.658	178.31
479.876	162.31
480.095	155.31
480.313	167.31
480.532	169.31
480.751	160.31
480.969	145.31
481.188	157.31
481.406	138.31
481.624	131.31
481.843	114.31
482.061	144.31
482.28	145.31
482.498	149.31
482.717	158.31
482.935	170.31
483.153	174.31
483.372	182.31
483.59	185.31
483.808	180.31
484.027	187.31
484.245	162.31
484.463	176.31
484.681	215.31
484.9	184.31
485.118	194.31
485.336	164.31
485.554	141.31
485.772	147.31
485.99	168.31
486.209	136.31
486.427	142.31
486.645	168.31
486.863	186.31
487.081	182.31
487.299	166.31
487.517	185.31
487.735	208.31
487.953	229.31
488.171	218.31
488.389	197.31
488.607	169.31
488.825	168.31
489.043	165.31
489.261	181.31
489.479	168.31
489.696	182.31
489.914	181.31
490.132	181.31
490.35	192.31
490.568	221.31
490.786	213.31
491.003	206.31
491.221	227.31
491.439	231.31
491.657	239.31
491.874	255.31
492.092	276.31
492.31	285.31
492.527	274.31
492.745	253.31
492.963	241.31
493.18	242.31
493.398	249.31
493.615	217.31
493.833	222.31
494.05	217.31
494.268	232.31
494.485	222.31
494.703	228.31
494.92	227.31
495.138	217.31
495.355	231.31
495.573	240.31
495.79	221.31
496.008	232.31
496.225	208.31
496.442	222.31
496.66	222.31
496.877	216.31
497.094	210.31
497.312	208.31
497.529	207.31
497.746	205.31
497.963	178.31
498.181	193.31
498.398	198.31
498.615	180.31
498.832	177.31
499.049	205.31
499.267	197.31
499.484	225.31
499.701	242.31
499.918	247.31
500.135	269.31
500.352	283.31
500.569	302.31
500.786	300.31
501.003	287.31
501.22	251.31
501.437	231.31
501.654	225.31
501.871	216.31
502.088	195.31
502.305	208.31
502.522	205.31
502.739	190.31
502.956	189.31
503.172	182.31
503.389	180.31
503.606	179.31
503.823	173.31
504.04	160.31
504.256	153.31
504.473	176.31
504.69	178.31
504.907	182.31
505.123	176.31
505.34	176.31
505.557	161.31
505.773	172.31
505.99	172.31
506.207	150.31
506.423	154.31
506.64	132.31
506.856	148.31
507.073	155.31
