Data from SampD_HRD10591_00007.txt Node
Date: Mon Jan 19 11:47:40 EST 2026
User: Yrep
Spectrometer: HR+D1059
Trigger mode: 0
Integration Time (sec): 3.443000E-1
Scans to average: 1
Electric dark correction enabled: true
Nonlinearity correction enabled: false
Boxcar width: 0
XAxis mode: Wavelengths
Number of Pixels in Spectrum: 2048
>>>>>Begin Spectral Data<<<<<
223.165	-26.56
223.4	-26.56
223.635	-26.56
223.869	-9.56
224.104	-34.56
224.338	-11.56
224.573	-20.56
224.808	-23.56
225.042	-5.56
225.277	-4.56
225.511	-4.56
225.746	12.44
225.98	15.44
226.215	12.44
226.449	17.44
226.683	27.44
226.918	24.44
227.152	31.44
227.387	40.44
227.621	44.44
227.856	53.44
228.09	59.44
228.324	44.44
228.559	68.44
228.793	67.44
229.027	58.44
229.262	62.44
229.496	57.44
229.73	56.44
229.964	87.44
230.199	67.44
230.433	74.44
230.667	87.44
230.901	79.44
231.136	84.44
231.37	92.44
231.604	76.44
231.838	85.44
232.072	92.44
232.306	82.44
232.541	83.44
232.775	88.44
233.009	87.44
233.243	78.44
233.477	88.44
233.711	98.44
233.945	92.44
234.179	84.44
234.413	91.44
234.647	85.44
234.881	87.44
235.115	88.44
235.349	81.44
235.583	82.44
235.817	74.44
236.051	81.44
236.285	75.44
236.519	74.44
236.753	96.44
236.987	79.44
237.221	85.44
237.455	100.44
237.689	87.44
237.922	87.44
238.156	83.44
238.39	75.44
238.624	84.44
238.858	80.44
239.091	91.44
239.325	82.44
239.559	76.44
239.793	79.44
240.027	102.44
240.26	93.44
240.494	89.44
240.728	54.44
240.961	83.44
241.195	91.44
241.429	94.44
241.662	101.44
241.896	84.44
242.13	93.44
242.363	91.44
242.597	93.44
242.83	83.44
243.064	85.44
243.298	105.44
243.531	83.44
243.765	85.44
243.998	90.44
244.232	91.44
244.465	87.44
244.699	86.44
244.932	84.44
245.166	86.44
245.399	89.44
245.633	82.44
245.866	95.44
246.099	91.44
246.333	84.44
246.566	97.44
246.8	90.44
247.033	85.44
247.266	93.44
247.5	76.44
247.733	86.44
247.966	89.44
248.2	95.44
248.433	97.44
248.666	83.44
248.899	97.44
249.133	93.44
249.366	101.44
249.599	90.44
249.832	105.44
250.066	91.44
250.299	91.44
250.532	97.44
250.765	86.44
250.998	80.44
251.231	84.44
251.465	96.44
251.698	96.44
251.931	89.44
252.164	106.44
252.397	94.44
252.63	94.44
252.863	101.44
253.096	106.44
253.329	104.44
253.562	87.44
253.795	100.44
254.028	103.44
254.261	103.44
254.494	97.44
254.727	94.44
254.96	89.44
255.193	104.44
255.426	85.44
255.659	91.44
255.892	108.44
256.124	103.44
256.357	91.44
256.59	99.44
256.823	95.44
257.056	107.44
257.289	102.44
257.521	96.44
257.754	91.44
257.987	94.44
258.22	107.44
258.452	87.44
258.685	112.44
258.918	100.44
259.151	93.44
259.383	113.44
259.616	92.44
259.849	79.44
260.081	103.44
260.314	102.44
260.547	87.44
260.779	113.44
261.012	88.44
261.244	97.44
261.477	110.44
261.71	94.44
261.942	88.44
262.175	99.44
262.407	92.44
262.64	95.44
262.872	98.44
263.105	87.44
263.337	84.44
263.57	89.44
263.802	109.44
264.035	107.44
264.267	95.44
264.499	98.44
264.732	105.44
264.964	113.44
265.197	95.44
265.429	103.44
265.661	101.44
265.894	96.44
266.126	113.44
266.358	91.44
266.591	95.44
266.823	101.44
267.055	86.44
267.287	100.44
267.52	90.44
267.752	96.44
267.984	104.44
268.216	86.44
268.448	112.44
268.681	106.44
268.913	102.44
269.145	99.44
269.377	111.44
269.609	105.44
269.841	102.44
270.073	107.44
270.306	104.44
270.538	106.44
270.77	106.44
271.002	111.44
271.234	109.44
271.466	106.44
271.698	94.44
271.93	108.44
272.162	113.44
272.394	107.44
272.626	109.44
272.858	100.44
273.09	105.44
273.322	119.44
273.553	106.44
273.785	95.44
274.017	100.44
274.249	103.44
274.481	105.44
274.713	99.44
274.945	92.44
275.176	111.44
275.408	114.44
275.64	112.44
275.872	100.44
276.104	121.44
276.335	98.44
276.567	121.44
276.799	102.44
277.031	111.44
277.262	108.44
277.494	118.44
277.726	112.44
277.957	105.44
278.189	101.44
278.421	120.44
278.652	118.44
278.884	112.44
279.115	120.44
279.347	104.44
279.579	109.44
279.81	113.44
280.042	114.44
280.273	99.44
280.505	106.44
280.736	102.44
280.968	115.44
281.199	115.44
281.431	110.44
281.662	123.44
281.894	115.44
282.125	108.44
282.356	115.44
282.588	106.44
282.819	121.44
283.051	118.44
283.282	114.44
283.513	121.44
283.745	106.44
283.976	121.44
284.207	130.44
284.439	118.44
284.67	99.44
284.901	109.44
285.132	112.44
285.364	114.44
285.595	121.44
285.826	116.44
286.057	119.44
286.288	111.44
286.52	108.44
286.751	116.44
286.982	124.44
287.213	107.44
287.444	117.44
287.675	118.44
287.906	115.44
288.138	120.44
288.369	118.44
288.6	108.44
288.831	123.44
289.062	135.44
289.293	124.44
289.524	115.44
289.755	108.44
289.986	116.44
290.217	122.44
290.448	124.44
290.679	123.44
290.91	122.44
291.141	117.44
291.371	116.44
291.602	127.44
291.833	122.44
292.064	125.44
292.295	132.44
292.526	108.44
292.757	124.44
292.987	119.44
293.218	113.44
293.449	111.44
293.68	109.44
293.91	109.44
294.141	122.44
294.372	121.44
294.603	115.44
294.833	123.44
295.064	116.44
295.295	124.44
295.525	120.44
295.756	124.44
295.987	123.44
296.217	131.44
296.448	151.44
296.679	125.44
296.909	125.44
297.14	128.44
297.37	127.44
297.601	131.44
297.831	128.44
298.062	124.44
298.292	100.44
298.523	123.44
298.753	120.44
298.984	127.44
299.214	131.44
299.445	129.44
299.675	132.44
299.905	117.44
300.136	114.44
300.366	132.44
300.597	133.44
300.827	124.44
301.057	132.44
301.288	107.44
301.518	130.44
301.748	119.44
301.979	161.44
302.209	125.44
302.439	109.44
302.669	123.44
302.9	115.44
303.13	143.44
303.36	128.44
303.59	139.44
303.82	113.44
304.051	137.44
304.281	118.44
304.511	123.44
304.741	112.44
304.971	132.44
305.201	121.44
305.431	121.44
305.661	120.44
305.891	138.44
306.121	117.44
306.352	140.44
306.582	119.44
306.812	117.44
307.042	119.44
307.272	126.44
307.502	120.44
307.731	124.44
307.961	132.44
308.191	114.44
308.421	126.44
308.651	128.44
308.881	133.44
309.111	115.44
309.341	119.44
309.571	115.44
309.8	128.44
310.03	124.44
310.26	115.44
310.49	125.44
310.72	124.44
310.949	130.44
311.179	124.44
311.409	136.44
311.639	137.44
311.868	126.44
312.098	146.44
312.328	132.44
312.557	120.44
312.787	139.44
313.017	143.44
313.246	127.44
313.476	111.44
313.706	117.44
313.935	139.44
314.165	133.44
314.394	123.44
314.624	136.44
314.853	140.44
315.083	121.44
315.312	132.44
315.542	128.44
315.771	107.44
316.001	126.44
316.23	131.44
316.46	124.44
316.689	116.44
316.919	120.44
317.148	136.44
317.377	120.44
317.607	148.44
317.836	131.44
318.065	125.44
318.295	124.44
318.524	121.44
318.753	143.44
318.983	131.44
319.212	134.44
319.441	112.44
319.67	123.44
319.9	131.44
320.129	128.44
320.358	125.44
320.587	118.44
320.816	135.44
321.046	117.44
321.275	128.44
321.504	123.44
321.733	123.44
321.962	125.44
322.191	124.44
322.42	120.44
322.649	125.44
322.878	120.44
323.108	111.44
323.337	124.44
323.566	128.44
323.795	136.44
324.024	134.44
324.253	124.44
324.482	111.44
324.71	125.44
324.939	127.44
325.168	116.44
325.397	124.44
325.626	135.44
325.855	143.44
326.084	115.44
326.313	132.44
326.542	122.44
326.77	143.44
326.999	123.44
327.228	141.44
327.457	149.44
327.686	146.44
327.914	151.44
328.143	147.44
328.372	135.44
328.6	121.44
328.829	127.44
329.058	134.44
329.287	137.44
329.515	125.44
329.744	139.44
329.972	128.44
330.201	132.44
330.43	126.44
330.658	138.44
330.887	135.44
331.115	140.44
331.344	131.44
331.572	135.44
331.801	138.44
332.03	148.44
332.258	121.44
332.486	141.44
332.715	159.44
332.943	136.44
333.172	168.44
333.4	136.44
333.629	165.44
333.857	149.44
334.085	153.44
334.314	162.44
334.542	149.44
334.771	140.44
334.999	138.44
335.227	157.44
335.455	145.44
335.684	139.44
335.912	155.44
336.14	144.44
336.369	137.44
336.597	141.44
336.825	145.44
337.053	134.44
337.281	140.44
337.51	143.44
337.738	151.44
337.966	134.44
338.194	153.44
338.422	136.44
338.65	140.44
338.878	130.44
339.106	146.44
339.334	158.44
339.562	135.44
339.79	130.44
340.018	119.44
340.246	129.44
340.474	131.44
340.702	136.44
340.93	139.44
341.158	124.44
341.386	127.44
341.614	131.44
341.842	131.44
342.07	114.44
342.298	130.44
342.526	133.44
342.754	134.44
342.981	137.44
343.209	134.44
343.437	163.44
343.665	143.44
343.893	153.44
344.12	155.44
344.348	153.44
344.576	149.44
344.804	133.44
345.031	144.44
345.259	151.44
345.487	149.44
345.714	113.44
345.942	130.44
346.17	142.44
346.397	131.44
346.625	140.44
346.853	130.44
347.08	132.44
347.308	147.44
347.535	141.44
347.763	125.44
347.99	131.44
348.218	129.44
348.445	133.44
348.673	136.44
348.9	137.44
349.128	137.44
349.355	121.44
349.583	146.44
349.81	125.44
350.037	122.44
350.265	127.44
350.492	144.44
350.72	131.44
350.947	137.44
351.174	140.44
351.402	122.44
351.629	126.44
351.856	134.44
352.083	122.44
352.311	138.44
352.538	143.44
352.765	132.44
352.992	136.44
353.22	137.44
353.447	131.44
353.674	125.44
353.901	142.44
354.128	134.44
354.355	141.44
354.583	106.44
354.81	127.44
355.037	144.44
355.264	145.44
355.491	127.44
355.718	132.44
355.945	130.44
356.172	137.44
356.399	136.44
356.626	136.44
356.853	131.44
357.08	123.44
357.307	162.44
357.534	135.44
357.761	145.44
357.988	148.44
358.215	141.44
358.441	139.44
358.668	135.44
358.895	131.44
359.122	130.44
359.349	137.44
359.576	117.44
359.802	128.44
360.029	139.44
360.256	138.44
360.483	136.44
360.709	138.44
360.936	158.44
361.163	129.44
361.39	131.44
361.616	139.44
361.843	122.44
362.07	136.44
362.296	131.44
362.523	124.44
362.749	128.44
362.976	137.44
363.203	138.44
363.429	129.44
363.656	121.44
363.882	136.44
364.109	147.44
364.335	147.44
364.562	144.44
364.788	111.44
365.015	137.44
365.241	143.44
365.468	130.44
365.694	140.44
365.92	138.44
366.147	133.44
366.373	136.44
366.599	135.44
366.826	129.44
367.052	137.44
367.278	138.44
367.505	134.44
367.731	162.44
367.957	123.44
368.184	141.44
368.41	124.44
368.636	146.44
368.862	136.44
369.089	134.44
369.315	153.44
369.541	152.44
369.767	154.44
369.993	163.44
370.219	143.44
370.445	148.44
370.672	137.44
370.898	148.44
371.124	151.44
371.35	128.44
371.576	156.44
371.802	159.44
372.028	164.44
372.254	161.44
372.48	169.44
372.706	144.44
372.932	144.44
373.158	145.44
373.384	159.44
373.61	140.44
373.835	153.44
374.061	161.44
374.287	156.44
374.513	163.44
374.739	146.44
374.965	144.44
375.191	156.44
375.416	166.44
375.642	161.44
375.868	177.44
376.094	173.44
376.319	165.44
376.545	164.44
376.771	166.44
376.997	155.44
377.222	179.44
377.448	165.44
377.674	153.44
377.899	165.44
378.125	164.44
378.35	151.44
378.576	134.44
378.802	155.44
379.027	177.44
379.253	173.44
379.478	168.44
379.704	147.44
379.929	155.44
380.155	170.44
380.38	181.44
380.606	159.44
380.831	161.44
381.057	182.44
381.282	152.44
381.507	181.44
381.733	167.44
381.958	167.44
382.184	154.44
382.409	148.44
382.634	176.44
382.86	168.44
383.085	184.44
383.31	163.44
383.535	164.44
383.761	181.44
383.986	187.44
384.211	196.44
384.436	203.44
384.662	201.44
384.887	191.44
385.112	184.44
385.337	191.44
385.562	183.44
385.787	176.44
386.013	192.44
386.238	190.44
386.463	188.44
386.688	223.44
386.913	195.44
387.138	181.44
387.363	189.44
387.588	197.44
387.813	195.44
388.038	193.44
388.263	197.44
388.488	192.44
388.713	194.44
388.938	189.44
389.163	183.44
389.387	189.44
389.612	199.44
389.837	202.44
390.062	188.44
390.287	191.44
390.512	188.44
390.736	197.44
390.961	196.44
391.186	195.44
391.411	187.44
391.636	201.44
391.86	209.44
392.085	217.44
392.31	219.44
392.534	211.44
392.759	235.44
392.984	214.44
393.208	207.44
393.433	201.44
393.658	203.44
393.882	215.44
394.107	212.44
394.331	216.44
394.556	202.44
394.78	219.44
395.005	230.44
395.229	231.44
395.454	226.44
395.678	224.44
395.903	223.44
396.127	219.44
396.352	219.44
396.576	212.44
396.801	217.44
397.025	209.44
397.249	230.44
397.474	232.44
397.698	224.44
397.922	221.44
398.147	221.44
398.371	236.44
398.595	240.44
398.82	238.44
399.044	258.44
399.268	254.44
399.492	279.44
399.717	301.44
399.941	287.44
400.165	273.44
400.389	272.44
400.613	244.44
400.837	230.44
401.062	233.44
401.286	229.44
401.51	232.44
401.734	255.44
401.958	232.44
402.182	242.44
402.406	247.44
402.63	252.44
402.854	256.44
403.078	259.44
403.302	256.44
403.526	263.44
403.75	277.44
403.974	259.44
404.198	284.44
404.422	273.44
404.645	278.44
404.869	248.44
405.093	273.44
405.317	252.44
405.541	247.44
405.765	266.44
405.988	282.44
406.212	261.44
406.436	263.44
406.66	274.44
406.883	271.44
407.107	285.44
407.331	269.44
407.555	281.44
407.778	279.44
408.002	287.44
408.226	276.44
408.449	290.44
408.673	265.44
408.896	274.44
409.12	279.44
409.344	273.44
409.567	278.44
409.791	284.44
410.014	276.44
410.238	282.44
410.461	268.44
410.685	280.44
410.908	255.44
411.132	299.44
411.355	273.44
411.578	285.44
411.802	276.44
412.025	268.44
412.249	259.44
412.472	250.44
412.695	260.44
412.919	252.44
413.142	273.44
413.365	267.44
413.589	272.44
413.812	279.44
414.035	260.44
414.258	277.44
414.482	254.44
414.705	262.44
414.928	248.44
415.151	269.44
415.374	265.44
415.597	273.44
415.821	278.44
416.044	261.44
416.267	255.44
416.49	285.44
416.713	285.44
416.936	291.44
417.159	250.44
417.382	265.44
417.605	269.44
417.828	280.44
418.051	274.44
418.274	297.44
418.497	275.44
418.72	278.44
418.943	281.44
419.166	290.44
419.389	303.44
419.611	293.44
419.834	289.44
420.057	296.44
420.28	283.44
420.503	287.44
420.726	284.44
420.948	265.44
421.171	297.44
421.394	272.44
421.617	311.44
421.839	310.44
422.062	287.44
422.285	281.44
422.507	264.44
422.73	269.44
422.953	257.44
423.175	269.44
423.398	269.44
423.621	287.44
423.843	295.44
424.066	308.44
424.288	283.44
424.511	299.44
424.733	318.44
424.956	295.44
425.178	291.44
425.401	309.44
425.623	278.44
425.846	286.44
426.068	279.44
426.291	268.44
426.513	253.44
426.735	283.44
426.958	269.44
427.18	281.44
427.402	282.44
427.625	266.44
427.847	263.44
428.069	264.44
428.292	259.44
428.514	273.44
428.736	272.44
428.958	263.44
429.181	268.44
429.403	244.44
429.625	261.44
429.847	266.44
430.069	263.44
430.292	277.44
430.514	283.44
430.736	250.44
430.958	261.44
431.18	257.44
431.402	248.44
431.624	245.44
431.846	221.44
432.068	186.44
432.29	190.44
432.512	221.44
432.734	262.44
432.956	281.44
433.178	283.44
433.4	258.44
433.622	291.44
433.844	277.44
434.066	258.44
434.287	229.44
434.509	193.44
434.731	219.44
434.953	242.44
435.175	241.44
435.397	263.44
435.618	218.44
435.84	227.44
436.062	241.44
436.284	248.44
436.505	258.44
436.727	263.44
436.949	251.44
437.17	253.44
437.392	243.44
437.614	232.44
437.835	222.44
438.057	193.44
438.278	221.44
438.5	242.44
438.721	271.44
438.943	287.44
439.165	283.44
439.386	297.44
439.608	291.44
439.829	305.44
440.05	292.44
440.272	295.44
440.493	295.44
440.715	285.44
440.936	320.44
441.158	297.44
441.379	310.44
441.6	309.44
441.822	328.44
442.043	294.44
442.264	293.44
442.486	294.44
442.707	305.44
442.928	294.44
443.149	300.44
443.371	312.44
443.592	277.44
443.813	309.44
444.034	302.44
444.255	310.44
444.476	322.44
444.698	308.44
444.919	333.44
445.14	514.44
445.361	429.44
445.582	316.44
445.803	295.44
446.024	293.44
446.245	302.44
446.466	313.44
446.687	302.44
446.908	313.44
447.129	300.44
447.35	300.44
447.571	296.44
447.792	290.44
448.013	272.44
448.234	284.44
448.455	273.44
448.675	269.44
448.896	283.44
449.117	273.44
449.338	270.44
449.559	260.44
449.779	271.44
450	273.44
450.221	283.44
450.442	293.44
450.662	260.44
450.883	265.44
451.104	264.44
451.324	280.44
451.545	251.44
451.766	264.44
451.986	243.44
452.207	265.44
452.428	256.44
452.648	244.44
452.869	237.44
453.089	213.44
453.31	199.44
453.53	199.44
453.751	194.44
453.971	199.44
454.192	197.44
454.412	203.44
454.633	241.44
454.853	231.44
455.073	217.44
455.294	228.44
455.514	239.44
455.734	246.44
455.955	226.44
456.175	199.44
456.395	218.44
456.616	196.44
456.836	209.44
457.056	210.44
457.276	199.44
457.497	201.44
457.717	201.44
457.937	198.44
458.157	199.44
458.377	193.44
458.598	193.44
458.818	162.44
459.038	186.44
459.258	191.44
459.478	165.44
459.698	188.44
459.918	190.44
460.138	231.44
460.358	227.44
460.578	236.44
460.798	230.44
461.018	254.44
461.238	242.44
461.458	225.44
461.678	231.44
461.898	245.44
462.118	239.44
462.338	242.44
462.558	237.44
462.777	249.44
462.997	259.44
463.217	263.44
463.437	272.44
463.657	271.44
463.876	250.44
464.096	253.44
464.316	258.44
464.536	261.44
464.755	265.44
464.975	260.44
465.195	241.44
465.414	257.44
465.634	234.44
465.854	230.44
466.073	252.44
466.293	250.44
466.512	246.44
466.732	252.44
466.951	262.44
467.171	242.44
467.391	264.44
467.61	265.44
467.829	269.44
468.049	253.44
468.268	259.44
468.488	259.44
468.707	275.44
468.927	267.44
469.146	267.44
469.365	284.44
469.585	271.44
469.804	277.44
470.023	279.44
470.243	282.44
470.462	300.44
470.681	286.44
470.901	280.44
471.12	265.44
471.339	287.44
471.558	293.44
471.777	283.44
471.997	264.44
472.216	238.44
472.435	219.44
472.654	200.44
472.873	200.44
473.092	242.44
473.311	233.44
473.53	241.44
473.749	235.44
473.968	244.44
474.187	225.44
474.406	229.44
474.625	248.44
474.844	241.44
475.063	247.44
475.282	225.44
475.501	235.44
475.72	217.44
475.939	243.44
476.158	228.44
476.377	258.44
476.596	243.44
476.814	237.44
477.033	213.44
477.252	219.44
477.471	235.44
477.69	266.44
477.908	278.44
478.127	291.44
478.346	291.44
478.564	268.44
478.783	274.44
479.002	292.44
479.22	266.44
479.439	275.44
479.658	248.44
479.876	236.44
480.095	233.44
480.313	231.44
480.532	248.44
480.751	243.44
480.969	197.44
481.188	194.44
481.406	187.44
481.624	177.44
481.843	172.44
482.061	195.44
482.28	221.44
482.498	218.44
482.717	215.44
482.935	227.44
483.153	280.44
483.372	313.44
483.59	292.44
483.808	261.44
484.027	263.44
484.245	261.44
484.463	280.44
484.681	311.44
484.9	269.44
485.118	251.44
485.336	228.44
485.554	203.44
485.772	194.44
485.99	212.44
486.209	229.44
486.427	220.44
486.645	252.44
486.863	274.44
487.081	266.44
487.299	245.44
487.517	267.44
487.735	325.44
487.953	354.44
488.171	359.44
488.389	339.44
488.607	299.44
488.825	254.44
489.043	252.44
489.261	255.44
489.479	267.44
489.696	281.44
489.914	286.44
490.132	279.44
490.35	322.44
490.568	313.44
490.786	340.44
491.003	359.44
491.221	370.44
491.439	393.44
491.657	405.44
491.874	431.44
492.092	454.44
492.31	490.44
492.527	456.44
492.745	413.44
492.963	407.44
493.18	405.44
493.398	392.44
493.615	375.44
493.833	363.44
494.05	365.44
494.268	388.44
494.485	370.44
494.703	360.44
494.92	356.44
495.138	356.44
495.355	376.44
495.573	362.44
495.79	369.44
496.008	369.44
496.225	367.44
496.442	358.44
496.66	359.44
496.877	337.44
497.094	358.44
497.312	355.44
497.529	341.44
497.746	312.44
497.963	321.44
498.181	277.44
498.398	279.44
498.615	298.44
498.832	273.44
499.049	301.44
499.267	328.44
499.484	376.44
499.701	387.44
499.918	417.44
500.135	453.44
500.352	534.44
500.569	495.44
500.786	495.44
501.003	486.44
501.22	445.44
501.437	407.44
501.654	386.44
501.871	351.44
502.088	335.44
502.305	328.44
502.522	308.44
502.739	295.44
502.956	287.44
503.172	280.44
503.389	253.44
503.606	255.44
503.823	257.44
504.04	258.44
504.256	262.44
504.473	259.44
504.69	287.44
