Data from SampD_HRD10591_00069.txt Node
Date: Mon Jan 19 11:48:01 EST 2026
User: Yrep
Spectrometer: HR+D1059
Trigger mode: 0
Integration Time (sec): 3.443000E-1
Scans to average: 1
Electric dark correction enabled: true
Nonlinearity correction enabled: false
Boxcar width: 0
XAxis mode: Wavelengths
Number of Pixels in Spectrum: 2048
>>>>>Begin Spectral Data<<<<<
223.165	-24.94
223.4	-24.94
223.635	-24.94
223.869	-19.94
224.104	-13.94
224.338	-6.94
224.573	-13.94
224.808	-14.94
225.042	-7.94
225.277	0.06
225.511	5.06
225.746	-6.94
225.98	11.06
226.215	16.06
226.449	12.06
226.683	7.06
226.918	30.06
227.152	28.06
227.387	26.06
227.621	52.06
227.856	54.06
228.09	46.06
228.324	37.06
228.559	68.06
228.793	66.06
229.027	73.06
229.262	71.06
229.496	63.06
229.73	60.06
229.964	74.06
230.199	82.06
230.433	71.06
230.667	82.06
230.901	75.06
231.136	72.06
231.37	88.06
231.604	95.06
231.838	95.06
232.072	99.06
232.306	99.06
232.541	97.06
232.775	96.06
233.009	97.06
233.243	86.06
233.477	70.06
233.711	80.06
233.945	91.06
234.179	81.06
234.413	87.06
234.647	93.06
234.881	92.06
235.115	93.06
235.349	89.06
235.583	97.06
235.817	76.06
236.051	75.06
236.285	92.06
236.519	96.06
236.753	87.06
236.987	90.06
237.221	90.06
237.455	83.06
237.689	88.06
237.922	77.06
238.156	83.06
238.39	101.06
238.624	70.06
238.858	94.06
239.091	91.06
239.325	92.06
239.559	89.06
239.793	92.06
240.027	99.06
240.26	79.06
240.494	83.06
240.728	91.06
240.961	73.06
241.195	78.06
241.429	90.06
241.662	100.06
241.896	82.06
242.13	92.06
242.363	86.06
242.597	84.06
242.83	89.06
243.064	92.06
243.298	87.06
243.531	75.06
243.765	87.06
243.998	92.06
244.232	98.06
244.465	93.06
244.699	101.06
244.932	74.06
245.166	89.06
245.399	75.06
245.633	94.06
245.866	88.06
246.099	98.06
246.333	97.06
246.566	82.06
246.8	81.06
247.033	77.06
247.266	87.06
247.5	85.06
247.733	81.06
247.966	88.06
248.2	88.06
248.433	94.06
248.666	96.06
248.899	104.06
249.133	91.06
249.366	88.06
249.599	92.06
249.832	99.06
250.066	117.06
250.299	96.06
250.532	88.06
250.765	96.06
250.998	87.06
251.231	112.06
251.465	109.06
251.698	88.06
251.931	82.06
252.164	93.06
252.397	107.06
252.63	107.06
252.863	105.06
253.096	106.06
253.329	100.06
253.562	89.06
253.795	103.06
254.028	99.06
254.261	108.06
254.494	101.06
254.727	105.06
254.96	94.06
255.193	103.06
255.426	92.06
255.659	96.06
255.892	99.06
256.124	89.06
256.357	89.06
256.59	105.06
256.823	100.06
257.056	111.06
257.289	106.06
257.521	105.06
257.754	100.06
257.987	86.06
258.22	99.06
258.452	96.06
258.685	95.06
258.918	105.06
259.151	105.06
259.383	98.06
259.616	104.06
259.849	111.06
260.081	95.06
260.314	90.06
260.547	90.06
260.779	105.06
261.012	99.06
261.244	94.06
261.477	108.06
261.71	96.06
261.942	100.06
262.175	89.06
262.407	100.06
262.64	107.06
262.872	114.06
263.105	95.06
263.337	116.06
263.57	112.06
263.802	92.06
264.035	102.06
264.267	108.06
264.499	95.06
264.732	96.06
264.964	101.06
265.197	94.06
265.429	100.06
265.661	100.06
265.894	118.06
266.126	117.06
266.358	100.06
266.591	103.06
266.823	96.06
267.055	104.06
267.287	103.06
267.52	119.06
267.752	116.06
267.984	97.06
268.216	106.06
268.448	106.06
268.681	103.06
268.913	114.06
269.145	103.06
269.377	122.06
269.609	96.06
269.841	114.06
270.073	101.06
270.306	101.06
270.538	117.06
270.77	104.06
271.002	107.06
271.234	100.06
271.466	112.06
271.698	110.06
271.93	108.06
272.162	100.06
272.394	118.06
272.626	106.06
272.858	116.06
273.09	106.06
273.322	113.06
273.553	120.06
273.785	92.06
274.017	109.06
274.249	105.06
274.481	100.06
274.713	112.06
274.945	115.06
275.176	103.06
275.408	114.06
275.64	101.06
275.872	108.06
276.104	113.06
276.335	124.06
276.567	108.06
276.799	98.06
277.031	107.06
277.262	119.06
277.494	125.06
277.726	107.06
277.957	121.06
278.189	114.06
278.421	103.06
278.652	105.06
278.884	105.06
279.115	93.06
279.347	110.06
279.579	118.06
279.81	107.06
280.042	108.06
280.273	121.06
280.505	114.06
280.736	101.06
280.968	122.06
281.199	110.06
281.431	130.06
281.662	101.06
281.894	125.06
282.125	117.06
282.356	116.06
282.588	109.06
282.819	123.06
283.051	119.06
283.282	117.06
283.513	115.06
283.745	120.06
283.976	112.06
284.207	116.06
284.439	127.06
284.67	121.06
284.901	112.06
285.132	120.06
285.364	117.06
285.595	122.06
285.826	119.06
286.057	125.06
286.288	102.06
286.52	130.06
286.751	126.06
286.982	133.06
287.213	109.06
287.444	125.06
287.675	94.06
287.906	121.06
288.138	118.06
288.369	105.06
288.6	113.06
288.831	116.06
289.062	123.06
289.293	114.06
289.524	109.06
289.755	118.06
289.986	99.06
290.217	119.06
290.448	116.06
290.679	114.06
290.91	133.06
291.141	119.06
291.371	112.06
291.602	113.06
291.833	118.06
292.064	145.06
292.295	133.06
292.526	119.06
292.757	116.06
292.987	123.06
293.218	128.06
293.449	129.06
293.68	126.06
293.91	101.06
294.141	129.06
294.372	113.06
294.603	127.06
294.833	119.06
295.064	127.06
295.295	131.06
295.525	120.06
295.756	112.06
295.987	133.06
296.217	122.06
296.448	104.06
296.679	132.06
296.909	116.06
297.14	126.06
297.37	124.06
297.601	114.06
297.831	138.06
298.062	137.06
298.292	115.06
298.523	122.06
298.753	122.06
298.984	123.06
299.214	115.06
299.445	122.06
299.675	125.06
299.905	129.06
300.136	123.06
300.366	123.06
300.597	134.06
300.827	158.06
301.057	126.06
301.288	125.06
301.518	144.06
301.748	134.06
301.979	162.06
302.209	128.06
302.439	129.06
302.669	128.06
302.9	130.06
303.13	132.06
303.36	124.06
303.59	128.06
303.82	129.06
304.051	127.06
304.281	138.06
304.511	133.06
304.741	117.06
304.971	133.06
305.201	126.06
305.431	132.06
305.661	123.06
305.891	121.06
306.121	134.06
306.352	115.06
306.582	135.06
306.812	132.06
307.042	120.06
307.272	132.06
307.502	127.06
307.731	128.06
307.961	126.06
308.191	125.06
308.421	146.06
308.651	136.06
308.881	125.06
309.111	132.06
309.341	132.06
309.571	125.06
309.8	130.06
310.03	116.06
310.26	122.06
310.49	127.06
310.72	150.06
310.949	124.06
311.179	134.06
311.409	120.06
311.639	121.06
311.868	126.06
312.098	121.06
312.328	130.06
312.557	123.06
312.787	130.06
313.017	129.06
313.246	133.06
313.476	122.06
313.706	134.06
313.935	132.06
314.165	121.06
314.394	137.06
314.624	128.06
314.853	129.06
315.083	125.06
315.312	131.06
315.542	116.06
315.771	140.06
316.001	122.06
316.23	139.06
316.46	134.06
316.689	132.06
316.919	126.06
317.148	159.06
317.377	128.06
317.607	130.06
317.836	121.06
318.065	130.06
318.295	132.06
318.524	129.06
318.753	125.06
318.983	132.06
319.212	132.06
319.441	123.06
319.67	135.06
319.9	129.06
320.129	134.06
320.358	126.06
320.587	118.06
320.816	112.06
321.046	126.06
321.275	133.06
321.504	131.06
321.733	128.06
321.962	119.06
322.191	136.06
322.42	129.06
322.649	133.06
322.878	137.06
323.108	129.06
323.337	117.06
323.566	132.06
323.795	141.06
324.024	128.06
324.253	112.06
324.482	123.06
324.71	137.06
324.939	137.06
325.168	126.06
325.397	130.06
325.626	128.06
325.855	131.06
326.084	118.06
326.313	133.06
326.542	131.06
326.77	151.06
326.999	129.06
327.228	137.06
327.457	131.06
327.686	114.06
327.914	134.06
328.143	134.06
328.372	129.06
328.6	144.06
328.829	131.06
329.058	129.06
329.287	129.06
329.515	137.06
329.744	136.06
329.972	130.06
330.201	120.06
330.43	146.06
330.658	131.06
330.887	113.06
331.115	134.06
331.344	128.06
331.572	130.06
331.801	130.06
332.03	144.06
332.258	145.06
332.486	151.06
332.715	136.06
332.943	149.06
333.172	146.06
333.4	151.06
333.629	168.06
333.857	154.06
334.085	167.06
334.314	160.06
334.542	158.06
334.771	153.06
334.999	163.06
335.227	139.06
335.455	145.06
335.684	160.06
335.912	157.06
336.14	152.06
336.369	154.06
336.597	163.06
336.825	152.06
337.053	139.06
337.281	149.06
337.51	138.06
337.738	169.06
337.966	142.06
338.194	140.06
338.422	145.06
338.65	141.06
338.878	144.06
339.106	135.06
339.334	141.06
339.562	142.06
339.79	137.06
340.018	126.06
340.246	131.06
340.474	139.06
340.702	151.06
340.93	131.06
341.158	124.06
341.386	133.06
341.614	132.06
341.842	152.06
342.07	138.06
342.298	148.06
342.526	133.06
342.754	133.06
342.981	153.06
343.209	142.06
343.437	182.06
343.665	142.06
343.893	165.06
344.12	169.06
344.348	130.06
344.576	146.06
344.804	137.06
345.031	146.06
345.259	145.06
345.487	129.06
345.714	143.06
345.942	150.06
346.17	126.06
346.397	141.06
346.625	133.06
346.853	134.06
347.08	127.06
347.308	146.06
347.535	150.06
347.763	135.06
347.99	140.06
348.218	149.06
348.445	152.06
348.673	131.06
348.9	137.06
349.128	145.06
349.355	138.06
349.583	140.06
349.81	139.06
350.037	141.06
350.265	138.06
350.492	114.06
350.72	129.06
350.947	122.06
351.174	126.06
351.402	135.06
351.629	137.06
351.856	145.06
352.083	137.06
352.311	155.06
352.538	136.06
352.765	131.06
352.992	140.06
353.22	129.06
353.447	130.06
353.674	129.06
353.901	126.06
354.128	134.06
354.355	140.06
354.583	131.06
354.81	128.06
355.037	132.06
355.264	122.06
355.491	125.06
355.718	128.06
355.945	142.06
356.172	148.06
356.399	158.06
356.626	123.06
356.853	130.06
357.08	138.06
357.307	133.06
357.534	144.06
357.761	157.06
357.988	139.06
358.215	145.06
358.441	136.06
358.668	124.06
358.895	127.06
359.122	150.06
359.349	125.06
359.576	137.06
359.802	128.06
360.029	137.06
360.256	129.06
360.483	118.06
360.709	111.06
360.936	130.06
361.163	128.06
361.39	134.06
361.616	129.06
361.843	139.06
362.07	131.06
362.296	129.06
362.523	141.06
362.749	141.06
362.976	126.06
363.203	147.06
363.429	135.06
363.656	131.06
363.882	120.06
364.109	152.06
364.335	139.06
364.562	138.06
364.788	145.06
365.015	131.06
365.241	135.06
365.468	135.06
365.694	136.06
365.92	131.06
366.147	161.06
366.373	142.06
366.599	132.06
366.826	147.06
367.052	138.06
367.278	142.06
367.505	158.06
367.731	156.06
367.957	135.06
368.184	139.06
368.41	156.06
368.636	146.06
368.862	154.06
369.089	155.06
369.315	152.06
369.541	152.06
369.767	152.06
369.993	156.06
370.219	137.06
370.445	137.06
370.672	152.06
370.898	162.06
371.124	153.06
371.35	144.06
371.576	136.06
371.802	149.06
372.028	148.06
372.254	148.06
372.48	160.06
372.706	144.06
372.932	155.06
373.158	158.06
373.384	162.06
373.61	174.06
373.835	154.06
374.061	172.06
374.287	131.06
374.513	154.06
374.739	160.06
374.965	151.06
375.191	168.06
375.416	162.06
375.642	160.06
375.868	175.06
376.094	172.06
376.319	166.06
376.545	148.06
376.771	160.06
376.997	161.06
377.222	150.06
377.448	160.06
377.674	167.06
377.899	171.06
378.125	156.06
378.35	173.06
378.576	167.06
378.802	164.06
379.027	168.06
379.253	179.06
379.478	166.06
379.704	165.06
379.929	155.06
380.155	166.06
380.38	186.06
380.606	172.06
380.831	173.06
381.057	166.06
381.282	168.06
381.507	185.06
381.733	162.06
381.958	178.06
382.184	171.06
382.409	193.06
382.634	196.06
382.86	155.06
383.085	173.06
383.31	165.06
383.535	187.06
383.761	178.06
383.986	186.06
384.211	182.06
384.436	189.06
384.662	176.06
384.887	196.06
385.112	181.06
385.337	184.06
385.562	179.06
385.787	191.06
386.013	194.06
386.238	203.06
386.463	190.06
386.688	217.06
386.913	192.06
387.138	184.06
387.363	196.06
387.588	215.06
387.813	189.06
388.038	187.06
388.263	201.06
388.488	190.06
388.713	196.06
388.938	202.06
389.163	184.06
389.387	185.06
389.612	216.06
389.837	201.06
390.062	194.06
390.287	200.06
390.512	208.06
390.736	196.06
390.961	208.06
391.186	200.06
391.411	218.06
391.636	225.06
391.86	215.06
392.085	212.06
392.31	220.06
392.534	226.06
392.759	216.06
392.984	210.06
393.208	217.06
393.433	211.06
393.658	216.06
393.882	202.06
394.107	219.06
394.331	224.06
394.556	214.06
394.78	216.06
395.005	218.06
395.229	211.06
395.454	215.06
395.678	209.06
395.903	233.06
396.127	224.06
396.352	220.06
396.576	227.06
396.801	225.06
397.025	228.06
397.249	218.06
397.474	229.06
397.698	222.06
397.922	227.06
398.147	223.06
398.371	226.06
398.595	252.06
398.82	235.06
399.044	258.06
399.268	269.06
399.492	296.06
399.717	312.06
399.941	285.06
400.165	265.06
400.389	263.06
400.613	251.06
400.837	253.06
401.062	247.06
401.286	245.06
401.51	241.06
401.734	232.06
401.958	253.06
402.182	264.06
402.406	253.06
402.63	256.06
402.854	268.06
403.078	247.06
403.302	259.06
403.526	253.06
403.75	265.06
403.974	280.06
404.198	268.06
404.422	284.06
404.645	268.06
404.869	257.06
405.093	265.06
405.317	279.06
405.541	262.06
405.765	263.06
405.988	273.06
406.212	272.06
406.436	264.06
406.66	277.06
406.883	266.06
407.107	280.06
407.331	282.06
407.555	297.06
407.778	293.06
408.002	291.06
408.226	274.06
408.449	280.06
408.673	278.06
408.896	272.06
409.12	286.06
409.344	266.06
409.567	284.06
409.791	286.06
410.014	275.06
410.238	278.06
410.461	281.06
410.685	288.06
410.908	280.06
411.132	300.06
411.355	275.06
411.578	267.06
411.802	266.06
412.025	277.06
412.249	272.06
412.472	257.06
412.695	282.06
412.919	282.06
413.142	264.06
413.365	246.06
413.589	272.06
413.812	268.06
414.035	256.06
414.258	294.06
414.482	269.06
414.705	271.06
414.928	273.06
415.151	269.06
415.374	275.06
415.597	275.06
415.821	264.06
416.044	258.06
416.267	263.06
416.49	264.06
416.713	272.06
416.936	286.06
417.159	272.06
417.382	270.06
417.605	274.06
417.828	269.06
418.051	258.06
418.274	292.06
418.497	290.06
418.72	300.06
418.943	292.06
419.166	314.06
419.389	317.06
419.611	301.06
419.834	303.06
420.057	287.06
420.28	270.06
420.503	276.06
420.726	287.06
420.948	300.06
421.171	278.06
421.394	297.06
421.617	307.06
421.839	294.06
422.062	303.06
422.285	289.06
422.507	281.06
422.73	274.06
422.953	278.06
423.175	293.06
423.398	284.06
423.621	291.06
423.843	289.06
424.066	302.06
424.288	308.06
424.511	316.06
424.733	317.06
424.956	307.06
425.178	295.06
425.401	308.06
425.623	282.06
425.846	257.06
426.068	284.06
426.291	273.06
426.513	276.06
426.735	284.06
426.958	274.06
427.18	270.06
427.402	286.06
427.625	261.06
427.847	277.06
428.069	261.06
428.292	278.06
428.514	261.06
428.736	272.06
428.958	277.06
429.181	276.06
429.403	266.06
429.625	265.06
429.847	254.06
430.069	255.06
430.292	282.06
430.514	286.06
430.736	268.06
430.958	266.06
431.18	259.06
431.402	265.06
431.624	242.06
431.846	211.06
432.068	192.06
432.29	196.06
432.512	230.06
432.734	252.06
432.956	275.06
433.178	285.06
433.4	285.06
433.622	284.06
433.844	275.06
434.066	240.06
434.287	212.06
434.509	199.06
434.731	221.06
434.953	245.06
435.175	263.06
435.397	257.06
435.618	248.06
435.84	232.06
436.062	240.06
436.284	249.06
436.505	255.06
436.727	249.06
436.949	264.06
437.17	261.06
437.392	234.06
437.614	235.06
437.835	216.06
438.057	222.06
438.278	221.06
438.5	249.06
438.721	281.06
438.943	293.06
439.165	292.06
439.386	278.06
439.608	292.06
439.829	292.06
440.05	296.06
440.272	296.06
440.493	293.06
440.715	309.06
440.936	293.06
441.158	310.06
441.379	316.06
441.6	329.06
441.822	303.06
442.043	318.06
442.264	310.06
442.486	309.06
442.707	301.06
442.928	306.06
443.149	291.06
443.371	302.06
443.592	293.06
443.813	307.06
444.034	311.06
444.255	316.06
444.476	318.06
444.698	346.06
444.919	327.06
445.14	593.06
445.361	440.06
445.582	326.06
445.803	306.06
446.024	294.06
446.245	328.06
446.466	324.06
446.687	316.06
446.908	326.06
447.129	308.06
447.35	300.06
447.571	296.06
447.792	285.06
448.013	288.06
448.234	288.06
448.455	283.06
448.675	285.06
448.896	277.06
449.117	272.06
449.338	286.06
449.559	288.06
449.779	274.06
450	272.06
450.221	276.06
450.442	277.06
450.662	259.06
450.883	271.06
451.104	278.06
451.324	263.06
451.545	271.06
451.766	254.06
451.986	266.06
452.207	245.06
452.428	247.06
452.648	252.06
452.869	229.06
453.089	208.06
453.31	220.06
453.53	204.06
453.751	198.06
453.971	202.06
454.192	187.06
454.412	216.06
454.633	244.06
454.853	249.06
455.073	217.06
455.294	228.06
455.514	240.06
455.734	224.06
455.955	210.06
456.175	209.06
456.395	211.06
456.616	200.06
456.836	203.06
457.056	192.06
457.276	219.06
457.497	202.06
457.717	204.06
457.937	208.06
458.157	216.06
458.377	201.06
458.598	197.06
458.818	179.06
459.038	187.06
459.258	169.06
459.478	188.06
459.698	170.06
459.918	210.06
460.138	236.06
460.358	236.06
460.578	259.06
460.798	245.06
461.018	258.06
461.238	247.06
461.458	249.06
461.678	245.06
461.898	236.06
462.118	256.06
462.338	270.06
462.558	250.06
462.777	267.06
462.997	282.06
463.217	275.06
463.437	273.06
463.657	243.06
463.876	242.06
464.096	259.06
464.316	242.06
464.536	253.06
464.755	276.06
464.975	261.06
465.195	230.06
465.414	243.06
465.634	231.06
465.854	241.06
466.073	246.06
466.293	249.06
466.512	242.06
466.732	258.06
466.951	261.06
467.171	255.06
467.391	277.06
467.61	276.06
467.829	257.06
468.049	268.06
468.268	277.06
468.488	249.06
468.707	265.06
468.927	265.06
469.146	257.06
469.365	284.06
469.585	272.06
469.804	281.06
470.023	264.06
470.243	299.06
470.462	290.06
470.681	283.06
470.901	302.06
471.12	275.06
471.339	283.06
471.558	293.06
471.777	276.06
471.997	257.06
472.216	258.06
472.435	208.06
472.654	208.06
472.873	204.06
473.092	218.06
473.311	236.06
473.53	233.06
473.749	238.06
473.968	254.06
474.187	233.06
474.406	235.06
474.625	219.06
474.844	226.06
475.063	238.06
475.282	243.06
475.501	219.06
475.72	234.06
475.939	260.06
476.158	262.06
476.377	262.06
476.596	249.06
476.814	224.06
477.033	204.06
477.252	240.06
477.471	260.06
477.69	281.06
477.908	272.06
478.127	269.06
478.346	282.06
478.564	286.06
478.783	267.06
479.002	295.06
479.22	296.06
479.439	264.06
479.658	243.06
479.876	231.06
480.095	238.06
480.313	256.06
480.532	262.06
480.751	245.06
480.969	193.06
481.188	202.06
481.406	187.06
481.624	173.06
481.843	180.06
482.061	206.06
482.28	234.06
482.498	216.06
482.717	197.06
482.935	225.06
483.153	280.06
483.372	310.06
483.59	299.06
483.808	269.06
484.027	268.06
484.245	259.06
484.463	266.06
484.681	295.06
484.9	262.06
485.118	274.06
485.336	248.06
485.554	216.06
485.772	200.06
485.99	202.06
486.209	227.06
486.427	217.06
486.645	247.06
486.863	277.06
487.081	277.06
487.299	269.06
487.517	290.06
487.735	352.06
487.953	363.06
488.171	340.06
488.389	331.06
488.607	298.06
488.825	261.06
489.043	256.06
489.261	269.06
489.479	272.06
489.696	278.06
489.914	309.06
490.132	285.06
490.35	308.06
490.568	330.06
490.786	351.06
491.003	387.06
491.221	376.06
491.439	394.06
491.657	394.06
491.874	429.06
492.092	459.06
492.31	480.06
492.527	444.06
492.745	416.06
492.963	410.06
493.18	419.06
493.398	400.06
493.615	380.06
493.833	380.06
494.05	354.06
494.268	370.06
494.485	349.06
494.703	372.06
494.92	373.06
495.138	351.06
495.355	374.06
495.573	368.06
495.79	342.06
496.008	360.06
496.225	367.06
496.442	369.06
496.66	370.06
496.877	370.06
497.094	376.06
497.312	348.06
497.529	340.06
497.746	316.06
497.963	305.06
498.181	290.06
498.398	290.06
498.615	299.06
498.832	281.06
499.049	320.06
499.267	337.06
499.484	366.06
499.701	378.06
499.918	428.06
500.135	459.06
500.352	510.06
500.569	518.06
500.786	513.06
501.003	497.06
501.22	441.06
501.437	422.06
501.654	372.06
501.871	339.06
502.088	338.06
502.305	332.06
502.522	320.06
502.739	307.06
502.956	307.06
503.172	307.06
503.389	278.06
503.606	273.06
503.823	275.06
504.04	271.06
504.256	272.06
504.473	279.06
