Data from SampD_HRD10591_00006.txt Node
Date: Mon Jan 19 11:47:40 EST 2026
User: Yrep
Spectrometer: HR+D1059
Trigger mode: 0
Integration Time (sec): 3.443000E-1
Scans to average: 1
Electric dark correction enabled: true
Nonlinearity correction enabled: false
Boxcar width: 0
XAxis mode: Wavelengths
Number of Pixels in Spectrum: 2048
>>>>>Begin Spectral Data<<<<<
223.165	-27
223.4	-27
223.635	-27
223.869	-28
224.104	-16
224.338	-9
224.573	-16
224.808	-13
225.042	-12
225.277	-14
225.511	4
225.746	-2
225.98	14
226.215	9
226.449	23
226.683	22
226.918	30
227.152	35
227.387	37
227.621	51
227.856	54
228.09	50
228.324	57
228.559	51
228.793	56
229.027	66
229.262	65
229.496	75
229.73	76
229.964	86
230.199	79
230.433	80
230.667	71
230.901	72
231.136	75
231.37	87
231.604	102
231.838	71
232.072	59
232.306	87
232.541	95
232.775	86
233.009	79
233.243	79
233.477	81
233.711	96
233.945	71
234.179	85
234.413	81
234.647	86
234.881	79
235.115	84
235.349	71
235.583	74
235.817	75
236.051	91
236.285	78
236.519	82
236.753	93
236.987	89
237.221	75
237.455	78
237.689	81
237.922	94
238.156	71
238.39	74
238.624	84
238.858	86
239.091	82
239.325	74
239.559	73
239.793	82
240.027	106
240.26	71
240.494	76
240.728	89
240.961	70
241.195	86
241.429	84
241.662	79
241.896	79
242.13	90
242.363	76
242.597	85
242.83	88
243.064	84
243.298	84
243.531	80
243.765	84
243.998	86
244.232	83
244.465	94
244.699	86
244.932	96
245.166	96
245.399	95
245.633	99
245.866	91
246.099	95
246.333	84
246.566	90
246.8	80
247.033	85
247.266	86
247.5	61
247.733	78
247.966	103
248.2	88
248.433	76
248.666	87
248.899	95
249.133	89
249.366	97
249.599	84
249.832	99
250.066	100
250.299	82
250.532	75
250.765	89
250.998	94
251.231	90
251.465	87
251.698	75
251.931	71
252.164	88
252.397	85
252.63	92
252.863	98
253.096	88
253.329	101
253.562	84
253.795	104
254.028	106
254.261	99
254.494	94
254.727	100
254.96	96
255.193	89
255.426	99
255.659	91
255.892	88
256.124	100
256.357	98
256.59	106
256.823	91
257.056	97
257.289	89
257.521	93
257.754	100
257.987	100
258.22	94
258.452	97
258.685	80
258.918	102
259.151	92
259.383	107
259.616	100
259.849	113
260.081	108
260.314	99
260.547	88
260.779	96
261.012	97
261.244	80
261.477	117
261.71	97
261.942	103
262.175	92
262.407	114
262.64	99
262.872	95
263.105	94
263.337	100
263.57	94
263.802	110
264.035	104
264.267	110
264.499	108
264.732	108
264.964	104
265.197	99
265.429	105
265.661	97
265.894	91
266.126	96
266.358	104
266.591	94
266.823	114
267.055	102
267.287	86
267.52	97
267.752	100
267.984	98
268.216	98
268.448	113
268.681	97
268.913	120
269.145	93
269.377	102
269.609	99
269.841	102
270.073	98
270.306	90
270.538	91
270.77	94
271.002	123
271.234	111
271.466	114
271.698	100
271.93	109
272.162	107
272.394	110
272.626	107
272.858	105
273.09	100
273.322	103
273.553	94
273.785	107
274.017	103
274.249	95
274.481	103
274.713	122
274.945	122
275.176	106
275.408	102
275.64	123
275.872	105
276.104	112
276.335	108
276.567	91
276.799	100
277.031	102
277.262	106
277.494	126
277.726	104
277.957	108
278.189	109
278.421	95
278.652	103
278.884	112
279.115	121
279.347	105
279.579	130
279.81	134
280.042	106
280.273	110
280.505	85
280.736	137
280.968	106
281.199	108
281.431	107
281.662	107
281.894	104
282.125	121
282.356	108
282.588	104
282.819	100
283.051	120
283.282	109
283.513	119
283.745	118
283.976	108
284.207	120
284.439	109
284.67	110
284.901	108
285.132	110
285.364	118
285.595	108
285.826	117
286.057	115
286.288	122
286.52	121
286.751	108
286.982	111
287.213	115
287.444	111
287.675	115
287.906	125
288.138	118
288.369	113
288.6	120
288.831	107
289.062	120
289.293	120
289.524	122
289.755	112
289.986	112
290.217	128
290.448	111
290.679	131
290.91	140
291.141	121
291.371	119
291.602	111
291.833	131
292.064	116
292.295	117
292.526	136
292.757	142
292.987	118
293.218	133
293.449	98
293.68	112
293.91	124
294.141	132
294.372	121
294.603	123
294.833	126
295.064	112
295.295	112
295.525	108
295.756	116
295.987	119
296.217	138
296.448	128
296.679	118
296.909	130
297.14	111
297.37	115
297.601	112
297.831	123
298.062	132
298.292	129
298.523	127
298.753	113
298.984	128
299.214	124
299.445	131
299.675	120
299.905	116
300.136	109
300.366	120
300.597	126
300.827	133
301.057	121
301.288	119
301.518	136
301.748	123
301.979	166
302.209	126
302.439	125
302.669	129
302.9	128
303.13	114
303.36	133
303.59	119
303.82	121
304.051	135
304.281	136
304.511	138
304.741	140
304.971	122
305.201	134
305.431	127
305.661	141
305.891	131
306.121	122
306.352	121
306.582	108
306.812	142
307.042	112
307.272	116
307.502	118
307.731	120
307.961	124
308.191	125
308.421	120
308.651	133
308.881	135
309.111	119
309.341	126
309.571	129
309.8	120
310.03	126
310.26	133
310.49	111
310.72	122
310.949	129
311.179	110
311.409	116
311.639	128
311.868	120
312.098	134
312.328	133
312.557	126
312.787	124
313.017	142
313.246	112
313.476	130
313.706	137
313.935	130
314.165	126
314.394	134
314.624	122
314.853	114
315.083	132
315.312	131
315.542	112
315.771	129
316.001	120
316.23	131
316.46	124
316.689	132
316.919	130
317.148	137
317.377	135
317.607	128
317.836	132
318.065	106
318.295	128
318.524	129
318.753	123
318.983	134
319.212	132
319.441	140
319.67	119
319.9	138
320.129	127
320.358	133
320.587	140
320.816	122
321.046	105
321.275	131
321.504	124
321.733	124
321.962	137
322.191	136
322.42	142
322.649	134
322.878	129
323.108	118
323.337	134
323.566	122
323.795	113
324.024	139
324.253	127
324.482	115
324.71	122
324.939	151
325.168	138
325.397	143
325.626	123
325.855	114
326.084	138
326.313	131
326.542	140
326.77	142
326.999	117
327.228	132
327.457	157
327.686	123
327.914	144
328.143	139
328.372	137
328.6	131
328.829	139
329.058	127
329.287	132
329.515	139
329.744	138
329.972	144
330.201	139
330.43	142
330.658	116
330.887	143
331.115	137
331.344	139
331.572	132
331.801	143
332.03	146
332.258	140
332.486	140
332.715	145
332.943	134
333.172	133
333.4	156
333.629	148
333.857	163
334.085	163
334.314	152
334.542	149
334.771	152
334.999	138
335.227	137
335.455	143
335.684	154
335.912	142
336.14	144
336.369	156
336.597	144
336.825	137
337.053	148
337.281	149
337.51	137
337.738	159
337.966	125
338.194	127
338.422	139
338.65	136
338.878	145
339.106	148
339.334	165
339.562	138
339.79	138
340.018	136
340.246	138
340.474	141
340.702	137
340.93	140
341.158	131
341.386	128
341.614	118
341.842	139
342.07	132
342.298	134
342.526	131
342.754	126
342.981	143
343.209	146
343.437	186
343.665	149
343.893	165
344.12	151
344.348	144
344.576	138
344.804	139
345.031	146
345.259	160
345.487	144
345.714	115
345.942	137
346.17	136
346.397	138
346.625	120
346.853	129
347.08	124
347.308	146
347.535	133
347.763	154
347.99	156
348.218	146
348.445	140
348.673	140
348.9	129
349.128	130
349.355	137
349.583	138
349.81	122
350.037	122
350.265	143
350.492	135
350.72	140
350.947	127
351.174	130
351.402	139
351.629	130
351.856	123
352.083	127
352.311	127
352.538	136
352.765	127
352.992	135
353.22	128
353.447	128
353.674	146
353.901	130
354.128	116
354.355	131
354.583	152
354.81	129
355.037	136
355.264	136
355.491	123
355.718	127
355.945	127
356.172	133
356.399	160
356.626	139
356.853	135
357.08	144
357.307	135
357.534	126
357.761	130
357.988	129
358.215	143
358.441	136
358.668	132
358.895	120
359.122	127
359.349	121
359.576	133
359.802	129
360.029	136
360.256	135
360.483	119
360.709	123
360.936	145
361.163	134
361.39	137
361.616	137
361.843	143
362.07	150
362.296	148
362.523	140
362.749	130
362.976	139
363.203	130
363.429	136
363.656	135
363.882	135
364.109	146
364.335	132
364.562	132
364.788	129
365.015	129
365.241	134
365.468	136
365.694	122
365.92	130
366.147	137
366.373	133
366.599	134
366.826	144
367.052	143
367.278	147
367.505	146
367.731	159
367.957	151
368.184	141
368.41	134
368.636	143
368.862	142
369.089	154
369.315	136
369.541	166
369.767	152
369.993	147
370.219	148
370.445	151
370.672	154
370.898	130
371.124	144
371.35	148
371.576	168
371.802	139
372.028	160
372.254	154
372.48	164
372.706	158
372.932	164
373.158	178
373.384	168
373.61	166
373.835	144
374.061	164
374.287	146
374.513	147
374.739	158
374.965	174
375.191	174
375.416	169
375.642	153
375.868	152
376.094	153
376.319	146
376.545	179
376.771	173
376.997	158
377.222	159
377.448	151
377.674	168
377.899	168
378.125	172
378.35	163
378.576	163
378.802	167
379.027	163
379.253	172
379.478	165
379.704	166
379.929	183
380.155	175
380.38	166
380.606	165
380.831	162
381.057	183
381.282	184
381.507	164
381.733	178
381.958	168
382.184	165
382.409	183
382.634	171
382.86	177
383.085	179
383.31	182
383.535	172
383.761	178
383.986	176
384.211	173
384.436	190
384.662	185
384.887	174
385.112	185
385.337	181
385.562	182
385.787	189
386.013	185
386.238	186
386.463	195
386.688	229
386.913	191
387.138	179
387.363	179
387.588	194
387.813	178
388.038	186
388.263	197
388.488	196
388.713	190
388.938	209
389.163	198
389.387	208
389.612	204
389.837	196
390.062	203
390.287	197
390.512	190
390.736	216
390.961	182
391.186	211
391.411	204
391.636	191
391.86	212
392.085	226
392.31	206
392.534	195
392.759	228
392.984	218
393.208	210
393.433	206
393.658	195
393.882	196
394.107	224
394.331	224
394.556	209
394.78	211
395.005	222
395.229	216
395.454	237
395.678	198
395.903	234
396.127	228
396.352	211
396.576	223
396.801	210
397.025	205
397.249	229
397.474	242
397.698	219
397.922	203
398.147	234
398.371	236
398.595	244
398.82	252
399.044	244
399.268	263
399.492	284
399.717	306
399.941	292
400.165	276
400.389	259
400.613	251
400.837	247
401.062	237
401.286	246
401.51	249
401.734	241
401.958	250
402.182	239
402.406	249
402.63	261
402.854	258
403.078	247
403.302	239
403.526	252
403.75	288
403.974	271
404.198	264
404.422	276
404.645	274
404.869	257
405.093	268
405.317	276
405.541	277
405.765	263
405.988	280
406.212	279
406.436	256
406.66	272
406.883	298
407.107	276
407.331	295
407.555	296
407.778	284
408.002	286
408.226	281
408.449	264
408.673	286
408.896	264
409.12	254
409.344	261
409.567	258
409.791	277
410.014	282
410.238	278
410.461	272
410.685	281
410.908	278
411.132	290
411.355	265
411.578	278
411.802	282
412.025	281
412.249	280
412.472	278
412.695	280
412.919	259
413.142	254
413.365	262
413.589	263
413.812	232
414.035	280
414.258	265
414.482	281
414.705	269
414.928	271
415.151	286
415.374	276
415.597	265
415.821	274
416.044	277
416.267	278
416.49	273
416.713	285
416.936	280
417.159	258
417.382	274
417.605	270
417.828	267
418.051	272
418.274	284
418.497	290
418.72	286
418.943	290
419.166	286
419.389	298
419.611	307
419.834	305
420.057	292
420.28	287
420.503	297
420.726	310
420.948	280
421.171	291
421.394	279
421.617	309
421.839	314
422.062	287
422.285	296
422.507	295
422.73	271
422.953	260
423.175	290
423.398	283
423.621	296
423.843	302
424.066	319
424.288	336
424.511	310
424.733	320
424.956	300
425.178	306
425.401	290
425.623	292
425.846	295
426.068	287
426.291	275
426.513	294
426.735	259
426.958	278
427.18	265
427.402	278
427.625	258
427.847	267
428.069	271
428.292	283
428.514	275
428.736	255
428.958	280
429.181	270
429.403	251
429.625	247
429.847	249
430.069	273
430.292	281
430.514	265
430.736	274
430.958	276
431.18	266
431.402	244
431.624	240
431.846	230
432.068	188
432.29	212
432.512	218
432.734	243
432.956	268
433.178	282
433.4	302
433.622	286
433.844	273
434.066	251
434.287	226
434.509	198
434.731	210
434.953	247
435.175	272
435.397	268
435.618	241
435.84	227
436.062	243
436.284	259
436.505	274
436.727	271
436.949	266
437.17	264
437.392	261
437.614	240
437.835	208
438.057	224
438.278	228
438.5	246
438.721	259
438.943	279
439.165	282
439.386	295
439.608	299
439.829	302
440.05	302
440.272	286
440.493	299
440.715	297
440.936	290
441.158	301
441.379	302
441.6	306
441.822	326
442.043	310
442.264	281
442.486	300
442.707	295
442.928	296
443.149	304
443.371	301
443.592	291
443.813	301
444.034	298
444.255	314
444.476	315
444.698	327
444.919	343
445.14	528
445.361	408
445.582	323
445.803	294
446.024	303
446.245	327
446.466	307
446.687	320
446.908	295
447.129	290
447.35	314
447.571	306
447.792	302
448.013	292
448.234	309
448.455	282
448.675	282
448.896	286
449.117	279
449.338	263
449.559	280
449.779	268
450	268
450.221	276
450.442	265
450.662	276
450.883	272
451.104	279
451.324	268
451.545	260
451.766	261
451.986	264
452.207	255
452.428	254
452.648	250
452.869	226
453.089	221
453.31	210
453.53	213
453.751	202
453.971	192
454.192	194
454.412	200
454.633	212
454.853	207
455.073	228
455.294	244
455.514	236
455.734	232
455.955	227
456.175	213
456.395	200
456.616	186
456.836	188
457.056	203
457.276	192
457.497	204
457.717	202
457.937	200
458.157	193
458.377	192
458.598	176
458.818	182
459.038	171
459.258	171
459.478	191
459.698	189
459.918	211
460.138	226
460.358	249
460.578	242
460.798	252
461.018	254
461.238	244
461.458	238
461.678	242
461.898	242
462.118	257
462.338	258
462.558	285
462.777	252
462.997	264
463.217	283
463.437	270
463.657	263
463.876	251
464.096	246
464.316	250
464.536	239
464.755	253
464.975	246
465.195	251
465.414	258
465.634	213
465.854	229
466.073	237
466.293	254
466.512	263
466.732	251
466.951	281
467.171	274
467.391	252
467.61	270
467.829	272
468.049	242
468.268	256
468.488	268
468.707	271
468.927	258
469.146	270
469.365	278
469.585	262
469.804	296
470.023	278
470.243	276
470.462	270
470.681	281
470.901	279
471.12	280
471.339	287
471.558	280
471.777	267
471.997	256
472.216	244
472.435	220
472.654	209
472.873	229
473.092	225
473.311	244
473.53	237
473.749	263
473.968	255
474.187	243
474.406	231
474.625	226
474.844	229
475.063	247
475.282	242
475.501	251
475.72	228
475.939	235
476.158	257
476.377	246
476.596	238
476.814	223
477.033	210
477.252	232
477.471	248
477.69	275
477.908	282
478.127	265
478.346	264
478.564	287
478.783	278
479.002	291
479.22	286
479.439	265
479.658	254
479.876	228
480.095	243
480.313	254
480.532	258
480.751	233
480.969	206
481.188	182
481.406	176
481.624	179
481.843	194
482.061	198
482.28	237
482.498	227
482.717	202
482.935	247
483.153	296
483.372	306
483.59	297
483.808	257
484.027	250
484.245	259
484.463	282
484.681	300
484.9	278
485.118	264
485.336	226
485.554	219
485.772	200
485.99	208
486.209	233
486.427	203
486.645	245
486.863	280
487.081	298
487.299	270
487.517	288
487.735	337
487.953	361
488.171	357
488.389	334
488.607	310
488.825	280
489.043	245
489.261	256
489.479	273
489.696	286
489.914	282
490.132	287
490.35	322
490.568	347
490.786	344
491.003	353
491.221	390
491.439	391
491.657	422
491.874	399
492.092	469
492.31	497
492.527	467
492.745	428
492.963	398
493.18	395
493.398	398
493.615	386
493.833	376
494.05	381
494.268	370
494.485	368
494.703	363
494.92	372
495.138	376
495.355	379
495.573	371
495.79	354
496.008	349
496.225	375
496.442	367
496.66	354
496.877	348
497.094	372
497.312	346
497.529	335
497.746	312
497.963	316
498.181	298
498.398	313
498.615	270
498.832	280
499.049	300
499.267	338
499.484	356
499.701	391
499.918	446
500.135	498
500.352	509
500.569	521
500.786	536
501.003	490
501.22	441
501.437	402
501.654	379
501.871	342
502.088	334
502.305	325
502.522	312
502.739	314
502.956	288
503.172	284
503.389	281
503.606	260
503.823	280
504.04	279
504.256	280
504.473	267
504.69	255
504.907	275
505.123	271
505.34	251
505.557	258
505.773	258
505.99	225
506.207	244
506.423	259
506.64	237
506.856	228
507.073	249
507.289	239
507.506	226
507.722	243
507.939	230
508.155	230
508.372	214
508.588	223
508.805	202
509.021	207
509.238	203
509.454	201
509.67	196
509.887	190
510.103	180
510.319	178
510.536	182
510.752	177
510.968	161
511.184	158
511.401	147
511.617	164
511.833	169
512.049	166
512.265	176
512.481	183
512.698	186
512.914	191
513.13	184
513.346	183
513.562	180
513.778	183
513.994	191
514.21	182
514.426	171
514.642	162
514.858	175
515.074	180
515.29	186
515.506	163
515.721	179
515.937	195
516.153	192
516.369	185
516.585	179
516.801	177
517.016	195
517.232	222
517.448	214
517.664	225
517.879	224
518.095	215
518.311	204
518.527	232
518.742	208
518.958	211
519.173	221
519.389	230
519.605	212
519.82	208
520.036	203
520.251	212
520.467	220
520.682	181
520.898	187
521.113	167
521.329	185
521.544	175
521.76	175
521.975	170
522.19	174
522.406	169
522.621	186
522.836	195
523.052	193
523.267	206
523.482	216
523.698	187
523.913	217
524.128	201
524.343	194
524.559	214
524.774	223
524.989	232
525.204	222
525.419	212
525.634	219
525.849	201
526.064	190
526.28	199
526.495	171
526.71	164
526.925	159
527.14	154
527.355	164
527.57	171
527.785	164
527.999	182
528.214	182
528.429	197
528.644	225
528.859	241
529.074	274
529.289	302
529.503	278
529.718	260
529.933	203
530.148	188
530.363	186
530.577	170
530.792	147
531.007	150
531.221	142
531.436	151
531.651	158
531.865	161
532.08	159
532.295	179
532.509	171
532.724	163
532.938	175
533.153	175
533.367	200
533.582	217
533.796	219
534.011	203
534.225	168
534.44	171
534.654	180
534.868	179
535.083	186
535.297	186
535.511	200
535.726	195
535.94	197
536.154	170
536.369	158
536.583	143
536.797	163
537.011	133
537.225	164
537.44	160
537.654	158
537.868	171
538.082	180
538.296	155
538.51	174
538.724	200
538.938	210
539.153	236
539.367	218
539.581	202
539.795	177
540.009	158
540.222	166
540.436	184
540.65	202
540.864	240
541.078	253
541.292	278
541.506	300
541.72	323
541.934	352
542.147	368
542.361	336
542.575	306
542.789	256
543.002	236
543.216	242
543.43	230
543.644	245
543.857	261
544.071	308
544.285	322
544.498	316
544.712	311
544.925	319
545.139	301
545.352	321
545.566	322
545.779	320
545.993	348
546.206	337
546.42	316
546.633	312
546.847	315
547.06	344
547.274	343
547.487	337
547.7	354
547.914	327
548.127	313
548.34	322
548.554	311
548.767	319
548.98	323
549.193	323
549.407	293
549.62	312
549.833	303
550.046	290
550.259	289
550.473	285
550.686	286
550.899	292
551.112	294
551.325	275
551.538	262
551.751	230
551.964	230
552.177	263
552.39	272
552.603	272
552.816	304
553.029	316
553.242	311
553.455	330
553.667	333
553.88	322
554.093	304
554.306	293
554.519	294
554.732	284
554.944	282
555.157	286
555.37	282
555.583	276
555.795	264
556.008	237
556.221	261
556.433	241
556.646	244
556.859	265
557.071	251
557.284	258
557.496	272
557.709	291
557.921	263
558.134	259
558.346	260
558.559	260
558.771	257
558.984	257
559.196	252
559.409	237
559.621	234
559.833	226
560.046	243
560.258	256
560.47	241
560.683	244
560.895	233
561.107	235
561.32	244
561.532	243
561.744	248
561.956	238
562.168	237
562.381	248
562.593	231
562.805	239
563.017	240
563.229	233
563.441	229
563.653	212
563.865	222
564.077	215
564.289	231
564.501	224
564.713	228
564.925	217
565.137	203
565.349	212
565.561	220
565.773	236
565.985	226
566.197	229
566.408	247
566.62	251
566.832	256
567.044	254
