Data from SampD_HRD10591_00003.txt Node
Date: Mon Jan 19 11:47:39 EST 2026
User: Yrep
Spectrometer: HR+D1059
Trigger mode: 0
Integration Time (sec): 3.443000E-1
Scans to average: 1
Electric dark correction enabled: true
Nonlinearity correction enabled: false
Boxcar width: 0
XAxis mode: Wavelengths
Number of Pixels in Spectrum: 2048
>>>>>Begin Spectral Data<<<<<
223.165	-26.94
223.4	-26.94
223.635	-26.94
223.869	-27.94
224.104	-15.94
224.338	-12.94
224.573	-20.94
224.808	-15.94
225.042	5.06
225.277	1.06
225.511	-9.94
225.746	2.06
225.98	8.06
226.215	12.06
226.449	30.06
226.683	13.06
226.918	34.06
227.152	25.06
227.387	41.06
227.621	43.06
227.856	49.06
228.09	40.06
228.324	38.06
228.559	62.06
228.793	63.06
229.027	59.06
229.262	54.06
229.496	69.06
229.73	76.06
229.964	84.06
230.199	70.06
230.433	70.06
230.667	80.06
230.901	80.06
231.136	81.06
231.37	80.06
231.604	66.06
231.838	74.06
232.072	86.06
232.306	84.06
232.541	89.06
232.775	89.06
233.009	88.06
233.243	70.06
233.477	89.06
233.711	85.06
233.945	94.06
234.179	80.06
234.413	76.06
234.647	85.06
234.881	71.06
235.115	93.06
235.349	72.06
235.583	74.06
235.817	81.06
236.051	78.06
236.285	60.06
236.519	81.06
236.753	78.06
236.987	88.06
237.221	70.06
237.455	79.06
237.689	98.06
237.922	71.06
238.156	77.06
238.39	76.06
238.624	82.06
238.858	83.06
239.091	81.06
239.325	80.06
239.559	64.06
239.793	69.06
240.027	65.06
240.26	79.06
240.494	85.06
240.728	74.06
240.961	72.06
241.195	97.06
241.429	92.06
241.662	60.06
241.896	83.06
242.13	69.06
242.363	82.06
242.597	89.06
242.83	98.06
243.064	93.06
243.298	85.06
243.531	82.06
243.765	80.06
243.998	94.06
244.232	88.06
244.465	92.06
244.699	85.06
244.932	80.06
245.166	88.06
245.399	100.06
245.633	97.06
245.866	88.06
246.099	84.06
246.333	90.06
246.566	89.06
246.8	79.06
247.033	85.06
247.266	80.06
247.5	74.06
247.733	79.06
247.966	80.06
248.2	82.06
248.433	67.06
248.666	94.06
248.899	89.06
249.133	79.06
249.366	92.06
249.599	96.06
249.832	80.06
250.066	93.06
250.299	78.06
250.532	89.06
250.765	87.06
250.998	90.06
251.231	108.06
251.465	90.06
251.698	78.06
251.931	95.06
252.164	74.06
252.397	93.06
252.63	92.06
252.863	92.06
253.096	74.06
253.329	90.06
253.562	101.06
253.795	106.06
254.028	96.06
254.261	98.06
254.494	87.06
254.727	104.06
254.96	95.06
255.193	86.06
255.426	94.06
255.659	82.06
255.892	105.06
256.124	84.06
256.357	89.06
256.59	93.06
256.823	87.06
257.056	81.06
257.289	100.06
257.521	96.06
257.754	106.06
257.987	96.06
258.22	84.06
258.452	92.06
258.685	94.06
258.918	111.06
259.151	88.06
259.383	93.06
259.616	78.06
259.849	102.06
260.081	104.06
260.314	100.06
260.547	96.06
260.779	88.06
261.012	106.06
261.244	95.06
261.477	98.06
261.71	92.06
261.942	95.06
262.175	90.06
262.407	85.06
262.64	87.06
262.872	95.06
263.105	89.06
263.337	97.06
263.57	102.06
263.802	101.06
264.035	90.06
264.267	109.06
264.499	106.06
264.732	103.06
264.964	105.06
265.197	100.06
265.429	99.06
265.661	99.06
265.894	102.06
266.126	112.06
266.358	92.06
266.591	94.06
266.823	81.06
267.055	98.06
267.287	92.06
267.52	91.06
267.752	90.06
267.984	98.06
268.216	84.06
268.448	108.06
268.681	100.06
268.913	106.06
269.145	106.06
269.377	121.06
269.609	90.06
269.841	100.06
270.073	98.06
270.306	102.06
270.538	96.06
270.77	108.06
271.002	101.06
271.234	112.06
271.466	105.06
271.698	94.06
271.93	118.06
272.162	103.06
272.394	110.06
272.626	99.06
272.858	114.06
273.09	94.06
273.322	104.06
273.553	106.06
273.785	106.06
274.017	101.06
274.249	100.06
274.481	101.06
274.713	113.06
274.945	112.06
275.176	88.06
275.408	102.06
275.64	97.06
275.872	94.06
276.104	121.06
276.335	88.06
276.567	100.06
276.799	87.06
277.031	103.06
277.262	119.06
277.494	112.06
277.726	95.06
277.957	96.06
278.189	100.06
278.421	118.06
278.652	101.06
278.884	98.06
279.115	108.06
279.347	97.06
279.579	102.06
279.81	100.06
280.042	123.06
280.273	104.06
280.505	107.06
280.736	97.06
280.968	109.06
281.199	122.06
281.431	111.06
281.662	110.06
281.894	104.06
282.125	97.06
282.356	105.06
282.588	95.06
282.819	106.06
283.051	109.06
283.282	113.06
283.513	106.06
283.745	125.06
283.976	101.06
284.207	102.06
284.439	118.06
284.67	115.06
284.901	103.06
285.132	112.06
285.364	108.06
285.595	107.06
285.826	107.06
286.057	95.06
286.288	93.06
286.52	118.06
286.751	112.06
286.982	121.06
287.213	107.06
287.444	113.06
287.675	116.06
287.906	114.06
288.138	128.06
288.369	121.06
288.6	126.06
288.831	122.06
289.062	128.06
289.293	113.06
289.524	110.06
289.755	111.06
289.986	104.06
290.217	125.06
290.448	108.06
290.679	135.06
290.91	125.06
291.141	98.06
291.371	128.06
291.602	126.06
291.833	130.06
292.064	111.06
292.295	109.06
292.526	110.06
292.757	109.06
292.987	129.06
293.218	118.06
293.449	106.06
293.68	117.06
293.91	123.06
294.141	118.06
294.372	131.06
294.603	126.06
294.833	119.06
295.064	112.06
295.295	131.06
295.525	117.06
295.756	112.06
295.987	120.06
296.217	118.06
296.448	124.06
296.679	119.06
296.909	126.06
297.14	122.06
297.37	126.06
297.601	88.06
297.831	114.06
298.062	119.06
298.292	117.06
298.523	117.06
298.753	117.06
298.984	111.06
299.214	122.06
299.445	119.06
299.675	127.06
299.905	118.06
300.136	112.06
300.366	126.06
300.597	135.06
300.827	131.06
301.057	129.06
301.288	113.06
301.518	112.06
301.748	129.06
301.979	152.06
302.209	128.06
302.439	118.06
302.669	120.06
302.9	109.06
303.13	129.06
303.36	109.06
303.59	120.06
303.82	109.06
304.051	133.06
304.281	131.06
304.511	133.06
304.741	112.06
304.971	121.06
305.201	132.06
305.431	125.06
305.661	111.06
305.891	128.06
306.121	119.06
306.352	124.06
306.582	126.06
306.812	155.06
307.042	121.06
307.272	119.06
307.502	122.06
307.731	130.06
307.961	115.06
308.191	129.06
308.421	111.06
308.651	122.06
308.881	126.06
309.111	120.06
309.341	109.06
309.571	124.06
309.8	124.06
310.03	100.06
310.26	128.06
310.49	130.06
310.72	101.06
310.949	111.06
311.179	128.06
311.409	133.06
311.639	111.06
311.868	133.06
312.098	126.06
312.328	127.06
312.557	123.06
312.787	121.06
313.017	115.06
313.246	134.06
313.476	123.06
313.706	137.06
313.935	124.06
314.165	120.06
314.394	112.06
314.624	127.06
314.853	122.06
315.083	112.06
315.312	132.06
315.542	129.06
315.771	134.06
316.001	118.06
316.23	136.06
316.46	129.06
316.689	118.06
316.919	127.06
317.148	122.06
317.377	120.06
317.607	122.06
317.836	111.06
318.065	127.06
318.295	128.06
318.524	115.06
318.753	150.06
318.983	121.06
319.212	117.06
319.441	119.06
319.67	135.06
319.9	119.06
320.129	122.06
320.358	118.06
320.587	114.06
320.816	140.06
321.046	122.06
321.275	130.06
321.504	128.06
321.733	134.06
321.962	117.06
322.191	137.06
322.42	132.06
322.649	125.06
322.878	132.06
323.108	130.06
323.337	112.06
323.566	131.06
323.795	116.06
324.024	128.06
324.253	124.06
324.482	122.06
324.71	126.06
324.939	132.06
325.168	132.06
325.397	120.06
325.626	124.06
325.855	122.06
326.084	114.06
326.313	127.06
326.542	122.06
326.77	133.06
326.999	116.06
327.228	123.06
327.457	134.06
327.686	135.06
327.914	133.06
328.143	128.06
328.372	133.06
328.6	130.06
328.829	127.06
329.058	124.06
329.287	109.06
329.515	137.06
329.744	143.06
329.972	122.06
330.201	117.06
330.43	150.06
330.658	135.06
330.887	120.06
331.115	136.06
331.344	121.06
331.572	148.06
331.801	134.06
332.03	145.06
332.258	130.06
332.486	144.06
332.715	141.06
332.943	162.06
333.172	151.06
333.4	141.06
333.629	155.06
333.857	156.06
334.085	149.06
334.314	144.06
334.542	144.06
334.771	155.06
334.999	143.06
335.227	155.06
335.455	150.06
335.684	156.06
335.912	143.06
336.14	160.06
336.369	149.06
336.597	115.06
336.825	153.06
337.053	142.06
337.281	135.06
337.51	137.06
337.738	142.06
337.966	128.06
338.194	129.06
338.422	136.06
338.65	141.06
338.878	133.06
339.106	138.06
339.334	148.06
339.562	125.06
339.79	129.06
340.018	131.06
340.246	141.06
340.474	132.06
340.702	124.06
340.93	149.06
341.158	117.06
341.386	129.06
341.614	115.06
341.842	120.06
342.07	116.06
342.298	121.06
342.526	132.06
342.754	128.06
342.981	133.06
343.209	138.06
343.437	170.06
343.665	143.06
343.893	138.06
344.12	154.06
344.348	124.06
344.576	126.06
344.804	147.06
345.031	136.06
345.259	120.06
345.487	148.06
345.714	138.06
345.942	122.06
346.17	145.06
346.397	143.06
346.625	125.06
346.853	133.06
347.08	134.06
347.308	137.06
347.535	128.06
347.763	131.06
347.99	130.06
348.218	151.06
348.445	116.06
348.673	118.06
348.9	132.06
349.128	135.06
349.355	135.06
349.583	126.06
349.81	133.06
350.037	127.06
350.265	132.06
350.492	126.06
350.72	132.06
350.947	127.06
351.174	116.06
351.402	125.06
351.629	127.06
351.856	120.06
352.083	104.06
352.311	126.06
352.538	136.06
352.765	132.06
352.992	150.06
353.22	149.06
353.447	134.06
353.674	126.06
353.901	131.06
354.128	129.06
354.355	118.06
354.583	134.06
354.81	141.06
355.037	130.06
355.264	137.06
355.491	157.06
355.718	127.06
355.945	149.06
356.172	138.06
356.399	129.06
356.626	126.06
356.853	138.06
357.08	129.06
357.307	118.06
357.534	136.06
357.761	134.06
357.988	138.06
358.215	126.06
358.441	136.06
358.668	127.06
358.895	135.06
359.122	137.06
359.349	121.06
359.576	127.06
359.802	126.06
360.029	140.06
360.256	125.06
360.483	120.06
360.709	122.06
360.936	154.06
361.163	118.06
361.39	134.06
361.616	135.06
361.843	127.06
362.07	145.06
362.296	131.06
362.523	129.06
362.749	125.06
362.976	121.06
363.203	138.06
363.429	110.06
363.656	122.06
363.882	125.06
364.109	121.06
364.335	119.06
364.562	121.06
364.788	114.06
365.015	138.06
365.241	142.06
365.468	130.06
365.694	128.06
365.92	125.06
366.147	133.06
366.373	127.06
366.599	127.06
366.826	133.06
367.052	148.06
367.278	154.06
367.505	146.06
367.731	164.06
367.957	125.06
368.184	132.06
368.41	134.06
368.636	129.06
368.862	142.06
369.089	142.06
369.315	152.06
369.541	147.06
369.767	140.06
369.993	144.06
370.219	149.06
370.445	129.06
370.672	156.06
370.898	134.06
371.124	158.06
371.35	150.06
371.576	145.06
371.802	152.06
372.028	152.06
372.254	146.06
372.48	149.06
372.706	151.06
372.932	144.06
373.158	144.06
373.384	170.06
373.61	144.06
373.835	156.06
374.061	157.06
374.287	147.06
374.513	166.06
374.739	161.06
374.965	159.06
375.191	168.06
375.416	165.06
375.642	162.06
375.868	150.06
376.094	160.06
376.319	163.06
376.545	158.06
376.771	150.06
376.997	150.06
377.222	174.06
377.448	160.06
377.674	159.06
377.899	160.06
378.125	160.06
378.35	140.06
378.576	159.06
378.802	161.06
379.027	171.06
379.253	171.06
379.478	168.06
379.704	165.06
379.929	153.06
380.155	162.06
380.38	165.06
380.606	153.06
380.831	168.06
381.057	176.06
381.282	151.06
381.507	145.06
381.733	170.06
381.958	162.06
382.184	156.06
382.409	179.06
382.634	171.06
382.86	164.06
383.085	194.06
383.31	172.06
383.535	180.06
383.761	183.06
383.986	168.06
384.211	183.06
384.436	177.06
384.662	174.06
384.887	173.06
385.112	176.06
385.337	193.06
385.562	185.06
385.787	190.06
386.013	182.06
386.238	191.06
386.463	154.06
386.688	210.06
386.913	181.06
387.138	179.06
387.363	172.06
387.588	192.06
387.813	196.06
388.038	187.06
388.263	196.06
388.488	190.06
388.713	186.06
388.938	180.06
389.163	215.06
389.387	198.06
389.612	194.06
389.837	198.06
390.062	196.06
390.287	213.06
390.512	194.06
390.736	196.06
390.961	197.06
391.186	192.06
391.411	194.06
391.636	196.06
391.86	198.06
392.085	216.06
392.31	215.06
392.534	206.06
392.759	199.06
392.984	214.06
393.208	210.06
393.433	206.06
393.658	216.06
393.882	193.06
394.107	204.06
394.331	210.06
394.556	205.06
394.78	209.06
395.005	196.06
395.229	217.06
395.454	208.06
395.678	214.06
395.903	223.06
396.127	226.06
396.352	219.06
396.576	213.06
396.801	220.06
397.025	210.06
397.249	212.06
397.474	216.06
397.698	233.06
397.922	232.06
398.147	232.06
398.371	213.06
398.595	212.06
398.82	232.06
399.044	238.06
399.268	278.06
399.492	281.06
399.717	283.06
399.941	279.06
400.165	269.06
400.389	257.06
400.613	246.06
400.837	244.06
401.062	226.06
401.286	232.06
401.51	230.06
401.734	227.06
401.958	248.06
402.182	234.06
402.406	247.06
402.63	248.06
402.854	247.06
403.078	249.06
403.302	262.06
403.526	274.06
403.75	273.06
403.974	242.06
404.198	278.06
404.422	272.06
404.645	246.06
404.869	249.06
405.093	269.06
405.317	287.06
405.541	273.06
405.765	262.06
405.988	278.06
406.212	269.06
406.436	252.06
406.66	275.06
406.883	255.06
407.107	269.06
407.331	278.06
407.555	262.06
407.778	292.06
408.002	275.06
408.226	277.06
408.449	296.06
408.673	266.06
408.896	259.06
409.12	257.06
409.344	280.06
409.567	264.06
409.791	261.06
410.014	280.06
410.238	284.06
410.461	270.06
410.685	273.06
410.908	258.06
411.132	280.06
411.355	250.06
411.578	276.06
411.802	257.06
412.025	249.06
412.249	243.06
412.472	247.06
412.695	252.06
412.919	255.06
413.142	257.06
413.365	253.06
413.589	257.06
413.812	256.06
414.035	283.06
414.258	257.06
414.482	259.06
414.705	256.06
414.928	284.06
415.151	250.06
415.374	278.06
415.597	255.06
415.821	263.06
416.044	267.06
416.267	246.06
416.49	269.06
416.713	274.06
416.936	256.06
417.159	260.06
417.382	276.06
417.605	263.06
417.828	296.06
418.051	261.06
418.274	288.06
418.497	274.06
418.72	278.06
418.943	276.06
419.166	296.06
419.389	290.06
419.611	301.06
419.834	277.06
420.057	297.06
420.28	277.06
420.503	280.06
420.726	286.06
420.948	272.06
421.171	278.06
421.394	280.06
421.617	282.06
421.839	298.06
422.062	309.06
422.285	270.06
422.507	277.06
422.73	269.06
422.953	270.06
423.175	264.06
423.398	271.06
423.621	268.06
423.843	280.06
424.066	292.06
424.288	302.06
424.511	277.06
424.733	297.06
424.956	285.06
425.178	284.06
425.401	284.06
425.623	303.06
425.846	276.06
426.068	276.06
426.291	281.06
426.513	269.06
426.735	276.06
426.958	277.06
427.18	265.06
427.402	277.06
427.625	277.06
427.847	244.06
428.069	229.06
428.292	255.06
428.514	259.06
428.736	254.06
428.958	248.06
429.181	261.06
429.403	256.06
429.625	260.06
429.847	262.06
430.069	256.06
430.292	264.06
430.514	262.06
430.736	243.06
430.958	264.06
431.18	255.06
431.402	244.06
431.624	218.06
431.846	219.06
432.068	197.06
432.29	177.06
432.512	230.06
432.734	260.06
432.956	255.06
433.178	276.06
433.4	272.06
433.622	287.06
433.844	263.06
434.066	220.06
434.287	220.06
434.509	191.06
434.731	226.06
434.953	237.06
435.175	257.06
435.397	253.06
435.618	230.06
435.84	216.06
436.062	244.06
436.284	264.06
436.505	254.06
436.727	248.06
436.949	273.06
437.17	264.06
437.392	252.06
437.614	242.06
437.835	203.06
438.057	209.06
438.278	229.06
438.5	258.06
438.721	266.06
438.943	275.06
439.165	269.06
439.386	297.06
439.608	288.06
439.829	299.06
440.05	294.06
440.272	302.06
440.493	280.06
440.715	302.06
440.936	294.06
441.158	289.06
441.379	288.06
441.6	310.06
441.822	304.06
442.043	305.06
442.264	282.06
442.486	291.06
442.707	293.06
442.928	282.06
443.149	286.06
443.371	294.06
443.592	284.06
443.813	291.06
444.034	282.06
444.255	295.06
444.476	289.06
444.698	306.06
444.919	322.06
445.14	490.06
445.361	386.06
445.582	308.06
445.803	299.06
446.024	305.06
446.245	325.06
446.466	318.06
446.687	304.06
446.908	316.06
447.129	319.06
447.35	298.06
447.571	310.06
447.792	276.06
448.013	277.06
448.234	278.06
448.455	294.06
448.675	280.06
448.896	281.06
449.117	274.06
449.338	260.06
449.559	267.06
449.779	255.06
450	273.06
450.221	261.06
450.442	264.06
450.662	268.06
450.883	257.06
451.104	278.06
451.324	251.06
451.545	258.06
451.766	260.06
451.986	258.06
452.207	261.06
452.428	257.06
452.648	246.06
452.869	219.06
453.089	214.06
453.31	185.06
453.53	191.06
453.751	201.06
453.971	178.06
454.192	197.06
454.412	200.06
454.633	200.06
454.853	222.06
455.073	220.06
455.294	241.06
455.514	232.06
455.734	232.06
455.955	224.06
456.175	213.06
456.395	205.06
456.616	193.06
456.836	213.06
457.056	207.06
457.276	182.06
457.497	193.06
457.717	180.06
457.937	211.06
458.157	203.06
458.377	183.06
458.598	175.06
458.818	178.06
459.038	169.06
459.258	164.06
459.478	165.06
459.698	183.06
459.918	195.06
460.138	207.06
460.358	224.06
460.578	235.06
460.798	233.06
461.018	245.06
461.238	232.06
461.458	245.06
461.678	241.06
461.898	247.06
462.118	224.06
462.338	238.06
462.558	248.06
462.777	249.06
462.997	247.06
463.217	272.06
463.437	256.06
463.657	246.06
463.876	247.06
464.096	246.06
464.316	257.06
464.536	252.06
464.755	236.06
464.975	229.06
465.195	247.06
465.414	241.06
465.634	247.06
465.854	241.06
466.073	232.06
466.293	229.06
466.512	245.06
466.732	255.06
466.951	253.06
467.171	269.06
467.391	246.06
467.61	254.06
467.829	248.06
468.049	264.06
468.268	258.06
468.488	255.06
468.707	256.06
468.927	240.06
469.146	265.06
469.365	289.06
469.585	270.06
469.804	290.06
470.023	279.06
470.243	286.06
470.462	292.06
470.681	268.06
470.901	273.06
471.12	276.06
471.339	276.06
471.558	275.06
471.777	276.06
471.997	242.06
472.216	248.06
472.435	209.06
472.654	215.06
472.873	199.06
473.092	215.06
473.311	237.06
473.53	238.06
473.749	239.06
473.968	252.06
474.187	220.06
474.406	213.06
474.625	233.06
474.844	244.06
475.063	243.06
475.282	218.06
475.501	213.06
475.72	236.06
475.939	220.06
476.158	229.06
476.377	241.06
476.596	228.06
476.814	200.06
477.033	208.06
477.252	216.06
477.471	226.06
477.69	269.06
477.908	276.06
478.127	281.06
478.346	264.06
478.564	263.06
478.783	259.06
479.002	278.06
479.22	263.06
479.439	248.06
479.658	247.06
479.876	225.06
480.095	224.06
480.313	232.06
480.532	234.06
480.751	233.06
480.969	202.06
481.188	196.06
481.406	198.06
481.624	162.06
481.843	178.06
482.061	189.06
482.28	218.06
482.498	202.06
482.717	215.06
482.935	237.06
483.153	277.06
483.372	292.06
483.59	283.06
483.808	258.06
484.027	235.06
484.245	239.06
484.463	258.06
484.681	293.06
484.9	257.06
485.118	262.06
485.336	216.06
485.554	217.06
485.772	207.06
485.99	199.06
486.209	216.06
486.427	189.06
486.645	228.06
486.863	257.06
487.081	259.06
487.299	260.06
487.517	289.06
487.735	312.06
487.953	364.06
488.171	342.06
488.389	323.06
488.607	292.06
488.825	257.06
489.043	257.06
489.261	263.06
489.479	269.06
489.696	279.06
489.914	280.06
490.132	286.06
490.35	324.06
490.568	332.06
490.786	341.06
491.003	352.06
491.221	367.06
491.439	388.06
491.657	376.06
491.874	438.06
492.092	451.06
492.31	482.06
492.527	445.06
492.745	427.06
492.963	388.06
493.18	399.06
493.398	386.06
493.615	381.06
493.833	365.06
494.05	375.06
494.268	365.06
494.485	355.06
494.703	372.06
494.92	359.06
495.138	365.06
495.355	362.06
495.573	375.06
495.79	353.06
496.008	333.06
496.225	345.06
496.442	348.06
496.66	366.06
496.877	339.06
497.094	346.06
497.312	338.06
497.529	343.06
497.746	331.06
497.963	318.06
498.181	297.06
498.398	276.06
498.615	271.06
498.832	290.06
499.049	312.06
499.267	317.06
499.484	357.06
499.701	399.06
499.918	444.06
500.135	475.06
500.352	511.06
500.569	519.06
500.786	499.06
501.003	491.06
501.22	430.06
501.437	371.06
501.654	363.06
501.871	339.06
502.088	316.06
502.305	317.06
502.522	311.06
502.739	296.06
502.956	302.06
503.172	292.06
503.389	272.06
503.606	268.06
503.823	249.06
504.04	271.06
504.256	251.06
504.473	245.06
504.69	263.06
504.907	276.06
505.123	259.06
