Data from SampD_HRD10591_00094.txt Node
Date: Mon Jan 19 11:48:10 EST 2026
User: Yrep
Spectrometer: HR+D1059
Trigger mode: 0
Integration Time (sec): 3.443000E-1
Scans to average: 1
Electric dark correction enabled: true
Nonlinearity correction enabled: false
Boxcar width: 0
XAxis mode: Wavelengths
Number of Pixels in Spectrum: 2048
>>>>>Begin Spectral Data<<<<<
223.165	-21.88
223.4	-21.88
223.635	-21.88
223.869	-7.88
224.104	-31.88
224.338	-13.88
224.573	-3.88
224.808	-2.88
225.042	-14.88
225.277	0.12
225.511	-2.88
225.746	2.12
225.98	1.12
226.215	16.12
226.449	8.12
226.683	22.12
226.918	21.12
227.152	29.12
227.387	32.12
227.621	30.12
227.856	50.12
228.09	39.12
228.324	45.12
228.559	63.12
228.793	51.12
229.027	54.12
229.262	65.12
229.496	65.12
229.73	74.12
229.964	74.12
230.199	69.12
230.433	66.12
230.667	79.12
230.901	76.12
231.136	78.12
231.37	79.12
231.604	87.12
231.838	91.12
232.072	86.12
232.306	90.12
232.541	91.12
232.775	88.12
233.009	94.12
233.243	78.12
233.477	81.12
233.711	82.12
233.945	70.12
234.179	88.12
234.413	71.12
234.647	87.12
234.881	86.12
235.115	90.12
235.349	80.12
235.583	74.12
235.817	80.12
236.051	80.12
236.285	76.12
236.519	90.12
236.753	99.12
236.987	64.12
237.221	88.12
237.455	91.12
237.689	84.12
237.922	85.12
238.156	100.12
238.39	76.12
238.624	92.12
238.858	75.12
239.091	71.12
239.325	67.12
239.559	87.12
239.793	82.12
240.027	86.12
240.26	86.12
240.494	69.12
240.728	85.12
240.961	76.12
241.195	71.12
241.429	93.12
241.662	78.12
241.896	83.12
242.13	60.12
242.363	90.12
242.597	77.12
242.83	94.12
243.064	91.12
243.298	82.12
243.531	81.12
243.765	80.12
243.998	81.12
244.232	93.12
244.465	82.12
244.699	88.12
244.932	96.12
245.166	74.12
245.399	90.12
245.633	84.12
245.866	75.12
246.099	79.12
246.333	92.12
246.566	70.12
246.8	89.12
247.033	82.12
247.266	88.12
247.5	86.12
247.733	83.12
247.966	87.12
248.2	80.12
248.433	98.12
248.666	94.12
248.899	97.12
249.133	90.12
249.366	102.12
249.599	79.12
249.832	94.12
250.066	93.12
250.299	88.12
250.532	95.12
250.765	105.12
250.998	101.12
251.231	89.12
251.465	91.12
251.698	86.12
251.931	86.12
252.164	85.12
252.397	96.12
252.63	101.12
252.863	79.12
253.096	90.12
253.329	86.12
253.562	96.12
253.795	98.12
254.028	92.12
254.261	76.12
254.494	92.12
254.727	90.12
254.96	85.12
255.193	92.12
255.426	90.12
255.659	91.12
255.892	109.12
256.124	88.12
256.357	81.12
256.59	80.12
256.823	89.12
257.056	94.12
257.289	102.12
257.521	97.12
257.754	88.12
257.987	88.12
258.22	78.12
258.452	96.12
258.685	105.12
258.918	103.12
259.151	91.12
259.383	99.12
259.616	98.12
259.849	91.12
260.081	93.12
260.314	98.12
260.547	95.12
260.779	103.12
261.012	84.12
261.244	97.12
261.477	118.12
261.71	93.12
261.942	83.12
262.175	93.12
262.407	94.12
262.64	99.12
262.872	96.12
263.105	81.12
263.337	99.12
263.57	111.12
263.802	105.12
264.035	83.12
264.267	84.12
264.499	91.12
264.732	112.12
264.964	98.12
265.197	100.12
265.429	102.12
265.661	77.12
265.894	94.12
266.126	102.12
266.358	97.12
266.591	100.12
266.823	97.12
267.055	99.12
267.287	90.12
267.52	94.12
267.752	113.12
267.984	106.12
268.216	104.12
268.448	112.12
268.681	113.12
268.913	85.12
269.145	119.12
269.377	89.12
269.609	102.12
269.841	99.12
270.073	94.12
270.306	108.12
270.538	107.12
270.77	96.12
271.002	115.12
271.234	98.12
271.466	106.12
271.698	102.12
271.93	98.12
272.162	101.12
272.394	96.12
272.626	102.12
272.858	97.12
273.09	98.12
273.322	102.12
273.553	102.12
273.785	108.12
274.017	91.12
274.249	113.12
274.481	96.12
274.713	106.12
274.945	114.12
275.176	92.12
275.408	114.12
275.64	103.12
275.872	114.12
276.104	113.12
276.335	110.12
276.567	112.12
276.799	98.12
277.031	110.12
277.262	107.12
277.494	103.12
277.726	111.12
277.957	117.12
278.189	108.12
278.421	104.12
278.652	102.12
278.884	111.12
279.115	115.12
279.347	103.12
279.579	95.12
279.81	120.12
280.042	100.12
280.273	105.12
280.505	108.12
280.736	111.12
280.968	113.12
281.199	106.12
281.431	104.12
281.662	109.12
281.894	121.12
282.125	110.12
282.356	107.12
282.588	114.12
282.819	110.12
283.051	115.12
283.282	92.12
283.513	125.12
283.745	123.12
283.976	110.12
284.207	118.12
284.439	110.12
284.67	114.12
284.901	102.12
285.132	92.12
285.364	109.12
285.595	108.12
285.826	114.12
286.057	121.12
286.288	115.12
286.52	105.12
286.751	112.12
286.982	123.12
287.213	110.12
287.444	119.12
287.675	114.12
287.906	118.12
288.138	113.12
288.369	107.12
288.6	118.12
288.831	119.12
289.062	106.12
289.293	107.12
289.524	112.12
289.755	104.12
289.986	109.12
290.217	105.12
290.448	100.12
290.679	118.12
290.91	111.12
291.141	98.12
291.371	116.12
291.602	108.12
291.833	110.12
292.064	117.12
292.295	118.12
292.526	102.12
292.757	120.12
292.987	97.12
293.218	107.12
293.449	113.12
293.68	128.12
293.91	111.12
294.141	125.12
294.372	116.12
294.603	118.12
294.833	111.12
295.064	107.12
295.295	120.12
295.525	122.12
295.756	112.12
295.987	110.12
296.217	110.12
296.448	105.12
296.679	110.12
296.909	127.12
297.14	116.12
297.37	116.12
297.601	111.12
297.831	123.12
298.062	130.12
298.292	120.12
298.523	122.12
298.753	112.12
298.984	123.12
299.214	126.12
299.445	123.12
299.675	121.12
299.905	135.12
300.136	123.12
300.366	113.12
300.597	121.12
300.827	125.12
301.057	119.12
301.288	122.12
301.518	130.12
301.748	119.12
301.979	161.12
302.209	115.12
302.439	101.12
302.669	124.12
302.9	127.12
303.13	120.12
303.36	131.12
303.59	115.12
303.82	125.12
304.051	130.12
304.281	126.12
304.511	128.12
304.741	120.12
304.971	118.12
305.201	139.12
305.431	120.12
305.661	115.12
305.891	119.12
306.121	121.12
306.352	110.12
306.582	103.12
306.812	117.12
307.042	119.12
307.272	131.12
307.502	124.12
307.731	126.12
307.961	119.12
308.191	127.12
308.421	123.12
308.651	145.12
308.881	120.12
309.111	126.12
309.341	123.12
309.571	118.12
309.8	124.12
310.03	106.12
310.26	111.12
310.49	118.12
310.72	115.12
310.949	119.12
311.179	124.12
311.409	117.12
311.639	123.12
311.868	134.12
312.098	119.12
312.328	125.12
312.557	122.12
312.787	115.12
313.017	129.12
313.246	138.12
313.476	115.12
313.706	114.12
313.935	126.12
314.165	125.12
314.394	119.12
314.624	124.12
314.853	125.12
315.083	111.12
315.312	126.12
315.542	126.12
315.771	131.12
316.001	142.12
316.23	118.12
316.46	124.12
316.689	129.12
316.919	129.12
317.148	114.12
317.377	126.12
317.607	132.12
317.836	139.12
318.065	120.12
318.295	124.12
318.524	118.12
318.753	128.12
318.983	132.12
319.212	124.12
319.441	130.12
319.67	143.12
319.9	119.12
320.129	133.12
320.358	125.12
320.587	128.12
320.816	129.12
321.046	119.12
321.275	123.12
321.504	131.12
321.733	131.12
321.962	127.12
322.191	121.12
322.42	130.12
322.649	128.12
322.878	137.12
323.108	132.12
323.337	119.12
323.566	122.12
323.795	129.12
324.024	131.12
324.253	129.12
324.482	121.12
324.71	133.12
324.939	131.12
325.168	108.12
325.397	124.12
325.626	123.12
325.855	117.12
326.084	108.12
326.313	117.12
326.542	120.12
326.77	133.12
326.999	115.12
327.228	143.12
327.457	131.12
327.686	156.12
327.914	131.12
328.143	128.12
328.372	143.12
328.6	135.12
328.829	133.12
329.058	116.12
329.287	135.12
329.515	124.12
329.744	145.12
329.972	108.12
330.201	135.12
330.43	122.12
330.658	133.12
330.887	120.12
331.115	130.12
331.344	127.12
331.572	131.12
331.801	138.12
332.03	146.12
332.258	140.12
332.486	144.12
332.715	140.12
332.943	131.12
333.172	156.12
333.4	148.12
333.629	146.12
333.857	152.12
334.085	148.12
334.314	142.12
334.542	138.12
334.771	130.12
334.999	140.12
335.227	134.12
335.455	145.12
335.684	127.12
335.912	128.12
336.14	146.12
336.369	133.12
336.597	128.12
336.825	143.12
337.053	126.12
337.281	124.12
337.51	146.12
337.738	135.12
337.966	131.12
338.194	132.12
338.422	126.12
338.65	138.12
338.878	135.12
339.106	142.12
339.334	145.12
339.562	128.12
339.79	139.12
340.018	124.12
340.246	134.12
340.474	125.12
340.702	126.12
340.93	149.12
341.158	136.12
341.386	121.12
341.614	115.12
341.842	133.12
342.07	130.12
342.298	136.12
342.526	133.12
342.754	141.12
342.981	115.12
343.209	136.12
343.437	168.12
343.665	151.12
343.893	146.12
344.12	142.12
344.348	148.12
344.576	141.12
344.804	133.12
345.031	136.12
345.259	128.12
345.487	135.12
345.714	126.12
345.942	128.12
346.17	125.12
346.397	144.12
346.625	127.12
346.853	133.12
347.08	128.12
347.308	140.12
347.535	130.12
347.763	136.12
347.99	125.12
348.218	135.12
348.445	133.12
348.673	138.12
348.9	122.12
349.128	144.12
349.355	119.12
349.583	143.12
349.81	128.12
350.037	133.12
350.265	127.12
350.492	129.12
350.72	134.12
350.947	130.12
351.174	122.12
351.402	117.12
351.629	126.12
351.856	122.12
352.083	129.12
352.311	129.12
352.538	132.12
352.765	128.12
352.992	144.12
353.22	113.12
353.447	148.12
353.674	129.12
353.901	147.12
354.128	141.12
354.355	134.12
354.583	133.12
354.81	141.12
355.037	110.12
355.264	130.12
355.491	141.12
355.718	135.12
355.945	135.12
356.172	136.12
356.399	120.12
356.626	140.12
356.853	124.12
357.08	143.12
357.307	123.12
357.534	132.12
357.761	130.12
357.988	126.12
358.215	125.12
358.441	139.12
358.668	147.12
358.895	119.12
359.122	116.12
359.349	125.12
359.576	114.12
359.802	133.12
360.029	123.12
360.256	133.12
360.483	118.12
360.709	119.12
360.936	120.12
361.163	128.12
361.39	133.12
361.616	132.12
361.843	134.12
362.07	135.12
362.296	127.12
362.523	119.12
362.749	117.12
362.976	115.12
363.203	122.12
363.429	115.12
363.656	137.12
363.882	131.12
364.109	141.12
364.335	126.12
364.562	141.12
364.788	126.12
365.015	130.12
365.241	120.12
365.468	119.12
365.694	127.12
365.92	129.12
366.147	133.12
366.373	130.12
366.599	130.12
366.826	125.12
367.052	134.12
367.278	138.12
367.505	121.12
367.731	156.12
367.957	131.12
368.184	145.12
368.41	140.12
368.636	140.12
368.862	138.12
369.089	142.12
369.315	134.12
369.541	131.12
369.767	143.12
369.993	147.12
370.219	161.12
370.445	138.12
370.672	125.12
370.898	121.12
371.124	142.12
371.35	126.12
371.576	131.12
371.802	153.12
372.028	142.12
372.254	147.12
372.48	154.12
372.706	154.12
372.932	147.12
373.158	135.12
373.384	154.12
373.61	154.12
373.835	147.12
374.061	148.12
374.287	142.12
374.513	164.12
374.739	160.12
374.965	159.12
375.191	177.12
375.416	175.12
375.642	149.12
375.868	165.12
376.094	164.12
376.319	161.12
376.545	157.12
376.771	156.12
376.997	158.12
377.222	151.12
377.448	164.12
377.674	150.12
377.899	167.12
378.125	154.12
378.35	159.12
378.576	158.12
378.802	171.12
379.027	159.12
379.253	166.12
379.478	167.12
379.704	158.12
379.929	169.12
380.155	155.12
380.38	167.12
380.606	160.12
380.831	166.12
381.057	164.12
381.282	160.12
381.507	160.12
381.733	161.12
381.958	167.12
382.184	166.12
382.409	168.12
382.634	158.12
382.86	168.12
383.085	174.12
383.31	158.12
383.535	166.12
383.761	162.12
383.986	178.12
384.211	176.12
384.436	173.12
384.662	178.12
384.887	166.12
385.112	160.12
385.337	180.12
385.562	179.12
385.787	178.12
386.013	179.12
386.238	195.12
386.463	192.12
386.688	226.12
386.913	188.12
387.138	200.12
387.363	208.12
387.588	187.12
387.813	203.12
388.038	183.12
388.263	192.12
388.488	190.12
388.713	184.12
388.938	192.12
389.163	184.12
389.387	190.12
389.612	189.12
389.837	171.12
390.062	185.12
390.287	190.12
390.512	187.12
390.736	192.12
390.961	191.12
391.186	199.12
391.411	202.12
391.636	202.12
391.86	213.12
392.085	200.12
392.31	206.12
392.534	223.12
392.759	206.12
392.984	218.12
393.208	213.12
393.433	198.12
393.658	215.12
393.882	212.12
394.107	204.12
394.331	210.12
394.556	208.12
394.78	202.12
395.005	212.12
395.229	218.12
395.454	212.12
395.678	203.12
395.903	234.12
396.127	219.12
396.352	219.12
396.576	210.12
396.801	204.12
397.025	194.12
397.249	226.12
397.474	239.12
397.698	211.12
397.922	230.12
398.147	214.12
398.371	215.12
398.595	207.12
398.82	235.12
399.044	238.12
399.268	258.12
399.492	275.12
399.717	298.12
399.941	275.12
400.165	280.12
400.389	263.12
400.613	252.12
400.837	230.12
401.062	246.12
401.286	231.12
401.51	226.12
401.734	224.12
401.958	232.12
402.182	235.12
402.406	248.12
402.63	238.12
402.854	251.12
403.078	246.12
403.302	257.12
403.526	259.12
403.75	254.12
403.974	259.12
404.198	269.12
404.422	268.12
404.645	274.12
404.869	244.12
405.093	256.12
405.317	264.12
405.541	279.12
405.765	274.12
405.988	276.12
406.212	284.12
406.436	266.12
406.66	269.12
406.883	273.12
407.107	258.12
407.331	259.12
407.555	289.12
407.778	286.12
408.002	262.12
408.226	270.12
408.449	255.12
408.673	261.12
408.896	267.12
409.12	273.12
409.344	270.12
409.567	261.12
409.791	276.12
410.014	293.12
410.238	267.12
410.461	280.12
410.685	262.12
410.908	261.12
411.132	270.12
411.355	249.12
411.578	242.12
411.802	267.12
412.025	278.12
412.249	262.12
412.472	269.12
412.695	246.12
412.919	250.12
413.142	268.12
413.365	268.12
413.589	252.12
413.812	253.12
414.035	278.12
414.258	243.12
414.482	245.12
414.705	263.12
414.928	260.12
415.151	262.12
415.374	241.12
415.597	257.12
415.821	248.12
416.044	258.12
416.267	282.12
416.49	276.12
416.713	254.12
416.936	260.12
417.159	256.12
417.382	254.12
417.605	266.12
417.828	275.12
418.051	278.12
418.274	265.12
418.497	279.12
418.72	278.12
418.943	266.12
419.166	277.12
419.389	299.12
419.611	290.12
419.834	283.12
420.057	297.12
420.28	274.12
420.503	247.12
420.726	274.12
420.948	282.12
421.171	263.12
421.394	280.12
421.617	282.12
421.839	295.12
422.062	311.12
422.285	274.12
422.507	287.12
422.73	255.12
422.953	266.12
423.175	272.12
423.398	285.12
423.621	286.12
423.843	286.12
424.066	291.12
424.288	295.12
424.511	335.12
424.733	287.12
424.956	290.12
425.178	296.12
425.401	283.12
425.623	295.12
425.846	261.12
426.068	276.12
426.291	271.12
426.513	269.12
426.735	256.12
426.958	258.12
427.18	272.12
427.402	271.12
427.625	268.12
427.847	263.12
428.069	276.12
428.292	278.12
428.514	267.12
428.736	283.12
428.958	264.12
429.181	257.12
429.403	263.12
429.625	243.12
429.847	264.12
430.069	263.12
430.292	246.12
430.514	250.12
430.736	261.12
430.958	272.12
431.18	250.12
431.402	254.12
431.624	250.12
431.846	215.12
432.068	182.12
432.29	198.12
432.512	231.12
432.734	255.12
432.956	265.12
433.178	278.12
433.4	267.12
433.622	296.12
433.844	266.12
434.066	270.12
434.287	215.12
434.509	202.12
434.731	192.12
434.953	242.12
435.175	254.12
435.397	261.12
435.618	216.12
435.84	231.12
436.062	229.12
436.284	248.12
436.505	252.12
436.727	254.12
436.949	252.12
437.17	270.12
437.392	254.12
437.614	239.12
437.835	212.12
438.057	205.12
438.278	225.12
438.5	230.12
438.721	280.12
438.943	272.12
439.165	271.12
439.386	283.12
439.608	284.12
439.829	274.12
440.05	312.12
440.272	272.12
440.493	276.12
440.715	296.12
440.936	297.12
441.158	288.12
441.379	303.12
441.6	322.12
441.822	295.12
442.043	295.12
442.264	284.12
442.486	292.12
442.707	289.12
442.928	283.12
443.149	303.12
443.371	282.12
443.592	300.12
443.813	304.12
444.034	296.12
444.255	310.12
444.476	305.12
444.698	310.12
444.919	324.12
445.14	566.12
445.361	417.12
445.582	322.12
445.803	311.12
446.024	293.12
446.245	302.12
446.466	314.12
446.687	308.12
446.908	330.12
447.129	298.12
447.35	295.12
447.571	295.12
447.792	290.12
448.013	291.12
448.234	286.12
448.455	264.12
448.675	274.12
448.896	270.12
449.117	290.12
449.338	263.12
449.559	272.12
449.779	270.12
450	255.12
450.221	269.12
450.442	263.12
450.662	251.12
450.883	270.12
451.104	259.12
451.324	262.12
451.545	250.12
451.766	253.12
451.986	242.12
452.207	252.12
452.428	248.12
452.648	238.12
452.869	232.12
453.089	232.12
453.31	213.12
453.53	190.12
453.751	189.12
453.971	198.12
454.192	188.12
454.412	214.12
454.633	223.12
454.853	206.12
455.073	213.12
455.294	214.12
455.514	213.12
455.734	220.12
455.955	208.12
456.175	205.12
456.395	193.12
456.616	183.12
456.836	202.12
457.056	203.12
457.276	186.12
457.497	197.12
457.717	192.12
457.937	205.12
458.157	174.12
458.377	179.12
458.598	181.12
458.818	181.12
459.038	166.12
459.258	167.12
459.478	169.12
459.698	175.12
459.918	188.12
460.138	224.12
460.358	213.12
460.578	240.12
460.798	240.12
461.018	228.12
461.238	253.12
461.458	239.12
461.678	224.12
461.898	238.12
462.118	239.12
462.338	239.12
462.558	259.12
462.777	244.12
462.997	246.12
463.217	277.12
463.437	264.12
463.657	244.12
463.876	242.12
464.096	247.12
464.316	241.12
464.536	249.12
464.755	266.12
464.975	247.12
465.195	258.12
465.414	236.12
465.634	236.12
465.854	210.12
466.073	228.12
466.293	241.12
466.512	232.12
466.732	250.12
466.951	272.12
467.171	257.12
467.391	239.12
467.61	273.12
467.829	251.12
468.049	247.12
468.268	257.12
468.488	245.12
468.707	261.12
468.927	246.12
469.146	270.12
469.365	255.12
469.585	280.12
469.804	268.12
470.023	291.12
470.243	268.12
470.462	282.12
470.681	280.12
470.901	270.12
471.12	274.12
471.339	295.12
471.558	271.12
471.777	262.12
471.997	262.12
472.216	257.12
472.435	219.12
472.654	207.12
472.873	198.12
473.092	220.12
473.311	220.12
473.53	255.12
473.749	228.12
473.968	227.12
474.187	234.12
474.406	218.12
474.625	231.12
474.844	244.12
475.063	244.12
475.282	229.12
475.501	210.12
475.72	233.12
475.939	226.12
476.158	244.12
476.377	236.12
476.596	220.12
476.814	204.12
477.033	198.12
477.252	217.12
477.471	238.12
477.69	259.12
477.908	259.12
478.127	290.12
478.346	282.12
478.564	266.12
478.783	284.12
479.002	283.12
479.22	286.12
479.439	258.12
479.658	229.12
479.876	212.12
480.095	224.12
480.313	233.12
480.532	230.12
480.751	235.12
480.969	194.12
481.188	193.12
481.406	178.12
481.624	175.12
481.843	166.12
482.061	191.12
482.28	194.12
482.498	214.12
482.717	215.12
482.935	242.12
483.153	267.12
483.372	286.12
483.59	279.12
483.808	270.12
484.027	262.12
484.245	269.12
484.463	247.12
484.681	280.12
484.9	258.12
485.118	260.12
485.336	231.12
485.554	217.12
485.772	212.12
485.99	224.12
486.209	207.12
486.427	224.12
486.645	242.12
486.863	272.12
487.081	262.12
487.299	257.12
487.517	275.12
487.735	325.12
487.953	364.12
488.171	356.12
488.389	328.12
488.607	299.12
488.825	254.12
489.043	253.12
489.261	278.12
489.479	257.12
489.696	273.12
489.914	276.12
490.132	282.12
490.35	299.12
490.568	333.12
490.786	340.12
491.003	369.12
491.221	353.12
491.439	375.12
491.657	386.12
491.874	431.12
492.092	448.12
492.31	479.12
492.527	462.12
492.745	410.12
492.963	370.12
493.18	406.12
493.398	378.12
493.615	376.12
493.833	361.12
494.05	364.12
494.268	357.12
494.485	358.12
494.703	373.12
494.92	332.12
495.138	366.12
495.355	355.12
495.573	368.12
495.79	352.12
496.008	375.12
496.225	340.12
496.442	333.12
496.66	352.12
496.877	359.12
497.094	340.12
497.312	333.12
497.529	335.12
497.746	324.12
497.963	296.12
498.181	282.12
498.398	271.12
498.615	275.12
498.832	266.12
499.049	290.12
499.267	331.12
499.484	341.12
499.701	371.12
499.918	420.12
500.135	460.12
500.352	498.12
500.569	522.12
500.786	494.12
501.003	480.12
501.22	445.12
501.437	416.12
501.654	380.12
501.871	334.12
502.088	324.12
502.305	311.12
502.522	310.12
502.739	316.12
502.956	291.12
503.172	287.12
503.389	279.12
503.606	266.12
503.823	255.12
504.04	274.12
504.256	274.12
504.473	277.12
504.69	269.12
504.907	275.12
505.123	262.12
