Data from SampD_HRD10591_00020.txt Node
Date: Mon Jan 19 11:47:44 EST 2026
User: Yrep
Spectrometer: HR+D1059
Trigger mode: 0
Integration Time (sec): 3.443000E-1
Scans to average: 1
Electric dark correction enabled: true
Nonlinearity correction enabled: false
Boxcar width: 0
XAxis mode: Wavelengths
Number of Pixels in Spectrum: 2048
>>>>>Begin Spectral Data<<<<<
223.165	-14.5
223.4	-14.5
223.635	-14.5
223.869	-32.5
224.104	-26.5
224.338	-16.5
224.573	-1.5
224.808	-16.5
225.042	-17.5
225.277	-5.5
225.511	-12.5
225.746	12.5
225.98	22.5
226.215	4.5
226.449	18.5
226.683	32.5
226.918	14.5
227.152	38.5
227.387	42.5
227.621	47.5
227.856	61.5
228.09	49.5
228.324	46.5
228.559	63.5
228.793	66.5
229.027	79.5
229.262	74.5
229.496	77.5
229.73	71.5
229.964	86.5
230.199	89.5
230.433	74.5
230.667	86.5
230.901	75.5
231.136	70.5
231.37	61.5
231.604	90.5
231.838	77.5
232.072	79.5
232.306	75.5
232.541	99.5
232.775	84.5
233.009	88.5
233.243	83.5
233.477	83.5
233.711	98.5
233.945	82.5
234.179	92.5
234.413	96.5
234.647	69.5
234.881	90.5
235.115	80.5
235.349	83.5
235.583	89.5
235.817	96.5
236.051	73.5
236.285	82.5
236.519	91.5
236.753	90.5
236.987	82.5
237.221	92.5
237.455	75.5
237.689	97.5
237.922	79.5
238.156	93.5
238.39	85.5
238.624	76.5
238.858	90.5
239.091	72.5
239.325	93.5
239.559	77.5
239.793	85.5
240.027	93.5
240.26	82.5
240.494	86.5
240.728	91.5
240.961	78.5
241.195	86.5
241.429	77.5
241.662	91.5
241.896	86.5
242.13	94.5
242.363	75.5
242.597	88.5
242.83	74.5
243.064	88.5
243.298	63.5
243.531	97.5
243.765	87.5
243.998	88.5
244.232	104.5
244.465	87.5
244.699	77.5
244.932	72.5
245.166	88.5
245.399	94.5
245.633	91.5
245.866	87.5
246.099	78.5
246.333	94.5
246.566	86.5
246.8	78.5
247.033	70.5
247.266	90.5
247.5	78.5
247.733	92.5
247.966	93.5
248.2	88.5
248.433	77.5
248.666	98.5
248.899	99.5
249.133	85.5
249.366	85.5
249.599	88.5
249.832	86.5
250.066	101.5
250.299	89.5
250.532	91.5
250.765	78.5
250.998	100.5
251.231	94.5
251.465	88.5
251.698	102.5
251.931	106.5
252.164	100.5
252.397	95.5
252.63	102.5
252.863	82.5
253.096	96.5
253.329	101.5
253.562	90.5
253.795	97.5
254.028	109.5
254.261	107.5
254.494	76.5
254.727	93.5
254.96	83.5
255.193	73.5
255.426	91.5
255.659	91.5
255.892	102.5
256.124	74.5
256.357	93.5
256.59	76.5
256.823	87.5
257.056	82.5
257.289	88.5
257.521	88.5
257.754	78.5
257.987	89.5
258.22	94.5
258.452	101.5
258.685	95.5
258.918	91.5
259.151	88.5
259.383	98.5
259.616	90.5
259.849	93.5
260.081	75.5
260.314	95.5
260.547	95.5
260.779	100.5
261.012	88.5
261.244	85.5
261.477	117.5
261.71	88.5
261.942	77.5
262.175	84.5
262.407	100.5
262.64	88.5
262.872	117.5
263.105	78.5
263.337	110.5
263.57	95.5
263.802	102.5
264.035	110.5
264.267	94.5
264.499	88.5
264.732	93.5
264.964	111.5
265.197	87.5
265.429	93.5
265.661	109.5
265.894	91.5
266.126	99.5
266.358	88.5
266.591	99.5
266.823	93.5
267.055	89.5
267.287	96.5
267.52	101.5
267.752	101.5
267.984	101.5
268.216	90.5
268.448	104.5
268.681	97.5
268.913	99.5
269.145	104.5
269.377	101.5
269.609	101.5
269.841	95.5
270.073	91.5
270.306	95.5
270.538	97.5
270.77	111.5
271.002	107.5
271.234	98.5
271.466	94.5
271.698	102.5
271.93	102.5
272.162	94.5
272.394	109.5
272.626	114.5
272.858	104.5
273.09	100.5
273.322	102.5
273.553	89.5
273.785	99.5
274.017	95.5
274.249	100.5
274.481	101.5
274.713	93.5
274.945	93.5
275.176	82.5
275.408	98.5
275.64	94.5
275.872	100.5
276.104	91.5
276.335	102.5
276.567	98.5
276.799	87.5
277.031	90.5
277.262	92.5
277.494	102.5
277.726	109.5
277.957	99.5
278.189	93.5
278.421	102.5
278.652	105.5
278.884	90.5
279.115	100.5
279.347	91.5
279.579	113.5
279.81	84.5
280.042	96.5
280.273	91.5
280.505	84.5
280.736	103.5
280.968	78.5
281.199	99.5
281.431	90.5
281.662	107.5
281.894	99.5
282.125	110.5
282.356	106.5
282.588	99.5
282.819	103.5
283.051	95.5
283.282	100.5
283.513	110.5
283.745	117.5
283.976	87.5
284.207	103.5
284.439	85.5
284.67	102.5
284.901	106.5
285.132	102.5
285.364	107.5
285.595	104.5
285.826	123.5
286.057	108.5
286.288	95.5
286.52	107.5
286.751	108.5
286.982	105.5
287.213	106.5
287.444	110.5
287.675	106.5
287.906	107.5
288.138	90.5
288.369	95.5
288.6	115.5
288.831	100.5
289.062	120.5
289.293	113.5
289.524	100.5
289.755	104.5
289.986	103.5
290.217	112.5
290.448	109.5
290.679	103.5
290.91	112.5
291.141	107.5
291.371	117.5
291.602	102.5
291.833	96.5
292.064	106.5
292.295	99.5
292.526	100.5
292.757	94.5
292.987	112.5
293.218	101.5
293.449	102.5
293.68	107.5
293.91	103.5
294.141	126.5
294.372	107.5
294.603	98.5
294.833	100.5
295.064	105.5
295.295	115.5
295.525	116.5
295.756	103.5
295.987	112.5
296.217	105.5
296.448	102.5
296.679	107.5
296.909	113.5
297.14	104.5
297.37	124.5
297.601	101.5
297.831	106.5
298.062	106.5
298.292	118.5
298.523	109.5
298.753	92.5
298.984	96.5
299.214	104.5
299.445	108.5
299.675	123.5
299.905	104.5
300.136	107.5
300.366	99.5
300.597	92.5
300.827	109.5
301.057	102.5
301.288	104.5
301.518	113.5
301.748	106.5
301.979	151.5
302.209	114.5
302.439	99.5
302.669	107.5
302.9	104.5
303.13	111.5
303.36	112.5
303.59	106.5
303.82	110.5
304.051	106.5
304.281	120.5
304.511	111.5
304.741	119.5
304.971	95.5
305.201	105.5
305.431	111.5
305.661	111.5
305.891	113.5
306.121	111.5
306.352	108.5
306.582	85.5
306.812	112.5
307.042	108.5
307.272	115.5
307.502	98.5
307.731	105.5
307.961	100.5
308.191	104.5
308.421	111.5
308.651	99.5
308.881	123.5
309.111	113.5
309.341	107.5
309.571	95.5
309.8	100.5
310.03	103.5
310.26	113.5
310.49	116.5
310.72	118.5
310.949	104.5
311.179	108.5
311.409	101.5
311.639	107.5
311.868	123.5
312.098	102.5
312.328	119.5
312.557	102.5
312.787	116.5
313.017	118.5
313.246	106.5
313.476	103.5
313.706	104.5
313.935	96.5
314.165	127.5
314.394	110.5
314.624	112.5
314.853	119.5
315.083	107.5
315.312	116.5
315.542	94.5
315.771	119.5
316.001	110.5
316.23	108.5
316.46	110.5
316.689	106.5
316.919	116.5
317.148	118.5
317.377	124.5
317.607	112.5
317.836	98.5
318.065	107.5
318.295	114.5
318.524	98.5
318.753	95.5
318.983	101.5
319.212	111.5
319.441	116.5
319.67	104.5
319.9	123.5
320.129	116.5
320.358	100.5
320.587	110.5
320.816	118.5
321.046	109.5
321.275	123.5
321.504	91.5
321.733	116.5
321.962	109.5
322.191	112.5
322.42	100.5
322.649	111.5
322.878	118.5
323.108	106.5
323.337	110.5
323.566	122.5
323.795	101.5
324.024	94.5
324.253	103.5
324.482	111.5
324.71	110.5
324.939	123.5
325.168	104.5
325.397	116.5
325.626	101.5
325.855	106.5
326.084	101.5
326.313	110.5
326.542	119.5
326.77	112.5
326.999	95.5
327.228	113.5
327.457	100.5
327.686	96.5
327.914	116.5
328.143	129.5
328.372	111.5
328.6	116.5
328.829	115.5
329.058	107.5
329.287	106.5
329.515	116.5
329.744	117.5
329.972	111.5
330.201	117.5
330.43	106.5
330.658	112.5
330.887	111.5
331.115	109.5
331.344	98.5
331.572	112.5
331.801	120.5
332.03	114.5
332.258	110.5
332.486	125.5
332.715	107.5
332.943	115.5
333.172	124.5
333.4	120.5
333.629	123.5
333.857	134.5
334.085	127.5
334.314	133.5
334.542	135.5
334.771	124.5
334.999	111.5
335.227	131.5
335.455	123.5
335.684	130.5
335.912	112.5
336.14	114.5
336.369	109.5
336.597	127.5
336.825	116.5
337.053	112.5
337.281	123.5
337.51	111.5
337.738	112.5
337.966	111.5
338.194	110.5
338.422	122.5
338.65	115.5
338.878	117.5
339.106	126.5
339.334	128.5
339.562	121.5
339.79	111.5
340.018	110.5
340.246	104.5
340.474	115.5
340.702	124.5
340.93	108.5
341.158	105.5
341.386	112.5
341.614	113.5
341.842	128.5
342.07	104.5
342.298	109.5
342.526	99.5
342.754	102.5
342.981	124.5
343.209	122.5
343.437	135.5
343.665	118.5
343.893	129.5
344.12	128.5
344.348	119.5
344.576	117.5
344.804	111.5
345.031	105.5
345.259	116.5
345.487	109.5
345.714	109.5
345.942	111.5
346.17	108.5
346.397	118.5
346.625	118.5
346.853	122.5
347.08	108.5
347.308	108.5
347.535	118.5
347.763	107.5
347.99	116.5
348.218	114.5
348.445	119.5
348.673	116.5
348.9	127.5
349.128	125.5
349.355	112.5
349.583	98.5
349.81	114.5
350.037	100.5
350.265	115.5
350.492	110.5
350.72	106.5
350.947	108.5
351.174	105.5
351.402	99.5
351.629	111.5
351.856	103.5
352.083	118.5
352.311	118.5
352.538	115.5
352.765	112.5
352.992	110.5
353.22	107.5
353.447	116.5
353.674	98.5
353.901	103.5
354.128	115.5
354.355	123.5
354.583	108.5
354.81	112.5
355.037	129.5
355.264	108.5
355.491	102.5
355.718	95.5
355.945	111.5
356.172	128.5
356.399	98.5
356.626	111.5
356.853	110.5
357.08	104.5
357.307	103.5
357.534	95.5
357.761	115.5
357.988	112.5
358.215	123.5
358.441	122.5
358.668	103.5
358.895	88.5
359.122	100.5
359.349	107.5
359.576	118.5
359.802	92.5
360.029	114.5
360.256	118.5
360.483	108.5
360.709	108.5
360.936	131.5
361.163	116.5
361.39	95.5
361.616	100.5
361.843	106.5
362.07	108.5
362.296	104.5
362.523	108.5
362.749	121.5
362.976	100.5
363.203	125.5
363.429	96.5
363.656	110.5
363.882	110.5
364.109	118.5
364.335	120.5
364.562	116.5
364.788	108.5
365.015	121.5
365.241	116.5
365.468	120.5
365.694	113.5
365.92	106.5
366.147	109.5
366.373	114.5
366.599	115.5
366.826	109.5
367.052	110.5
367.278	104.5
367.505	122.5
367.731	120.5
367.957	105.5
368.184	111.5
368.41	112.5
368.636	97.5
368.862	109.5
369.089	113.5
369.315	102.5
369.541	125.5
369.767	111.5
369.993	109.5
370.219	118.5
370.445	110.5
370.672	117.5
370.898	133.5
371.124	117.5
371.35	120.5
371.576	112.5
371.802	109.5
372.028	118.5
372.254	127.5
372.48	128.5
372.706	115.5
372.932	132.5
373.158	124.5
373.384	127.5
373.61	117.5
373.835	115.5
374.061	122.5
374.287	114.5
374.513	100.5
374.739	107.5
374.965	125.5
375.191	127.5
375.416	123.5
375.642	148.5
375.868	118.5
376.094	128.5
376.319	137.5
376.545	122.5
376.771	121.5
376.997	130.5
377.222	126.5
377.448	123.5
377.674	135.5
377.899	115.5
378.125	100.5
378.35	126.5
378.576	131.5
378.802	110.5
379.027	125.5
379.253	130.5
379.478	108.5
379.704	123.5
379.929	123.5
380.155	116.5
380.38	122.5
380.606	125.5
380.831	129.5
381.057	142.5
381.282	122.5
381.507	121.5
381.733	128.5
381.958	117.5
382.184	130.5
382.409	113.5
382.634	141.5
382.86	147.5
383.085	152.5
383.31	124.5
383.535	138.5
383.761	131.5
383.986	144.5
384.211	135.5
384.436	130.5
384.662	132.5
384.887	136.5
385.112	140.5
385.337	134.5
385.562	147.5
385.787	146.5
386.013	129.5
386.238	135.5
386.463	144.5
386.688	149.5
386.913	143.5
387.138	134.5
387.363	127.5
387.588	137.5
387.813	150.5
388.038	131.5
388.263	150.5
388.488	137.5
388.713	127.5
388.938	134.5
389.163	151.5
389.387	132.5
389.612	142.5
389.837	150.5
390.062	142.5
390.287	136.5
390.512	134.5
390.736	144.5
390.961	140.5
391.186	135.5
391.411	166.5
391.636	136.5
391.86	150.5
392.085	132.5
392.31	143.5
392.534	142.5
392.759	138.5
392.984	137.5
393.208	137.5
393.433	146.5
393.658	150.5
393.882	152.5
394.107	145.5
394.331	140.5
394.556	130.5
394.78	152.5
395.005	166.5
395.229	150.5
395.454	159.5
395.678	148.5
395.903	152.5
396.127	163.5
396.352	146.5
396.576	139.5
396.801	146.5
397.025	155.5
397.249	141.5
397.474	142.5
397.698	154.5
397.922	154.5
398.147	140.5
398.371	148.5
398.595	176.5
398.82	150.5
399.044	153.5
399.268	182.5
399.492	212.5
399.717	181.5
399.941	173.5
400.165	193.5
400.389	167.5
400.613	165.5
400.837	156.5
401.062	157.5
401.286	176.5
401.51	169.5
401.734	166.5
401.958	166.5
402.182	168.5
402.406	187.5
402.63	156.5
402.854	164.5
403.078	170.5
403.302	170.5
403.526	174.5
403.75	167.5
403.974	179.5
404.198	177.5
404.422	195.5
404.645	174.5
404.869	172.5
405.093	183.5
405.317	170.5
405.541	186.5
405.765	189.5
405.988	158.5
406.212	168.5
406.436	164.5
406.66	170.5
406.883	174.5
407.107	184.5
407.331	182.5
407.555	190.5
407.778	182.5
408.002	187.5
408.226	191.5
408.449	184.5
408.673	172.5
408.896	181.5
409.12	179.5
409.344	176.5
409.567	187.5
409.791	190.5
410.014	174.5
410.238	167.5
410.461	179.5
410.685	181.5
410.908	170.5
411.132	182.5
411.355	168.5
411.578	173.5
411.802	167.5
412.025	157.5
412.249	195.5
412.472	170.5
412.695	173.5
412.919	174.5
413.142	182.5
413.365	179.5
413.589	170.5
413.812	156.5
414.035	174.5
414.258	175.5
414.482	176.5
414.705	182.5
414.928	180.5
415.151	175.5
415.374	197.5
415.597	184.5
415.821	167.5
416.044	188.5
416.267	180.5
416.49	168.5
416.713	188.5
416.936	187.5
417.159	175.5
417.382	165.5
417.605	186.5
417.828	183.5
418.051	190.5
418.274	181.5
418.497	154.5
418.72	174.5
418.943	191.5
419.166	198.5
419.389	202.5
419.611	184.5
419.834	187.5
420.057	188.5
420.28	196.5
420.503	176.5
420.726	173.5
420.948	189.5
421.171	190.5
421.394	195.5
421.617	195.5
421.839	178.5
422.062	190.5
422.285	203.5
422.507	189.5
422.73	191.5
422.953	175.5
423.175	177.5
423.398	190.5
423.621	192.5
423.843	203.5
424.066	187.5
424.288	202.5
424.511	199.5
424.733	191.5
424.956	190.5
425.178	196.5
425.401	185.5
425.623	176.5
425.846	180.5
426.068	174.5
426.291	169.5
426.513	174.5
426.735	180.5
426.958	169.5
427.18	166.5
427.402	189.5
427.625	188.5
427.847	179.5
428.069	156.5
428.292	169.5
428.514	174.5
428.736	170.5
428.958	187.5
429.181	164.5
429.403	163.5
429.625	186.5
429.847	180.5
430.069	177.5
430.292	173.5
430.514	179.5
430.736	181.5
430.958	162.5
431.18	176.5
431.402	177.5
431.624	155.5
431.846	154.5
432.068	137.5
432.29	142.5
432.512	164.5
432.734	172.5
432.956	193.5
433.178	190.5
433.4	184.5
433.622	185.5
433.844	173.5
434.066	167.5
434.287	139.5
434.509	142.5
434.731	150.5
434.953	160.5
435.175	174.5
435.397	175.5
435.618	151.5
435.84	151.5
436.062	147.5
436.284	169.5
436.505	179.5
436.727	167.5
436.949	177.5
437.17	160.5
437.392	178.5
437.614	161.5
437.835	167.5
438.057	163.5
438.278	155.5
438.5	169.5
438.721	169.5
438.943	186.5
439.165	189.5
439.386	190.5
439.608	206.5
439.829	175.5
440.05	186.5
440.272	184.5
440.493	194.5
440.715	206.5
440.936	190.5
441.158	194.5
441.379	197.5
441.6	195.5
441.822	190.5
442.043	175.5
442.264	178.5
442.486	194.5
442.707	205.5
442.928	158.5
443.149	170.5
443.371	179.5
443.592	194.5
443.813	184.5
444.034	182.5
444.255	200.5
444.476	195.5
444.698	208.5
444.919	215.5
445.14	461.5
445.361	310.5
445.582	205.5
445.803	202.5
446.024	171.5
446.245	188.5
446.466	195.5
446.687	196.5
446.908	182.5
447.129	197.5
447.35	194.5
447.571	189.5
447.792	195.5
448.013	186.5
448.234	176.5
448.455	174.5
448.675	200.5
448.896	173.5
449.117	173.5
449.338	168.5
449.559	184.5
449.779	162.5
450	175.5
450.221	170.5
450.442	190.5
450.662	178.5
450.883	154.5
451.104	173.5
451.324	157.5
451.545	172.5
451.766	169.5
451.986	163.5
452.207	154.5
452.428	171.5
452.648	159.5
452.869	162.5
453.089	158.5
453.31	152.5
453.53	132.5
453.751	123.5
453.971	127.5
454.192	150.5
454.412	130.5
454.633	154.5
454.853	149.5
455.073	165.5
455.294	152.5
455.514	166.5
455.734	151.5
455.955	162.5
456.175	143.5
456.395	149.5
456.616	132.5
456.836	135.5
457.056	143.5
457.276	135.5
457.497	136.5
457.717	135.5
457.937	137.5
458.157	143.5
458.377	130.5
458.598	125.5
458.818	127.5
459.038	117.5
459.258	120.5
459.478	119.5
459.698	143.5
459.918	144.5
460.138	155.5
460.358	149.5
460.578	160.5
460.798	149.5
461.018	174.5
461.238	161.5
461.458	165.5
461.678	154.5
461.898	160.5
462.118	158.5
462.338	178.5
462.558	160.5
462.777	162.5
462.997	166.5
463.217	173.5
463.437	179.5
463.657	184.5
463.876	160.5
464.096	153.5
464.316	140.5
464.536	170.5
464.755	172.5
464.975	158.5
465.195	173.5
465.414	180.5
465.634	151.5
465.854	171.5
466.073	158.5
466.293	164.5
466.512	163.5
466.732	162.5
466.951	176.5
467.171	166.5
467.391	180.5
467.61	172.5
467.829	185.5
468.049	182.5
468.268	163.5
468.488	157.5
468.707	168.5
468.927	184.5
469.146	177.5
469.365	185.5
469.585	163.5
469.804	184.5
470.023	164.5
470.243	182.5
470.462	180.5
470.681	184.5
470.901	189.5
471.12	184.5
471.339	185.5
471.558	190.5
471.777	181.5
471.997	180.5
472.216	157.5
472.435	140.5
472.654	154.5
472.873	154.5
473.092	134.5
473.311	153.5
473.53	166.5
473.749	172.5
473.968	170.5
474.187	160.5
474.406	154.5
474.625	145.5
474.844	170.5
475.063	154.5
475.282	155.5
475.501	154.5
475.72	162.5
475.939	152.5
476.158	165.5
476.377	157.5
476.596	168.5
476.814	142.5
477.033	151.5
477.252	156.5
477.471	167.5
477.69	166.5
477.908	179.5
478.127	168.5
478.346	185.5
478.564	180.5
478.783	169.5
479.002	186.5
479.22	196.5
479.439	190.5
479.658	175.5
479.876	163.5
480.095	153.5
480.313	159.5
480.532	165.5
480.751	159.5
480.969	135.5
481.188	128.5
481.406	136.5
481.624	130.5
481.843	139.5
482.061	136.5
482.28	158.5
482.498	157.5
482.717	146.5
482.935	150.5
483.153	188.5
483.372	204.5
483.59	188.5
483.808	179.5
484.027	181.5
484.245	177.5
484.463	166.5
484.681	203.5
484.9	174.5
485.118	176.5
485.336	167.5
485.554	139.5
485.772	148.5
485.99	149.5
486.209	153.5
486.427	149.5
486.645	166.5
486.863	183.5
487.081	182.5
487.299	186.5
487.517	199.5
487.735	205.5
487.953	216.5
488.171	198.5
488.389	214.5
488.607	184.5
488.825	183.5
489.043	158.5
489.261	182.5
489.479	174.5
489.696	200.5
489.914	180.5
490.132	176.5
490.35	203.5
490.568	201.5
490.786	224.5
491.003	210.5
491.221	216.5
491.439	230.5
491.657	250.5
491.874	264.5
492.092	279.5
492.31	303.5
492.527	277.5
492.745	246.5
492.963	250.5
493.18	242.5
493.398	226.5
493.615	227.5
493.833	217.5
494.05	235.5
494.268	234.5
494.485	238.5
494.703	215.5
494.92	245.5
495.138	229.5
495.355	238.5
495.573	214.5
495.79	224.5
496.008	231.5
496.225	224.5
496.442	217.5
496.66	238.5
496.877	219.5
497.094	229.5
497.312	217.5
497.529	211.5
497.746	202.5
497.963	192.5
498.181	182.5
498.398	191.5
498.615	180.5
498.832	198.5
499.049	205.5
499.267	218.5
499.484	232.5
499.701	242.5
499.918	249.5
500.135	270.5
500.352	286.5
500.569	308.5
500.786	289.5
501.003	274.5
501.22	258.5
501.437	236.5
501.654	240.5
501.871	202.5
502.088	205.5
502.305	228.5
502.522	207.5
502.739	201.5
502.956	187.5
503.172	180.5
503.389	170.5
503.606	151.5
503.823	163.5
504.04	173.5
504.256	172.5
504.473	170.5
504.69	180.5
504.907	194.5
505.123	164.5
505.34	154.5
505.557	169.5
505.773	177.5
505.99	166.5
506.207	159.5
506.423	148.5
506.64	152.5
506.856	150.5
507.073	152.5
507.289	159.5
507.506	155.5
507.722	166.5
507.939	173.5
508.155	162.5
508.372	148.5
508.588	160.5
508.805	146.5
509.021	146.5
509.238	150.5
509.454	143.5
509.67	134.5
509.887	116.5
510.103	141.5
510.319	140.5
510.536	124.5
510.752	118.5
510.968	119.5
511.184	128.5
511.401	104.5
511.617	129.5
511.833	138.5
512.049	137.5
512.265	130.5
512.481	141.5
512.698	146.5
512.914	130.5
513.13	137.5
513.346	132.5
513.562	133.5
513.778	130.5
513.994	131.5
514.21	131.5
514.426	130.5
514.642	126.5
514.858	118.5
515.074	122.5
515.29	143.5
515.506	130.5
515.721	119.5
515.937	123.5
516.153	124.5
516.369	129.5
516.585	130.5
516.801	123.5
517.016	140.5
517.232	146.5
517.448	149.5
517.664	142.5
517.879	166.5
518.095	170.5
518.311	144.5
518.527	150.5
518.742	146.5
518.958	137.5
519.173	163.5
519.389	142.5
519.605	151.5
519.82	141.5
520.036	154.5
520.251	135.5
520.467	134.5
520.682	123.5
520.898	119.5
521.113	131.5
521.329	142.5
521.544	132.5
521.76	132.5
521.975	135.5
522.19	136.5
522.406	130.5
522.621	127.5
522.836	141.5
523.052	141.5
523.267	142.5
523.482	138.5
523.698	133.5
523.913	155.5
