Data from SampD_HRD10591_00026.txt Node
Date: Mon Jan 19 11:47:47 EST 2026
User: Yrep
Spectrometer: HR+D1059
Trigger mode: 0
Integration Time (sec): 3.443000E-1
Scans to average: 1
Electric dark correction enabled: true
Nonlinearity correction enabled: false
Boxcar width: 0
XAxis mode: Wavelengths
Number of Pixels in Spectrum: 2048
>>>>>Begin Spectral Data<<<<<
223.165	-13.06
223.4	-13.06
223.635	-13.06
223.869	-21.06
224.104	-28.06
224.338	5.94
224.573	-25.06
224.808	-17.06
225.042	-9.06
225.277	-9.06
225.511	-5.06
225.746	-1.06
225.98	18.94
226.215	8.94
226.449	11.94
226.683	28.94
226.918	22.94
227.152	30.94
227.387	53.94
227.621	39.94
227.856	52.94
228.09	47.94
228.324	48.94
228.559	63.94
228.793	77.94
229.027	72.94
229.262	76.94
229.496	59.94
229.73	78.94
229.964	72.94
230.199	83.94
230.433	84.94
230.667	71.94
230.901	83.94
231.136	76.94
231.37	85.94
231.604	85.94
231.838	86.94
232.072	96.94
232.306	82.94
232.541	90.94
232.775	86.94
233.009	93.94
233.243	100.94
233.477	81.94
233.711	98.94
233.945	91.94
234.179	98.94
234.413	91.94
234.647	107.94
234.881	88.94
235.115	85.94
235.349	89.94
235.583	85.94
235.817	77.94
236.051	81.94
236.285	99.94
236.519	83.94
236.753	91.94
236.987	83.94
237.221	87.94
237.455	89.94
237.689	71.94
237.922	90.94
238.156	76.94
238.39	81.94
238.624	75.94
238.858	89.94
239.091	78.94
239.325	97.94
239.559	75.94
239.793	84.94
240.027	89.94
240.26	84.94
240.494	87.94
240.728	92.94
240.961	81.94
241.195	81.94
241.429	74.94
241.662	93.94
241.896	102.94
242.13	88.94
242.363	78.94
242.597	86.94
242.83	85.94
243.064	92.94
243.298	90.94
243.531	93.94
243.765	75.94
243.998	78.94
244.232	105.94
244.465	97.94
244.699	88.94
244.932	84.94
245.166	85.94
245.399	90.94
245.633	79.94
245.866	97.94
246.099	90.94
246.333	89.94
246.566	81.94
246.8	78.94
247.033	98.94
247.266	72.94
247.5	81.94
247.733	79.94
247.966	86.94
248.2	81.94
248.433	93.94
248.666	88.94
248.899	93.94
249.133	102.94
249.366	109.94
249.599	87.94
249.832	80.94
250.066	103.94
250.299	86.94
250.532	95.94
250.765	90.94
250.998	95.94
251.231	95.94
251.465	92.94
251.698	89.94
251.931	93.94
252.164	92.94
252.397	88.94
252.63	106.94
252.863	89.94
253.096	96.94
253.329	98.94
253.562	101.94
253.795	101.94
254.028	104.94
254.261	99.94
254.494	95.94
254.727	105.94
254.96	98.94
255.193	91.94
255.426	99.94
255.659	87.94
255.892	99.94
256.124	96.94
256.357	94.94
256.59	103.94
256.823	89.94
257.056	96.94
257.289	91.94
257.521	110.94
257.754	102.94
257.987	92.94
258.22	90.94
258.452	90.94
258.685	90.94
258.918	107.94
259.151	102.94
259.383	104.94
259.616	89.94
259.849	100.94
260.081	100.94
260.314	101.94
260.547	92.94
260.779	84.94
261.012	108.94
261.244	110.94
261.477	126.94
261.71	95.94
261.942	101.94
262.175	98.94
262.407	101.94
262.64	103.94
262.872	98.94
263.105	105.94
263.337	112.94
263.57	111.94
263.802	100.94
264.035	123.94
264.267	105.94
264.499	103.94
264.732	102.94
264.964	105.94
265.197	105.94
265.429	93.94
265.661	116.94
265.894	110.94
266.126	110.94
266.358	101.94
266.591	115.94
266.823	107.94
267.055	125.94
267.287	104.94
267.52	107.94
267.752	109.94
267.984	112.94
268.216	115.94
268.448	108.94
268.681	108.94
268.913	98.94
269.145	106.94
269.377	103.94
269.609	91.94
269.841	106.94
270.073	93.94
270.306	105.94
270.538	99.94
270.77	110.94
271.002	98.94
271.234	105.94
271.466	104.94
271.698	104.94
271.93	119.94
272.162	109.94
272.394	125.94
272.626	115.94
272.858	108.94
273.09	97.94
273.322	101.94
273.553	111.94
273.785	105.94
274.017	102.94
274.249	122.94
274.481	123.94
274.713	104.94
274.945	111.94
275.176	103.94
275.408	99.94
275.64	116.94
275.872	119.94
276.104	108.94
276.335	115.94
276.567	117.94
276.799	114.94
277.031	101.94
277.262	107.94
277.494	124.94
277.726	141.94
277.957	117.94
278.189	127.94
278.421	112.94
278.652	121.94
278.884	107.94
279.115	117.94
279.347	114.94
279.579	119.94
279.81	109.94
280.042	119.94
280.273	107.94
280.505	110.94
280.736	101.94
280.968	119.94
281.199	116.94
281.431	121.94
281.662	107.94
281.894	115.94
282.125	115.94
282.356	124.94
282.588	108.94
282.819	118.94
283.051	102.94
283.282	111.94
283.513	114.94
283.745	109.94
283.976	119.94
284.207	119.94
284.439	111.94
284.67	112.94
284.901	121.94
285.132	129.94
285.364	123.94
285.595	104.94
285.826	115.94
286.057	118.94
286.288	115.94
286.52	126.94
286.751	118.94
286.982	118.94
287.213	114.94
287.444	101.94
287.675	115.94
287.906	129.94
288.138	123.94
288.369	134.94
288.6	123.94
288.831	118.94
289.062	133.94
289.293	128.94
289.524	121.94
289.755	130.94
289.986	145.94
290.217	121.94
290.448	123.94
290.679	125.94
290.91	123.94
291.141	121.94
291.371	109.94
291.602	114.94
291.833	127.94
292.064	131.94
292.295	138.94
292.526	123.94
292.757	121.94
292.987	129.94
293.218	132.94
293.449	109.94
293.68	114.94
293.91	129.94
294.141	134.94
294.372	130.94
294.603	123.94
294.833	126.94
295.064	125.94
295.295	117.94
295.525	117.94
295.756	100.94
295.987	97.94
296.217	123.94
296.448	129.94
296.679	123.94
296.909	132.94
297.14	128.94
297.37	118.94
297.601	126.94
297.831	124.94
298.062	145.94
298.292	117.94
298.523	149.94
298.753	135.94
298.984	119.94
299.214	126.94
299.445	131.94
299.675	127.94
299.905	103.94
300.136	119.94
300.366	117.94
300.597	135.94
300.827	122.94
301.057	128.94
301.288	129.94
301.518	141.94
301.748	124.94
301.979	161.94
302.209	141.94
302.439	137.94
302.669	130.94
302.9	120.94
303.13	125.94
303.36	119.94
303.59	129.94
303.82	124.94
304.051	124.94
304.281	129.94
304.511	119.94
304.741	132.94
304.971	118.94
305.201	130.94
305.431	137.94
305.661	116.94
305.891	122.94
306.121	128.94
306.352	132.94
306.582	121.94
306.812	130.94
307.042	132.94
307.272	126.94
307.502	114.94
307.731	126.94
307.961	132.94
308.191	124.94
308.421	121.94
308.651	137.94
308.881	118.94
309.111	115.94
309.341	111.94
309.571	139.94
309.8	118.94
310.03	129.94
310.26	127.94
310.49	118.94
310.72	125.94
310.949	134.94
311.179	124.94
311.409	141.94
311.639	129.94
311.868	140.94
312.098	148.94
312.328	124.94
312.557	138.94
312.787	137.94
313.017	125.94
313.246	147.94
313.476	130.94
313.706	132.94
313.935	130.94
314.165	131.94
314.394	139.94
314.624	124.94
314.853	132.94
315.083	138.94
315.312	137.94
315.542	140.94
315.771	124.94
316.001	135.94
316.23	122.94
316.46	118.94
316.689	118.94
316.919	125.94
317.148	150.94
317.377	121.94
317.607	116.94
317.836	133.94
318.065	128.94
318.295	124.94
318.524	125.94
318.753	137.94
318.983	125.94
319.212	140.94
319.441	126.94
319.67	119.94
319.9	134.94
320.129	131.94
320.358	136.94
320.587	151.94
320.816	134.94
321.046	143.94
321.275	133.94
321.504	114.94
321.733	137.94
321.962	137.94
322.191	117.94
322.42	126.94
322.649	124.94
322.878	131.94
323.108	153.94
323.337	140.94
323.566	131.94
323.795	124.94
324.024	137.94
324.253	123.94
324.482	124.94
324.71	133.94
324.939	141.94
325.168	141.94
325.397	132.94
325.626	139.94
325.855	139.94
326.084	134.94
326.313	124.94
326.542	129.94
326.77	149.94
326.999	138.94
327.228	137.94
327.457	133.94
327.686	142.94
327.914	140.94
328.143	135.94
328.372	128.94
328.6	133.94
328.829	134.94
329.058	125.94
329.287	119.94
329.515	144.94
329.744	129.94
329.972	134.94
330.201	133.94
330.43	142.94
330.658	144.94
330.887	131.94
331.115	143.94
331.344	145.94
331.572	153.94
331.801	149.94
332.03	137.94
332.258	149.94
332.486	120.94
332.715	154.94
332.943	151.94
333.172	149.94
333.4	156.94
333.629	166.94
333.857	158.94
334.085	151.94
334.314	162.94
334.542	156.94
334.771	147.94
334.999	149.94
335.227	139.94
335.455	135.94
335.684	164.94
335.912	145.94
336.14	158.94
336.369	154.94
336.597	161.94
336.825	148.94
337.053	148.94
337.281	149.94
337.51	157.94
337.738	161.94
337.966	147.94
338.194	130.94
338.422	149.94
338.65	122.94
338.878	147.94
339.106	131.94
339.334	148.94
339.562	158.94
339.79	137.94
340.018	135.94
340.246	138.94
340.474	134.94
340.702	133.94
340.93	143.94
341.158	145.94
341.386	134.94
341.614	140.94
341.842	136.94
342.07	126.94
342.298	142.94
342.526	138.94
342.754	144.94
342.981	137.94
343.209	149.94
343.437	167.94
343.665	149.94
343.893	145.94
344.12	141.94
344.348	143.94
344.576	127.94
344.804	136.94
345.031	135.94
345.259	138.94
345.487	134.94
345.714	141.94
345.942	151.94
346.17	139.94
346.397	145.94
346.625	141.94
346.853	147.94
347.08	144.94
347.308	148.94
347.535	126.94
347.763	133.94
347.99	137.94
348.218	129.94
348.445	138.94
348.673	142.94
348.9	145.94
349.128	134.94
349.355	134.94
349.583	147.94
349.81	125.94
350.037	118.94
350.265	139.94
350.492	140.94
350.72	127.94
350.947	127.94
351.174	137.94
351.402	111.94
351.629	138.94
351.856	137.94
352.083	124.94
352.311	119.94
352.538	117.94
352.765	141.94
352.992	140.94
353.22	135.94
353.447	129.94
353.674	137.94
353.901	144.94
354.128	131.94
354.355	127.94
354.583	120.94
354.81	140.94
355.037	142.94
355.264	128.94
355.491	129.94
355.718	123.94
355.945	141.94
356.172	122.94
356.399	139.94
356.626	131.94
356.853	128.94
357.08	123.94
357.307	132.94
357.534	136.94
357.761	131.94
357.988	140.94
358.215	138.94
358.441	138.94
358.668	135.94
358.895	136.94
359.122	127.94
359.349	120.94
359.576	125.94
359.802	132.94
360.029	131.94
360.256	119.94
360.483	149.94
360.709	136.94
360.936	167.94
361.163	143.94
361.39	151.94
361.616	133.94
361.843	136.94
362.07	141.94
362.296	136.94
362.523	135.94
362.749	130.94
362.976	140.94
363.203	141.94
363.429	126.94
363.656	138.94
363.882	131.94
364.109	134.94
364.335	137.94
364.562	122.94
364.788	122.94
365.015	127.94
365.241	148.94
365.468	148.94
365.694	138.94
365.92	139.94
366.147	127.94
366.373	129.94
366.599	152.94
366.826	140.94
367.052	141.94
367.278	146.94
367.505	150.94
367.731	162.94
367.957	149.94
368.184	136.94
368.41	142.94
368.636	147.94
368.862	137.94
369.089	130.94
369.315	149.94
369.541	148.94
369.767	166.94
369.993	161.94
370.219	144.94
370.445	146.94
370.672	155.94
370.898	152.94
371.124	146.94
371.35	138.94
371.576	143.94
371.802	167.94
372.028	169.94
372.254	145.94
372.48	145.94
372.706	141.94
372.932	159.94
373.158	163.94
373.384	161.94
373.61	163.94
373.835	177.94
374.061	169.94
374.287	162.94
374.513	155.94
374.739	157.94
374.965	158.94
375.191	171.94
375.416	167.94
375.642	172.94
375.868	175.94
376.094	159.94
376.319	165.94
376.545	162.94
376.771	149.94
376.997	153.94
377.222	142.94
377.448	152.94
377.674	159.94
377.899	167.94
378.125	150.94
378.35	159.94
378.576	158.94
378.802	155.94
379.027	169.94
379.253	174.94
379.478	172.94
379.704	157.94
379.929	168.94
380.155	168.94
380.38	171.94
380.606	171.94
380.831	183.94
381.057	192.94
381.282	155.94
381.507	174.94
381.733	162.94
381.958	172.94
382.184	169.94
382.409	175.94
382.634	175.94
382.86	175.94
383.085	179.94
383.31	178.94
383.535	182.94
383.761	202.94
383.986	175.94
384.211	193.94
384.436	172.94
384.662	181.94
384.887	193.94
385.112	177.94
385.337	179.94
385.562	177.94
385.787	198.94
386.013	198.94
386.238	196.94
386.463	195.94
386.688	216.94
386.913	205.94
387.138	180.94
387.363	189.94
387.588	201.94
387.813	202.94
388.038	196.94
388.263	192.94
388.488	176.94
388.713	206.94
388.938	194.94
389.163	194.94
389.387	190.94
389.612	202.94
389.837	187.94
390.062	209.94
390.287	187.94
390.512	210.94
390.736	204.94
390.961	191.94
391.186	203.94
391.411	206.94
391.636	202.94
391.86	209.94
392.085	206.94
392.31	230.94
392.534	216.94
392.759	188.94
392.984	213.94
393.208	205.94
393.433	217.94
393.658	201.94
393.882	205.94
394.107	234.94
394.331	211.94
394.556	220.94
394.78	217.94
395.005	225.94
395.229	218.94
395.454	222.94
395.678	216.94
395.903	238.94
396.127	216.94
396.352	212.94
396.576	220.94
396.801	209.94
397.025	204.94
397.249	221.94
397.474	234.94
397.698	236.94
397.922	232.94
398.147	226.94
398.371	242.94
398.595	244.94
398.82	240.94
399.044	242.94
399.268	255.94
399.492	280.94
399.717	297.94
399.941	282.94
400.165	281.94
400.389	262.94
400.613	255.94
400.837	245.94
401.062	261.94
401.286	251.94
401.51	250.94
401.734	246.94
401.958	262.94
402.182	243.94
402.406	245.94
402.63	259.94
402.854	266.94
403.078	257.94
403.302	254.94
403.526	250.94
403.75	269.94
403.974	268.94
404.198	282.94
404.422	264.94
404.645	273.94
404.869	265.94
405.093	266.94
405.317	274.94
405.541	275.94
405.765	252.94
405.988	260.94
406.212	281.94
406.436	262.94
406.66	275.94
406.883	270.94
407.107	291.94
407.331	312.94
407.555	281.94
407.778	307.94
408.002	283.94
408.226	284.94
408.449	263.94
408.673	273.94
408.896	283.94
409.12	291.94
409.344	291.94
409.567	279.94
409.791	280.94
410.014	284.94
410.238	270.94
410.461	266.94
410.685	283.94
410.908	257.94
411.132	263.94
411.355	265.94
411.578	290.94
411.802	259.94
412.025	259.94
412.249	267.94
412.472	255.94
412.695	263.94
412.919	260.94
413.142	255.94
413.365	245.94
413.589	249.94
413.812	259.94
414.035	269.94
414.258	281.94
414.482	257.94
414.705	260.94
414.928	266.94
415.151	271.94
415.374	258.94
415.597	274.94
415.821	266.94
416.044	261.94
416.267	265.94
416.49	263.94
416.713	285.94
416.936	276.94
417.159	278.94
417.382	273.94
417.605	277.94
417.828	297.94
418.051	279.94
418.274	282.94
418.497	277.94
418.72	282.94
418.943	284.94
419.166	298.94
419.389	305.94
419.611	291.94
419.834	298.94
420.057	288.94
420.28	290.94
420.503	291.94
420.726	268.94
420.948	283.94
421.171	275.94
421.394	292.94
421.617	303.94
421.839	297.94
422.062	291.94
422.285	286.94
422.507	271.94
422.73	264.94
422.953	276.94
423.175	268.94
423.398	269.94
423.621	282.94
423.843	284.94
424.066	286.94
424.288	303.94
424.511	309.94
424.733	315.94
424.956	285.94
425.178	300.94
425.401	297.94
425.623	302.94
425.846	283.94
426.068	276.94
426.291	281.94
426.513	277.94
426.735	280.94
426.958	269.94
427.18	289.94
427.402	293.94
427.625	270.94
427.847	259.94
428.069	270.94
428.292	261.94
428.514	268.94
428.736	266.94
428.958	262.94
429.181	268.94
429.403	267.94
429.625	269.94
429.847	250.94
430.069	266.94
430.292	268.94
430.514	260.94
430.736	263.94
430.958	262.94
431.18	260.94
431.402	252.94
431.624	237.94
431.846	202.94
432.068	194.94
432.29	199.94
432.512	235.94
432.734	252.94
432.956	282.94
433.178	290.94
433.4	288.94
433.622	283.94
433.844	270.94
434.066	246.94
434.287	222.94
434.509	193.94
434.731	209.94
434.953	234.94
435.175	262.94
435.397	258.94
435.618	239.94
435.84	232.94
436.062	247.94
436.284	255.94
436.505	254.94
436.727	271.94
436.949	281.94
437.17	269.94
437.392	242.94
437.614	234.94
437.835	221.94
438.057	191.94
438.278	235.94
438.5	265.94
438.721	271.94
438.943	271.94
439.165	277.94
439.386	281.94
439.608	321.94
439.829	295.94
440.05	277.94
440.272	300.94
440.493	296.94
440.715	287.94
440.936	288.94
441.158	313.94
441.379	308.94
441.6	322.94
441.822	319.94
442.043	294.94
442.264	281.94
442.486	302.94
442.707	296.94
442.928	305.94
443.149	317.94
443.371	308.94
443.592	308.94
443.813	316.94
444.034	314.94
444.255	302.94
444.476	327.94
444.698	323.94
444.919	333.94
445.14	576.94
445.361	428.94
445.582	315.94
445.803	305.94
446.024	313.94
446.245	315.94
446.466	317.94
446.687	301.94
446.908	304.94
447.129	327.94
447.35	295.94
447.571	290.94
447.792	285.94
448.013	286.94
448.234	294.94
448.455	293.94
448.675	275.94
448.896	292.94
449.117	267.94
449.338	277.94
449.559	267.94
449.779	273.94
450	273.94
450.221	278.94
450.442	262.94
450.662	272.94
450.883	277.94
451.104	282.94
451.324	247.94
451.545	266.94
451.766	268.94
451.986	259.94
452.207	247.94
452.428	244.94
452.648	238.94
452.869	235.94
453.089	229.94
453.31	197.94
453.53	184.94
453.751	197.94
453.971	204.94
454.192	212.94
454.412	214.94
454.633	237.94
454.853	234.94
455.073	236.94
455.294	226.94
455.514	236.94
455.734	225.94
455.955	225.94
456.175	219.94
456.395	209.94
456.616	204.94
456.836	186.94
457.056	201.94
457.276	189.94
457.497	187.94
457.717	186.94
457.937	196.94
458.157	209.94
458.377	206.94
458.598	181.94
458.818	186.94
459.038	167.94
459.258	188.94
459.478	186.94
459.698	167.94
459.918	186.94
460.138	227.94
460.358	236.94
460.578	252.94
460.798	255.94
461.018	257.94
461.238	250.94
461.458	231.94
461.678	248.94
461.898	239.94
462.118	232.94
462.338	253.94
462.558	256.94
462.777	242.94
462.997	255.94
463.217	280.94
463.437	254.94
463.657	242.94
463.876	244.94
464.096	255.94
464.316	269.94
464.536	257.94
464.755	253.94
464.975	252.94
465.195	247.94
465.414	247.94
465.634	235.94
465.854	247.94
466.073	246.94
466.293	240.94
466.512	244.94
466.732	243.94
466.951	273.94
467.171	246.94
467.391	258.94
467.61	268.94
467.829	288.94
468.049	281.94
468.268	249.94
468.488	270.94
468.707	258.94
468.927	257.94
469.146	275.94
469.365	284.94
469.585	281.94
469.804	281.94
470.023	267.94
470.243	281.94
470.462	269.94
470.681	283.94
470.901	277.94
471.12	297.94
471.339	281.94
471.558	283.94
471.777	286.94
471.997	252.94
472.216	243.94
472.435	230.94
472.654	226.94
472.873	212.94
473.092	221.94
473.311	238.94
473.53	237.94
473.749	254.94
473.968	253.94
474.187	222.94
474.406	218.94
474.625	241.94
474.844	253.94
475.063	263.94
475.282	249.94
475.501	225.94
475.72	237.94
475.939	243.94
476.158	253.94
476.377	270.94
476.596	230.94
476.814	215.94
477.033	202.94
477.252	218.94
477.471	255.94
477.69	273.94
477.908	278.94
478.127	291.94
478.346	283.94
478.564	270.94
478.783	283.94
479.002	281.94
479.22	282.94
479.439	269.94
479.658	245.94
479.876	211.94
480.095	217.94
480.313	244.94
480.532	241.94
480.751	240.94
480.969	198.94
481.188	193.94
481.406	167.94
481.624	182.94
481.843	163.94
482.061	200.94
482.28	199.94
482.498	215.94
482.717	198.94
482.935	252.94
483.153	289.94
483.372	323.94
483.59	295.94
483.808	286.94
484.027	260.94
484.245	264.94
484.463	272.94
484.681	289.94
484.9	276.94
485.118	284.94
485.336	242.94
485.554	236.94
485.772	213.94
485.99	225.94
486.209	231.94
486.427	225.94
486.645	229.94
486.863	282.94
487.081	261.94
487.299	265.94
487.517	283.94
487.735	340.94
487.953	358.94
488.171	364.94
488.389	338.94
488.607	288.94
488.825	273.94
489.043	247.94
489.261	256.94
489.479	279.94
489.696	297.94
489.914	265.94
490.132	298.94
490.35	317.94
490.568	328.94
490.786	347.94
491.003	348.94
491.221	370.94
491.439	376.94
491.657	401.94
491.874	450.94
492.092	457.94
492.31	492.94
492.527	445.94
492.745	420.94
492.963	410.94
493.18	381.94
493.398	391.94
493.615	389.94
493.833	376.94
494.05	352.94
494.268	376.94
494.485	370.94
494.703	354.94
494.92	368.94
495.138	365.94
495.355	373.94
495.573	365.94
495.79	348.94
496.008	367.94
496.225	357.94
496.442	341.94
496.66	367.94
496.877	346.94
497.094	343.94
497.312	330.94
497.529	327.94
497.746	347.94
497.963	297.94
498.181	291.94
498.398	289.94
498.615	285.94
498.832	300.94
499.049	291.94
499.267	312.94
499.484	348.94
499.701	415.94
499.918	419.94
500.135	467.94
500.352	521.94
500.569	514.94
500.786	512.94
501.003	494.94
501.22	445.94
501.437	403.94
501.654	375.94
501.871	341.94
502.088	309.94
502.305	330.94
502.522	287.94
502.739	304.94
502.956	294.94
503.172	286.94
503.389	275.94
503.606	249.94
503.823	250.94
504.04	276.94
504.256	281.94
504.473	264.94
