Data from SampD_HRD10591_00091.txt Node
Date: Mon Jan 19 11:48:09 EST 2026
User: Yrep
Spectrometer: HR+D1059
Trigger mode: 0
Integration Time (sec): 3.443000E-1
Scans to average: 1
Electric dark correction enabled: true
Nonlinearity correction enabled: false
Boxcar width: 0
XAxis mode: Wavelengths
Number of Pixels in Spectrum: 2048
>>>>>Begin Spectral Data<<<<<
223.165	-5.56
223.4	-5.56
223.635	-5.56
223.869	-22.56
224.104	-22.56
224.338	-1.56
224.573	-12.56
224.808	-14.56
225.042	5.44
225.277	-4.56
225.511	-3.56
225.746	-3.56
225.98	3.44
226.215	9.44
226.449	8.44
226.683	15.44
226.918	19.44
227.152	29.44
227.387	43.44
227.621	29.44
227.856	41.44
228.09	59.44
228.324	57.44
228.559	66.44
228.793	76.44
229.027	78.44
229.262	65.44
229.496	77.44
229.73	73.44
229.964	72.44
230.199	80.44
230.433	69.44
230.667	80.44
230.901	87.44
231.136	83.44
231.37	79.44
231.604	88.44
231.838	84.44
232.072	83.44
232.306	91.44
232.541	99.44
232.775	94.44
233.009	86.44
233.243	74.44
233.477	84.44
233.711	86.44
233.945	87.44
234.179	89.44
234.413	90.44
234.647	94.44
234.881	80.44
235.115	95.44
235.349	81.44
235.583	86.44
235.817	90.44
236.051	82.44
236.285	77.44
236.519	89.44
236.753	100.44
236.987	86.44
237.221	96.44
237.455	87.44
237.689	82.44
237.922	92.44
238.156	76.44
238.39	59.44
238.624	83.44
238.858	88.44
239.091	72.44
239.325	88.44
239.559	86.44
239.793	91.44
240.027	99.44
240.26	84.44
240.494	69.44
240.728	89.44
240.961	72.44
241.195	80.44
241.429	76.44
241.662	84.44
241.896	73.44
242.13	78.44
242.363	76.44
242.597	70.44
242.83	71.44
243.064	83.44
243.298	100.44
243.531	89.44
243.765	82.44
243.998	79.44
244.232	102.44
244.465	93.44
244.699	87.44
244.932	90.44
245.166	93.44
245.399	71.44
245.633	85.44
245.866	88.44
246.099	88.44
246.333	84.44
246.566	81.44
246.8	77.44
247.033	68.44
247.266	63.44
247.5	88.44
247.733	89.44
247.966	91.44
248.2	92.44
248.433	85.44
248.666	75.44
248.899	96.44
249.133	76.44
249.366	95.44
249.599	93.44
249.832	87.44
250.066	96.44
250.299	76.44
250.532	82.44
250.765	86.44
250.998	101.44
251.231	91.44
251.465	89.44
251.698	70.44
251.931	95.44
252.164	95.44
252.397	93.44
252.63	90.44
252.863	98.44
253.096	74.44
253.329	82.44
253.562	85.44
253.795	93.44
254.028	94.44
254.261	101.44
254.494	96.44
254.727	92.44
254.96	77.44
255.193	74.44
255.426	86.44
255.659	94.44
255.892	106.44
256.124	89.44
256.357	87.44
256.59	106.44
256.823	96.44
257.056	87.44
257.289	100.44
257.521	89.44
257.754	91.44
257.987	86.44
258.22	96.44
258.452	85.44
258.685	91.44
258.918	85.44
259.151	80.44
259.383	100.44
259.616	77.44
259.849	96.44
260.081	72.44
260.314	93.44
260.547	107.44
260.779	96.44
261.012	86.44
261.244	108.44
261.477	99.44
261.71	95.44
261.942	97.44
262.175	90.44
262.407	88.44
262.64	84.44
262.872	100.44
263.105	94.44
263.337	100.44
263.57	80.44
263.802	93.44
264.035	85.44
264.267	105.44
264.499	98.44
264.732	86.44
264.964	101.44
265.197	88.44
265.429	107.44
265.661	92.44
265.894	93.44
266.126	97.44
266.358	89.44
266.591	108.44
266.823	93.44
267.055	90.44
267.287	97.44
267.52	96.44
267.752	105.44
267.984	107.44
268.216	88.44
268.448	104.44
268.681	104.44
268.913	100.44
269.145	96.44
269.377	92.44
269.609	104.44
269.841	93.44
270.073	92.44
270.306	95.44
270.538	84.44
270.77	88.44
271.002	102.44
271.234	96.44
271.466	99.44
271.698	106.44
271.93	105.44
272.162	106.44
272.394	109.44
272.626	92.44
272.858	107.44
273.09	89.44
273.322	88.44
273.553	86.44
273.785	86.44
274.017	104.44
274.249	89.44
274.481	104.44
274.713	98.44
274.945	83.44
275.176	104.44
275.408	97.44
275.64	94.44
275.872	99.44
276.104	106.44
276.335	105.44
276.567	105.44
276.799	96.44
277.031	76.44
277.262	89.44
277.494	94.44
277.726	107.44
277.957	96.44
278.189	90.44
278.421	93.44
278.652	85.44
278.884	85.44
279.115	92.44
279.347	104.44
279.579	97.44
279.81	105.44
280.042	92.44
280.273	112.44
280.505	101.44
280.736	84.44
280.968	103.44
281.199	104.44
281.431	108.44
281.662	108.44
281.894	98.44
282.125	111.44
282.356	107.44
282.588	87.44
282.819	83.44
283.051	92.44
283.282	85.44
283.513	109.44
283.745	106.44
283.976	104.44
284.207	106.44
284.439	88.44
284.67	109.44
284.901	99.44
285.132	98.44
285.364	99.44
285.595	100.44
285.826	104.44
286.057	115.44
286.288	92.44
286.52	96.44
286.751	85.44
286.982	104.44
287.213	91.44
287.444	99.44
287.675	88.44
287.906	98.44
288.138	96.44
288.369	104.44
288.6	108.44
288.831	103.44
289.062	109.44
289.293	102.44
289.524	94.44
289.755	102.44
289.986	99.44
290.217	114.44
290.448	96.44
290.679	105.44
290.91	98.44
291.141	105.44
291.371	103.44
291.602	102.44
291.833	93.44
292.064	99.44
292.295	110.44
292.526	116.44
292.757	97.44
292.987	114.44
293.218	97.44
293.449	98.44
293.68	105.44
293.91	98.44
294.141	107.44
294.372	71.44
294.603	104.44
294.833	110.44
295.064	100.44
295.295	103.44
295.525	106.44
295.756	104.44
295.987	109.44
296.217	104.44
296.448	119.44
296.679	99.44
296.909	119.44
297.14	100.44
297.37	106.44
297.601	108.44
297.831	115.44
298.062	110.44
298.292	111.44
298.523	114.44
298.753	109.44
298.984	116.44
299.214	93.44
299.445	98.44
299.675	100.44
299.905	101.44
300.136	109.44
300.366	109.44
300.597	107.44
300.827	119.44
301.057	116.44
301.288	104.44
301.518	105.44
301.748	114.44
301.979	137.44
302.209	117.44
302.439	111.44
302.669	105.44
302.9	113.44
303.13	104.44
303.36	101.44
303.59	109.44
303.82	112.44
304.051	110.44
304.281	115.44
304.511	118.44
304.741	120.44
304.971	101.44
305.201	112.44
305.431	117.44
305.661	105.44
305.891	105.44
306.121	113.44
306.352	109.44
306.582	102.44
306.812	119.44
307.042	108.44
307.272	90.44
307.502	104.44
307.731	103.44
307.961	102.44
308.191	117.44
308.421	115.44
308.651	107.44
308.881	98.44
309.111	108.44
309.341	114.44
309.571	107.44
309.8	101.44
310.03	113.44
310.26	110.44
310.49	114.44
310.72	112.44
310.949	109.44
311.179	116.44
311.409	93.44
311.639	111.44
311.868	92.44
312.098	122.44
312.328	111.44
312.557	120.44
312.787	93.44
313.017	131.44
313.246	91.44
313.476	101.44
313.706	107.44
313.935	93.44
314.165	110.44
314.394	110.44
314.624	114.44
314.853	125.44
315.083	122.44
315.312	106.44
315.542	110.44
315.771	124.44
316.001	113.44
316.23	108.44
316.46	92.44
316.689	104.44
316.919	110.44
317.148	105.44
317.377	102.44
317.607	106.44
317.836	108.44
318.065	101.44
318.295	108.44
318.524	103.44
318.753	118.44
318.983	115.44
319.212	104.44
319.441	95.44
319.67	101.44
319.9	107.44
320.129	104.44
320.358	100.44
320.587	115.44
320.816	116.44
321.046	94.44
321.275	120.44
321.504	106.44
321.733	123.44
321.962	113.44
322.191	116.44
322.42	109.44
322.649	96.44
322.878	106.44
323.108	111.44
323.337	120.44
323.566	105.44
323.795	93.44
324.024	105.44
324.253	96.44
324.482	111.44
324.71	112.44
324.939	112.44
325.168	114.44
325.397	116.44
325.626	117.44
325.855	116.44
326.084	96.44
326.313	94.44
326.542	108.44
326.77	106.44
326.999	109.44
327.228	95.44
327.457	118.44
327.686	104.44
327.914	130.44
328.143	124.44
328.372	110.44
328.6	100.44
328.829	113.44
329.058	118.44
329.287	115.44
329.515	107.44
329.744	116.44
329.972	121.44
330.201	100.44
330.43	92.44
330.658	102.44
330.887	101.44
331.115	109.44
331.344	104.44
331.572	110.44
331.801	113.44
332.03	109.44
332.258	118.44
332.486	108.44
332.715	121.44
332.943	117.44
333.172	116.44
333.4	114.44
333.629	128.44
333.857	107.44
334.085	124.44
334.314	132.44
334.542	126.44
334.771	117.44
334.999	134.44
335.227	114.44
335.455	112.44
335.684	117.44
335.912	121.44
336.14	117.44
336.369	115.44
336.597	114.44
336.825	104.44
337.053	109.44
337.281	99.44
337.51	109.44
337.738	125.44
337.966	106.44
338.194	96.44
338.422	101.44
338.65	111.44
338.878	112.44
339.106	123.44
339.334	119.44
339.562	106.44
339.79	117.44
340.018	100.44
340.246	117.44
340.474	111.44
340.702	120.44
340.93	117.44
341.158	108.44
341.386	114.44
341.614	102.44
341.842	101.44
342.07	101.44
342.298	105.44
342.526	116.44
342.754	111.44
342.981	116.44
343.209	112.44
343.437	157.44
343.665	114.44
343.893	119.44
344.12	113.44
344.348	123.44
344.576	113.44
344.804	114.44
345.031	115.44
345.259	109.44
345.487	117.44
345.714	107.44
345.942	108.44
346.17	126.44
346.397	106.44
346.625	95.44
346.853	120.44
347.08	115.44
347.308	118.44
347.535	131.44
347.763	113.44
347.99	102.44
348.218	120.44
348.445	113.44
348.673	113.44
348.9	110.44
349.128	110.44
349.355	103.44
349.583	118.44
349.81	109.44
350.037	99.44
350.265	122.44
350.492	109.44
350.72	98.44
350.947	109.44
351.174	105.44
351.402	114.44
351.629	107.44
351.856	102.44
352.083	88.44
352.311	119.44
352.538	104.44
352.765	100.44
352.992	114.44
353.22	113.44
353.447	97.44
353.674	115.44
353.901	106.44
354.128	97.44
354.355	106.44
354.583	105.44
354.81	124.44
355.037	133.44
355.264	117.44
355.491	101.44
355.718	106.44
355.945	114.44
356.172	107.44
356.399	116.44
356.626	104.44
356.853	116.44
357.08	121.44
357.307	129.44
357.534	103.44
357.761	115.44
357.988	113.44
358.215	122.44
358.441	104.44
358.668	122.44
358.895	93.44
359.122	116.44
359.349	103.44
359.576	112.44
359.802	108.44
360.029	101.44
360.256	114.44
360.483	110.44
360.709	99.44
360.936	140.44
361.163	120.44
361.39	98.44
361.616	96.44
361.843	111.44
362.07	125.44
362.296	101.44
362.523	104.44
362.749	108.44
362.976	101.44
363.203	126.44
363.429	104.44
363.656	126.44
363.882	113.44
364.109	113.44
364.335	101.44
364.562	104.44
364.788	101.44
365.015	101.44
365.241	110.44
365.468	124.44
365.694	98.44
365.92	108.44
366.147	112.44
366.373	97.44
366.599	107.44
366.826	111.44
367.052	116.44
367.278	108.44
367.505	115.44
367.731	125.44
367.957	106.44
368.184	117.44
368.41	118.44
368.636	105.44
368.862	116.44
369.089	109.44
369.315	121.44
369.541	119.44
369.767	109.44
369.993	114.44
370.219	122.44
370.445	104.44
370.672	110.44
370.898	104.44
371.124	115.44
371.35	120.44
371.576	105.44
371.802	113.44
372.028	119.44
372.254	113.44
372.48	119.44
372.706	125.44
372.932	105.44
373.158	112.44
373.384	126.44
373.61	137.44
373.835	124.44
374.061	114.44
374.287	109.44
374.513	133.44
374.739	116.44
374.965	128.44
375.191	135.44
375.416	128.44
375.642	138.44
375.868	141.44
376.094	125.44
376.319	124.44
376.545	115.44
376.771	123.44
376.997	124.44
377.222	125.44
377.448	145.44
377.674	131.44
377.899	119.44
378.125	103.44
378.35	133.44
378.576	123.44
378.802	113.44
379.027	133.44
379.253	139.44
379.478	118.44
379.704	123.44
379.929	113.44
380.155	113.44
380.38	128.44
380.606	120.44
380.831	133.44
381.057	142.44
381.282	127.44
381.507	127.44
381.733	133.44
381.958	127.44
382.184	128.44
382.409	120.44
382.634	121.44
382.86	132.44
383.085	121.44
383.31	128.44
383.535	121.44
383.761	131.44
383.986	131.44
384.211	119.44
384.436	120.44
384.662	128.44
384.887	131.44
385.112	141.44
385.337	146.44
385.562	142.44
385.787	124.44
386.013	139.44
386.238	134.44
386.463	128.44
386.688	170.44
386.913	136.44
387.138	125.44
387.363	150.44
387.588	146.44
387.813	141.44
388.038	138.44
388.263	146.44
388.488	125.44
388.713	128.44
388.938	123.44
389.163	145.44
389.387	142.44
389.612	139.44
389.837	132.44
390.062	140.44
390.287	119.44
390.512	126.44
390.736	128.44
390.961	147.44
391.186	145.44
391.411	147.44
391.636	142.44
391.86	138.44
392.085	144.44
392.31	137.44
392.534	154.44
392.759	164.44
392.984	139.44
393.208	157.44
393.433	148.44
393.658	155.44
393.882	162.44
394.107	151.44
394.331	147.44
394.556	145.44
394.78	141.44
395.005	141.44
395.229	141.44
395.454	152.44
395.678	147.44
395.903	152.44
396.127	145.44
396.352	156.44
396.576	155.44
396.801	148.44
397.025	151.44
397.249	148.44
397.474	164.44
397.698	157.44
397.922	152.44
398.147	149.44
398.371	164.44
398.595	171.44
398.82	170.44
399.044	161.44
399.268	189.44
399.492	183.44
399.717	185.44
399.941	174.44
400.165	169.44
400.389	164.44
400.613	156.44
400.837	172.44
401.062	157.44
401.286	174.44
401.51	167.44
401.734	163.44
401.958	170.44
402.182	161.44
402.406	171.44
402.63	165.44
402.854	151.44
403.078	165.44
403.302	168.44
403.526	187.44
403.75	187.44
403.974	185.44
404.198	184.44
404.422	186.44
404.645	177.44
404.869	175.44
405.093	174.44
405.317	162.44
405.541	186.44
405.765	193.44
405.988	174.44
406.212	178.44
406.436	165.44
406.66	187.44
406.883	175.44
407.107	173.44
407.331	186.44
407.555	190.44
407.778	182.44
408.002	160.44
408.226	176.44
408.449	168.44
408.673	186.44
408.896	177.44
409.12	175.44
409.344	180.44
409.567	174.44
409.791	173.44
410.014	171.44
410.238	164.44
410.461	184.44
410.685	161.44
410.908	178.44
411.132	168.44
411.355	182.44
411.578	191.44
411.802	179.44
412.025	170.44
412.249	173.44
412.472	173.44
412.695	169.44
412.919	160.44
413.142	184.44
413.365	174.44
413.589	166.44
413.812	171.44
414.035	175.44
414.258	173.44
414.482	185.44
414.705	168.44
414.928	182.44
415.151	171.44
415.374	186.44
415.597	185.44
415.821	185.44
416.044	169.44
416.267	180.44
416.49	176.44
416.713	177.44
416.936	174.44
417.159	169.44
417.382	188.44
417.605	174.44
417.828	184.44
418.051	168.44
418.274	183.44
418.497	180.44
418.72	179.44
418.943	187.44
419.166	196.44
419.389	196.44
419.611	186.44
419.834	195.44
420.057	186.44
420.28	180.44
420.503	167.44
420.726	169.44
420.948	189.44
421.171	178.44
421.394	180.44
421.617	176.44
421.839	192.44
422.062	180.44
422.285	173.44
422.507	171.44
422.73	168.44
422.953	191.44
423.175	184.44
423.398	173.44
423.621	180.44
423.843	198.44
424.066	184.44
424.288	204.44
424.511	194.44
424.733	204.44
424.956	209.44
425.178	202.44
425.401	188.44
425.623	195.44
425.846	183.44
426.068	169.44
426.291	187.44
426.513	182.44
426.735	181.44
426.958	175.44
427.18	188.44
427.402	175.44
427.625	172.44
427.847	177.44
428.069	187.44
428.292	173.44
428.514	176.44
428.736	144.44
428.958	168.44
429.181	186.44
429.403	162.44
429.625	183.44
429.847	177.44
430.069	187.44
430.292	199.44
430.514	175.44
430.736	173.44
430.958	157.44
431.18	165.44
431.402	175.44
431.624	156.44
431.846	154.44
432.068	136.44
432.29	143.44
432.512	164.44
432.734	156.44
432.956	181.44
433.178	195.44
433.4	171.44
433.622	177.44
433.844	188.44
434.066	163.44
434.287	153.44
434.509	149.44
434.731	151.44
434.953	165.44
435.175	187.44
435.397	183.44
435.618	136.44
435.84	146.44
436.062	160.44
436.284	179.44
436.505	176.44
436.727	184.44
436.949	171.44
437.17	170.44
437.392	170.44
437.614	139.44
437.835	147.44
438.057	146.44
438.278	156.44
438.5	169.44
438.721	185.44
438.943	187.44
439.165	184.44
439.386	174.44
439.608	188.44
439.829	196.44
440.05	204.44
440.272	199.44
440.493	199.44
440.715	183.44
440.936	200.44
441.158	173.44
441.379	194.44
441.6	206.44
441.822	193.44
442.043	199.44
442.264	200.44
442.486	197.44
442.707	191.44
442.928	171.44
443.149	188.44
443.371	186.44
443.592	187.44
443.813	203.44
444.034	192.44
444.255	197.44
444.476	185.44
444.698	193.44
444.919	196.44
445.14	440.44
445.361	308.44
445.582	201.44
445.803	186.44
446.024	197.44
446.245	211.44
446.466	208.44
446.687	210.44
446.908	199.44
447.129	205.44
447.35	196.44
447.571	190.44
447.792	198.44
448.013	192.44
448.234	182.44
448.455	179.44
448.675	177.44
448.896	188.44
449.117	170.44
449.338	182.44
449.559	170.44
449.779	157.44
450	172.44
450.221	177.44
450.442	174.44
450.662	174.44
450.883	181.44
451.104	182.44
451.324	154.44
451.545	155.44
451.766	173.44
451.986	157.44
452.207	161.44
452.428	168.44
452.648	178.44
452.869	148.44
453.089	157.44
453.31	144.44
453.53	137.44
453.751	141.44
453.971	132.44
454.192	150.44
454.412	134.44
454.633	139.44
454.853	145.44
455.073	142.44
455.294	152.44
455.514	160.44
455.734	166.44
455.955	161.44
456.175	141.44
456.395	135.44
456.616	145.44
456.836	128.44
457.056	146.44
457.276	139.44
457.497	141.44
457.717	138.44
457.937	133.44
458.157	136.44
458.377	135.44
458.598	126.44
458.818	120.44
459.038	123.44
459.258	130.44
459.478	135.44
459.698	130.44
459.918	151.44
460.138	147.44
460.358	158.44
460.578	171.44
460.798	162.44
461.018	155.44
461.238	176.44
461.458	164.44
461.678	184.44
461.898	169.44
462.118	166.44
462.338	181.44
462.558	179.44
462.777	164.44
462.997	156.44
463.217	184.44
463.437	171.44
463.657	172.44
463.876	174.44
464.096	178.44
464.316	158.44
464.536	162.44
464.755	178.44
464.975	158.44
465.195	165.44
465.414	169.44
465.634	152.44
465.854	153.44
466.073	166.44
466.293	157.44
466.512	150.44
466.732	171.44
466.951	179.44
467.171	177.44
467.391	170.44
467.61	174.44
467.829	183.44
468.049	169.44
468.268	163.44
468.488	167.44
468.707	168.44
468.927	166.44
469.146	167.44
469.365	169.44
469.585	171.44
469.804	184.44
470.023	168.44
470.243	185.44
470.462	169.44
470.681	171.44
470.901	178.44
471.12	178.44
471.339	188.44
471.558	192.44
471.777	173.44
471.997	151.44
472.216	158.44
472.435	147.44
472.654	134.44
472.873	154.44
473.092	170.44
473.311	158.44
473.53	159.44
473.749	169.44
473.968	170.44
474.187	147.44
474.406	154.44
474.625	168.44
474.844	145.44
475.063	157.44
475.282	163.44
475.501	149.44
475.72	174.44
475.939	146.44
476.158	163.44
476.377	157.44
476.596	177.44
476.814	154.44
477.033	144.44
477.252	156.44
477.471	165.44
477.69	178.44
477.908	189.44
478.127	181.44
478.346	180.44
478.564	178.44
478.783	183.44
479.002	186.44
479.22	175.44
479.439	178.44
479.658	164.44
479.876	154.44
480.095	156.44
480.313	171.44
480.532	159.44
480.751	161.44
480.969	141.44
481.188	149.44
481.406	134.44
481.624	150.44
481.843	128.44
482.061	141.44
482.28	152.44
482.498	154.44
482.717	157.44
482.935	167.44
483.153	178.44
483.372	186.44
483.59	187.44
483.808	178.44
484.027	179.44
484.245	178.44
484.463	178.44
484.681	205.44
484.9	169.44
485.118	184.44
485.336	170.44
485.554	162.44
485.772	151.44
485.99	152.44
486.209	147.44
486.427	146.44
486.645	170.44
486.863	181.44
487.081	166.44
487.299	168.44
487.517	183.44
487.735	218.44
487.953	234.44
488.171	227.44
488.389	225.44
488.607	182.44
488.825	181.44
489.043	187.44
489.261	184.44
489.479	188.44
489.696	178.44
489.914	188.44
490.132	196.44
490.35	219.44
490.568	214.44
490.786	223.44
491.003	224.44
491.221	226.44
491.439	239.44
491.657	227.44
491.874	271.44
492.092	257.44
492.31	288.44
492.527	280.44
492.745	237.44
492.963	255.44
493.18	230.44
493.398	245.44
493.615	241.44
493.833	235.44
494.05	219.44
494.268	219.44
494.485	222.44
494.703	223.44
494.92	232.44
495.138	230.44
495.355	229.44
495.573	234.44
495.79	227.44
496.008	228.44
496.225	219.44
496.442	208.44
496.66	238.44
496.877	220.44
497.094	227.44
497.312	209.44
497.529	204.44
497.746	214.44
497.963	200.44
498.181	186.44
498.398	182.44
498.615	173.44
498.832	201.44
499.049	211.44
499.267	217.44
499.484	220.44
499.701	243.44
499.918	262.44
500.135	255.44
500.352	295.44
500.569	292.44
500.786	302.44
501.003	300.44
501.22	251.44
501.437	263.44
501.654	248.44
501.871	220.44
502.088	218.44
502.305	212.44
502.522	218.44
502.739	196.44
502.956	187.44
503.172	184.44
503.389	177.44
503.606	178.44
503.823	161.44
504.04	183.44
504.256	196.44
504.473	196.44
504.69	171.44
504.907	178.44
505.123	185.44
505.34	166.44
505.557	169.44
505.773	163.44
505.99	168.44
506.207	166.44
