Data from SampD_HRD10591_00057.txt Node
Date: Mon Jan 19 11:47:57 EST 2026
User: Yrep
Spectrometer: HR+D1059
Trigger mode: 0
Integration Time (sec): 3.443000E-1
Scans to average: 1
Electric dark correction enabled: true
Nonlinearity correction enabled: false
Boxcar width: 0
XAxis mode: Wavelengths
Number of Pixels in Spectrum: 2048
>>>>>Begin Spectral Data<<<<<
223.165	-28.69
223.4	-28.69
223.635	-28.69
223.869	-20.69
224.104	-24.69
224.338	-18.69
224.573	-17.69
224.808	-16.69
225.042	2.31
225.277	-1.69
225.511	-4.69
225.746	21.31
225.98	11.31
226.215	11.31
226.449	10.31
226.683	25.31
226.918	21.31
227.152	30.31
227.387	35.31
227.621	25.31
227.856	40.31
228.09	47.31
228.324	62.31
228.559	74.31
228.793	63.31
229.027	74.31
229.262	72.31
229.496	69.31
229.73	67.31
229.964	83.31
230.199	76.31
230.433	71.31
230.667	74.31
230.901	77.31
231.136	97.31
231.37	94.31
231.604	79.31
231.838	84.31
232.072	68.31
232.306	79.31
232.541	85.31
232.775	73.31
233.009	92.31
233.243	61.31
233.477	79.31
233.711	85.31
233.945	76.31
234.179	71.31
234.413	84.31
234.647	82.31
234.881	87.31
235.115	85.31
235.349	72.31
235.583	85.31
235.817	72.31
236.051	79.31
236.285	79.31
236.519	69.31
236.753	62.31
236.987	88.31
237.221	69.31
237.455	69.31
237.689	90.31
237.922	87.31
238.156	70.31
238.39	71.31
238.624	63.31
238.858	72.31
239.091	78.31
239.325	78.31
239.559	79.31
239.793	70.31
240.027	84.31
240.26	80.31
240.494	87.31
240.728	78.31
240.961	69.31
241.195	90.31
241.429	88.31
241.662	75.31
241.896	83.31
242.13	80.31
242.363	81.31
242.597	76.31
242.83	83.31
243.064	88.31
243.298	69.31
243.531	71.31
243.765	91.31
243.998	92.31
244.232	100.31
244.465	87.31
244.699	88.31
244.932	90.31
245.166	80.31
245.399	94.31
245.633	79.31
245.866	86.31
246.099	74.31
246.333	83.31
246.566	88.31
246.8	90.31
247.033	103.31
247.266	78.31
247.5	83.31
247.733	81.31
247.966	76.31
248.2	76.31
248.433	68.31
248.666	78.31
248.899	82.31
249.133	95.31
249.366	94.31
249.599	86.31
249.832	75.31
250.066	88.31
250.299	86.31
250.532	97.31
250.765	95.31
250.998	86.31
251.231	98.31
251.465	88.31
251.698	83.31
251.931	79.31
252.164	83.31
252.397	86.31
252.63	87.31
252.863	74.31
253.096	95.31
253.329	98.31
253.562	88.31
253.795	95.31
254.028	84.31
254.261	84.31
254.494	82.31
254.727	94.31
254.96	81.31
255.193	80.31
255.426	74.31
255.659	71.31
255.892	104.31
256.124	94.31
256.357	88.31
256.59	90.31
256.823	97.31
257.056	78.31
257.289	98.31
257.521	112.31
257.754	84.31
257.987	94.31
258.22	110.31
258.452	92.31
258.685	86.31
258.918	97.31
259.151	89.31
259.383	90.31
259.616	84.31
259.849	106.31
260.081	93.31
260.314	88.31
260.547	99.31
260.779	88.31
261.012	82.31
261.244	85.31
261.477	104.31
261.71	96.31
261.942	88.31
262.175	104.31
262.407	93.31
262.64	104.31
262.872	93.31
263.105	90.31
263.337	111.31
263.57	91.31
263.802	97.31
264.035	94.31
264.267	92.31
264.499	103.31
264.732	94.31
264.964	108.31
265.197	98.31
265.429	107.31
265.661	89.31
265.894	80.31
266.126	107.31
266.358	97.31
266.591	105.31
266.823	96.31
267.055	99.31
267.287	88.31
267.52	92.31
267.752	86.31
267.984	104.31
268.216	93.31
268.448	110.31
268.681	97.31
268.913	111.31
269.145	100.31
269.377	109.31
269.609	90.31
269.841	94.31
270.073	104.31
270.306	97.31
270.538	99.31
270.77	107.31
271.002	104.31
271.234	82.31
271.466	93.31
271.698	90.31
271.93	90.31
272.162	112.31
272.394	101.31
272.626	82.31
272.858	98.31
273.09	127.31
273.322	92.31
273.553	91.31
273.785	91.31
274.017	103.31
274.249	99.31
274.481	96.31
274.713	102.31
274.945	104.31
275.176	99.31
275.408	105.31
275.64	102.31
275.872	88.31
276.104	103.31
276.335	92.31
276.567	102.31
276.799	102.31
277.031	87.31
277.262	101.31
277.494	109.31
277.726	104.31
277.957	102.31
278.189	98.31
278.421	110.31
278.652	108.31
278.884	94.31
279.115	101.31
279.347	100.31
279.579	117.31
279.81	95.31
280.042	114.31
280.273	103.31
280.505	98.31
280.736	102.31
280.968	98.31
281.199	89.31
281.431	114.31
281.662	108.31
281.894	117.31
282.125	120.31
282.356	98.31
282.588	101.31
282.819	98.31
283.051	111.31
283.282	106.31
283.513	111.31
283.745	129.31
283.976	107.31
284.207	118.31
284.439	116.31
284.67	108.31
284.901	121.31
285.132	118.31
285.364	104.31
285.595	110.31
285.826	117.31
286.057	114.31
286.288	112.31
286.52	105.31
286.751	111.31
286.982	116.31
287.213	107.31
287.444	110.31
287.675	111.31
287.906	115.31
288.138	113.31
288.369	110.31
288.6	111.31
288.831	107.31
289.062	129.31
289.293	111.31
289.524	82.31
289.755	112.31
289.986	104.31
290.217	116.31
290.448	106.31
290.679	130.31
290.91	114.31
291.141	114.31
291.371	126.31
291.602	115.31
291.833	113.31
292.064	126.31
292.295	114.31
292.526	118.31
292.757	102.31
292.987	105.31
293.218	106.31
293.449	117.31
293.68	128.31
293.91	95.31
294.141	128.31
294.372	105.31
294.603	101.31
294.833	125.31
295.064	114.31
295.295	128.31
295.525	109.31
295.756	111.31
295.987	110.31
296.217	110.31
296.448	104.31
296.679	118.31
296.909	111.31
297.14	114.31
297.37	112.31
297.601	124.31
297.831	117.31
298.062	126.31
298.292	112.31
298.523	123.31
298.753	122.31
298.984	109.31
299.214	100.31
299.445	129.31
299.675	131.31
299.905	127.31
300.136	128.31
300.366	124.31
300.597	103.31
300.827	108.31
301.057	116.31
301.288	109.31
301.518	112.31
301.748	130.31
301.979	164.31
302.209	122.31
302.439	115.31
302.669	122.31
302.9	130.31
303.13	106.31
303.36	124.31
303.59	119.31
303.82	119.31
304.051	127.31
304.281	125.31
304.511	140.31
304.741	121.31
304.971	116.31
305.201	128.31
305.431	112.31
305.661	118.31
305.891	120.31
306.121	108.31
306.352	120.31
306.582	123.31
306.812	123.31
307.042	114.31
307.272	104.31
307.502	114.31
307.731	126.31
307.961	118.31
308.191	105.31
308.421	124.31
308.651	124.31
308.881	110.31
309.111	111.31
309.341	118.31
309.571	110.31
309.8	109.31
310.03	103.31
310.26	108.31
310.49	126.31
310.72	116.31
310.949	119.31
311.179	123.31
311.409	109.31
311.639	133.31
311.868	105.31
312.098	116.31
312.328	111.31
312.557	120.31
312.787	117.31
313.017	125.31
313.246	122.31
313.476	117.31
313.706	115.31
313.935	112.31
314.165	119.31
314.394	108.31
314.624	118.31
314.853	120.31
315.083	116.31
315.312	131.31
315.542	120.31
315.771	142.31
316.001	119.31
316.23	125.31
316.46	107.31
316.689	124.31
316.919	132.31
317.148	130.31
317.377	127.31
317.607	114.31
317.836	114.31
318.065	126.31
318.295	114.31
318.524	115.31
318.753	106.31
318.983	127.31
319.212	126.31
319.441	117.31
319.67	115.31
319.9	131.31
320.129	117.31
320.358	127.31
320.587	130.31
320.816	138.31
321.046	114.31
321.275	108.31
321.504	117.31
321.733	118.31
321.962	112.31
322.191	132.31
322.42	122.31
322.649	132.31
322.878	123.31
323.108	119.31
323.337	124.31
323.566	138.31
323.795	124.31
324.024	133.31
324.253	107.31
324.482	124.31
324.71	126.31
324.939	130.31
325.168	131.31
325.397	110.31
325.626	117.31
325.855	117.31
326.084	122.31
326.313	108.31
326.542	111.31
326.77	124.31
326.999	113.31
327.228	115.31
327.457	114.31
327.686	136.31
327.914	140.31
328.143	131.31
328.372	127.31
328.6	126.31
328.829	138.31
329.058	129.31
329.287	117.31
329.515	125.31
329.744	133.31
329.972	119.31
330.201	127.31
330.43	145.31
330.658	125.31
330.887	134.31
331.115	119.31
331.344	129.31
331.572	128.31
331.801	126.31
332.03	139.31
332.258	135.31
332.486	133.31
332.715	142.31
332.943	142.31
333.172	139.31
333.4	158.31
333.629	153.31
333.857	148.31
334.085	156.31
334.314	134.31
334.542	154.31
334.771	143.31
334.999	154.31
335.227	143.31
335.455	133.31
335.684	153.31
335.912	141.31
336.14	131.31
336.369	139.31
336.597	132.31
336.825	117.31
337.053	148.31
337.281	131.31
337.51	120.31
337.738	126.31
337.966	132.31
338.194	115.31
338.422	125.31
338.65	132.31
338.878	141.31
339.106	127.31
339.334	131.31
339.562	121.31
339.79	124.31
340.018	124.31
340.246	123.31
340.474	131.31
340.702	141.31
340.93	122.31
341.158	147.31
341.386	125.31
341.614	120.31
341.842	125.31
342.07	116.31
342.298	138.31
342.526	134.31
342.754	118.31
342.981	124.31
343.209	135.31
343.437	175.31
343.665	144.31
343.893	144.31
344.12	147.31
344.348	135.31
344.576	127.31
344.804	131.31
345.031	134.31
345.259	119.31
345.487	118.31
345.714	125.31
345.942	140.31
346.17	138.31
346.397	134.31
346.625	118.31
346.853	133.31
347.08	133.31
347.308	134.31
347.535	132.31
347.763	134.31
347.99	154.31
348.218	131.31
348.445	127.31
348.673	145.31
348.9	123.31
349.128	139.31
349.355	126.31
349.583	119.31
349.81	113.31
350.037	129.31
350.265	116.31
350.492	122.31
350.72	117.31
350.947	134.31
351.174	125.31
351.402	124.31
351.629	128.31
351.856	130.31
352.083	127.31
352.311	134.31
352.538	123.31
352.765	138.31
352.992	159.31
353.22	119.31
353.447	137.31
353.674	120.31
353.901	129.31
354.128	141.31
354.355	140.31
354.583	132.31
354.81	114.31
355.037	127.31
355.264	118.31
355.491	125.31
355.718	128.31
355.945	135.31
356.172	128.31
356.399	128.31
356.626	144.31
356.853	127.31
357.08	138.31
357.307	126.31
357.534	136.31
357.761	131.31
357.988	124.31
358.215	134.31
358.441	123.31
358.668	128.31
358.895	110.31
359.122	124.31
359.349	124.31
359.576	111.31
359.802	119.31
360.029	123.31
360.256	130.31
360.483	139.31
360.709	112.31
360.936	146.31
361.163	129.31
361.39	118.31
361.616	124.31
361.843	118.31
362.07	124.31
362.296	133.31
362.523	140.31
362.749	116.31
362.976	136.31
363.203	144.31
363.429	128.31
363.656	135.31
363.882	116.31
364.109	121.31
364.335	118.31
364.562	124.31
364.788	131.31
365.015	123.31
365.241	126.31
365.468	122.31
365.694	107.31
365.92	131.31
366.147	121.31
366.373	124.31
366.599	129.31
366.826	130.31
367.052	132.31
367.278	132.31
367.505	128.31
367.731	164.31
367.957	127.31
368.184	130.31
368.41	121.31
368.636	132.31
368.862	145.31
369.089	141.31
369.315	132.31
369.541	141.31
369.767	143.31
369.993	127.31
370.219	133.31
370.445	136.31
370.672	138.31
370.898	156.31
371.124	141.31
371.35	144.31
371.576	144.31
371.802	134.31
372.028	137.31
372.254	131.31
372.48	127.31
372.706	142.31
372.932	154.31
373.158	153.31
373.384	159.31
373.61	147.31
373.835	159.31
374.061	147.31
374.287	172.31
374.513	147.31
374.739	156.31
374.965	156.31
375.191	170.31
375.416	146.31
375.642	150.31
375.868	163.31
376.094	139.31
376.319	147.31
376.545	143.31
376.771	162.31
376.997	149.31
377.222	127.31
377.448	145.31
377.674	142.31
377.899	153.31
378.125	168.31
378.35	161.31
378.576	145.31
378.802	144.31
379.027	149.31
379.253	159.31
379.478	153.31
379.704	140.31
379.929	141.31
380.155	160.31
380.38	159.31
380.606	163.31
380.831	147.31
381.057	177.31
381.282	170.31
381.507	156.31
381.733	165.31
381.958	162.31
382.184	173.31
382.409	155.31
382.634	172.31
382.86	172.31
383.085	174.31
383.31	172.31
383.535	167.31
383.761	166.31
383.986	162.31
384.211	183.31
384.436	194.31
384.662	168.31
384.887	178.31
385.112	180.31
385.337	180.31
385.562	171.31
385.787	182.31
386.013	183.31
386.238	182.31
386.463	182.31
386.688	212.31
386.913	188.31
387.138	196.31
387.363	197.31
387.588	180.31
387.813	178.31
388.038	187.31
388.263	183.31
388.488	185.31
388.713	180.31
388.938	187.31
389.163	187.31
389.387	190.31
389.612	174.31
389.837	178.31
390.062	189.31
390.287	193.31
390.512	189.31
390.736	193.31
390.961	200.31
391.186	206.31
391.411	197.31
391.636	190.31
391.86	198.31
392.085	199.31
392.31	203.31
392.534	210.31
392.759	209.31
392.984	215.31
393.208	215.31
393.433	194.31
393.658	184.31
393.882	205.31
394.107	207.31
394.331	211.31
394.556	206.31
394.78	199.31
395.005	204.31
395.229	194.31
395.454	235.31
395.678	215.31
395.903	217.31
396.127	214.31
396.352	205.31
396.576	205.31
396.801	205.31
397.025	199.31
397.249	208.31
397.474	215.31
397.698	204.31
397.922	221.31
398.147	218.31
398.371	210.31
398.595	244.31
398.82	224.31
399.044	225.31
399.268	261.31
399.492	282.31
399.717	305.31
399.941	285.31
400.165	266.31
400.389	250.31
400.613	253.31
400.837	232.31
401.062	233.31
401.286	244.31
401.51	221.31
401.734	231.31
401.958	235.31
402.182	229.31
402.406	240.31
402.63	238.31
402.854	247.31
403.078	262.31
403.302	232.31
403.526	272.31
403.75	264.31
403.974	259.31
404.198	272.31
404.422	275.31
404.645	260.31
404.869	249.31
405.093	257.31
405.317	253.31
405.541	247.31
405.765	247.31
405.988	252.31
406.212	255.31
406.436	263.31
406.66	282.31
406.883	276.31
407.107	264.31
407.331	278.31
407.555	268.31
407.778	263.31
408.002	280.31
408.226	269.31
408.449	271.31
408.673	269.31
408.896	258.31
409.12	252.31
409.344	255.31
409.567	276.31
409.791	259.31
410.014	257.31
410.238	272.31
410.461	256.31
410.685	265.31
410.908	248.31
411.132	257.31
411.355	250.31
411.578	260.31
411.802	252.31
412.025	252.31
412.249	248.31
412.472	248.31
412.695	255.31
412.919	250.31
413.142	238.31
413.365	253.31
413.589	253.31
413.812	270.31
414.035	252.31
414.258	246.31
414.482	253.31
414.705	241.31
414.928	256.31
415.151	261.31
415.374	257.31
415.597	230.31
415.821	261.31
416.044	264.31
416.267	271.31
416.49	266.31
416.713	260.31
416.936	260.31
417.159	258.31
417.382	250.31
417.605	274.31
417.828	271.31
418.051	286.31
418.274	278.31
418.497	274.31
418.72	270.31
418.943	290.31
419.166	276.31
419.389	280.31
419.611	304.31
419.834	292.31
420.057	275.31
420.28	272.31
420.503	278.31
420.726	269.31
420.948	272.31
421.171	270.31
421.394	268.31
421.617	288.31
421.839	295.31
422.062	283.31
422.285	271.31
422.507	288.31
422.73	271.31
422.953	273.31
423.175	263.31
423.398	278.31
423.621	282.31
423.843	283.31
424.066	291.31
424.288	297.31
424.511	303.31
424.733	310.31
424.956	290.31
425.178	280.31
425.401	278.31
425.623	291.31
425.846	270.31
426.068	270.31
426.291	278.31
426.513	276.31
426.735	264.31
426.958	264.31
427.18	267.31
427.402	266.31
427.625	262.31
427.847	244.31
428.069	257.31
428.292	253.31
428.514	260.31
428.736	250.31
428.958	266.31
429.181	256.31
429.403	243.31
429.625	255.31
429.847	259.31
430.069	251.31
430.292	258.31
430.514	242.31
430.736	250.31
430.958	271.31
431.18	258.31
431.402	234.31
431.624	235.31
431.846	198.31
432.068	180.31
432.29	195.31
432.512	225.31
432.734	232.31
432.956	271.31
433.178	260.31
433.4	278.31
433.622	268.31
433.844	273.31
434.066	251.31
434.287	189.31
434.509	196.31
434.731	211.31
434.953	231.31
435.175	254.31
435.397	261.31
435.618	246.31
435.84	212.31
436.062	222.31
436.284	242.31
436.505	241.31
436.727	263.31
436.949	262.31
437.17	256.31
437.392	240.31
437.614	215.31
437.835	194.31
438.057	188.31
438.278	223.31
438.5	233.31
438.721	263.31
438.943	272.31
439.165	263.31
439.386	290.31
439.608	297.31
439.829	292.31
440.05	288.31
440.272	300.31
440.493	288.31
440.715	286.31
440.936	303.31
441.158	289.31
441.379	294.31
441.6	304.31
441.822	293.31
442.043	289.31
442.264	286.31
442.486	285.31
442.707	279.31
442.928	276.31
443.149	279.31
443.371	288.31
443.592	295.31
443.813	298.31
444.034	294.31
444.255	290.31
444.476	293.31
444.698	328.31
444.919	304.31
445.14	569.31
445.361	433.31
445.582	290.31
445.803	288.31
446.024	289.31
446.245	308.31
446.466	307.31
446.687	299.31
446.908	297.31
447.129	322.31
447.35	319.31
447.571	298.31
447.792	279.31
448.013	274.31
448.234	274.31
448.455	278.31
448.675	256.31
448.896	267.31
449.117	259.31
449.338	256.31
449.559	260.31
449.779	243.31
450	254.31
450.221	254.31
450.442	255.31
450.662	252.31
450.883	246.31
451.104	262.31
451.324	247.31
451.545	258.31
451.766	251.31
451.986	237.31
452.207	256.31
452.428	246.31
452.648	221.31
452.869	225.31
453.089	224.31
453.31	203.31
453.53	192.31
453.751	186.31
453.971	197.31
454.192	187.31
454.412	196.31
454.633	209.31
454.853	225.31
455.073	236.31
455.294	208.31
455.514	234.31
455.734	219.31
455.955	216.31
456.175	197.31
456.395	201.31
456.616	198.31
456.836	190.31
457.056	182.31
457.276	187.31
457.497	191.31
457.717	186.31
457.937	191.31
458.157	194.31
458.377	191.31
458.598	148.31
458.818	164.31
459.038	172.31
459.258	159.31
459.478	167.31
459.698	166.31
459.918	209.31
460.138	210.31
460.358	213.31
460.578	238.31
460.798	228.31
461.018	232.31
461.238	243.31
461.458	236.31
461.678	219.31
461.898	229.31
462.118	235.31
462.338	235.31
462.558	240.31
462.777	240.31
462.997	244.31
463.217	260.31
463.437	265.31
463.657	243.31
463.876	229.31
464.096	232.31
464.316	222.31
464.536	250.31
464.755	256.31
464.975	239.31
465.195	245.31
465.414	240.31
465.634	236.31
465.854	238.31
466.073	227.31
466.293	248.31
466.512	231.31
466.732	254.31
466.951	267.31
467.171	255.31
467.391	270.31
467.61	240.31
467.829	270.31
468.049	239.31
468.268	230.31
468.488	246.31
468.707	249.31
468.927	255.31
469.146	247.31
469.365	268.31
469.585	253.31
469.804	261.31
470.023	266.31
470.243	276.31
470.462	275.31
470.681	287.31
470.901	278.31
471.12	277.31
471.339	278.31
471.558	252.31
471.777	261.31
471.997	250.31
472.216	236.31
472.435	217.31
472.654	185.31
472.873	187.31
473.092	213.31
473.311	228.31
473.53	231.31
473.749	227.31
473.968	237.31
474.187	231.31
474.406	209.31
474.625	241.31
474.844	231.31
475.063	240.31
475.282	225.31
475.501	208.31
475.72	228.31
475.939	228.31
476.158	245.31
476.377	246.31
476.596	210.31
476.814	212.31
477.033	212.31
477.252	212.31
477.471	239.31
477.69	258.31
477.908	270.31
478.127	297.31
478.346	276.31
478.564	273.31
478.783	262.31
479.002	282.31
479.22	266.31
479.439	271.31
479.658	233.31
479.876	221.31
480.095	215.31
480.313	234.31
480.532	244.31
480.751	229.31
480.969	180.31
481.188	166.31
481.406	168.31
481.624	156.31
481.843	173.31
482.061	183.31
482.28	196.31
482.498	218.31
482.717	201.31
482.935	239.31
483.153	282.31
483.372	296.31
483.59	300.31
483.808	256.31
484.027	240.31
484.245	247.31
484.463	263.31
484.681	266.31
484.9	250.31
485.118	260.31
485.336	240.31
485.554	214.31
485.772	201.31
485.99	196.31
486.209	207.31
486.427	196.31
486.645	229.31
486.863	279.31
487.081	262.31
487.299	253.31
487.517	264.31
487.735	331.31
487.953	358.31
488.171	352.31
488.389	335.31
488.607	292.31
488.825	252.31
489.043	256.31
489.261	245.31
489.479	270.31
489.696	257.31
489.914	274.31
490.132	281.31
490.35	315.31
490.568	320.31
490.786	358.31
491.003	365.31
491.221	372.31
491.439	382.31
491.657	395.31
491.874	420.31
492.092	460.31
492.31	481.31
492.527	432.31
492.745	408.31
492.963	383.31
493.18	384.31
493.398	385.31
493.615	369.31
493.833	359.31
494.05	355.31
494.268	356.31
494.485	352.31
494.703	337.31
494.92	349.31
495.138	350.31
495.355	368.31
495.573	374.31
495.79	340.31
496.008	356.31
496.225	328.31
496.442	345.31
496.66	346.31
496.877	371.31
497.094	340.31
497.312	318.31
497.529	311.31
497.746	319.31
497.963	312.31
498.181	284.31
498.398	263.31
498.615	273.31
498.832	282.31
499.049	300.31
499.267	338.31
499.484	354.31
499.701	367.31
499.918	411.31
500.135	463.31
500.352	483.31
500.569	500.31
500.786	518.31
501.003	474.31
501.22	430.31
501.437	401.31
501.654	354.31
501.871	350.31
502.088	301.31
502.305	308.31
502.522	276.31
502.739	289.31
502.956	274.31
503.172	266.31
503.389	267.31
503.606	253.31
503.823	236.31
504.04	243.31
504.256	256.31
504.473	261.31
504.69	260.31
504.907	271.31
505.123	242.31
