Data from SampD_HRD10591_00059.txt Node
Date: Mon Jan 19 11:47:58 EST 2026
User: Yrep
Spectrometer: HR+D1059
Trigger mode: 0
Integration Time (sec): 3.443000E-1
Scans to average: 1
Electric dark correction enabled: true
Nonlinearity correction enabled: false
Boxcar width: 0
XAxis mode: Wavelengths
Number of Pixels in Spectrum: 2048
>>>>>Begin Spectral Data<<<<<
223.165	-25.25
223.4	-25.25
223.635	-25.25
223.869	-23.25
224.104	-19.25
224.338	-23.25
224.573	-11.25
224.808	-8.25
225.042	-5.25
225.277	-18.25
225.511	10.75
225.746	1.75
225.98	8.75
226.215	-1.25
226.449	20.75
226.683	20.75
226.918	23.75
227.152	48.75
227.387	41.75
227.621	38.75
227.856	58.75
228.09	45.75
228.324	57.75
228.559	58.75
228.793	67.75
229.027	63.75
229.262	67.75
229.496	63.75
229.73	64.75
229.964	68.75
230.199	73.75
230.433	71.75
230.667	96.75
230.901	84.75
231.136	86.75
231.37	87.75
231.604	79.75
231.838	72.75
232.072	85.75
232.306	84.75
232.541	82.75
232.775	88.75
233.009	84.75
233.243	69.75
233.477	91.75
233.711	74.75
233.945	87.75
234.179	84.75
234.413	86.75
234.647	95.75
234.881	89.75
235.115	87.75
235.349	70.75
235.583	56.75
235.817	93.75
236.051	82.75
236.285	67.75
236.519	87.75
236.753	79.75
236.987	71.75
237.221	65.75
237.455	79.75
237.689	78.75
237.922	97.75
238.156	86.75
238.39	67.75
238.624	78.75
238.858	85.75
239.091	86.75
239.325	68.75
239.559	86.75
239.793	84.75
240.027	91.75
240.26	74.75
240.494	86.75
240.728	82.75
240.961	82.75
241.195	82.75
241.429	75.75
241.662	76.75
241.896	75.75
242.13	67.75
242.363	79.75
242.597	80.75
242.83	81.75
243.064	75.75
243.298	87.75
243.531	68.75
243.765	91.75
243.998	95.75
244.232	102.75
244.465	82.75
244.699	87.75
244.932	81.75
245.166	86.75
245.399	78.75
245.633	72.75
245.866	78.75
246.099	81.75
246.333	67.75
246.566	87.75
246.8	85.75
247.033	73.75
247.266	92.75
247.5	85.75
247.733	89.75
247.966	76.75
248.2	77.75
248.433	82.75
248.666	75.75
248.899	103.75
249.133	70.75
249.366	102.75
249.599	87.75
249.832	84.75
250.066	96.75
250.299	67.75
250.532	70.75
250.765	75.75
250.998	70.75
251.231	106.75
251.465	82.75
251.698	85.75
251.931	92.75
252.164	88.75
252.397	88.75
252.63	90.75
252.863	82.75
253.096	89.75
253.329	95.75
253.562	86.75
253.795	80.75
254.028	87.75
254.261	82.75
254.494	89.75
254.727	76.75
254.96	76.75
255.193	86.75
255.426	78.75
255.659	82.75
255.892	85.75
256.124	76.75
256.357	94.75
256.59	86.75
256.823	74.75
257.056	103.75
257.289	82.75
257.521	89.75
257.754	90.75
257.987	90.75
258.22	86.75
258.452	79.75
258.685	84.75
258.918	98.75
259.151	88.75
259.383	88.75
259.616	79.75
259.849	83.75
260.081	82.75
260.314	89.75
260.547	97.75
260.779	70.75
261.012	86.75
261.244	80.75
261.477	105.75
261.71	88.75
261.942	95.75
262.175	95.75
262.407	78.75
262.64	86.75
262.872	87.75
263.105	74.75
263.337	94.75
263.57	83.75
263.802	92.75
264.035	74.75
264.267	92.75
264.499	89.75
264.732	100.75
264.964	80.75
265.197	89.75
265.429	72.75
265.661	84.75
265.894	99.75
266.126	101.75
266.358	92.75
266.591	76.75
266.823	82.75
267.055	106.75
267.287	92.75
267.52	101.75
267.752	84.75
267.984	90.75
268.216	96.75
268.448	97.75
268.681	78.75
268.913	84.75
269.145	103.75
269.377	88.75
269.609	98.75
269.841	92.75
270.073	103.75
270.306	100.75
270.538	79.75
270.77	79.75
271.002	88.75
271.234	99.75
271.466	100.75
271.698	109.75
271.93	83.75
272.162	89.75
272.394	98.75
272.626	89.75
272.858	107.75
273.09	105.75
273.322	91.75
273.553	85.75
273.785	95.75
274.017	97.75
274.249	106.75
274.481	88.75
274.713	96.75
274.945	105.75
275.176	95.75
275.408	111.75
275.64	102.75
275.872	77.75
276.104	103.75
276.335	97.75
276.567	87.75
276.799	72.75
277.031	91.75
277.262	98.75
277.494	108.75
277.726	104.75
277.957	97.75
278.189	86.75
278.421	100.75
278.652	83.75
278.884	76.75
279.115	120.75
279.347	102.75
279.579	92.75
279.81	95.75
280.042	104.75
280.273	104.75
280.505	96.75
280.736	99.75
280.968	102.75
281.199	105.75
281.431	91.75
281.662	95.75
281.894	98.75
282.125	80.75
282.356	86.75
282.588	87.75
282.819	114.75
283.051	106.75
283.282	99.75
283.513	102.75
283.745	98.75
283.976	99.75
284.207	94.75
284.439	104.75
284.67	95.75
284.901	98.75
285.132	106.75
285.364	109.75
285.595	108.75
285.826	105.75
286.057	97.75
286.288	94.75
286.52	99.75
286.751	96.75
286.982	90.75
287.213	99.75
287.444	117.75
287.675	94.75
287.906	113.75
288.138	99.75
288.369	104.75
288.6	94.75
288.831	89.75
289.062	95.75
289.293	118.75
289.524	89.75
289.755	108.75
289.986	86.75
290.217	104.75
290.448	106.75
290.679	115.75
290.91	99.75
291.141	97.75
291.371	96.75
291.602	95.75
291.833	87.75
292.064	102.75
292.295	103.75
292.526	104.75
292.757	90.75
292.987	100.75
293.218	82.75
293.449	104.75
293.68	103.75
293.91	88.75
294.141	108.75
294.372	105.75
294.603	108.75
294.833	92.75
295.064	110.75
295.295	93.75
295.525	101.75
295.756	106.75
295.987	92.75
296.217	94.75
296.448	103.75
296.679	120.75
296.909	97.75
297.14	114.75
297.37	97.75
297.601	107.75
297.831	112.75
298.062	104.75
298.292	120.75
298.523	107.75
298.753	107.75
298.984	97.75
299.214	102.75
299.445	105.75
299.675	107.75
299.905	96.75
300.136	113.75
300.366	100.75
300.597	113.75
300.827	118.75
301.057	99.75
301.288	98.75
301.518	107.75
301.748	106.75
301.979	131.75
302.209	96.75
302.439	109.75
302.669	111.75
302.9	103.75
303.13	111.75
303.36	111.75
303.59	100.75
303.82	103.75
304.051	95.75
304.281	98.75
304.511	108.75
304.741	106.75
304.971	106.75
305.201	101.75
305.431	116.75
305.661	99.75
305.891	98.75
306.121	101.75
306.352	107.75
306.582	97.75
306.812	101.75
307.042	79.75
307.272	110.75
307.502	103.75
307.731	104.75
307.961	99.75
308.191	100.75
308.421	104.75
308.651	113.75
308.881	107.75
309.111	103.75
309.341	100.75
309.571	106.75
309.8	95.75
310.03	113.75
310.26	92.75
310.49	106.75
310.72	106.75
310.949	108.75
311.179	102.75
311.409	101.75
311.639	99.75
311.868	95.75
312.098	109.75
312.328	115.75
312.557	108.75
312.787	105.75
313.017	103.75
313.246	106.75
313.476	112.75
313.706	95.75
313.935	105.75
314.165	92.75
314.394	120.75
314.624	94.75
314.853	107.75
315.083	115.75
315.312	110.75
315.542	107.75
315.771	108.75
316.001	108.75
316.23	108.75
316.46	95.75
316.689	111.75
316.919	106.75
317.148	116.75
317.377	115.75
317.607	112.75
317.836	104.75
318.065	105.75
318.295	116.75
318.524	113.75
318.753	113.75
318.983	117.75
319.212	111.75
319.441	97.75
319.67	107.75
319.9	109.75
320.129	97.75
320.358	99.75
320.587	116.75
320.816	117.75
321.046	112.75
321.275	106.75
321.504	107.75
321.733	102.75
321.962	109.75
322.191	101.75
322.42	107.75
322.649	108.75
322.878	106.75
323.108	107.75
323.337	105.75
323.566	106.75
323.795	102.75
324.024	95.75
324.253	104.75
324.482	104.75
324.71	100.75
324.939	106.75
325.168	117.75
325.397	108.75
325.626	110.75
325.855	105.75
326.084	118.75
326.313	119.75
326.542	107.75
326.77	100.75
326.999	107.75
327.228	114.75
327.457	113.75
327.686	119.75
327.914	113.75
328.143	118.75
328.372	108.75
328.6	117.75
328.829	112.75
329.058	111.75
329.287	101.75
329.515	103.75
329.744	105.75
329.972	99.75
330.201	112.75
330.43	120.75
330.658	113.75
330.887	110.75
331.115	112.75
331.344	126.75
331.572	121.75
331.801	108.75
332.03	107.75
332.258	119.75
332.486	122.75
332.715	101.75
332.943	103.75
333.172	118.75
333.4	122.75
333.629	122.75
333.857	123.75
334.085	121.75
334.314	114.75
334.542	117.75
334.771	118.75
334.999	108.75
335.227	107.75
335.455	121.75
335.684	135.75
335.912	115.75
336.14	133.75
336.369	128.75
336.597	118.75
336.825	100.75
337.053	100.75
337.281	109.75
337.51	102.75
337.738	114.75
337.966	112.75
338.194	107.75
338.422	107.75
338.65	119.75
338.878	120.75
339.106	114.75
339.334	102.75
339.562	113.75
339.79	91.75
340.018	103.75
340.246	99.75
340.474	108.75
340.702	115.75
340.93	107.75
341.158	121.75
341.386	112.75
341.614	108.75
341.842	97.75
342.07	108.75
342.298	114.75
342.526	109.75
342.754	105.75
342.981	123.75
343.209	110.75
343.437	146.75
343.665	112.75
343.893	105.75
344.12	121.75
344.348	115.75
344.576	115.75
344.804	101.75
345.031	118.75
345.259	104.75
345.487	124.75
345.714	109.75
345.942	113.75
346.17	122.75
346.397	108.75
346.625	121.75
346.853	128.75
347.08	106.75
347.308	115.75
347.535	96.75
347.763	102.75
347.99	107.75
348.218	108.75
348.445	104.75
348.673	96.75
348.9	105.75
349.128	113.75
349.355	111.75
349.583	114.75
349.81	108.75
350.037	110.75
350.265	90.75
350.492	111.75
350.72	111.75
350.947	115.75
351.174	129.75
351.402	104.75
351.629	121.75
351.856	104.75
352.083	96.75
352.311	108.75
352.538	97.75
352.765	106.75
352.992	112.75
353.22	114.75
353.447	97.75
353.674	139.75
353.901	122.75
354.128	112.75
354.355	118.75
354.583	112.75
354.81	107.75
355.037	106.75
355.264	108.75
355.491	113.75
355.718	103.75
355.945	101.75
356.172	102.75
356.399	104.75
356.626	100.75
356.853	98.75
357.08	102.75
357.307	119.75
357.534	108.75
357.761	119.75
357.988	106.75
358.215	96.75
358.441	120.75
358.668	107.75
358.895	116.75
359.122	122.75
359.349	121.75
359.576	124.75
359.802	97.75
360.029	110.75
360.256	121.75
360.483	103.75
360.709	95.75
360.936	118.75
361.163	100.75
361.39	113.75
361.616	101.75
361.843	104.75
362.07	102.75
362.296	104.75
362.523	100.75
362.749	95.75
362.976	96.75
363.203	114.75
363.429	113.75
363.656	107.75
363.882	114.75
364.109	102.75
364.335	124.75
364.562	116.75
364.788	85.75
365.015	84.75
365.241	108.75
365.468	121.75
365.694	96.75
365.92	115.75
366.147	103.75
366.373	106.75
366.599	108.75
366.826	113.75
367.052	119.75
367.278	107.75
367.505	126.75
367.731	132.75
367.957	122.75
368.184	120.75
368.41	112.75
368.636	111.75
368.862	127.75
369.089	108.75
369.315	116.75
369.541	127.75
369.767	119.75
369.993	109.75
370.219	118.75
370.445	112.75
370.672	116.75
370.898	107.75
371.124	108.75
371.35	99.75
371.576	113.75
371.802	114.75
372.028	95.75
372.254	105.75
372.48	114.75
372.706	118.75
372.932	127.75
373.158	124.75
373.384	130.75
373.61	108.75
373.835	123.75
374.061	105.75
374.287	101.75
374.513	128.75
374.739	121.75
374.965	115.75
375.191	116.75
375.416	120.75
375.642	127.75
375.868	124.75
376.094	127.75
376.319	98.75
376.545	115.75
376.771	123.75
376.997	135.75
377.222	121.75
377.448	120.75
377.674	115.75
377.899	118.75
378.125	107.75
378.35	116.75
378.576	126.75
378.802	108.75
379.027	124.75
379.253	135.75
379.478	118.75
379.704	118.75
379.929	118.75
380.155	114.75
380.38	124.75
380.606	130.75
380.831	130.75
381.057	139.75
381.282	120.75
381.507	117.75
381.733	123.75
381.958	118.75
382.184	118.75
382.409	126.75
382.634	128.75
382.86	129.75
383.085	121.75
383.31	121.75
383.535	143.75
383.761	120.75
383.986	126.75
384.211	117.75
384.436	126.75
384.662	134.75
384.887	133.75
385.112	136.75
385.337	138.75
385.562	140.75
385.787	117.75
386.013	126.75
386.238	135.75
386.463	134.75
386.688	154.75
386.913	122.75
387.138	122.75
387.363	139.75
387.588	147.75
387.813	133.75
388.038	127.75
388.263	146.75
388.488	140.75
388.713	125.75
388.938	137.75
389.163	140.75
389.387	137.75
389.612	124.75
389.837	142.75
390.062	143.75
390.287	150.75
390.512	130.75
390.736	131.75
390.961	138.75
391.186	149.75
391.411	137.75
391.636	134.75
391.86	140.75
392.085	168.75
392.31	148.75
392.534	143.75
392.759	143.75
392.984	160.75
393.208	147.75
393.433	141.75
393.658	128.75
393.882	139.75
394.107	153.75
394.331	136.75
394.556	142.75
394.78	158.75
395.005	159.75
395.229	141.75
395.454	163.75
395.678	148.75
395.903	151.75
396.127	161.75
396.352	147.75
396.576	144.75
396.801	143.75
397.025	153.75
397.249	160.75
397.474	158.75
397.698	158.75
397.922	145.75
398.147	152.75
398.371	139.75
398.595	152.75
398.82	164.75
399.044	168.75
399.268	171.75
399.492	183.75
399.717	194.75
399.941	180.75
400.165	191.75
400.389	164.75
400.613	151.75
400.837	174.75
401.062	172.75
401.286	173.75
401.51	165.75
401.734	158.75
401.958	168.75
402.182	162.75
402.406	168.75
402.63	161.75
402.854	172.75
403.078	175.75
403.302	172.75
403.526	189.75
403.75	191.75
403.974	168.75
404.198	159.75
404.422	186.75
404.645	163.75
404.869	182.75
405.093	180.75
405.317	167.75
405.541	193.75
405.765	178.75
405.988	149.75
406.212	170.75
406.436	178.75
406.66	179.75
406.883	185.75
407.107	168.75
407.331	170.75
407.555	163.75
407.778	176.75
408.002	174.75
408.226	190.75
408.449	179.75
408.673	169.75
408.896	193.75
409.12	194.75
409.344	184.75
409.567	186.75
409.791	180.75
410.014	182.75
410.238	178.75
410.461	196.75
410.685	163.75
410.908	175.75
411.132	164.75
411.355	155.75
411.578	196.75
411.802	198.75
412.025	177.75
412.249	184.75
412.472	176.75
412.695	172.75
412.919	172.75
413.142	174.75
413.365	171.75
413.589	176.75
413.812	176.75
414.035	184.75
414.258	180.75
414.482	180.75
414.705	173.75
414.928	180.75
415.151	183.75
415.374	172.75
415.597	175.75
415.821	177.75
416.044	175.75
416.267	193.75
416.49	168.75
416.713	156.75
416.936	166.75
417.159	178.75
417.382	196.75
417.605	187.75
417.828	183.75
418.051	160.75
418.274	172.75
418.497	175.75
418.72	176.75
418.943	186.75
419.166	168.75
419.389	210.75
419.611	196.75
419.834	185.75
420.057	194.75
420.28	183.75
420.503	180.75
420.726	200.75
420.948	183.75
421.171	185.75
421.394	199.75
421.617	196.75
421.839	185.75
422.062	184.75
422.285	178.75
422.507	194.75
422.73	173.75
422.953	174.75
423.175	182.75
423.398	178.75
423.621	187.75
423.843	190.75
424.066	182.75
424.288	206.75
424.511	209.75
424.733	194.75
424.956	183.75
425.178	187.75
425.401	188.75
425.623	174.75
425.846	170.75
426.068	174.75
426.291	177.75
426.513	160.75
426.735	174.75
426.958	191.75
427.18	176.75
427.402	184.75
427.625	169.75
427.847	176.75
428.069	178.75
428.292	167.75
428.514	190.75
428.736	185.75
428.958	171.75
429.181	192.75
429.403	171.75
429.625	165.75
429.847	169.75
430.069	175.75
430.292	184.75
430.514	183.75
430.736	166.75
430.958	166.75
431.18	158.75
431.402	171.75
431.624	169.75
431.846	136.75
432.068	129.75
432.29	163.75
432.512	174.75
432.734	162.75
432.956	178.75
433.178	168.75
433.4	185.75
433.622	176.75
433.844	171.75
434.066	170.75
434.287	137.75
434.509	142.75
434.731	135.75
434.953	156.75
435.175	178.75
435.397	171.75
435.618	148.75
435.84	163.75
436.062	176.75
436.284	176.75
436.505	184.75
436.727	169.75
436.949	175.75
437.17	170.75
437.392	164.75
437.614	176.75
437.835	140.75
438.057	139.75
438.278	143.75
438.5	162.75
438.721	162.75
438.943	185.75
439.165	194.75
439.386	175.75
439.608	185.75
439.829	194.75
440.05	196.75
440.272	190.75
440.493	186.75
440.715	210.75
440.936	190.75
441.158	208.75
441.379	185.75
441.6	192.75
441.822	188.75
442.043	195.75
442.264	199.75
442.486	181.75
442.707	195.75
442.928	187.75
443.149	181.75
443.371	185.75
443.592	185.75
443.813	186.75
444.034	186.75
444.255	203.75
444.476	201.75
444.698	208.75
444.919	208.75
445.14	458.75
445.361	304.75
445.582	204.75
445.803	193.75
446.024	195.75
446.245	210.75
446.466	217.75
446.687	212.75
446.908	185.75
447.129	201.75
447.35	193.75
447.571	202.75
447.792	181.75
448.013	179.75
448.234	180.75
448.455	157.75
448.675	184.75
448.896	185.75
449.117	186.75
449.338	187.75
449.559	173.75
449.779	159.75
450	194.75
450.221	190.75
450.442	176.75
450.662	166.75
450.883	162.75
451.104	190.75
451.324	159.75
451.545	172.75
451.766	177.75
451.986	158.75
452.207	167.75
452.428	151.75
452.648	167.75
452.869	151.75
453.089	139.75
453.31	144.75
453.53	142.75
453.751	145.75
453.971	133.75
454.192	154.75
454.412	149.75
454.633	144.75
454.853	150.75
455.073	153.75
455.294	127.75
455.514	160.75
455.734	154.75
455.955	164.75
456.175	148.75
456.395	144.75
456.616	137.75
456.836	146.75
457.056	130.75
457.276	139.75
457.497	136.75
457.717	138.75
457.937	135.75
458.157	132.75
458.377	130.75
458.598	131.75
458.818	135.75
459.038	128.75
459.258	118.75
459.478	126.75
459.698	122.75
459.918	144.75
460.138	160.75
460.358	171.75
460.578	164.75
460.798	167.75
461.018	145.75
461.238	166.75
461.458	152.75
461.678	169.75
461.898	173.75
462.118	158.75
462.338	169.75
462.558	159.75
462.777	171.75
462.997	182.75
463.217	185.75
463.437	177.75
463.657	171.75
463.876	166.75
464.096	182.75
464.316	162.75
464.536	180.75
464.755	167.75
464.975	152.75
465.195	162.75
465.414	167.75
465.634	149.75
465.854	158.75
466.073	170.75
466.293	151.75
466.512	152.75
466.732	169.75
466.951	177.75
467.171	168.75
467.391	179.75
467.61	158.75
467.829	168.75
468.049	167.75
468.268	177.75
468.488	173.75
468.707	168.75
468.927	184.75
469.146	168.75
469.365	197.75
469.585	179.75
469.804	177.75
470.023	182.75
470.243	183.75
470.462	184.75
470.681	201.75
470.901	178.75
471.12	177.75
471.339	184.75
471.558	176.75
471.777	174.75
471.997	185.75
472.216	153.75
472.435	158.75
472.654	138.75
472.873	153.75
473.092	156.75
473.311	155.75
473.53	164.75
473.749	171.75
473.968	168.75
474.187	154.75
474.406	137.75
474.625	164.75
474.844	155.75
475.063	156.75
475.282	170.75
475.501	147.75
475.72	164.75
475.939	169.75
476.158	164.75
476.377	176.75
476.596	158.75
476.814	154.75
477.033	138.75
477.252	164.75
477.471	169.75
477.69	188.75
477.908	172.75
478.127	194.75
478.346	171.75
478.564	173.75
478.783	171.75
479.002	186.75
479.22	178.75
479.439	202.75
479.658	170.75
479.876	153.75
480.095	145.75
480.313	148.75
480.532	173.75
480.751	158.75
480.969	138.75
481.188	139.75
481.406	142.75
481.624	134.75
481.843	141.75
482.061	137.75
482.28	134.75
482.498	147.75
482.717	139.75
482.935	172.75
483.153	183.75
483.372	189.75
483.59	193.75
483.808	180.75
484.027	184.75
484.245	167.75
484.463	182.75
484.681	197.75
484.9	183.75
485.118	182.75
485.336	158.75
485.554	162.75
485.772	144.75
485.99	131.75
486.209	154.75
486.427	145.75
486.645	162.75
486.863	169.75
487.081	178.75
487.299	185.75
487.517	176.75
487.735	212.75
487.953	235.75
488.171	235.75
488.389	205.75
488.607	194.75
488.825	172.75
489.043	175.75
489.261	175.75
489.479	198.75
489.696	179.75
489.914	176.75
490.132	168.75
490.35	204.75
490.568	195.75
490.786	233.75
491.003	233.75
491.221	222.75
491.439	220.75
491.657	240.75
491.874	263.75
492.092	259.75
492.31	281.75
492.527	266.75
492.745	235.75
492.963	244.75
493.18	250.75
493.398	233.75
493.615	216.75
493.833	230.75
494.05	240.75
494.268	208.75
494.485	231.75
494.703	219.75
494.92	228.75
495.138	216.75
495.355	238.75
495.573	230.75
495.79	222.75
496.008	238.75
496.225	225.75
496.442	220.75
496.66	245.75
496.877	231.75
497.094	221.75
497.312	214.75
497.529	196.75
497.746	206.75
497.963	195.75
498.181	196.75
498.398	168.75
498.615	186.75
498.832	180.75
499.049	192.75
499.267	198.75
499.484	221.75
499.701	241.75
499.918	244.75
500.135	286.75
500.352	273.75
500.569	312.75
500.786	298.75
501.003	286.75
501.22	263.75
501.437	237.75
501.654	222.75
501.871	229.75
502.088	212.75
502.305	218.75
502.522	186.75
502.739	200.75
502.956	191.75
503.172	192.75
503.389	176.75
503.606	190.75
503.823	181.75
504.04	172.75
504.256	179.75
504.473	176.75
504.69	179.75
504.907	184.75
505.123	162.75
505.34	154.75
505.557	170.75
505.773	176.75
505.99	153.75
506.207	144.75
506.423	166.75
506.64	165.75
