Data from SampD_HRD10591_00087.txt Node
Date: Mon Jan 19 11:48:08 EST 2026
User: Yrep
Spectrometer: HR+D1059
Trigger mode: 0
Integration Time (sec): 3.443000E-1
Scans to average: 1
Electric dark correction enabled: true
Nonlinearity correction enabled: false
Boxcar width: 0
XAxis mode: Wavelengths
Number of Pixels in Spectrum: 2048
>>>>>Begin Spectral Data<<<<<
223.165	-28
223.4	-28
223.635	-28
223.869	-19
224.104	-22
224.338	-16
224.573	-7
224.808	-16
225.042	4
225.277	10
225.511	4
225.746	5
225.98	21
226.215	8
226.449	10
226.683	7
226.918	19
227.152	20
227.387	35
227.621	38
227.856	58
228.09	47
228.324	50
228.559	55
228.793	71
229.027	62
229.262	67
229.496	76
229.73	66
229.964	76
230.199	75
230.433	70
230.667	84
230.901	77
231.136	84
231.37	82
231.604	85
231.838	97
232.072	112
232.306	80
232.541	86
232.775	104
233.009	83
233.243	75
233.477	78
233.711	84
233.945	86
234.179	84
234.413	87
234.647	92
234.881	87
235.115	89
235.349	101
235.583	69
235.817	96
236.051	90
236.285	87
236.519	67
236.753	95
236.987	98
237.221	85
237.455	73
237.689	82
237.922	88
238.156	78
238.39	75
238.624	67
238.858	93
239.091	84
239.325	67
239.559	76
239.793	95
240.027	86
240.26	77
240.494	87
240.728	99
240.961	86
241.195	94
241.429	78
241.662	79
241.896	80
242.13	90
242.363	82
242.597	93
242.83	83
243.064	90
243.298	85
243.531	82
243.765	98
243.998	91
244.232	90
244.465	75
244.699	74
244.932	93
245.166	94
245.399	93
245.633	81
245.866	90
246.099	85
246.333	79
246.566	79
246.8	79
247.033	84
247.266	98
247.5	88
247.733	95
247.966	95
248.2	98
248.433	62
248.666	92
248.899	102
249.133	90
249.366	90
249.599	88
249.832	80
250.066	112
250.299	82
250.532	87
250.765	80
250.998	80
251.231	91
251.465	90
251.698	82
251.931	80
252.164	101
252.397	84
252.63	105
252.863	94
253.096	87
253.329	107
253.562	106
253.795	90
254.028	94
254.261	87
254.494	99
254.727	93
254.96	82
255.193	91
255.426	92
255.659	85
255.892	100
256.124	63
256.357	98
256.59	93
256.823	101
257.056	106
257.289	83
257.521	92
257.754	88
257.987	96
258.22	104
258.452	89
258.685	94
258.918	97
259.151	92
259.383	102
259.616	91
259.849	105
260.081	94
260.314	97
260.547	92
260.779	99
261.012	98
261.244	78
261.477	105
261.71	96
261.942	96
262.175	104
262.407	94
262.64	108
262.872	91
263.105	98
263.337	107
263.57	92
263.802	102
264.035	85
264.267	101
264.499	113
264.732	118
264.964	96
265.197	101
265.429	101
265.661	100
265.894	102
266.126	96
266.358	110
266.591	85
266.823	94
267.055	104
267.287	114
267.52	100
267.752	106
267.984	106
268.216	106
268.448	107
268.681	114
268.913	121
269.145	107
269.377	110
269.609	101
269.841	114
270.073	102
270.306	88
270.538	114
270.77	97
271.002	98
271.234	99
271.466	109
271.698	105
271.93	98
272.162	108
272.394	116
272.626	106
272.858	104
273.09	101
273.322	100
273.553	111
273.785	101
274.017	109
274.249	122
274.481	100
274.713	92
274.945	111
275.176	102
275.408	105
275.64	100
275.872	102
276.104	94
276.335	107
276.567	105
276.799	99
277.031	105
277.262	107
277.494	114
277.726	111
277.957	103
278.189	100
278.421	118
278.652	104
278.884	116
279.115	111
279.347	100
279.579	97
279.81	105
280.042	105
280.273	112
280.505	100
280.736	95
280.968	114
281.199	120
281.431	114
281.662	119
281.894	114
282.125	100
282.356	104
282.588	112
282.819	113
283.051	96
283.282	97
283.513	107
283.745	113
283.976	110
284.207	107
284.439	123
284.67	113
284.901	131
285.132	111
285.364	118
285.595	117
285.826	116
286.057	120
286.288	104
286.52	111
286.751	105
286.982	117
287.213	128
287.444	108
287.675	125
287.906	130
288.138	139
288.369	131
288.6	121
288.831	109
289.062	110
289.293	108
289.524	98
289.755	114
289.986	116
290.217	111
290.448	99
290.679	122
290.91	131
291.141	127
291.371	126
291.602	121
291.833	125
292.064	110
292.295	113
292.526	128
292.757	114
292.987	122
293.218	123
293.449	122
293.68	114
293.91	102
294.141	122
294.372	118
294.603	118
294.833	113
295.064	117
295.295	119
295.525	116
295.756	134
295.987	123
296.217	127
296.448	122
296.679	110
296.909	122
297.14	107
297.37	126
297.601	121
297.831	125
298.062	139
298.292	120
298.523	129
298.753	130
298.984	127
299.214	116
299.445	127
299.675	120
299.905	106
300.136	115
300.366	110
300.597	121
300.827	115
301.057	130
301.288	127
301.518	122
301.748	128
301.979	152
302.209	118
302.439	130
302.669	108
302.9	112
303.13	118
303.36	138
303.59	110
303.82	139
304.051	128
304.281	125
304.511	134
304.741	132
304.971	125
305.201	121
305.431	126
305.661	131
305.891	119
306.121	129
306.352	116
306.582	124
306.812	132
307.042	123
307.272	119
307.502	118
307.731	128
307.961	119
308.191	123
308.421	131
308.651	121
308.881	121
309.111	121
309.341	105
309.571	122
309.8	127
310.03	121
310.26	130
310.49	115
310.72	121
310.949	121
311.179	115
311.409	118
311.639	121
311.868	125
312.098	136
312.328	123
312.557	124
312.787	118
313.017	119
313.246	129
313.476	116
313.706	135
313.935	138
314.165	135
314.394	135
314.624	112
314.853	132
315.083	133
315.312	131
315.542	115
315.771	125
316.001	116
316.23	127
316.46	122
316.689	138
316.919	116
317.148	127
317.377	131
317.607	116
317.836	120
318.065	123
318.295	124
318.524	123
318.753	132
318.983	110
319.212	139
319.441	128
319.67	142
319.9	139
320.129	143
320.358	116
320.587	114
320.816	125
321.046	128
321.275	116
321.504	119
321.733	123
321.962	127
322.191	121
322.42	124
322.649	124
322.878	113
323.108	142
323.337	128
323.566	145
323.795	110
324.024	123
324.253	137
324.482	136
324.71	119
324.939	124
325.168	122
325.397	113
325.626	140
325.855	123
326.084	116
326.313	122
326.542	110
326.77	127
326.999	131
327.228	132
327.457	128
327.686	146
327.914	118
328.143	135
328.372	126
328.6	114
328.829	128
329.058	114
329.287	134
329.515	139
329.744	147
329.972	111
330.201	137
330.43	132
330.658	119
330.887	138
331.115	128
331.344	130
331.572	145
331.801	122
332.03	134
332.258	134
332.486	140
332.715	128
332.943	159
333.172	161
333.4	147
333.629	161
333.857	147
334.085	139
334.314	147
334.542	152
334.771	133
334.999	155
335.227	146
335.455	155
335.684	145
335.912	131
336.14	138
336.369	147
336.597	159
336.825	146
337.053	145
337.281	144
337.51	151
337.738	152
337.966	137
338.194	126
338.422	136
338.65	131
338.878	137
339.106	132
339.334	148
339.562	147
339.79	129
340.018	128
340.246	138
340.474	108
340.702	129
340.93	127
341.158	122
341.386	147
341.614	130
341.842	121
342.07	127
342.298	131
342.526	132
342.754	133
342.981	150
343.209	150
343.437	183
343.665	137
343.893	142
344.12	158
344.348	143
344.576	144
344.804	137
345.031	137
345.259	138
345.487	132
345.714	126
345.942	136
346.17	119
346.397	127
346.625	123
346.853	139
347.08	144
347.308	133
347.535	145
347.763	132
347.99	140
348.218	132
348.445	137
348.673	121
348.9	128
349.128	132
349.355	126
349.583	129
349.81	137
350.037	107
350.265	136
350.492	136
350.72	143
350.947	146
351.174	122
351.402	119
351.629	123
351.856	135
352.083	114
352.311	132
352.538	130
352.765	134
352.992	147
353.22	131
353.447	122
353.674	121
353.901	131
354.128	123
354.355	138
354.583	122
354.81	136
355.037	130
355.264	126
355.491	130
355.718	125
355.945	120
356.172	131
356.399	131
356.626	137
356.853	131
357.08	132
357.307	123
357.534	136
357.761	133
357.988	138
358.215	118
358.441	136
358.668	128
358.895	136
359.122	130
359.349	133
359.576	137
359.802	122
360.029	120
360.256	136
360.483	137
360.709	140
360.936	137
361.163	121
361.39	143
361.616	129
361.843	132
362.07	134
362.296	119
362.523	124
362.749	132
362.976	137
363.203	139
363.429	136
363.656	128
363.882	145
364.109	136
364.335	144
364.562	146
364.788	128
365.015	128
365.241	121
365.468	129
365.694	136
365.92	125
366.147	142
366.373	122
366.599	139
366.826	131
367.052	136
367.278	139
367.505	139
367.731	160
367.957	144
368.184	145
368.41	143
368.636	154
368.862	139
369.089	150
369.315	130
369.541	160
369.767	153
369.993	158
370.219	137
370.445	133
370.672	159
370.898	143
371.124	144
371.35	148
371.576	131
371.802	148
372.028	146
372.254	139
372.48	151
372.706	160
372.932	143
373.158	146
373.384	158
373.61	159
373.835	147
374.061	149
374.287	139
374.513	168
374.739	145
374.965	166
375.191	160
375.416	175
375.642	179
375.868	163
376.094	163
376.319	149
376.545	155
376.771	171
376.997	168
377.222	153
377.448	162
377.674	172
377.899	142
378.125	148
378.35	166
378.576	151
378.802	160
379.027	151
379.253	171
379.478	165
379.704	165
379.929	161
380.155	159
380.38	139
380.606	165
380.831	164
381.057	182
381.282	166
381.507	169
381.733	174
381.958	174
382.184	164
382.409	170
382.634	180
382.86	169
383.085	179
383.31	173
383.535	182
383.761	190
383.986	180
384.211	176
384.436	181
384.662	179
384.887	177
385.112	192
385.337	186
385.562	180
385.787	177
386.013	186
386.238	178
386.463	178
386.688	229
386.913	189
387.138	182
387.363	195
387.588	201
387.813	200
388.038	173
388.263	180
388.488	167
388.713	172
388.938	194
389.163	189
389.387	196
389.612	189
389.837	191
390.062	192
390.287	183
390.512	187
390.736	175
390.961	194
391.186	192
391.411	179
391.636	202
391.86	226
392.085	211
392.31	211
392.534	200
392.759	201
392.984	206
393.208	212
393.433	213
393.658	206
393.882	202
394.107	212
394.331	202
394.556	215
394.78	212
395.005	203
395.229	221
395.454	222
395.678	217
395.903	225
396.127	212
396.352	201
396.576	218
396.801	211
397.025	199
397.249	230
397.474	227
397.698	222
397.922	224
398.147	221
398.371	212
398.595	235
398.82	236
399.044	248
399.268	264
399.492	254
399.717	295
399.941	282
400.165	263
400.389	265
400.613	240
400.837	230
401.062	227
401.286	243
401.51	241
401.734	237
401.958	242
402.182	241
402.406	242
402.63	248
402.854	248
403.078	257
403.302	255
403.526	266
403.75	262
403.974	273
404.198	264
404.422	266
404.645	264
404.869	272
405.093	263
405.317	255
405.541	258
405.765	264
405.988	251
406.212	264
406.436	276
406.66	276
406.883	275
407.107	252
407.331	282
407.555	282
407.778	278
408.002	263
408.226	264
408.449	281
408.673	274
408.896	268
409.12	262
409.344	287
409.567	256
409.791	274
410.014	269
410.238	258
410.461	262
410.685	263
410.908	261
411.132	263
411.355	264
411.578	268
411.802	280
412.025	265
412.249	270
412.472	243
412.695	272
412.919	257
413.142	255
413.365	255
413.589	266
413.812	271
414.035	246
414.258	253
414.482	274
414.705	271
414.928	271
415.151	258
415.374	277
415.597	267
415.821	246
416.044	260
416.267	271
416.49	274
416.713	264
416.936	277
417.159	260
417.382	280
417.605	264
417.828	276
418.051	274
418.274	280
418.497	298
418.72	286
418.943	273
419.166	306
419.389	307
419.611	313
419.834	294
420.057	290
420.28	281
420.503	276
420.726	272
420.948	266
421.171	274
421.394	286
421.617	306
421.839	297
422.062	280
422.285	270
422.507	272
422.73	281
422.953	286
423.175	285
423.398	275
423.621	301
423.843	282
424.066	289
424.288	290
424.511	293
424.733	324
424.956	292
425.178	308
425.401	293
425.623	274
425.846	281
426.068	287
426.291	270
426.513	255
426.735	289
426.958	288
427.18	275
427.402	280
427.625	283
427.847	270
428.069	252
428.292	260
428.514	263
428.736	253
428.958	258
429.181	259
429.403	252
429.625	252
429.847	286
430.069	268
430.292	268
430.514	248
430.736	252
430.958	254
431.18	248
431.402	259
431.624	229
431.846	215
432.068	190
432.29	208
432.512	232
432.734	260
432.956	272
433.178	279
433.4	262
433.622	272
433.844	260
434.066	241
434.287	214
434.509	200
434.731	215
434.953	243
435.175	264
435.397	246
435.618	241
435.84	224
436.062	238
436.284	264
436.505	247
436.727	265
436.949	268
437.17	241
437.392	247
437.614	231
437.835	211
438.057	217
438.278	219
438.5	255
438.721	267
438.943	272
439.165	258
439.386	274
439.608	282
439.829	292
440.05	281
440.272	293
440.493	290
440.715	280
440.936	295
441.158	302
441.379	318
441.6	320
441.822	310
442.043	288
442.264	299
442.486	300
442.707	285
442.928	283
443.149	286
443.371	284
443.592	284
443.813	296
444.034	308
444.255	308
444.476	303
444.698	314
444.919	316
445.14	551
445.361	440
445.582	308
445.803	303
446.024	303
446.245	327
446.466	306
446.687	305
446.908	309
447.129	312
447.35	307
447.571	311
447.792	274
448.013	276
448.234	282
448.455	278
448.675	262
448.896	262
449.117	287
449.338	269
449.559	272
449.779	265
450	261
450.221	284
450.442	262
450.662	280
450.883	253
451.104	272
451.324	258
451.545	271
451.766	263
451.986	258
452.207	260
452.428	246
452.648	248
452.869	225
453.089	220
453.31	211
453.53	187
453.751	183
453.971	192
454.192	188
454.412	188
454.633	216
454.853	223
455.073	229
455.294	243
455.514	222
455.734	210
455.955	225
456.175	220
456.395	190
456.616	210
456.836	188
457.056	196
457.276	190
457.497	202
457.717	218
457.937	195
458.157	188
458.377	180
458.598	190
458.818	160
459.038	175
459.258	166
459.478	176
459.698	180
459.918	201
460.138	226
460.358	247
460.578	243
460.798	245
461.018	233
461.238	254
461.458	244
461.678	249
461.898	240
462.118	217
462.338	235
462.558	259
462.777	263
462.997	274
463.217	258
463.437	264
463.657	244
463.876	263
464.096	244
464.316	243
464.536	279
464.755	272
464.975	262
465.195	275
465.414	234
465.634	215
465.854	227
466.073	245
466.293	241
466.512	253
466.732	266
466.951	264
467.171	261
467.391	267
467.61	262
467.829	264
468.049	260
468.268	259
468.488	242
468.707	261
468.927	260
469.146	239
469.365	281
469.585	282
469.804	261
470.023	295
470.243	286
470.462	275
470.681	282
470.901	284
471.12	271
471.339	281
471.558	255
471.777	268
471.997	258
472.216	234
472.435	215
472.654	192
472.873	216
473.092	218
473.311	226
473.53	244
473.749	245
473.968	254
474.187	213
474.406	230
474.625	235
474.844	250
475.063	239
475.282	225
475.501	223
475.72	230
475.939	240
476.158	251
476.377	248
476.596	234
476.814	193
477.033	210
477.252	230
477.471	248
477.69	277
477.908	273
478.127	290
478.346	270
478.564	282
478.783	281
479.002	286
479.22	283
479.439	272
479.658	232
479.876	231
480.095	224
480.313	235
480.532	233
480.751	228
480.969	196
481.188	186
481.406	194
481.624	182
481.843	179
482.061	195
482.28	226
482.498	229
482.717	217
482.935	256
483.153	276
483.372	304
483.59	276
483.808	256
484.027	261
484.245	238
484.463	270
484.681	294
484.9	278
485.118	278
485.336	243
485.554	222
485.772	207
485.99	198
486.209	216
486.427	206
486.645	240
486.863	273
487.081	271
487.299	248
487.517	270
487.735	333
487.953	361
488.171	347
488.389	321
488.607	300
488.825	245
489.043	264
489.261	258
489.479	268
489.696	294
489.914	278
490.132	268
490.35	314
490.568	330
490.786	346
491.003	370
491.221	362
491.439	377
491.657	392
491.874	411
492.092	463
492.31	520
492.527	470
492.745	424
492.963	385
493.18	389
493.398	391
493.615	371
493.833	355
494.05	355
494.268	363
494.485	373
494.703	367
494.92	362
495.138	372
495.355	362
495.573	355
495.79	345
496.008	342
496.225	346
496.442	336
496.66	359
496.877	334
497.094	336
497.312	334
497.529	336
497.746	318
497.963	301
498.181	290
498.398	271
498.615	267
498.832	292
499.049	320
499.267	324
499.484	346
499.701	372
499.918	396
500.135	459
500.352	498
500.569	495
500.786	511
501.003	484
501.22	432
501.437	383
501.654	366
501.871	340
502.088	328
502.305	304
502.522	304
502.739	309
502.956	296
503.172	290
503.389	277
503.606	254
503.823	261
504.04	262
504.256	265
504.473	277
504.69	274
504.907	287
505.123	247
505.34	251
505.557	259
505.773	237
505.99	241
506.207	234
506.423	241
506.64	250
506.856	243
507.073	214
507.289	224
507.506	231
507.722	204
507.939	226
508.155	218
508.372	207
508.588	211
508.805	215
509.021	221
509.238	203
509.454	196
509.67	187
509.887	180
510.103	190
510.319	161
510.536	180
510.752	170
510.968	160
511.184	173
511.401	156
511.617	167
511.833	164
512.049	183
512.265	158
512.481	186
512.698	181
512.914	164
513.13	176
513.346	175
513.562	180
513.778	190
513.994	179
514.21	176
514.426	158
514.642	168
514.858	160
515.074	171
515.29	189
515.506	191
515.721	182
515.937	178
516.153	155
516.369	167
516.585	175
516.801	177
517.016	190
517.232	194
517.448	213
517.664	219
517.879	195
518.095	217
518.311	210
518.527	209
518.742	211
518.958	187
519.173	219
519.389	207
519.605	208
519.82	191
520.036	210
520.251	190
520.467	194
520.682	183
520.898	170
521.113	158
521.329	163
521.544	160
521.76	174
521.975	175
522.19	166
522.406	170
522.621	184
522.836	184
523.052	193
523.267	192
523.482	194
523.698	212
523.913	189
524.128	201
524.343	231
524.559	242
524.774	209
524.989	237
525.204	222
525.419	210
525.634	196
525.849	212
526.064	208
526.28	182
526.495	163
526.71	128
526.925	161
527.14	152
527.355	144
527.57	168
527.785	162
527.999	175
528.214	198
528.429	197
528.644	220
528.859	244
529.074	274
529.289	271
529.503	275
529.718	251
529.933	196
530.148	189
530.363	174
530.577	163
530.792	158
531.007	152
531.221	154
531.436	151
531.651	163
531.865	131
532.08	159
532.295	166
532.509	149
532.724	159
532.938	183
533.153	180
533.367	220
533.582	219
533.796	229
534.011	187
534.225	170
534.44	160
534.654	166
534.868	161
535.083	179
535.297	190
535.511	198
535.726	172
535.94	184
536.154	167
536.369	149
536.583	163
536.797	160
537.011	164
537.225	139
537.44	164
537.654	169
537.868	169
538.082	159
538.296	184
538.51	183
538.724	187
538.938	231
539.153	231
539.367	243
539.581	183
539.795	180
540.009	186
540.222	184
540.436	179
540.65	204
540.864	234
541.078	250
541.292	283
541.506	294
541.72	324
541.934	363
542.147	355
542.361	322
542.575	311
542.789	274
543.002	243
543.216	226
543.43	213
543.644	235
543.857	261
544.071	263
544.285	312
544.498	296
544.712	292
544.925	287
545.139	307
545.352	297
545.566	303
545.779	314
545.993	307
546.206	318
546.42	314
546.633	316
546.847	327
547.06	333
547.274	334
547.487	335
547.7	351
547.914	313
548.127	328
548.34	332
548.554	306
548.767	314
548.98	304
549.193	308
549.407	312
549.62	312
549.833	304
550.046	303
550.259	311
550.473	303
550.686	289
550.899	284
551.112	278
551.325	248
551.538	249
551.751	231
551.964	225
552.177	270
552.39	274
552.603	280
552.816	304
553.029	303
553.242	306
553.455	329
553.667	322
553.88	318
554.093	290
554.306	302
554.519	286
554.732	297
554.944	287
555.157	270
555.37	298
555.583	282
555.795	261
556.008	263
556.221	254
556.433	259
556.646	270
556.859	259
557.071	278
557.284	255
557.496	278
557.709	259
557.921	256
558.134	243
558.346	259
558.559	244
558.771	243
558.984	267
559.196	248
559.409	234
559.621	227
559.833	234
560.046	238
560.258	235
560.47	218
560.683	227
560.895	226
561.107	236
561.32	247
561.532	234
561.744	236
561.956	259
562.168	239
562.381	232
562.593	220
562.805	221
563.017	213
563.229	237
563.441	229
563.653	214
563.865	212
564.077	216
564.289	224
564.501	219
564.713	209
564.925	222
565.137	219
565.349	210
565.561	196
565.773	222
565.985	228
566.197	228
566.408	241
566.62	230
566.832	237
567.044	254
