Data from SampD_HRD10591_00041.txt Node
Date: Mon Jan 19 11:47:52 EST 2026
User: Yrep
Spectrometer: HR+D1059
Trigger mode: 0
Integration Time (sec): 3.443000E-1
Scans to average: 1
Electric dark correction enabled: true
Nonlinearity correction enabled: false
Boxcar width: 0
XAxis mode: Wavelengths
Number of Pixels in Spectrum: 2048
>>>>>Begin Spectral Data<<<<<
223.165	-29.25
223.4	-29.25
223.635	-29.25
223.869	-28.25
224.104	-25.25
224.338	-1.25
224.573	-22.25
224.808	-11.25
225.042	-17.25
225.277	11.75
225.511	-1.25
225.746	3.75
225.98	1.75
226.215	7.75
226.449	20.75
226.683	27.75
226.918	36.75
227.152	25.75
227.387	32.75
227.621	35.75
227.856	48.75
228.09	26.75
228.324	38.75
228.559	66.75
228.793	61.75
229.027	68.75
229.262	62.75
229.496	65.75
229.73	48.75
229.964	76.75
230.199	68.75
230.433	64.75
230.667	82.75
230.901	68.75
231.136	74.75
231.37	75.75
231.604	75.75
231.838	77.75
232.072	73.75
232.306	78.75
232.541	80.75
232.775	70.75
233.009	75.75
233.243	77.75
233.477	86.75
233.711	82.75
233.945	76.75
234.179	71.75
234.413	93.75
234.647	85.75
234.881	76.75
235.115	71.75
235.349	79.75
235.583	79.75
235.817	86.75
236.051	83.75
236.285	71.75
236.519	65.75
236.753	85.75
236.987	80.75
237.221	75.75
237.455	83.75
237.689	73.75
237.922	74.75
238.156	78.75
238.39	71.75
238.624	83.75
238.858	66.75
239.091	83.75
239.325	61.75
239.559	67.75
239.793	70.75
240.027	92.75
240.26	77.75
240.494	77.75
240.728	64.75
240.961	81.75
241.195	81.75
241.429	56.75
241.662	74.75
241.896	56.75
242.13	81.75
242.363	75.75
242.597	81.75
242.83	82.75
243.064	81.75
243.298	76.75
243.531	60.75
243.765	69.75
243.998	88.75
244.232	92.75
244.465	72.75
244.699	83.75
244.932	71.75
245.166	80.75
245.399	91.75
245.633	87.75
245.866	66.75
246.099	79.75
246.333	65.75
246.566	79.75
246.8	85.75
247.033	73.75
247.266	69.75
247.5	80.75
247.733	66.75
247.966	78.75
248.2	85.75
248.433	82.75
248.666	84.75
248.899	91.75
249.133	66.75
249.366	91.75
249.599	85.75
249.832	83.75
250.066	88.75
250.299	85.75
250.532	94.75
250.765	80.75
250.998	77.75
251.231	72.75
251.465	75.75
251.698	71.75
251.931	81.75
252.164	76.75
252.397	79.75
252.63	71.75
252.863	87.75
253.096	96.75
253.329	84.75
253.562	85.75
253.795	93.75
254.028	70.75
254.261	77.75
254.494	67.75
254.727	89.75
254.96	85.75
255.193	90.75
255.426	81.75
255.659	83.75
255.892	85.75
256.124	84.75
256.357	72.75
256.59	76.75
256.823	83.75
257.056	103.75
257.289	97.75
257.521	83.75
257.754	89.75
257.987	85.75
258.22	90.75
258.452	80.75
258.685	85.75
258.918	77.75
259.151	95.75
259.383	101.75
259.616	79.75
259.849	75.75
260.081	93.75
260.314	89.75
260.547	67.75
260.779	87.75
261.012	82.75
261.244	98.75
261.477	100.75
261.71	79.75
261.942	79.75
262.175	91.75
262.407	87.75
262.64	88.75
262.872	84.75
263.105	90.75
263.337	104.75
263.57	90.75
263.802	83.75
264.035	88.75
264.267	84.75
264.499	87.75
264.732	88.75
264.964	97.75
265.197	83.75
265.429	82.75
265.661	91.75
265.894	100.75
266.126	99.75
266.358	87.75
266.591	86.75
266.823	86.75
267.055	103.75
267.287	89.75
267.52	91.75
267.752	87.75
267.984	98.75
268.216	86.75
268.448	101.75
268.681	92.75
268.913	88.75
269.145	92.75
269.377	81.75
269.609	89.75
269.841	97.75
270.073	97.75
270.306	89.75
270.538	81.75
270.77	88.75
271.002	85.75
271.234	75.75
271.466	95.75
271.698	95.75
271.93	102.75
272.162	88.75
272.394	94.75
272.626	85.75
272.858	91.75
273.09	86.75
273.322	88.75
273.553	86.75
273.785	91.75
274.017	85.75
274.249	94.75
274.481	94.75
274.713	95.75
274.945	101.75
275.176	93.75
275.408	93.75
275.64	93.75
275.872	82.75
276.104	107.75
276.335	102.75
276.567	86.75
276.799	86.75
277.031	94.75
277.262	95.75
277.494	102.75
277.726	99.75
277.957	105.75
278.189	109.75
278.421	87.75
278.652	91.75
278.884	92.75
279.115	84.75
279.347	88.75
279.579	95.75
279.81	88.75
280.042	85.75
280.273	96.75
280.505	96.75
280.736	94.75
280.968	91.75
281.199	107.75
281.431	87.75
281.662	91.75
281.894	88.75
282.125	85.75
282.356	86.75
282.588	102.75
282.819	89.75
283.051	94.75
283.282	86.75
283.513	111.75
283.745	103.75
283.976	95.75
284.207	92.75
284.439	98.75
284.67	106.75
284.901	100.75
285.132	101.75
285.364	94.75
285.595	95.75
285.826	97.75
286.057	112.75
286.288	97.75
286.52	105.75
286.751	93.75
286.982	101.75
287.213	87.75
287.444	97.75
287.675	88.75
287.906	101.75
288.138	103.75
288.369	93.75
288.6	97.75
288.831	98.75
289.062	104.75
289.293	102.75
289.524	94.75
289.755	100.75
289.986	102.75
290.217	105.75
290.448	103.75
290.679	94.75
290.91	102.75
291.141	94.75
291.371	99.75
291.602	115.75
291.833	98.75
292.064	81.75
292.295	100.75
292.526	102.75
292.757	89.75
292.987	99.75
293.218	100.75
293.449	106.75
293.68	119.75
293.91	84.75
294.141	104.75
294.372	86.75
294.603	98.75
294.833	95.75
295.064	98.75
295.295	87.75
295.525	110.75
295.756	106.75
295.987	99.75
296.217	111.75
296.448	96.75
296.679	105.75
296.909	95.75
297.14	100.75
297.37	99.75
297.601	88.75
297.831	99.75
298.062	105.75
298.292	113.75
298.523	104.75
298.753	104.75
298.984	101.75
299.214	99.75
299.445	96.75
299.675	97.75
299.905	101.75
300.136	109.75
300.366	97.75
300.597	106.75
300.827	100.75
301.057	98.75
301.288	108.75
301.518	111.75
301.748	111.75
301.979	149.75
302.209	105.75
302.439	103.75
302.669	112.75
302.9	109.75
303.13	107.75
303.36	104.75
303.59	102.75
303.82	106.75
304.051	111.75
304.281	101.75
304.511	101.75
304.741	86.75
304.971	91.75
305.201	110.75
305.431	98.75
305.661	101.75
305.891	96.75
306.121	103.75
306.352	93.75
306.582	103.75
306.812	78.75
307.042	103.75
307.272	108.75
307.502	103.75
307.731	108.75
307.961	111.75
308.191	97.75
308.421	119.75
308.651	101.75
308.881	107.75
309.111	108.75
309.341	97.75
309.571	115.75
309.8	96.75
310.03	101.75
310.26	102.75
310.49	102.75
310.72	102.75
310.949	102.75
311.179	99.75
311.409	103.75
311.639	99.75
311.868	97.75
312.098	97.75
312.328	100.75
312.557	116.75
312.787	108.75
313.017	103.75
313.246	96.75
313.476	96.75
313.706	101.75
313.935	95.75
314.165	95.75
314.394	110.75
314.624	97.75
314.853	98.75
315.083	101.75
315.312	108.75
315.542	99.75
315.771	104.75
316.001	108.75
316.23	119.75
316.46	112.75
316.689	107.75
316.919	94.75
317.148	102.75
317.377	104.75
317.607	109.75
317.836	105.75
318.065	110.75
318.295	102.75
318.524	106.75
318.753	99.75
318.983	97.75
319.212	101.75
319.441	109.75
319.67	107.75
319.9	105.75
320.129	105.75
320.358	109.75
320.587	91.75
320.816	104.75
321.046	126.75
321.275	117.75
321.504	95.75
321.733	103.75
321.962	116.75
322.191	106.75
322.42	96.75
322.649	111.75
322.878	112.75
323.108	109.75
323.337	110.75
323.566	104.75
323.795	110.75
324.024	105.75
324.253	97.75
324.482	85.75
324.71	103.75
324.939	95.75
325.168	112.75
325.397	110.75
325.626	116.75
325.855	112.75
326.084	94.75
326.313	113.75
326.542	120.75
326.77	104.75
326.999	96.75
327.228	109.75
327.457	92.75
327.686	104.75
327.914	110.75
328.143	126.75
328.372	121.75
328.6	115.75
328.829	100.75
329.058	98.75
329.287	99.75
329.515	92.75
329.744	110.75
329.972	113.75
330.201	105.75
330.43	104.75
330.658	111.75
330.887	103.75
331.115	103.75
331.344	113.75
331.572	116.75
331.801	108.75
332.03	91.75
332.258	116.75
332.486	113.75
332.715	102.75
332.943	112.75
333.172	101.75
333.4	120.75
333.629	120.75
333.857	114.75
334.085	124.75
334.314	117.75
334.542	120.75
334.771	116.75
334.999	110.75
335.227	115.75
335.455	120.75
335.684	108.75
335.912	123.75
336.14	122.75
336.369	110.75
336.597	113.75
336.825	114.75
337.053	102.75
337.281	118.75
337.51	108.75
337.738	107.75
337.966	112.75
338.194	104.75
338.422	114.75
338.65	109.75
338.878	117.75
339.106	114.75
339.334	120.75
339.562	108.75
339.79	99.75
340.018	106.75
340.246	98.75
340.474	111.75
340.702	108.75
340.93	104.75
341.158	88.75
341.386	95.75
341.614	103.75
341.842	117.75
342.07	116.75
342.298	99.75
342.526	103.75
342.754	91.75
342.981	105.75
343.209	119.75
343.437	135.75
343.665	113.75
343.893	111.75
344.12	135.75
344.348	113.75
344.576	117.75
344.804	115.75
345.031	104.75
345.259	103.75
345.487	95.75
345.714	120.75
345.942	104.75
346.17	107.75
346.397	110.75
346.625	105.75
346.853	112.75
347.08	108.75
347.308	111.75
347.535	110.75
347.763	108.75
347.99	99.75
348.218	109.75
348.445	100.75
348.673	106.75
348.9	115.75
349.128	116.75
349.355	98.75
349.583	114.75
349.81	105.75
350.037	91.75
350.265	105.75
350.492	93.75
350.72	105.75
350.947	108.75
351.174	123.75
351.402	95.75
351.629	111.75
351.856	108.75
352.083	107.75
352.311	111.75
352.538	87.75
352.765	104.75
352.992	132.75
353.22	102.75
353.447	104.75
353.674	127.75
353.901	116.75
354.128	110.75
354.355	117.75
354.583	116.75
354.81	121.75
355.037	95.75
355.264	114.75
355.491	122.75
355.718	99.75
355.945	104.75
356.172	97.75
356.399	105.75
356.626	93.75
356.853	91.75
357.08	120.75
357.307	117.75
357.534	126.75
357.761	92.75
357.988	104.75
358.215	110.75
358.441	96.75
358.668	94.75
358.895	109.75
359.122	98.75
359.349	118.75
359.576	100.75
359.802	96.75
360.029	86.75
360.256	113.75
360.483	113.75
360.709	97.75
360.936	118.75
361.163	103.75
361.39	100.75
361.616	109.75
361.843	115.75
362.07	115.75
362.296	103.75
362.523	102.75
362.749	104.75
362.976	103.75
363.203	114.75
363.429	103.75
363.656	112.75
363.882	100.75
364.109	121.75
364.335	96.75
364.562	103.75
364.788	93.75
365.015	100.75
365.241	109.75
365.468	112.75
365.694	104.75
365.92	120.75
366.147	102.75
366.373	104.75
366.599	97.75
366.826	120.75
367.052	109.75
367.278	101.75
367.505	101.75
367.731	125.75
367.957	102.75
368.184	106.75
368.41	109.75
368.636	102.75
368.862	104.75
369.089	115.75
369.315	112.75
369.541	110.75
369.767	107.75
369.993	116.75
370.219	110.75
370.445	106.75
370.672	102.75
370.898	113.75
371.124	112.75
371.35	103.75
371.576	106.75
371.802	120.75
372.028	104.75
372.254	115.75
372.48	114.75
372.706	108.75
372.932	108.75
373.158	108.75
373.384	116.75
373.61	132.75
373.835	119.75
374.061	122.75
374.287	115.75
374.513	111.75
374.739	126.75
374.965	115.75
375.191	136.75
375.416	114.75
375.642	116.75
375.868	125.75
376.094	113.75
376.319	123.75
376.545	121.75
376.771	105.75
376.997	120.75
377.222	123.75
377.448	116.75
377.674	113.75
377.899	125.75
378.125	126.75
378.35	118.75
378.576	124.75
378.802	114.75
379.027	141.75
379.253	128.75
379.478	109.75
379.704	103.75
379.929	115.75
380.155	102.75
380.38	109.75
380.606	115.75
380.831	124.75
381.057	151.75
381.282	115.75
381.507	122.75
381.733	116.75
381.958	119.75
382.184	122.75
382.409	115.75
382.634	129.75
382.86	109.75
383.085	124.75
383.31	137.75
383.535	138.75
383.761	127.75
383.986	124.75
384.211	117.75
384.436	136.75
384.662	127.75
384.887	123.75
385.112	113.75
385.337	144.75
385.562	142.75
385.787	125.75
386.013	134.75
386.238	133.75
386.463	130.75
386.688	163.75
386.913	131.75
387.138	123.75
387.363	124.75
387.588	144.75
387.813	132.75
388.038	126.75
388.263	143.75
388.488	139.75
388.713	142.75
388.938	144.75
389.163	132.75
389.387	139.75
389.612	119.75
389.837	139.75
390.062	137.75
390.287	135.75
390.512	142.75
390.736	135.75
390.961	141.75
391.186	143.75
391.411	140.75
391.636	159.75
391.86	135.75
392.085	145.75
392.31	145.75
392.534	134.75
392.759	135.75
392.984	147.75
393.208	149.75
393.433	137.75
393.658	126.75
393.882	135.75
394.107	128.75
394.331	144.75
394.556	139.75
394.78	144.75
395.005	142.75
395.229	142.75
395.454	157.75
395.678	140.75
395.903	158.75
396.127	145.75
396.352	156.75
396.576	161.75
396.801	167.75
397.025	146.75
397.249	162.75
397.474	158.75
397.698	160.75
397.922	149.75
398.147	164.75
398.371	143.75
398.595	169.75
398.82	163.75
399.044	161.75
399.268	168.75
399.492	169.75
399.717	209.75
399.941	176.75
400.165	161.75
400.389	170.75
400.613	170.75
400.837	149.75
401.062	158.75
401.286	155.75
401.51	168.75
401.734	159.75
401.958	171.75
402.182	168.75
402.406	157.75
402.63	179.75
402.854	162.75
403.078	174.75
403.302	175.75
403.526	150.75
403.75	189.75
403.974	183.75
404.198	184.75
404.422	173.75
404.645	177.75
404.869	164.75
405.093	191.75
405.317	173.75
405.541	161.75
405.765	186.75
405.988	166.75
406.212	183.75
406.436	164.75
406.66	175.75
406.883	185.75
407.107	186.75
407.331	193.75
407.555	191.75
407.778	172.75
408.002	183.75
408.226	168.75
408.449	178.75
408.673	172.75
408.896	185.75
409.12	175.75
409.344	187.75
409.567	169.75
409.791	180.75
410.014	165.75
410.238	173.75
410.461	179.75
410.685	174.75
410.908	159.75
411.132	179.75
411.355	174.75
411.578	182.75
411.802	186.75
412.025	169.75
412.249	170.75
412.472	168.75
412.695	188.75
412.919	175.75
413.142	173.75
413.365	177.75
413.589	168.75
413.812	162.75
414.035	168.75
414.258	170.75
414.482	182.75
414.705	180.75
414.928	185.75
415.151	175.75
415.374	168.75
415.597	171.75
415.821	185.75
416.044	188.75
416.267	179.75
416.49	175.75
416.713	179.75
416.936	184.75
417.159	176.75
417.382	183.75
417.605	165.75
417.828	179.75
418.051	185.75
418.274	203.75
418.497	179.75
418.72	174.75
418.943	209.75
419.166	193.75
419.389	202.75
419.611	186.75
419.834	167.75
420.057	191.75
420.28	189.75
420.503	188.75
420.726	179.75
420.948	180.75
421.171	182.75
421.394	174.75
421.617	174.75
421.839	181.75
422.062	196.75
422.285	186.75
422.507	209.75
422.73	199.75
422.953	179.75
423.175	175.75
423.398	177.75
423.621	171.75
423.843	188.75
424.066	198.75
424.288	185.75
424.511	203.75
424.733	196.75
424.956	185.75
425.178	184.75
425.401	204.75
425.623	196.75
425.846	167.75
426.068	185.75
426.291	162.75
426.513	175.75
426.735	175.75
426.958	161.75
427.18	168.75
427.402	158.75
427.625	161.75
427.847	172.75
428.069	163.75
428.292	180.75
428.514	162.75
428.736	174.75
428.958	185.75
429.181	154.75
429.403	161.75
429.625	165.75
429.847	171.75
430.069	169.75
430.292	176.75
430.514	168.75
430.736	179.75
430.958	169.75
431.18	155.75
431.402	155.75
431.624	156.75
431.846	143.75
432.068	151.75
432.29	158.75
432.512	155.75
432.734	152.75
432.956	157.75
433.178	197.75
433.4	192.75
433.622	177.75
433.844	157.75
434.066	145.75
434.287	139.75
434.509	141.75
434.731	132.75
434.953	156.75
435.175	152.75
435.397	160.75
435.618	150.75
435.84	152.75
436.062	174.75
436.284	173.75
436.505	174.75
436.727	188.75
436.949	171.75
437.17	166.75
437.392	161.75
437.614	152.75
437.835	166.75
438.057	147.75
438.278	148.75
438.5	159.75
438.721	170.75
438.943	199.75
439.165	183.75
439.386	190.75
439.608	189.75
439.829	195.75
440.05	182.75
440.272	184.75
440.493	167.75
440.715	181.75
440.936	208.75
441.158	190.75
441.379	176.75
441.6	189.75
441.822	192.75
442.043	196.75
442.264	177.75
442.486	180.75
442.707	200.75
442.928	189.75
443.149	192.75
443.371	188.75
443.592	187.75
443.813	182.75
444.034	197.75
444.255	184.75
444.476	189.75
444.698	204.75
444.919	214.75
445.14	467.75
445.361	331.75
445.582	215.75
445.803	198.75
446.024	189.75
446.245	208.75
446.466	209.75
446.687	193.75
446.908	207.75
447.129	193.75
447.35	191.75
447.571	200.75
447.792	181.75
448.013	189.75
448.234	203.75
448.455	190.75
448.675	193.75
448.896	172.75
449.117	164.75
449.338	163.75
449.559	173.75
449.779	182.75
450	164.75
450.221	172.75
450.442	179.75
450.662	177.75
450.883	176.75
451.104	175.75
451.324	177.75
451.545	181.75
451.766	172.75
451.986	165.75
452.207	174.75
452.428	151.75
452.648	155.75
452.869	158.75
453.089	155.75
453.31	145.75
453.53	133.75
453.751	126.75
453.971	119.75
454.192	142.75
454.412	138.75
454.633	152.75
454.853	155.75
455.073	145.75
455.294	145.75
455.514	162.75
455.734	160.75
455.955	146.75
456.175	160.75
456.395	144.75
456.616	133.75
456.836	129.75
457.056	141.75
457.276	128.75
457.497	121.75
457.717	136.75
457.937	144.75
458.157	131.75
458.377	130.75
458.598	120.75
458.818	115.75
459.038	125.75
459.258	124.75
459.478	117.75
459.698	135.75
459.918	132.75
460.138	148.75
460.358	163.75
460.578	156.75
460.798	160.75
461.018	163.75
461.238	148.75
461.458	170.75
461.678	163.75
461.898	165.75
462.118	168.75
462.338	160.75
462.558	187.75
462.777	164.75
462.997	171.75
463.217	180.75
463.437	179.75
463.657	151.75
463.876	155.75
464.096	153.75
464.316	162.75
464.536	147.75
464.755	171.75
464.975	143.75
465.195	150.75
465.414	167.75
465.634	161.75
465.854	168.75
466.073	155.75
466.293	163.75
466.512	164.75
466.732	156.75
466.951	167.75
467.171	170.75
467.391	167.75
467.61	160.75
467.829	167.75
468.049	157.75
468.268	151.75
468.488	167.75
468.707	167.75
468.927	185.75
469.146	179.75
469.365	168.75
469.585	166.75
469.804	163.75
470.023	180.75
470.243	179.75
470.462	195.75
470.681	170.75
470.901	191.75
471.12	177.75
471.339	185.75
471.558	170.75
471.777	182.75
471.997	168.75
472.216	167.75
472.435	129.75
472.654	136.75
472.873	146.75
473.092	139.75
473.311	166.75
473.53	157.75
473.749	141.75
473.968	180.75
474.187	143.75
474.406	149.75
474.625	167.75
474.844	167.75
475.063	175.75
475.282	159.75
475.501	147.75
475.72	170.75
475.939	143.75
476.158	156.75
476.377	157.75
476.596	146.75
476.814	136.75
477.033	154.75
477.252	155.75
477.471	162.75
477.69	152.75
477.908	174.75
478.127	186.75
478.346	165.75
478.564	175.75
478.783	168.75
479.002	178.75
479.22	175.75
479.439	177.75
479.658	173.75
479.876	167.75
480.095	153.75
480.313	167.75
480.532	179.75
480.751	150.75
480.969	130.75
481.188	128.75
481.406	127.75
481.624	131.75
481.843	121.75
482.061	130.75
482.28	136.75
482.498	140.75
482.717	135.75
482.935	175.75
483.153	180.75
483.372	194.75
483.59	177.75
483.808	170.75
484.027	187.75
484.245	168.75
484.463	158.75
484.681	199.75
484.9	180.75
485.118	184.75
485.336	152.75
485.554	163.75
485.772	135.75
485.99	153.75
486.209	146.75
486.427	151.75
486.645	155.75
486.863	180.75
487.081	193.75
487.299	166.75
487.517	180.75
487.735	203.75
487.953	219.75
488.171	216.75
488.389	212.75
488.607	197.75
488.825	174.75
489.043	155.75
489.261	184.75
489.479	177.75
489.696	166.75
489.914	182.75
490.132	166.75
490.35	196.75
490.568	213.75
490.786	219.75
491.003	229.75
491.221	236.75
491.439	240.75
491.657	246.75
491.874	271.75
492.092	267.75
492.31	264.75
492.527	262.75
492.745	236.75
492.963	251.75
493.18	239.75
493.398	243.75
493.615	232.75
493.833	236.75
494.05	237.75
494.268	227.75
494.485	232.75
494.703	237.75
494.92	225.75
495.138	217.75
495.355	220.75
495.573	226.75
495.79	208.75
496.008	232.75
496.225	225.75
496.442	209.75
496.66	212.75
496.877	221.75
497.094	227.75
497.312	207.75
497.529	213.75
497.746	213.75
497.963	185.75
498.181	203.75
498.398	183.75
498.615	185.75
498.832	187.75
499.049	177.75
499.267	206.75
499.484	223.75
499.701	246.75
499.918	260.75
500.135	274.75
500.352	283.75
500.569	296.75
500.786	309.75
501.003	281.75
501.22	271.75
501.437	238.75
501.654	230.75
501.871	212.75
502.088	214.75
502.305	197.75
502.522	188.75
502.739	189.75
502.956	179.75
503.172	197.75
503.389	176.75
503.606	171.75
503.823	165.75
504.04	170.75
504.256	167.75
504.473	169.75
504.69	168.75
504.907	193.75
505.123	184.75
505.34	171.75
505.557	176.75
505.773	183.75
505.99	166.75
506.207	158.75
506.423	163.75
506.64	148.75
506.856	142.75
507.073	157.75
