Data from SampD_HRD10591_00097.txt Node
Date: Mon Jan 19 11:48:11 EST 2026
User: Yrep
Spectrometer: HR+D1059
Trigger mode: 0
Integration Time (sec): 3.443000E-1
Scans to average: 1
Electric dark correction enabled: true
Nonlinearity correction enabled: false
Boxcar width: 0
XAxis mode: Wavelengths
Number of Pixels in Spectrum: 2048
>>>>>Begin Spectral Data<<<<<
223.165	-20.31
223.4	-20.31
223.635	-20.31
223.869	-22.31
224.104	-31.31
224.338	-7.31
224.573	-17.31
224.808	-11.31
225.042	-0.31
225.277	-2.31
225.511	1.69
225.746	5.69
225.98	-4.31
226.215	24.69
226.449	14.69
226.683	10.69
226.918	26.69
227.152	32.69
227.387	38.69
227.621	54.69
227.856	57.69
228.09	41.69
228.324	51.69
228.559	69.69
228.793	59.69
229.027	62.69
229.262	83.69
229.496	75.69
229.73	90.69
229.964	74.69
230.199	81.69
230.433	82.69
230.667	79.69
230.901	93.69
231.136	97.69
231.37	92.69
231.604	94.69
231.838	85.69
232.072	75.69
232.306	102.69
232.541	91.69
232.775	98.69
233.009	93.69
233.243	82.69
233.477	78.69
233.711	97.69
233.945	93.69
234.179	93.69
234.413	81.69
234.647	83.69
234.881	82.69
235.115	74.69
235.349	93.69
235.583	77.69
235.817	83.69
236.051	74.69
236.285	73.69
236.519	81.69
236.753	100.69
236.987	92.69
237.221	79.69
237.455	88.69
237.689	92.69
237.922	82.69
238.156	91.69
238.39	82.69
238.624	79.69
238.858	87.69
239.091	99.69
239.325	95.69
239.559	77.69
239.793	77.69
240.027	84.69
240.26	87.69
240.494	96.69
240.728	81.69
240.961	93.69
241.195	92.69
241.429	91.69
241.662	89.69
241.896	84.69
242.13	90.69
242.363	70.69
242.597	92.69
242.83	84.69
243.064	87.69
243.298	94.69
243.531	84.69
243.765	95.69
243.998	98.69
244.232	102.69
244.465	89.69
244.699	85.69
244.932	82.69
245.166	70.69
245.399	95.69
245.633	85.69
245.866	86.69
246.099	72.69
246.333	83.69
246.566	81.69
246.8	93.69
247.033	74.69
247.266	91.69
247.5	87.69
247.733	91.69
247.966	86.69
248.2	85.69
248.433	107.69
248.666	102.69
248.899	99.69
249.133	80.69
249.366	106.69
249.599	86.69
249.832	85.69
250.066	104.69
250.299	102.69
250.532	99.69
250.765	97.69
250.998	92.69
251.231	84.69
251.465	102.69
251.698	102.69
251.931	102.69
252.164	96.69
252.397	85.69
252.63	87.69
252.863	104.69
253.096	92.69
253.329	103.69
253.562	109.69
253.795	92.69
254.028	98.69
254.261	90.69
254.494	80.69
254.727	93.69
254.96	103.69
255.193	102.69
255.426	86.69
255.659	84.69
255.892	104.69
256.124	93.69
256.357	98.69
256.59	111.69
256.823	96.69
257.056	84.69
257.289	92.69
257.521	92.69
257.754	89.69
257.987	84.69
258.22	114.69
258.452	100.69
258.685	92.69
258.918	88.69
259.151	85.69
259.383	91.69
259.616	82.69
259.849	85.69
260.081	89.69
260.314	91.69
260.547	89.69
260.779	111.69
261.012	108.69
261.244	97.69
261.477	112.69
261.71	99.69
261.942	106.69
262.175	92.69
262.407	91.69
262.64	115.69
262.872	107.69
263.105	106.69
263.337	122.69
263.57	96.69
263.802	72.69
264.035	97.69
264.267	98.69
264.499	91.69
264.732	94.69
264.964	111.69
265.197	105.69
265.429	102.69
265.661	119.69
265.894	111.69
266.126	119.69
266.358	104.69
266.591	100.69
266.823	97.69
267.055	109.69
267.287	106.69
267.52	93.69
267.752	107.69
267.984	102.69
268.216	107.69
268.448	105.69
268.681	106.69
268.913	111.69
269.145	109.69
269.377	106.69
269.609	97.69
269.841	102.69
270.073	100.69
270.306	105.69
270.538	109.69
270.77	109.69
271.002	121.69
271.234	98.69
271.466	121.69
271.698	109.69
271.93	110.69
272.162	107.69
272.394	119.69
272.626	103.69
272.858	114.69
273.09	106.69
273.322	101.69
273.553	100.69
273.785	103.69
274.017	118.69
274.249	110.69
274.481	120.69
274.713	103.69
274.945	103.69
275.176	97.69
275.408	117.69
275.64	113.69
275.872	99.69
276.104	111.69
276.335	105.69
276.567	95.69
276.799	107.69
277.031	98.69
277.262	110.69
277.494	113.69
277.726	124.69
277.957	108.69
278.189	93.69
278.421	97.69
278.652	93.69
278.884	114.69
279.115	111.69
279.347	112.69
279.579	110.69
279.81	97.69
280.042	107.69
280.273	111.69
280.505	114.69
280.736	105.69
280.968	111.69
281.199	111.69
281.431	112.69
281.662	124.69
281.894	109.69
282.125	107.69
282.356	129.69
282.588	106.69
282.819	121.69
283.051	109.69
283.282	114.69
283.513	130.69
283.745	127.69
283.976	106.69
284.207	123.69
284.439	110.69
284.67	110.69
284.901	122.69
285.132	108.69
285.364	115.69
285.595	119.69
285.826	114.69
286.057	126.69
286.288	119.69
286.52	125.69
286.751	119.69
286.982	116.69
287.213	119.69
287.444	110.69
287.675	107.69
287.906	130.69
288.138	121.69
288.369	114.69
288.6	119.69
288.831	102.69
289.062	126.69
289.293	110.69
289.524	133.69
289.755	130.69
289.986	117.69
290.217	115.69
290.448	124.69
290.679	134.69
290.91	122.69
291.141	125.69
291.371	111.69
291.602	114.69
291.833	123.69
292.064	120.69
292.295	141.69
292.526	111.69
292.757	117.69
292.987	123.69
293.218	122.69
293.449	140.69
293.68	124.69
293.91	123.69
294.141	120.69
294.372	127.69
294.603	136.69
294.833	133.69
295.064	123.69
295.295	115.69
295.525	112.69
295.756	112.69
295.987	119.69
296.217	117.69
296.448	131.69
296.679	125.69
296.909	112.69
297.14	131.69
297.37	133.69
297.601	120.69
297.831	114.69
298.062	123.69
298.292	136.69
298.523	140.69
298.753	130.69
298.984	122.69
299.214	127.69
299.445	121.69
299.675	114.69
299.905	148.69
300.136	119.69
300.366	122.69
300.597	140.69
300.827	129.69
301.057	126.69
301.288	124.69
301.518	129.69
301.748	132.69
301.979	167.69
302.209	120.69
302.439	104.69
302.669	127.69
302.9	129.69
303.13	114.69
303.36	126.69
303.59	115.69
303.82	142.69
304.051	138.69
304.281	134.69
304.511	133.69
304.741	114.69
304.971	137.69
305.201	129.69
305.431	126.69
305.661	122.69
305.891	145.69
306.121	125.69
306.352	119.69
306.582	131.69
306.812	122.69
307.042	123.69
307.272	127.69
307.502	124.69
307.731	142.69
307.961	129.69
308.191	122.69
308.421	124.69
308.651	118.69
308.881	137.69
309.111	124.69
309.341	135.69
309.571	126.69
309.8	118.69
310.03	135.69
310.26	117.69
310.49	126.69
310.72	113.69
310.949	126.69
311.179	121.69
311.409	125.69
311.639	112.69
311.868	129.69
312.098	131.69
312.328	121.69
312.557	118.69
312.787	123.69
313.017	140.69
313.246	149.69
313.476	116.69
313.706	128.69
313.935	141.69
314.165	134.69
314.394	130.69
314.624	123.69
314.853	136.69
315.083	126.69
315.312	114.69
315.542	129.69
315.771	123.69
316.001	118.69
316.23	111.69
316.46	136.69
316.689	127.69
316.919	123.69
317.148	142.69
317.377	142.69
317.607	130.69
317.836	141.69
318.065	133.69
318.295	139.69
318.524	119.69
318.753	121.69
318.983	129.69
319.212	138.69
319.441	122.69
319.67	139.69
319.9	127.69
320.129	126.69
320.358	136.69
320.587	133.69
320.816	123.69
321.046	123.69
321.275	128.69
321.504	119.69
321.733	131.69
321.962	146.69
322.191	123.69
322.42	126.69
322.649	140.69
322.878	126.69
323.108	130.69
323.337	124.69
323.566	134.69
323.795	130.69
324.024	134.69
324.253	123.69
324.482	138.69
324.71	121.69
324.939	135.69
325.168	131.69
325.397	130.69
325.626	113.69
325.855	130.69
326.084	129.69
326.313	138.69
326.542	130.69
326.77	141.69
326.999	138.69
327.228	142.69
327.457	137.69
327.686	136.69
327.914	145.69
328.143	152.69
328.372	141.69
328.6	137.69
328.829	130.69
329.058	136.69
329.287	128.69
329.515	146.69
329.744	140.69
329.972	133.69
330.201	130.69
330.43	154.69
330.658	133.69
330.887	138.69
331.115	138.69
331.344	124.69
331.572	147.69
331.801	138.69
332.03	126.69
332.258	142.69
332.486	139.69
332.715	139.69
332.943	137.69
333.172	161.69
333.4	148.69
333.629	161.69
333.857	151.69
334.085	148.69
334.314	150.69
334.542	150.69
334.771	163.69
334.999	147.69
335.227	129.69
335.455	153.69
335.684	150.69
335.912	161.69
336.14	152.69
336.369	158.69
336.597	151.69
336.825	154.69
337.053	133.69
337.281	151.69
337.51	143.69
337.738	154.69
337.966	137.69
338.194	141.69
338.422	142.69
338.65	146.69
338.878	140.69
339.106	151.69
339.334	157.69
339.562	123.69
339.79	145.69
340.018	136.69
340.246	143.69
340.474	140.69
340.702	131.69
340.93	146.69
341.158	132.69
341.386	140.69
341.614	142.69
341.842	133.69
342.07	119.69
342.298	129.69
342.526	145.69
342.754	140.69
342.981	134.69
343.209	133.69
343.437	174.69
343.665	163.69
343.893	150.69
344.12	152.69
344.348	170.69
344.576	135.69
344.804	145.69
345.031	135.69
345.259	145.69
345.487	133.69
345.714	140.69
345.942	145.69
346.17	152.69
346.397	135.69
346.625	127.69
346.853	147.69
347.08	140.69
347.308	133.69
347.535	136.69
347.763	153.69
347.99	130.69
348.218	139.69
348.445	151.69
348.673	142.69
348.9	148.69
349.128	145.69
349.355	131.69
349.583	139.69
349.81	132.69
350.037	138.69
350.265	139.69
350.492	142.69
350.72	144.69
350.947	129.69
351.174	130.69
351.402	136.69
351.629	135.69
351.856	130.69
352.083	146.69
352.311	145.69
352.538	124.69
352.765	136.69
352.992	152.69
353.22	129.69
353.447	140.69
353.674	139.69
353.901	138.69
354.128	139.69
354.355	125.69
354.583	131.69
354.81	138.69
355.037	133.69
355.264	145.69
355.491	137.69
355.718	134.69
355.945	131.69
356.172	136.69
356.399	126.69
356.626	126.69
356.853	134.69
357.08	140.69
357.307	149.69
357.534	114.69
357.761	138.69
357.988	134.69
358.215	132.69
358.441	132.69
358.668	141.69
358.895	135.69
359.122	144.69
359.349	141.69
359.576	122.69
359.802	135.69
360.029	127.69
360.256	136.69
360.483	130.69
360.709	143.69
360.936	132.69
361.163	125.69
361.39	152.69
361.616	134.69
361.843	136.69
362.07	132.69
362.296	135.69
362.523	135.69
362.749	133.69
362.976	117.69
363.203	150.69
363.429	129.69
363.656	148.69
363.882	135.69
364.109	131.69
364.335	140.69
364.562	134.69
364.788	126.69
365.015	143.69
365.241	146.69
365.468	126.69
365.694	139.69
365.92	131.69
366.147	145.69
366.373	138.69
366.599	115.69
366.826	138.69
367.052	121.69
367.278	121.69
367.505	135.69
367.731	152.69
367.957	137.69
368.184	134.69
368.41	144.69
368.636	148.69
368.862	153.69
369.089	151.69
369.315	146.69
369.541	146.69
369.767	136.69
369.993	158.69
370.219	139.69
370.445	147.69
370.672	154.69
370.898	134.69
371.124	148.69
371.35	145.69
371.576	157.69
371.802	150.69
372.028	150.69
372.254	156.69
372.48	164.69
372.706	146.69
372.932	151.69
373.158	150.69
373.384	168.69
373.61	149.69
373.835	158.69
374.061	159.69
374.287	165.69
374.513	152.69
374.739	158.69
374.965	178.69
375.191	164.69
375.416	147.69
375.642	182.69
375.868	158.69
376.094	161.69
376.319	168.69
376.545	159.69
376.771	157.69
376.997	150.69
377.222	167.69
377.448	149.69
377.674	157.69
377.899	177.69
378.125	161.69
378.35	169.69
378.576	170.69
378.802	162.69
379.027	176.69
379.253	175.69
379.478	157.69
379.704	159.69
379.929	173.69
380.155	171.69
380.38	163.69
380.606	158.69
380.831	170.69
381.057	176.69
381.282	169.69
381.507	172.69
381.733	174.69
381.958	164.69
382.184	165.69
382.409	157.69
382.634	191.69
382.86	181.69
383.085	175.69
383.31	184.69
383.535	170.69
383.761	167.69
383.986	193.69
384.211	180.69
384.436	185.69
384.662	173.69
384.887	180.69
385.112	173.69
385.337	182.69
385.562	183.69
385.787	189.69
386.013	187.69
386.238	199.69
386.463	186.69
386.688	229.69
386.913	190.69
387.138	189.69
387.363	207.69
387.588	189.69
387.813	201.69
388.038	192.69
388.263	196.69
388.488	210.69
388.713	196.69
388.938	185.69
389.163	188.69
389.387	194.69
389.612	194.69
389.837	193.69
390.062	219.69
390.287	198.69
390.512	179.69
390.736	202.69
390.961	191.69
391.186	204.69
391.411	204.69
391.636	210.69
391.86	206.69
392.085	218.69
392.31	196.69
392.534	213.69
392.759	219.69
392.984	209.69
393.208	217.69
393.433	189.69
393.658	202.69
393.882	203.69
394.107	213.69
394.331	208.69
394.556	227.69
394.78	218.69
395.005	218.69
395.229	224.69
395.454	233.69
395.678	215.69
395.903	226.69
396.127	239.69
396.352	216.69
396.576	222.69
396.801	207.69
397.025	237.69
397.249	230.69
397.474	239.69
397.698	222.69
397.922	220.69
398.147	219.69
398.371	229.69
398.595	234.69
398.82	241.69
399.044	243.69
399.268	248.69
399.492	284.69
399.717	299.69
399.941	316.69
400.165	286.69
400.389	266.69
400.613	251.69
400.837	238.69
401.062	226.69
401.286	236.69
401.51	238.69
401.734	226.69
401.958	256.69
402.182	260.69
402.406	257.69
402.63	237.69
402.854	235.69
403.078	257.69
403.302	249.69
403.526	263.69
403.75	280.69
403.974	279.69
404.198	286.69
404.422	264.69
404.645	277.69
404.869	277.69
405.093	287.69
405.317	259.69
405.541	276.69
405.765	269.69
405.988	252.69
406.212	280.69
406.436	275.69
406.66	277.69
406.883	278.69
407.107	270.69
407.331	289.69
407.555	287.69
407.778	299.69
408.002	307.69
408.226	279.69
408.449	276.69
408.673	275.69
408.896	283.69
409.12	282.69
409.344	270.69
409.567	251.69
409.791	283.69
410.014	275.69
410.238	285.69
410.461	286.69
410.685	287.69
410.908	265.69
411.132	277.69
411.355	262.69
411.578	285.69
411.802	262.69
412.025	267.69
412.249	280.69
412.472	264.69
412.695	285.69
412.919	270.69
413.142	255.69
413.365	255.69
413.589	260.69
413.812	285.69
414.035	264.69
414.258	251.69
414.482	245.69
414.705	278.69
414.928	263.69
415.151	271.69
415.374	261.69
415.597	285.69
415.821	260.69
416.044	275.69
416.267	283.69
416.49	271.69
416.713	261.69
416.936	270.69
417.159	255.69
417.382	268.69
417.605	283.69
417.828	259.69
418.051	273.69
418.274	287.69
418.497	273.69
418.72	287.69
418.943	284.69
419.166	296.69
419.389	306.69
419.611	281.69
419.834	296.69
420.057	289.69
420.28	292.69
420.503	290.69
420.726	278.69
420.948	266.69
421.171	259.69
421.394	283.69
421.617	307.69
421.839	303.69
422.062	298.69
422.285	279.69
422.507	282.69
422.73	278.69
422.953	281.69
423.175	275.69
423.398	283.69
423.621	281.69
423.843	306.69
424.066	294.69
424.288	324.69
424.511	308.69
424.733	315.69
424.956	307.69
425.178	306.69
425.401	304.69
425.623	284.69
425.846	301.69
426.068	275.69
426.291	268.69
426.513	262.69
426.735	263.69
426.958	256.69
427.18	270.69
427.402	268.69
427.625	271.69
427.847	277.69
428.069	287.69
428.292	249.69
428.514	260.69
428.736	263.69
428.958	267.69
429.181	259.69
429.403	260.69
429.625	263.69
429.847	262.69
430.069	262.69
430.292	265.69
430.514	240.69
430.736	268.69
430.958	270.69
431.18	251.69
431.402	258.69
431.624	258.69
431.846	223.69
432.068	198.69
432.29	199.69
432.512	220.69
432.734	248.69
432.956	281.69
433.178	293.69
433.4	280.69
433.622	293.69
433.844	277.69
434.066	225.69
434.287	217.69
434.509	206.69
434.731	205.69
434.953	242.69
435.175	257.69
435.397	264.69
435.618	239.69
435.84	221.69
436.062	246.69
436.284	251.69
436.505	274.69
436.727	268.69
436.949	271.69
437.17	277.69
437.392	264.69
437.614	236.69
437.835	215.69
438.057	222.69
438.278	238.69
438.5	252.69
438.721	273.69
438.943	279.69
439.165	305.69
439.386	284.69
439.608	301.69
439.829	300.69
440.05	310.69
440.272	276.69
440.493	293.69
440.715	301.69
440.936	299.69
441.158	296.69
441.379	303.69
441.6	318.69
441.822	328.69
442.043	308.69
442.264	307.69
442.486	287.69
442.707	286.69
442.928	288.69
443.149	302.69
443.371	303.69
443.592	287.69
443.813	289.69
444.034	311.69
444.255	311.69
444.476	303.69
444.698	319.69
444.919	341.69
445.14	587.69
445.361	435.69
445.582	317.69
445.803	293.69
446.024	315.69
446.245	316.69
446.466	299.69
446.687	305.69
446.908	327.69
447.129	332.69
447.35	319.69
447.571	310.69
447.792	294.69
448.013	281.69
448.234	268.69
448.455	290.69
448.675	289.69
448.896	288.69
449.117	292.69
449.338	280.69
449.559	275.69
449.779	294.69
450	280.69
450.221	265.69
450.442	267.69
450.662	262.69
450.883	282.69
451.104	266.69
451.324	281.69
451.545	266.69
451.766	268.69
451.986	255.69
452.207	268.69
452.428	234.69
452.648	251.69
452.869	226.69
453.089	223.69
453.31	220.69
453.53	212.69
453.751	209.69
453.971	208.69
454.192	184.69
454.412	193.69
454.633	225.69
454.853	228.69
455.073	239.69
455.294	231.69
455.514	248.69
455.734	244.69
455.955	219.69
456.175	230.69
456.395	193.69
456.616	223.69
456.836	211.69
457.056	205.69
457.276	190.69
457.497	180.69
457.717	184.69
457.937	189.69
458.157	193.69
458.377	186.69
458.598	204.69
458.818	186.69
459.038	170.69
459.258	193.69
459.478	169.69
459.698	176.69
459.918	205.69
460.138	206.69
460.358	223.69
460.578	241.69
460.798	241.69
461.018	246.69
461.238	257.69
461.458	236.69
461.678	244.69
461.898	270.69
462.118	237.69
462.338	249.69
462.558	236.69
462.777	246.69
462.997	254.69
463.217	289.69
463.437	277.69
463.657	253.69
463.876	244.69
464.096	261.69
464.316	241.69
464.536	265.69
464.755	270.69
464.975	249.69
465.195	251.69
465.414	253.69
465.634	234.69
465.854	222.69
466.073	255.69
466.293	244.69
466.512	262.69
466.732	251.69
466.951	270.69
467.171	252.69
467.391	270.69
467.61	233.69
467.829	255.69
468.049	251.69
468.268	257.69
468.488	266.69
468.707	261.69
468.927	257.69
469.146	262.69
469.365	290.69
469.585	266.69
469.804	254.69
470.023	284.69
470.243	297.69
470.462	278.69
470.681	281.69
470.901	291.69
471.12	284.69
471.339	270.69
471.558	279.69
471.777	281.69
471.997	278.69
472.216	265.69
472.435	213.69
472.654	202.69
472.873	210.69
473.092	237.69
473.311	243.69
473.53	247.69
473.749	252.69
473.968	247.69
474.187	231.69
474.406	236.69
474.625	245.69
474.844	261.69
475.063	238.69
475.282	235.69
475.501	224.69
475.72	230.69
475.939	243.69
476.158	228.69
476.377	239.69
476.596	245.69
476.814	235.69
477.033	206.69
477.252	221.69
477.471	245.69
477.69	263.69
477.908	261.69
478.127	292.69
478.346	274.69
478.564	274.69
478.783	283.69
479.002	294.69
479.22	299.69
479.439	270.69
479.658	254.69
479.876	226.69
480.095	231.69
480.313	248.69
480.532	245.69
480.751	211.69
480.969	206.69
481.188	189.69
481.406	187.69
481.624	180.69
481.843	177.69
482.061	189.69
482.28	194.69
482.498	210.69
482.717	230.69
482.935	254.69
483.153	269.69
483.372	299.69
483.59	308.69
483.808	264.69
484.027	267.69
484.245	274.69
484.463	256.69
484.681	299.69
484.9	269.69
485.118	263.69
485.336	245.69
485.554	226.69
485.772	209.69
485.99	210.69
486.209	216.69
486.427	219.69
486.645	238.69
486.863	273.69
487.081	277.69
487.299	279.69
487.517	287.69
487.735	327.69
487.953	374.69
488.171	371.69
488.389	340.69
488.607	324.69
488.825	277.69
489.043	248.69
489.261	255.69
489.479	255.69
489.696	279.69
489.914	263.69
490.132	293.69
490.35	326.69
490.568	323.69
490.786	342.69
491.003	359.69
491.221	382.69
491.439	378.69
491.657	389.69
491.874	433.69
492.092	478.69
492.31	492.69
492.527	461.69
492.745	417.69
492.963	399.69
493.18	405.69
493.398	406.69
493.615	382.69
493.833	379.69
494.05	380.69
494.268	367.69
494.485	373.69
494.703	350.69
494.92	350.69
495.138	341.69
495.355	361.69
495.573	348.69
495.79	359.69
496.008	374.69
496.225	363.69
496.442	350.69
496.66	355.69
496.877	347.69
497.094	341.69
497.312	337.69
497.529	342.69
497.746	337.69
497.963	301.69
498.181	278.69
498.398	296.69
498.615	283.69
498.832	298.69
499.049	286.69
499.267	329.69
499.484	359.69
499.701	375.69
499.918	420.69
500.135	466.69
500.352	498.69
500.569	520.69
500.786	503.69
501.003	486.69
501.22	442.69
501.437	392.69
501.654	383.69
501.871	351.69
502.088	334.69
502.305	344.69
502.522	311.69
502.739	318.69
502.956	297.69
503.172	289.69
503.389	283.69
503.606	258.69
503.823	261.69
504.04	258.69
504.256	278.69
504.473	261.69
504.69	278.69
