Data from SampD_HRD10591_00066.txt Node
Date: Mon Jan 19 11:48:00 EST 2026
User: Yrep
Spectrometer: HR+D1059
Trigger mode: 0
Integration Time (sec): 3.443000E-1
Scans to average: 1
Electric dark correction enabled: true
Nonlinearity correction enabled: false
Boxcar width: 0
XAxis mode: Wavelengths
Number of Pixels in Spectrum: 2048
>>>>>Begin Spectral Data<<<<<
223.165	-20.06
223.4	-20.06
223.635	-20.06
223.869	-22.06
224.104	-13.06
224.338	-4.06
224.573	-25.06
224.808	-9.06
225.042	-3.06
225.277	-11.06
225.511	-6.06
225.746	-2.06
225.98	12.94
226.215	9.94
226.449	1.94
226.683	29.94
226.918	28.94
227.152	31.94
227.387	25.94
227.621	27.94
227.856	38.94
228.09	33.94
228.324	40.94
228.559	58.94
228.793	43.94
229.027	58.94
229.262	51.94
229.496	68.94
229.73	63.94
229.964	69.94
230.199	69.94
230.433	67.94
230.667	87.94
230.901	83.94
231.136	67.94
231.37	79.94
231.604	62.94
231.838	86.94
232.072	67.94
232.306	68.94
232.541	92.94
232.775	64.94
233.009	84.94
233.243	62.94
233.477	72.94
233.711	85.94
233.945	68.94
234.179	71.94
234.413	85.94
234.647	69.94
234.881	75.94
235.115	80.94
235.349	78.94
235.583	73.94
235.817	59.94
236.051	68.94
236.285	75.94
236.519	77.94
236.753	72.94
236.987	73.94
237.221	62.94
237.455	64.94
237.689	68.94
237.922	76.94
238.156	73.94
238.39	86.94
238.624	83.94
238.858	77.94
239.091	62.94
239.325	76.94
239.559	69.94
239.793	72.94
240.027	75.94
240.26	77.94
240.494	71.94
240.728	79.94
240.961	77.94
241.195	87.94
241.429	61.94
241.662	75.94
241.896	78.94
242.13	90.94
242.363	76.94
242.597	85.94
242.83	63.94
243.064	79.94
243.298	84.94
243.531	72.94
243.765	85.94
243.998	95.94
244.232	81.94
244.465	83.94
244.699	85.94
244.932	70.94
245.166	73.94
245.399	83.94
245.633	60.94
245.866	71.94
246.099	69.94
246.333	88.94
246.566	79.94
246.8	73.94
247.033	68.94
247.266	86.94
247.5	85.94
247.733	86.94
247.966	80.94
248.2	79.94
248.433	84.94
248.666	87.94
248.899	89.94
249.133	69.94
249.366	86.94
249.599	83.94
249.832	82.94
250.066	99.94
250.299	98.94
250.532	82.94
250.765	72.94
250.998	80.94
251.231	71.94
251.465	83.94
251.698	73.94
251.931	77.94
252.164	87.94
252.397	79.94
252.63	76.94
252.863	82.94
253.096	63.94
253.329	82.94
253.562	75.94
253.795	79.94
254.028	80.94
254.261	88.94
254.494	81.94
254.727	94.94
254.96	89.94
255.193	83.94
255.426	90.94
255.659	93.94
255.892	82.94
256.124	84.94
256.357	89.94
256.59	82.94
256.823	83.94
257.056	94.94
257.289	95.94
257.521	102.94
257.754	84.94
257.987	83.94
258.22	78.94
258.452	59.94
258.685	75.94
258.918	92.94
259.151	86.94
259.383	96.94
259.616	91.94
259.849	86.94
260.081	88.94
260.314	81.94
260.547	92.94
260.779	81.94
261.012	105.94
261.244	93.94
261.477	105.94
261.71	73.94
261.942	90.94
262.175	89.94
262.407	76.94
262.64	72.94
262.872	87.94
263.105	85.94
263.337	100.94
263.57	83.94
263.802	75.94
264.035	79.94
264.267	89.94
264.499	87.94
264.732	92.94
264.964	83.94
265.197	91.94
265.429	79.94
265.661	95.94
265.894	91.94
266.126	92.94
266.358	81.94
266.591	93.94
266.823	83.94
267.055	83.94
267.287	76.94
267.52	87.94
267.752	92.94
267.984	88.94
268.216	91.94
268.448	94.94
268.681	82.94
268.913	88.94
269.145	93.94
269.377	97.94
269.609	84.94
269.841	85.94
270.073	96.94
270.306	92.94
270.538	89.94
270.77	79.94
271.002	82.94
271.234	82.94
271.466	94.94
271.698	85.94
271.93	85.94
272.162	94.94
272.394	78.94
272.626	85.94
272.858	86.94
273.09	86.94
273.322	91.94
273.553	89.94
273.785	83.94
274.017	87.94
274.249	87.94
274.481	89.94
274.713	81.94
274.945	88.94
275.176	93.94
275.408	99.94
275.64	95.94
275.872	90.94
276.104	71.94
276.335	105.94
276.567	101.94
276.799	96.94
277.031	99.94
277.262	97.94
277.494	89.94
277.726	91.94
277.957	89.94
278.189	92.94
278.421	92.94
278.652	80.94
278.884	86.94
279.115	100.94
279.347	84.94
279.579	91.94
279.81	99.94
280.042	101.94
280.273	77.94
280.505	99.94
280.736	104.94
280.968	105.94
281.199	107.94
281.431	95.94
281.662	101.94
281.894	99.94
282.125	96.94
282.356	88.94
282.588	90.94
282.819	87.94
283.051	100.94
283.282	93.94
283.513	106.94
283.745	91.94
283.976	103.94
284.207	85.94
284.439	83.94
284.67	117.94
284.901	85.94
285.132	86.94
285.364	88.94
285.595	103.94
285.826	83.94
286.057	91.94
286.288	101.94
286.52	89.94
286.751	98.94
286.982	93.94
287.213	88.94
287.444	94.94
287.675	96.94
287.906	96.94
288.138	109.94
288.369	91.94
288.6	88.94
288.831	91.94
289.062	92.94
289.293	96.94
289.524	95.94
289.755	96.94
289.986	98.94
290.217	104.94
290.448	95.94
290.679	96.94
290.91	98.94
291.141	85.94
291.371	111.94
291.602	112.94
291.833	89.94
292.064	95.94
292.295	99.94
292.526	103.94
292.757	103.94
292.987	107.94
293.218	98.94
293.449	94.94
293.68	102.94
293.91	96.94
294.141	107.94
294.372	90.94
294.603	101.94
294.833	92.94
295.064	105.94
295.295	93.94
295.525	102.94
295.756	95.94
295.987	105.94
296.217	100.94
296.448	95.94
296.679	94.94
296.909	98.94
297.14	108.94
297.37	97.94
297.601	92.94
297.831	96.94
298.062	108.94
298.292	109.94
298.523	93.94
298.753	105.94
298.984	98.94
299.214	98.94
299.445	85.94
299.675	105.94
299.905	103.94
300.136	93.94
300.366	95.94
300.597	102.94
300.827	92.94
301.057	94.94
301.288	110.94
301.518	112.94
301.748	96.94
301.979	146.94
302.209	112.94
302.439	102.94
302.669	99.94
302.9	91.94
303.13	93.94
303.36	105.94
303.59	107.94
303.82	118.94
304.051	105.94
304.281	106.94
304.511	103.94
304.741	100.94
304.971	99.94
305.201	92.94
305.431	109.94
305.661	106.94
305.891	82.94
306.121	95.94
306.352	98.94
306.582	95.94
306.812	102.94
307.042	110.94
307.272	92.94
307.502	99.94
307.731	113.94
307.961	104.94
308.191	108.94
308.421	108.94
308.651	97.94
308.881	96.94
309.111	100.94
309.341	90.94
309.571	95.94
309.8	106.94
310.03	84.94
310.26	87.94
310.49	91.94
310.72	91.94
310.949	92.94
311.179	95.94
311.409	94.94
311.639	96.94
311.868	97.94
312.098	101.94
312.328	107.94
312.557	98.94
312.787	105.94
313.017	101.94
313.246	115.94
313.476	109.94
313.706	95.94
313.935	108.94
314.165	110.94
314.394	104.94
314.624	112.94
314.853	117.94
315.083	91.94
315.312	112.94
315.542	108.94
315.771	99.94
316.001	106.94
316.23	103.94
316.46	97.94
316.689	97.94
316.919	102.94
317.148	94.94
317.377	105.94
317.607	108.94
317.836	106.94
318.065	104.94
318.295	95.94
318.524	103.94
318.753	97.94
318.983	101.94
319.212	88.94
319.441	102.94
319.67	105.94
319.9	92.94
320.129	99.94
320.358	111.94
320.587	108.94
320.816	104.94
321.046	100.94
321.275	112.94
321.504	92.94
321.733	93.94
321.962	104.94
322.191	97.94
322.42	99.94
322.649	99.94
322.878	104.94
323.108	106.94
323.337	111.94
323.566	88.94
323.795	103.94
324.024	101.94
324.253	107.94
324.482	97.94
324.71	96.94
324.939	104.94
325.168	106.94
325.397	107.94
325.626	96.94
325.855	91.94
326.084	98.94
326.313	125.94
326.542	110.94
326.77	109.94
326.999	114.94
327.228	102.94
327.457	104.94
327.686	108.94
327.914	112.94
328.143	104.94
328.372	86.94
328.6	101.94
328.829	109.94
329.058	104.94
329.287	105.94
329.515	96.94
329.744	110.94
329.972	110.94
330.201	106.94
330.43	112.94
330.658	91.94
330.887	99.94
331.115	106.94
331.344	113.94
331.572	120.94
331.801	104.94
332.03	116.94
332.258	114.94
332.486	102.94
332.715	112.94
332.943	101.94
333.172	105.94
333.4	118.94
333.629	111.94
333.857	119.94
334.085	108.94
334.314	105.94
334.542	108.94
334.771	109.94
334.999	99.94
335.227	102.94
335.455	101.94
335.684	111.94
335.912	119.94
336.14	108.94
336.369	94.94
336.597	107.94
336.825	108.94
337.053	108.94
337.281	110.94
337.51	103.94
337.738	103.94
337.966	92.94
338.194	96.94
338.422	119.94
338.65	112.94
338.878	108.94
339.106	99.94
339.334	100.94
339.562	93.94
339.79	106.94
340.018	96.94
340.246	99.94
340.474	114.94
340.702	108.94
340.93	108.94
341.158	99.94
341.386	107.94
341.614	99.94
341.842	101.94
342.07	105.94
342.298	113.94
342.526	115.94
342.754	111.94
342.981	116.94
343.209	91.94
343.437	132.94
343.665	101.94
343.893	107.94
344.12	132.94
344.348	112.94
344.576	127.94
344.804	80.94
345.031	109.94
345.259	101.94
345.487	104.94
345.714	94.94
345.942	101.94
346.17	101.94
346.397	107.94
346.625	111.94
346.853	105.94
347.08	116.94
347.308	114.94
347.535	103.94
347.763	110.94
347.99	115.94
348.218	116.94
348.445	120.94
348.673	103.94
348.9	109.94
349.128	116.94
349.355	104.94
349.583	102.94
349.81	100.94
350.037	97.94
350.265	96.94
350.492	96.94
350.72	84.94
350.947	120.94
351.174	122.94
351.402	96.94
351.629	95.94
351.856	93.94
352.083	104.94
352.311	103.94
352.538	108.94
352.765	103.94
352.992	118.94
353.22	113.94
353.447	108.94
353.674	99.94
353.901	120.94
354.128	112.94
354.355	110.94
354.583	103.94
354.81	105.94
355.037	112.94
355.264	102.94
355.491	101.94
355.718	103.94
355.945	108.94
356.172	104.94
356.399	104.94
356.626	94.94
356.853	104.94
357.08	103.94
357.307	109.94
357.534	91.94
357.761	117.94
357.988	106.94
358.215	120.94
358.441	106.94
358.668	99.94
358.895	97.94
359.122	112.94
359.349	93.94
359.576	95.94
359.802	88.94
360.029	105.94
360.256	109.94
360.483	102.94
360.709	103.94
360.936	116.94
361.163	109.94
361.39	93.94
361.616	105.94
361.843	106.94
362.07	103.94
362.296	102.94
362.523	114.94
362.749	100.94
362.976	100.94
363.203	118.94
363.429	94.94
363.656	123.94
363.882	102.94
364.109	106.94
364.335	114.94
364.562	94.94
364.788	99.94
365.015	118.94
365.241	88.94
365.468	114.94
365.694	101.94
365.92	98.94
366.147	111.94
366.373	105.94
366.599	101.94
366.826	109.94
367.052	105.94
367.278	101.94
367.505	103.94
367.731	116.94
367.957	107.94
368.184	111.94
368.41	100.94
368.636	109.94
368.862	110.94
369.089	108.94
369.315	105.94
369.541	122.94
369.767	115.94
369.993	118.94
370.219	101.94
370.445	111.94
370.672	113.94
370.898	94.94
371.124	121.94
371.35	115.94
371.576	95.94
371.802	116.94
372.028	95.94
372.254	105.94
372.48	104.94
372.706	107.94
372.932	111.94
373.158	112.94
373.384	113.94
373.61	120.94
373.835	128.94
374.061	123.94
374.287	127.94
374.513	112.94
374.739	123.94
374.965	116.94
375.191	116.94
375.416	128.94
375.642	109.94
375.868	131.94
376.094	110.94
376.319	102.94
376.545	105.94
376.771	120.94
376.997	109.94
377.222	109.94
377.448	120.94
377.674	97.94
377.899	115.94
378.125	111.94
378.35	110.94
378.576	113.94
378.802	106.94
379.027	134.94
379.253	115.94
379.478	110.94
379.704	113.94
379.929	123.94
380.155	115.94
380.38	122.94
380.606	115.94
380.831	124.94
381.057	135.94
381.282	123.94
381.507	120.94
381.733	113.94
381.958	112.94
382.184	112.94
382.409	123.94
382.634	128.94
382.86	118.94
383.085	127.94
383.31	118.94
383.535	126.94
383.761	108.94
383.986	131.94
384.211	116.94
384.436	118.94
384.662	125.94
384.887	120.94
385.112	124.94
385.337	127.94
385.562	130.94
385.787	108.94
386.013	123.94
386.238	134.94
386.463	145.94
386.688	157.94
386.913	131.94
387.138	120.94
387.363	151.94
387.588	141.94
387.813	144.94
388.038	136.94
388.263	128.94
388.488	126.94
388.713	141.94
388.938	123.94
389.163	131.94
389.387	122.94
389.612	125.94
389.837	129.94
390.062	128.94
390.287	142.94
390.512	133.94
390.736	129.94
390.961	135.94
391.186	142.94
391.411	130.94
391.636	151.94
391.86	145.94
392.085	139.94
392.31	126.94
392.534	143.94
392.759	131.94
392.984	134.94
393.208	142.94
393.433	127.94
393.658	157.94
393.882	149.94
394.107	152.94
394.331	150.94
394.556	137.94
394.78	144.94
395.005	146.94
395.229	126.94
395.454	143.94
395.678	142.94
395.903	149.94
396.127	163.94
396.352	140.94
396.576	130.94
396.801	151.94
397.025	147.94
397.249	152.94
397.474	167.94
397.698	149.94
397.922	142.94
398.147	140.94
398.371	145.94
398.595	156.94
398.82	147.94
399.044	171.94
399.268	158.94
399.492	182.94
399.717	187.94
399.941	169.94
400.165	176.94
400.389	159.94
400.613	157.94
400.837	152.94
401.062	165.94
401.286	149.94
401.51	159.94
401.734	158.94
401.958	183.94
402.182	156.94
402.406	162.94
402.63	158.94
402.854	163.94
403.078	165.94
403.302	157.94
403.526	161.94
403.75	193.94
403.974	165.94
404.198	160.94
404.422	170.94
404.645	169.94
404.869	153.94
405.093	168.94
405.317	169.94
405.541	173.94
405.765	167.94
405.988	162.94
406.212	159.94
406.436	164.94
406.66	178.94
406.883	165.94
407.107	178.94
407.331	172.94
407.555	183.94
407.778	187.94
408.002	176.94
408.226	179.94
408.449	182.94
408.673	159.94
408.896	180.94
409.12	160.94
409.344	169.94
409.567	168.94
409.791	174.94
410.014	193.94
410.238	171.94
410.461	183.94
410.685	177.94
410.908	190.94
411.132	173.94
411.355	172.94
411.578	156.94
411.802	157.94
412.025	167.94
412.249	175.94
412.472	164.94
412.695	146.94
412.919	161.94
413.142	157.94
413.365	179.94
413.589	163.94
413.812	157.94
414.035	181.94
414.258	168.94
414.482	165.94
414.705	193.94
414.928	168.94
415.151	169.94
415.374	167.94
415.597	179.94
415.821	183.94
416.044	158.94
416.267	183.94
416.49	157.94
416.713	174.94
416.936	173.94
417.159	168.94
417.382	180.94
417.605	171.94
417.828	181.94
418.051	175.94
418.274	180.94
418.497	161.94
418.72	178.94
418.943	179.94
419.166	183.94
419.389	191.94
419.611	173.94
419.834	191.94
420.057	180.94
420.28	179.94
420.503	161.94
420.726	182.94
420.948	173.94
421.171	180.94
421.394	185.94
421.617	173.94
421.839	174.94
422.062	189.94
422.285	185.94
422.507	175.94
422.73	193.94
422.953	162.94
423.175	179.94
423.398	176.94
423.621	173.94
423.843	177.94
424.066	191.94
424.288	190.94
424.511	190.94
424.733	205.94
424.956	180.94
425.178	191.94
425.401	182.94
425.623	179.94
425.846	182.94
426.068	183.94
426.291	168.94
426.513	166.94
426.735	177.94
426.958	173.94
427.18	163.94
427.402	173.94
427.625	165.94
427.847	176.94
428.069	168.94
428.292	175.94
428.514	182.94
428.736	175.94
428.958	167.94
429.181	162.94
429.403	160.94
429.625	175.94
429.847	174.94
430.069	183.94
430.292	195.94
430.514	146.94
430.736	153.94
430.958	159.94
431.18	154.94
431.402	174.94
431.624	147.94
431.846	143.94
432.068	132.94
432.29	141.94
432.512	169.94
432.734	165.94
432.956	177.94
433.178	184.94
433.4	175.94
433.622	175.94
433.844	179.94
434.066	172.94
434.287	143.94
434.509	124.94
434.731	159.94
434.953	159.94
435.175	175.94
435.397	179.94
435.618	156.94
435.84	152.94
436.062	153.94
436.284	165.94
436.505	168.94
436.727	172.94
436.949	164.94
437.17	173.94
437.392	167.94
437.614	152.94
437.835	141.94
438.057	136.94
438.278	160.94
438.5	171.94
438.721	192.94
438.943	168.94
439.165	184.94
439.386	191.94
439.608	197.94
439.829	181.94
440.05	193.94
440.272	173.94
440.493	190.94
440.715	185.94
440.936	189.94
441.158	175.94
441.379	195.94
441.6	201.94
441.822	204.94
442.043	198.94
442.264	173.94
442.486	198.94
442.707	173.94
442.928	191.94
443.149	187.94
443.371	187.94
443.592	181.94
443.813	184.94
444.034	179.94
444.255	205.94
444.476	195.94
444.698	196.94
444.919	190.94
445.14	470.94
445.361	317.94
445.582	199.94
445.803	196.94
446.024	197.94
446.245	192.94
446.466	205.94
446.687	199.94
446.908	212.94
447.129	199.94
447.35	179.94
447.571	183.94
447.792	174.94
448.013	167.94
448.234	179.94
448.455	169.94
448.675	188.94
448.896	168.94
449.117	174.94
449.338	179.94
449.559	180.94
449.779	175.94
450	169.94
450.221	165.94
450.442	175.94
450.662	177.94
450.883	177.94
451.104	169.94
451.324	173.94
451.545	180.94
451.766	169.94
451.986	160.94
452.207	194.94
452.428	161.94
452.648	155.94
452.869	161.94
453.089	136.94
453.31	126.94
453.53	113.94
453.751	140.94
453.971	143.94
454.192	143.94
454.412	141.94
454.633	140.94
454.853	178.94
455.073	171.94
455.294	144.94
455.514	163.94
455.734	156.94
455.955	139.94
456.175	146.94
456.395	129.94
456.616	142.94
456.836	137.94
457.056	141.94
457.276	133.94
457.497	132.94
457.717	139.94
457.937	150.94
458.157	139.94
458.377	122.94
458.598	134.94
458.818	132.94
459.038	115.94
459.258	114.94
459.478	122.94
459.698	131.94
459.918	144.94
460.138	141.94
460.358	155.94
460.578	154.94
460.798	160.94
461.018	160.94
461.238	161.94
461.458	171.94
461.678	160.94
461.898	160.94
462.118	164.94
462.338	161.94
462.558	169.94
462.777	174.94
462.997	170.94
463.217	175.94
463.437	182.94
463.657	166.94
463.876	156.94
464.096	155.94
464.316	157.94
464.536	155.94
464.755	175.94
464.975	159.94
465.195	173.94
465.414	159.94
465.634	174.94
465.854	166.94
466.073	155.94
466.293	164.94
466.512	163.94
466.732	170.94
466.951	175.94
467.171	167.94
467.391	149.94
467.61	156.94
467.829	162.94
468.049	168.94
468.268	174.94
468.488	170.94
468.707	157.94
468.927	166.94
469.146	159.94
469.365	178.94
469.585	167.94
469.804	167.94
470.023	172.94
470.243	199.94
470.462	177.94
470.681	196.94
470.901	167.94
471.12	171.94
471.339	191.94
471.558	177.94
471.777	169.94
471.997	177.94
472.216	162.94
472.435	147.94
472.654	142.94
472.873	144.94
473.092	155.94
473.311	145.94
473.53	165.94
473.749	152.94
473.968	163.94
474.187	149.94
474.406	151.94
474.625	174.94
474.844	160.94
475.063	173.94
475.282	139.94
475.501	142.94
475.72	151.94
475.939	162.94
476.158	163.94
476.377	139.94
476.596	147.94
476.814	148.94
477.033	145.94
477.252	142.94
477.471	157.94
477.69	148.94
477.908	170.94
478.127	190.94
478.346	171.94
478.564	164.94
478.783	169.94
479.002	181.94
479.22	170.94
479.439	204.94
479.658	160.94
479.876	143.94
480.095	140.94
480.313	165.94
480.532	158.94
480.751	157.94
480.969	146.94
481.188	115.94
481.406	153.94
481.624	140.94
481.843	131.94
482.061	141.94
482.28	147.94
482.498	136.94
482.717	154.94
482.935	161.94
483.153	186.94
483.372	190.94
483.59	179.94
483.808	179.94
484.027	168.94
484.245	169.94
484.463	174.94
484.681	204.94
484.9	166.94
485.118	189.94
485.336	149.94
485.554	132.94
485.772	131.94
485.99	147.94
486.209	143.94
486.427	145.94
486.645	149.94
486.863	172.94
487.081	164.94
487.299	180.94
487.517	188.94
487.735	214.94
487.953	217.94
488.171	215.94
488.389	205.94
488.607	193.94
488.825	172.94
489.043	188.94
489.261	178.94
489.479	176.94
489.696	178.94
489.914	179.94
490.132	200.94
490.35	182.94
490.568	227.94
490.786	230.94
491.003	243.94
491.221	227.94
491.439	224.94
491.657	237.94
491.874	250.94
492.092	274.94
492.31	295.94
492.527	264.94
492.745	241.94
492.963	224.94
493.18	237.94
493.398	229.94
493.615	217.94
493.833	232.94
494.05	215.94
494.268	210.94
494.485	225.94
494.703	227.94
494.92	222.94
495.138	208.94
495.355	225.94
495.573	243.94
495.79	209.94
496.008	227.94
496.225	212.94
496.442	229.94
496.66	226.94
496.877	213.94
497.094	215.94
497.312	222.94
497.529	206.94
497.746	194.94
497.963	187.94
498.181	180.94
498.398	176.94
498.615	182.94
498.832	181.94
499.049	180.94
499.267	185.94
499.484	204.94
499.701	237.94
499.918	253.94
500.135	277.94
500.352	304.94
500.569	291.94
500.786	306.94
501.003	299.94
501.22	268.94
501.437	236.94
501.654	209.94
501.871	221.94
502.088	207.94
502.305	195.94
502.522	194.94
502.739	206.94
502.956	181.94
503.172	191.94
503.389	178.94
503.606	164.94
503.823	166.94
504.04	193.94
504.256	172.94
504.473	175.94
504.69	176.94
504.907	179.94
505.123	169.94
505.34	168.94
505.557	173.94
505.773	171.94
505.99	144.94
506.207	145.94
506.423	166.94
506.64	151.94
506.856	141.94
507.073	165.94
507.289	159.94
507.506	147.94
507.722	153.94
