Data from SampD_HRD10591_00078.txt Node
Date: Mon Jan 19 11:48:04 EST 2026
User: Yrep
Spectrometer: HR+D1059
Trigger mode: 0
Integration Time (sec): 3.443000E-1
Scans to average: 1
Electric dark correction enabled: true
Nonlinearity correction enabled: false
Boxcar width: 0
XAxis mode: Wavelengths
Number of Pixels in Spectrum: 2048
>>>>>Begin Spectral Data<<<<<
223.165	-20.94
223.4	-20.94
223.635	-20.94
223.869	-21.94
224.104	-18.94
224.338	-7.94
224.573	-17.94
224.808	-18.94
225.042	2.06
225.277	-10.94
225.511	2.06
225.746	3.06
225.98	6.06
226.215	10.06
226.449	10.06
226.683	18.06
226.918	30.06
227.152	36.06
227.387	43.06
227.621	39.06
227.856	57.06
228.09	42.06
228.324	45.06
228.559	69.06
228.793	54.06
229.027	68.06
229.262	70.06
229.496	54.06
229.73	73.06
229.964	100.06
230.199	77.06
230.433	83.06
230.667	85.06
230.901	106.06
231.136	101.06
231.37	91.06
231.604	93.06
231.838	98.06
232.072	77.06
232.306	85.06
232.541	90.06
232.775	97.06
233.009	91.06
233.243	85.06
233.477	87.06
233.711	97.06
233.945	85.06
234.179	83.06
234.413	87.06
234.647	82.06
234.881	92.06
235.115	68.06
235.349	90.06
235.583	105.06
235.817	73.06
236.051	86.06
236.285	85.06
236.519	94.06
236.753	80.06
236.987	93.06
237.221	82.06
237.455	90.06
237.689	82.06
237.922	75.06
238.156	73.06
238.39	84.06
238.624	85.06
238.858	98.06
239.091	73.06
239.325	88.06
239.559	88.06
239.793	87.06
240.027	89.06
240.26	94.06
240.494	74.06
240.728	83.06
240.961	72.06
241.195	100.06
241.429	77.06
241.662	85.06
241.896	94.06
242.13	69.06
242.363	97.06
242.597	77.06
242.83	91.06
243.064	79.06
243.298	89.06
243.531	92.06
243.765	76.06
243.998	86.06
244.232	99.06
244.465	95.06
244.699	87.06
244.932	103.06
245.166	89.06
245.399	92.06
245.633	91.06
245.866	97.06
246.099	89.06
246.333	97.06
246.566	86.06
246.8	79.06
247.033	90.06
247.266	81.06
247.5	93.06
247.733	108.06
247.966	89.06
248.2	94.06
248.433	87.06
248.666	91.06
248.899	92.06
249.133	100.06
249.366	108.06
249.599	101.06
249.832	85.06
250.066	103.06
250.299	88.06
250.532	95.06
250.765	92.06
250.998	85.06
251.231	97.06
251.465	86.06
251.698	72.06
251.931	75.06
252.164	87.06
252.397	101.06
252.63	80.06
252.863	99.06
253.096	91.06
253.329	93.06
253.562	94.06
253.795	102.06
254.028	87.06
254.261	86.06
254.494	91.06
254.727	102.06
254.96	105.06
255.193	91.06
255.426	92.06
255.659	106.06
255.892	85.06
256.124	97.06
256.357	84.06
256.59	99.06
256.823	85.06
257.056	102.06
257.289	98.06
257.521	99.06
257.754	104.06
257.987	91.06
258.22	99.06
258.452	100.06
258.685	83.06
258.918	103.06
259.151	98.06
259.383	106.06
259.616	108.06
259.849	115.06
260.081	93.06
260.314	94.06
260.547	113.06
260.779	105.06
261.012	104.06
261.244	109.06
261.477	116.06
261.71	107.06
261.942	95.06
262.175	101.06
262.407	95.06
262.64	98.06
262.872	99.06
263.105	117.06
263.337	99.06
263.57	98.06
263.802	110.06
264.035	99.06
264.267	95.06
264.499	103.06
264.732	94.06
264.964	111.06
265.197	105.06
265.429	103.06
265.661	95.06
265.894	113.06
266.126	119.06
266.358	102.06
266.591	102.06
266.823	104.06
267.055	91.06
267.287	97.06
267.52	103.06
267.752	98.06
267.984	110.06
268.216	102.06
268.448	106.06
268.681	114.06
268.913	90.06
269.145	110.06
269.377	110.06
269.609	101.06
269.841	106.06
270.073	111.06
270.306	110.06
270.538	106.06
270.77	114.06
271.002	101.06
271.234	96.06
271.466	106.06
271.698	92.06
271.93	115.06
272.162	112.06
272.394	113.06
272.626	123.06
272.858	104.06
273.09	112.06
273.322	95.06
273.553	115.06
273.785	112.06
274.017	99.06
274.249	107.06
274.481	108.06
274.713	93.06
274.945	111.06
275.176	105.06
275.408	99.06
275.64	101.06
275.872	104.06
276.104	107.06
276.335	114.06
276.567	124.06
276.799	105.06
277.031	111.06
277.262	106.06
277.494	121.06
277.726	115.06
277.957	106.06
278.189	104.06
278.421	108.06
278.652	105.06
278.884	118.06
279.115	115.06
279.347	112.06
279.579	118.06
279.81	103.06
280.042	122.06
280.273	108.06
280.505	115.06
280.736	103.06
280.968	121.06
281.199	116.06
281.431	110.06
281.662	109.06
281.894	106.06
282.125	111.06
282.356	96.06
282.588	116.06
282.819	98.06
283.051	111.06
283.282	132.06
283.513	128.06
283.745	107.06
283.976	113.06
284.207	107.06
284.439	132.06
284.67	125.06
284.901	102.06
285.132	115.06
285.364	118.06
285.595	125.06
285.826	110.06
286.057	116.06
286.288	117.06
286.52	105.06
286.751	123.06
286.982	123.06
287.213	109.06
287.444	134.06
287.675	128.06
287.906	115.06
288.138	121.06
288.369	122.06
288.6	116.06
288.831	115.06
289.062	113.06
289.293	116.06
289.524	114.06
289.755	101.06
289.986	118.06
290.217	122.06
290.448	130.06
290.679	137.06
290.91	136.06
291.141	116.06
291.371	125.06
291.602	122.06
291.833	123.06
292.064	126.06
292.295	137.06
292.526	119.06
292.757	124.06
292.987	125.06
293.218	128.06
293.449	116.06
293.68	118.06
293.91	112.06
294.141	132.06
294.372	105.06
294.603	117.06
294.833	132.06
295.064	125.06
295.295	130.06
295.525	102.06
295.756	134.06
295.987	130.06
296.217	121.06
296.448	120.06
296.679	119.06
296.909	136.06
297.14	126.06
297.37	127.06
297.601	108.06
297.831	126.06
298.062	112.06
298.292	121.06
298.523	133.06
298.753	117.06
298.984	117.06
299.214	124.06
299.445	121.06
299.675	113.06
299.905	124.06
300.136	123.06
300.366	134.06
300.597	109.06
300.827	123.06
301.057	119.06
301.288	127.06
301.518	129.06
301.748	124.06
301.979	177.06
302.209	136.06
302.439	140.06
302.669	125.06
302.9	114.06
303.13	123.06
303.36	123.06
303.59	136.06
303.82	123.06
304.051	139.06
304.281	126.06
304.511	139.06
304.741	129.06
304.971	115.06
305.201	124.06
305.431	131.06
305.661	131.06
305.891	132.06
306.121	133.06
306.352	128.06
306.582	130.06
306.812	121.06
307.042	131.06
307.272	121.06
307.502	118.06
307.731	137.06
307.961	118.06
308.191	131.06
308.421	132.06
308.651	125.06
308.881	131.06
309.111	133.06
309.341	114.06
309.571	125.06
309.8	115.06
310.03	117.06
310.26	122.06
310.49	134.06
310.72	129.06
310.949	121.06
311.179	143.06
311.409	126.06
311.639	133.06
311.868	129.06
312.098	145.06
312.328	129.06
312.557	115.06
312.787	133.06
313.017	140.06
313.246	141.06
313.476	105.06
313.706	123.06
313.935	130.06
314.165	132.06
314.394	122.06
314.624	137.06
314.853	135.06
315.083	111.06
315.312	125.06
315.542	137.06
315.771	129.06
316.001	138.06
316.23	130.06
316.46	128.06
316.689	131.06
316.919	112.06
317.148	131.06
317.377	144.06
317.607	131.06
317.836	129.06
318.065	139.06
318.295	129.06
318.524	131.06
318.753	130.06
318.983	116.06
319.212	126.06
319.441	126.06
319.67	121.06
319.9	123.06
320.129	117.06
320.358	136.06
320.587	128.06
320.816	139.06
321.046	137.06
321.275	139.06
321.504	127.06
321.733	132.06
321.962	129.06
322.191	139.06
322.42	138.06
322.649	115.06
322.878	145.06
323.108	128.06
323.337	143.06
323.566	122.06
323.795	126.06
324.024	128.06
324.253	118.06
324.482	134.06
324.71	143.06
324.939	135.06
325.168	134.06
325.397	128.06
325.626	123.06
325.855	144.06
326.084	114.06
326.313	140.06
326.542	137.06
326.77	124.06
326.999	136.06
327.228	138.06
327.457	126.06
327.686	125.06
327.914	151.06
328.143	139.06
328.372	135.06
328.6	125.06
328.829	126.06
329.058	122.06
329.287	122.06
329.515	135.06
329.744	145.06
329.972	126.06
330.201	109.06
330.43	157.06
330.658	134.06
330.887	141.06
331.115	139.06
331.344	150.06
331.572	139.06
331.801	141.06
332.03	145.06
332.258	134.06
332.486	141.06
332.715	156.06
332.943	141.06
333.172	166.06
333.4	146.06
333.629	154.06
333.857	163.06
334.085	151.06
334.314	145.06
334.542	155.06
334.771	161.06
334.999	138.06
335.227	154.06
335.455	156.06
335.684	159.06
335.912	152.06
336.14	148.06
336.369	126.06
336.597	162.06
336.825	157.06
337.053	143.06
337.281	137.06
337.51	153.06
337.738	133.06
337.966	137.06
338.194	136.06
338.422	142.06
338.65	156.06
338.878	142.06
339.106	149.06
339.334	140.06
339.562	140.06
339.79	135.06
340.018	138.06
340.246	116.06
340.474	138.06
340.702	141.06
340.93	132.06
341.158	149.06
341.386	142.06
341.614	149.06
341.842	142.06
342.07	144.06
342.298	148.06
342.526	127.06
342.754	130.06
342.981	135.06
343.209	137.06
343.437	198.06
343.665	154.06
343.893	153.06
344.12	146.06
344.348	140.06
344.576	128.06
344.804	131.06
345.031	133.06
345.259	147.06
345.487	133.06
345.714	138.06
345.942	131.06
346.17	140.06
346.397	132.06
346.625	149.06
346.853	133.06
347.08	140.06
347.308	146.06
347.535	129.06
347.763	144.06
347.99	132.06
348.218	138.06
348.445	135.06
348.673	134.06
348.9	138.06
349.128	138.06
349.355	133.06
349.583	123.06
349.81	124.06
350.037	122.06
350.265	115.06
350.492	154.06
350.72	139.06
350.947	138.06
351.174	127.06
351.402	120.06
351.629	138.06
351.856	140.06
352.083	138.06
352.311	130.06
352.538	123.06
352.765	138.06
352.992	151.06
353.22	139.06
353.447	119.06
353.674	132.06
353.901	141.06
354.128	139.06
354.355	143.06
354.583	140.06
354.81	146.06
355.037	135.06
355.264	135.06
355.491	129.06
355.718	114.06
355.945	126.06
356.172	116.06
356.399	114.06
356.626	134.06
356.853	115.06
357.08	137.06
357.307	129.06
357.534	133.06
357.761	143.06
357.988	142.06
358.215	131.06
358.441	140.06
358.668	137.06
358.895	121.06
359.122	134.06
359.349	133.06
359.576	142.06
359.802	127.06
360.029	140.06
360.256	120.06
360.483	130.06
360.709	124.06
360.936	143.06
361.163	134.06
361.39	130.06
361.616	138.06
361.843	130.06
362.07	136.06
362.296	150.06
362.523	127.06
362.749	124.06
362.976	146.06
363.203	142.06
363.429	134.06
363.656	163.06
363.882	131.06
364.109	125.06
364.335	129.06
364.562	141.06
364.788	145.06
365.015	139.06
365.241	145.06
365.468	141.06
365.694	131.06
365.92	138.06
366.147	124.06
366.373	132.06
366.599	130.06
366.826	120.06
367.052	127.06
367.278	129.06
367.505	140.06
367.731	153.06
367.957	147.06
368.184	140.06
368.41	134.06
368.636	133.06
368.862	138.06
369.089	138.06
369.315	142.06
369.541	142.06
369.767	141.06
369.993	147.06
370.219	136.06
370.445	147.06
370.672	155.06
370.898	162.06
371.124	159.06
371.35	148.06
371.576	145.06
371.802	159.06
372.028	154.06
372.254	157.06
372.48	161.06
372.706	166.06
372.932	169.06
373.158	174.06
373.384	166.06
373.61	151.06
373.835	160.06
374.061	141.06
374.287	156.06
374.513	164.06
374.739	166.06
374.965	174.06
375.191	165.06
375.416	174.06
375.642	167.06
375.868	166.06
376.094	154.06
376.319	177.06
376.545	177.06
376.771	147.06
376.997	170.06
377.222	153.06
377.448	166.06
377.674	167.06
377.899	154.06
378.125	162.06
378.35	154.06
378.576	165.06
378.802	149.06
379.027	167.06
379.253	175.06
379.478	164.06
379.704	155.06
379.929	181.06
380.155	167.06
380.38	175.06
380.606	171.06
380.831	173.06
381.057	172.06
381.282	170.06
381.507	179.06
381.733	176.06
381.958	179.06
382.184	167.06
382.409	167.06
382.634	183.06
382.86	166.06
383.085	184.06
383.31	183.06
383.535	185.06
383.761	172.06
383.986	185.06
384.211	180.06
384.436	186.06
384.662	189.06
384.887	171.06
385.112	184.06
385.337	184.06
385.562	194.06
385.787	188.06
386.013	183.06
386.238	214.06
386.463	210.06
386.688	223.06
386.913	185.06
387.138	179.06
387.363	178.06
387.588	210.06
387.813	197.06
388.038	204.06
388.263	188.06
388.488	197.06
388.713	196.06
388.938	195.06
389.163	203.06
389.387	183.06
389.612	199.06
389.837	194.06
390.062	195.06
390.287	206.06
390.512	196.06
390.736	215.06
390.961	194.06
391.186	211.06
391.411	198.06
391.636	207.06
391.86	226.06
392.085	214.06
392.31	228.06
392.534	204.06
392.759	233.06
392.984	210.06
393.208	208.06
393.433	206.06
393.658	193.06
393.882	196.06
394.107	214.06
394.331	218.06
394.556	195.06
394.78	229.06
395.005	213.06
395.229	221.06
395.454	234.06
395.678	217.06
395.903	210.06
396.127	221.06
396.352	216.06
396.576	201.06
396.801	199.06
397.025	201.06
397.249	223.06
397.474	211.06
397.698	227.06
397.922	225.06
398.147	229.06
398.371	233.06
398.595	247.06
398.82	237.06
399.044	244.06
399.268	275.06
399.492	273.06
399.717	307.06
399.941	282.06
400.165	276.06
400.389	250.06
400.613	249.06
400.837	234.06
401.062	239.06
401.286	240.06
401.51	248.06
401.734	232.06
401.958	247.06
402.182	250.06
402.406	246.06
402.63	252.06
402.854	262.06
403.078	251.06
403.302	266.06
403.526	266.06
403.75	294.06
403.974	265.06
404.198	257.06
404.422	262.06
404.645	273.06
404.869	266.06
405.093	261.06
405.317	263.06
405.541	263.06
405.765	262.06
405.988	277.06
406.212	278.06
406.436	264.06
406.66	262.06
406.883	285.06
407.107	266.06
407.331	287.06
407.555	289.06
407.778	295.06
408.002	282.06
408.226	274.06
408.449	275.06
408.673	279.06
408.896	267.06
409.12	283.06
409.344	297.06
409.567	266.06
409.791	271.06
410.014	281.06
410.238	271.06
410.461	278.06
410.685	275.06
410.908	278.06
411.132	282.06
411.355	257.06
411.578	273.06
411.802	279.06
412.025	283.06
412.249	250.06
412.472	273.06
412.695	259.06
412.919	265.06
413.142	263.06
413.365	268.06
413.589	264.06
413.812	245.06
414.035	274.06
414.258	262.06
414.482	259.06
414.705	264.06
414.928	262.06
415.151	278.06
415.374	277.06
415.597	275.06
415.821	262.06
416.044	281.06
416.267	274.06
416.49	277.06
416.713	273.06
416.936	259.06
417.159	276.06
417.382	276.06
417.605	267.06
417.828	285.06
418.051	281.06
418.274	278.06
418.497	303.06
418.72	311.06
418.943	276.06
419.166	307.06
419.389	318.06
419.611	289.06
419.834	295.06
420.057	300.06
420.28	278.06
420.503	284.06
420.726	266.06
420.948	291.06
421.171	286.06
421.394	294.06
421.617	300.06
421.839	288.06
422.062	291.06
422.285	293.06
422.507	277.06
422.73	270.06
422.953	277.06
423.175	279.06
423.398	304.06
423.621	291.06
423.843	299.06
424.066	309.06
424.288	299.06
424.511	300.06
424.733	325.06
424.956	304.06
425.178	301.06
425.401	290.06
425.623	300.06
425.846	291.06
426.068	279.06
426.291	263.06
426.513	278.06
426.735	287.06
426.958	276.06
427.18	281.06
427.402	277.06
427.625	282.06
427.847	276.06
428.069	279.06
428.292	257.06
428.514	281.06
428.736	266.06
428.958	268.06
429.181	270.06
429.403	263.06
429.625	253.06
429.847	257.06
430.069	275.06
430.292	265.06
430.514	265.06
430.736	280.06
430.958	269.06
431.18	265.06
431.402	251.06
431.624	248.06
431.846	221.06
432.068	203.06
432.29	189.06
432.512	228.06
432.734	267.06
432.956	273.06
433.178	281.06
433.4	257.06
433.622	267.06
433.844	260.06
434.066	245.06
434.287	210.06
434.509	205.06
434.731	215.06
434.953	245.06
435.175	251.06
435.397	277.06
435.618	246.06
435.84	225.06
436.062	243.06
436.284	261.06
436.505	263.06
436.727	277.06
436.949	270.06
437.17	244.06
437.392	261.06
437.614	235.06
437.835	221.06
438.057	213.06
438.278	230.06
438.5	242.06
438.721	277.06
438.943	279.06
439.165	276.06
439.386	285.06
439.608	285.06
439.829	301.06
440.05	311.06
440.272	293.06
440.493	285.06
440.715	286.06
440.936	295.06
441.158	300.06
441.379	301.06
441.6	323.06
441.822	305.06
442.043	311.06
442.264	288.06
442.486	291.06
442.707	290.06
442.928	303.06
443.149	296.06
443.371	304.06
443.592	291.06
443.813	302.06
444.034	289.06
444.255	319.06
444.476	308.06
444.698	320.06
444.919	326.06
445.14	590.06
445.361	431.06
445.582	328.06
445.803	313.06
446.024	320.06
446.245	328.06
446.466	322.06
446.687	304.06
446.908	319.06
447.129	304.06
447.35	316.06
447.571	322.06
447.792	286.06
448.013	298.06
448.234	301.06
448.455	292.06
448.675	284.06
448.896	281.06
449.117	283.06
449.338	282.06
449.559	281.06
449.779	252.06
450	281.06
450.221	285.06
450.442	269.06
450.662	273.06
450.883	267.06
451.104	256.06
451.324	262.06
451.545	264.06
451.766	246.06
451.986	237.06
452.207	250.06
452.428	242.06
452.648	227.06
452.869	228.06
453.089	234.06
453.31	209.06
453.53	199.06
453.751	204.06
453.971	196.06
454.192	210.06
454.412	210.06
454.633	235.06
454.853	234.06
455.073	238.06
455.294	238.06
455.514	236.06
455.734	237.06
455.955	225.06
456.175	221.06
456.395	200.06
456.616	194.06
456.836	218.06
457.056	208.06
457.276	193.06
457.497	210.06
457.717	188.06
457.937	200.06
458.157	196.06
458.377	202.06
458.598	182.06
458.818	187.06
459.038	173.06
459.258	163.06
459.478	189.06
459.698	171.06
459.918	212.06
460.138	215.06
460.358	232.06
460.578	255.06
460.798	231.06
461.018	247.06
461.238	238.06
461.458	249.06
461.678	238.06
461.898	245.06
462.118	245.06
462.338	246.06
462.558	262.06
462.777	266.06
462.997	278.06
463.217	283.06
463.437	255.06
463.657	266.06
463.876	242.06
464.096	250.06
464.316	238.06
464.536	246.06
464.755	267.06
464.975	250.06
465.195	227.06
465.414	221.06
465.634	217.06
465.854	238.06
466.073	242.06
466.293	251.06
466.512	262.06
466.732	254.06
466.951	260.06
467.171	255.06
467.391	256.06
467.61	278.06
467.829	261.06
468.049	281.06
468.268	274.06
468.488	253.06
468.707	255.06
468.927	270.06
469.146	271.06
469.365	278.06
469.585	283.06
469.804	281.06
470.023	283.06
470.243	283.06
470.462	279.06
470.681	264.06
470.901	273.06
471.12	281.06
471.339	270.06
471.558	275.06
471.777	269.06
471.997	261.06
472.216	276.06
472.435	227.06
472.654	202.06
472.873	219.06
473.092	213.06
473.311	254.06
473.53	262.06
473.749	243.06
473.968	248.06
474.187	237.06
474.406	224.06
474.625	240.06
474.844	254.06
475.063	262.06
475.282	244.06
475.501	220.06
475.72	236.06
475.939	226.06
476.158	253.06
476.377	225.06
476.596	224.06
476.814	217.06
477.033	209.06
477.252	228.06
477.471	244.06
477.69	264.06
477.908	283.06
478.127	289.06
478.346	280.06
478.564	268.06
478.783	281.06
479.002	292.06
479.22	289.06
479.439	281.06
479.658	242.06
479.876	227.06
480.095	222.06
480.313	270.06
480.532	277.06
480.751	227.06
480.969	197.06
481.188	183.06
481.406	184.06
481.624	186.06
481.843	185.06
482.061	191.06
482.28	225.06
482.498	225.06
482.717	203.06
482.935	232.06
483.153	273.06
483.372	295.06
483.59	298.06
483.808	282.06
484.027	260.06
484.245	253.06
484.463	255.06
484.681	294.06
484.9	260.06
485.118	275.06
485.336	252.06
485.554	223.06
485.772	209.06
485.99	209.06
486.209	238.06
486.427	214.06
486.645	245.06
486.863	284.06
487.081	272.06
487.299	262.06
487.517	275.06
487.735	325.06
487.953	381.06
488.171	380.06
488.389	321.06
488.607	308.06
488.825	282.06
489.043	258.06
489.261	275.06
489.479	258.06
489.696	279.06
489.914	265.06
490.132	285.06
490.35	295.06
490.568	337.06
490.786	363.06
491.003	363.06
491.221	381.06
491.439	371.06
491.657	385.06
491.874	426.06
492.092	475.06
492.31	499.06
492.527	463.06
492.745	421.06
492.963	420.06
493.18	391.06
493.398	386.06
493.615	392.06
493.833	365.06
494.05	361.06
494.268	370.06
494.485	347.06
494.703	375.06
494.92	360.06
495.138	369.06
495.355	362.06
495.573	362.06
495.79	364.06
496.008	341.06
496.225	362.06
496.442	363.06
496.66	348.06
496.877	342.06
497.094	366.06
497.312	332.06
497.529	338.06
497.746	305.06
497.963	301.06
498.181	285.06
498.398	283.06
498.615	274.06
498.832	276.06
499.049	298.06
499.267	347.06
499.484	359.06
499.701	395.06
499.918	436.06
500.135	467.06
500.352	516.06
500.569	503.06
500.786	502.06
501.003	479.06
501.22	437.06
501.437	407.06
501.654	355.06
501.871	354.06
502.088	331.06
502.305	331.06
502.522	318.06
502.739	319.06
502.956	286.06
503.172	279.06
503.389	280.06
503.606	260.06
503.823	267.06
504.04	260.06
504.256	269.06
504.473	279.06
504.69	270.06
