Data from SampD_HRD10591_00099.txt Node
Date: Mon Jan 19 11:48:12 EST 2026
User: Yrep
Spectrometer: HR+D1059
Trigger mode: 0
Integration Time (sec): 3.443000E-1
Scans to average: 1
Electric dark correction enabled: true
Nonlinearity correction enabled: false
Boxcar width: 0
XAxis mode: Wavelengths
Number of Pixels in Spectrum: 2048
>>>>>Begin Spectral Data<<<<<
223.165	-32.62
223.4	-32.62
223.635	-32.62
223.869	-20.62
224.104	-21.62
224.338	-4.62
224.573	-25.62
224.808	-11.62
225.042	-5.62
225.277	0.38
225.511	7.38
225.746	14.38
225.98	14.38
226.215	18.38
226.449	-5.62
226.683	24.38
226.918	19.38
227.152	29.38
227.387	42.38
227.621	42.38
227.856	53.38
228.09	47.38
228.324	38.38
228.559	58.38
228.793	61.38
229.027	72.38
229.262	68.38
229.496	67.38
229.73	61.38
229.964	82.38
230.199	66.38
230.433	85.38
230.667	63.38
230.901	79.38
231.136	73.38
231.37	82.38
231.604	87.38
231.838	86.38
232.072	81.38
232.306	85.38
232.541	85.38
232.775	75.38
233.009	76.38
233.243	74.38
233.477	68.38
233.711	91.38
233.945	100.38
234.179	94.38
234.413	81.38
234.647	57.38
234.881	80.38
235.115	84.38
235.349	85.38
235.583	94.38
235.817	69.38
236.051	86.38
236.285	63.38
236.519	81.38
236.753	63.38
236.987	75.38
237.221	59.38
237.455	66.38
237.689	77.38
237.922	77.38
238.156	80.38
238.39	77.38
238.624	79.38
238.858	90.38
239.091	88.38
239.325	72.38
239.559	72.38
239.793	74.38
240.027	75.38
240.26	84.38
240.494	83.38
240.728	80.38
240.961	69.38
241.195	90.38
241.429	76.38
241.662	69.38
241.896	73.38
242.13	72.38
242.363	66.38
242.597	73.38
242.83	94.38
243.064	93.38
243.298	66.38
243.531	80.38
243.765	85.38
243.998	82.38
244.232	87.38
244.465	88.38
244.699	85.38
244.932	82.38
245.166	88.38
245.399	82.38
245.633	83.38
245.866	73.38
246.099	73.38
246.333	79.38
246.566	100.38
246.8	81.38
247.033	75.38
247.266	89.38
247.5	81.38
247.733	65.38
247.966	86.38
248.2	95.38
248.433	83.38
248.666	83.38
248.899	77.38
249.133	85.38
249.366	95.38
249.599	81.38
249.832	81.38
250.066	82.38
250.299	86.38
250.532	67.38
250.765	77.38
250.998	86.38
251.231	76.38
251.465	89.38
251.698	91.38
251.931	64.38
252.164	89.38
252.397	88.38
252.63	94.38
252.863	75.38
253.096	91.38
253.329	71.38
253.562	74.38
253.795	84.38
254.028	98.38
254.261	83.38
254.494	90.38
254.727	86.38
254.96	96.38
255.193	77.38
255.426	91.38
255.659	80.38
255.892	89.38
256.124	81.38
256.357	95.38
256.59	74.38
256.823	83.38
257.056	84.38
257.289	90.38
257.521	60.38
257.754	73.38
257.987	72.38
258.22	94.38
258.452	84.38
258.685	91.38
258.918	99.38
259.151	95.38
259.383	91.38
259.616	83.38
259.849	72.38
260.081	83.38
260.314	93.38
260.547	91.38
260.779	73.38
261.012	79.38
261.244	87.38
261.477	102.38
261.71	94.38
261.942	93.38
262.175	88.38
262.407	106.38
262.64	79.38
262.872	93.38
263.105	93.38
263.337	94.38
263.57	107.38
263.802	101.38
264.035	96.38
264.267	95.38
264.499	90.38
264.732	100.38
264.964	86.38
265.197	94.38
265.429	95.38
265.661	99.38
265.894	86.38
266.126	98.38
266.358	92.38
266.591	92.38
266.823	104.38
267.055	88.38
267.287	100.38
267.52	83.38
267.752	98.38
267.984	90.38
268.216	98.38
268.448	99.38
268.681	84.38
268.913	86.38
269.145	87.38
269.377	94.38
269.609	94.38
269.841	101.38
270.073	83.38
270.306	89.38
270.538	90.38
270.77	95.38
271.002	94.38
271.234	100.38
271.466	107.38
271.698	78.38
271.93	87.38
272.162	106.38
272.394	86.38
272.626	95.38
272.858	88.38
273.09	96.38
273.322	111.38
273.553	86.38
273.785	100.38
274.017	85.38
274.249	89.38
274.481	76.38
274.713	97.38
274.945	97.38
275.176	93.38
275.408	92.38
275.64	87.38
275.872	77.38
276.104	95.38
276.335	85.38
276.567	103.38
276.799	91.38
277.031	98.38
277.262	90.38
277.494	96.38
277.726	116.38
277.957	101.38
278.189	98.38
278.421	94.38
278.652	85.38
278.884	103.38
279.115	96.38
279.347	105.38
279.579	101.38
279.81	90.38
280.042	89.38
280.273	94.38
280.505	97.38
280.736	94.38
280.968	97.38
281.199	89.38
281.431	95.38
281.662	101.38
281.894	96.38
282.125	103.38
282.356	96.38
282.588	86.38
282.819	99.38
283.051	109.38
283.282	107.38
283.513	115.38
283.745	108.38
283.976	103.38
284.207	99.38
284.439	106.38
284.67	97.38
284.901	111.38
285.132	102.38
285.364	97.38
285.595	81.38
285.826	98.38
286.057	106.38
286.288	93.38
286.52	108.38
286.751	98.38
286.982	93.38
287.213	83.38
287.444	104.38
287.675	97.38
287.906	98.38
288.138	109.38
288.369	97.38
288.6	103.38
288.831	106.38
289.062	99.38
289.293	96.38
289.524	104.38
289.755	82.38
289.986	89.38
290.217	105.38
290.448	79.38
290.679	99.38
290.91	95.38
291.141	105.38
291.371	95.38
291.602	98.38
291.833	98.38
292.064	99.38
292.295	102.38
292.526	88.38
292.757	100.38
292.987	95.38
293.218	91.38
293.449	108.38
293.68	102.38
293.91	116.38
294.141	107.38
294.372	110.38
294.603	92.38
294.833	96.38
295.064	101.38
295.295	86.38
295.525	101.38
295.756	110.38
295.987	104.38
296.217	101.38
296.448	107.38
296.679	94.38
296.909	108.38
297.14	118.38
297.37	98.38
297.601	104.38
297.831	97.38
298.062	95.38
298.292	109.38
298.523	111.38
298.753	107.38
298.984	99.38
299.214	98.38
299.445	88.38
299.675	102.38
299.905	110.38
300.136	92.38
300.366	104.38
300.597	102.38
300.827	99.38
301.057	93.38
301.288	93.38
301.518	99.38
301.748	100.38
301.979	143.38
302.209	121.38
302.439	97.38
302.669	93.38
302.9	112.38
303.13	101.38
303.36	101.38
303.59	96.38
303.82	101.38
304.051	111.38
304.281	108.38
304.511	106.38
304.741	107.38
304.971	97.38
305.201	105.38
305.431	105.38
305.661	97.38
305.891	102.38
306.121	114.38
306.352	105.38
306.582	106.38
306.812	113.38
307.042	111.38
307.272	114.38
307.502	90.38
307.731	98.38
307.961	109.38
308.191	102.38
308.421	112.38
308.651	104.38
308.881	101.38
309.111	95.38
309.341	101.38
309.571	88.38
309.8	109.38
310.03	97.38
310.26	118.38
310.49	101.38
310.72	106.38
310.949	108.38
311.179	106.38
311.409	120.38
311.639	102.38
311.868	105.38
312.098	99.38
312.328	111.38
312.557	109.38
312.787	110.38
313.017	104.38
313.246	117.38
313.476	107.38
313.706	114.38
313.935	123.38
314.165	115.38
314.394	99.38
314.624	109.38
314.853	89.38
315.083	93.38
315.312	117.38
315.542	99.38
315.771	106.38
316.001	97.38
316.23	108.38
316.46	93.38
316.689	97.38
316.919	97.38
317.148	108.38
317.377	113.38
317.607	109.38
317.836	101.38
318.065	107.38
318.295	101.38
318.524	100.38
318.753	110.38
318.983	101.38
319.212	95.38
319.441	95.38
319.67	103.38
319.9	111.38
320.129	100.38
320.358	107.38
320.587	104.38
320.816	109.38
321.046	101.38
321.275	104.38
321.504	107.38
321.733	103.38
321.962	123.38
322.191	111.38
322.42	111.38
322.649	115.38
322.878	104.38
323.108	106.38
323.337	116.38
323.566	101.38
323.795	110.38
324.024	110.38
324.253	105.38
324.482	109.38
324.71	90.38
324.939	114.38
325.168	99.38
325.397	98.38
325.626	93.38
325.855	98.38
326.084	103.38
326.313	111.38
326.542	107.38
326.77	103.38
326.999	107.38
327.228	94.38
327.457	105.38
327.686	117.38
327.914	104.38
328.143	119.38
328.372	113.38
328.6	90.38
328.829	105.38
329.058	99.38
329.287	110.38
329.515	110.38
329.744	103.38
329.972	89.38
330.201	95.38
330.43	104.38
330.658	116.38
330.887	110.38
331.115	121.38
331.344	104.38
331.572	128.38
331.801	109.38
332.03	119.38
332.258	122.38
332.486	118.38
332.715	102.38
332.943	115.38
333.172	108.38
333.4	98.38
333.629	128.38
333.857	119.38
334.085	125.38
334.314	107.38
334.542	107.38
334.771	103.38
334.999	108.38
335.227	102.38
335.455	105.38
335.684	117.38
335.912	109.38
336.14	125.38
336.369	115.38
336.597	113.38
336.825	106.38
337.053	105.38
337.281	110.38
337.51	115.38
337.738	120.38
337.966	103.38
338.194	102.38
338.422	99.38
338.65	122.38
338.878	120.38
339.106	106.38
339.334	106.38
339.562	106.38
339.79	115.38
340.018	106.38
340.246	110.38
340.474	105.38
340.702	108.38
340.93	109.38
341.158	103.38
341.386	102.38
341.614	104.38
341.842	120.38
342.07	112.38
342.298	126.38
342.526	83.38
342.754	101.38
342.981	110.38
343.209	110.38
343.437	141.38
343.665	121.38
343.893	125.38
344.12	118.38
344.348	120.38
344.576	111.38
344.804	111.38
345.031	110.38
345.259	120.38
345.487	103.38
345.714	97.38
345.942	100.38
346.17	111.38
346.397	93.38
346.625	107.38
346.853	101.38
347.08	113.38
347.308	90.38
347.535	97.38
347.763	120.38
347.99	106.38
348.218	110.38
348.445	115.38
348.673	107.38
348.9	105.38
349.128	96.38
349.355	112.38
349.583	106.38
349.81	110.38
350.037	109.38
350.265	98.38
350.492	111.38
350.72	98.38
350.947	113.38
351.174	105.38
351.402	117.38
351.629	103.38
351.856	94.38
352.083	86.38
352.311	103.38
352.538	115.38
352.765	105.38
352.992	109.38
353.22	105.38
353.447	105.38
353.674	120.38
353.901	103.38
354.128	117.38
354.355	97.38
354.583	101.38
354.81	115.38
355.037	97.38
355.264	117.38
355.491	97.38
355.718	115.38
355.945	125.38
356.172	96.38
356.399	108.38
356.626	114.38
356.853	92.38
357.08	109.38
357.307	106.38
357.534	105.38
357.761	115.38
357.988	113.38
358.215	102.38
358.441	107.38
358.668	119.38
358.895	106.38
359.122	100.38
359.349	96.38
359.576	115.38
359.802	90.38
360.029	97.38
360.256	107.38
360.483	106.38
360.709	106.38
360.936	122.38
361.163	97.38
361.39	104.38
361.616	98.38
361.843	102.38
362.07	116.38
362.296	124.38
362.523	105.38
362.749	97.38
362.976	103.38
363.203	111.38
363.429	97.38
363.656	114.38
363.882	97.38
364.109	108.38
364.335	117.38
364.562	113.38
364.788	105.38
365.015	97.38
365.241	106.38
365.468	113.38
365.694	95.38
365.92	105.38
366.147	95.38
366.373	95.38
366.599	111.38
366.826	106.38
367.052	107.38
367.278	105.38
367.505	104.38
367.731	125.38
367.957	112.38
368.184	126.38
368.41	119.38
368.636	112.38
368.862	116.38
369.089	102.38
369.315	112.38
369.541	116.38
369.767	104.38
369.993	115.38
370.219	105.38
370.445	123.38
370.672	122.38
370.898	115.38
371.124	118.38
371.35	90.38
371.576	113.38
371.802	109.38
372.028	106.38
372.254	112.38
372.48	125.38
372.706	108.38
372.932	132.38
373.158	104.38
373.384	120.38
373.61	121.38
373.835	112.38
374.061	110.38
374.287	114.38
374.513	128.38
374.739	126.38
374.965	131.38
375.191	114.38
375.416	118.38
375.642	122.38
375.868	135.38
376.094	134.38
376.319	126.38
376.545	120.38
376.771	113.38
376.997	112.38
377.222	120.38
377.448	118.38
377.674	107.38
377.899	117.38
378.125	110.38
378.35	108.38
378.576	114.38
378.802	132.38
379.027	130.38
379.253	122.38
379.478	114.38
379.704	99.38
379.929	112.38
380.155	113.38
380.38	125.38
380.606	124.38
380.831	129.38
381.057	120.38
381.282	129.38
381.507	122.38
381.733	106.38
381.958	124.38
382.184	113.38
382.409	105.38
382.634	130.38
382.86	118.38
383.085	119.38
383.31	135.38
383.535	131.38
383.761	126.38
383.986	146.38
384.211	131.38
384.436	116.38
384.662	134.38
384.887	130.38
385.112	115.38
385.337	142.38
385.562	121.38
385.787	132.38
386.013	145.38
386.238	136.38
386.463	125.38
386.688	168.38
386.913	137.38
387.138	118.38
387.363	127.38
387.588	140.38
387.813	131.38
388.038	134.38
388.263	134.38
388.488	132.38
388.713	142.38
388.938	148.38
389.163	145.38
389.387	137.38
389.612	117.38
389.837	117.38
390.062	140.38
390.287	141.38
390.512	134.38
390.736	135.38
390.961	130.38
391.186	132.38
391.411	142.38
391.636	135.38
391.86	146.38
392.085	151.38
392.31	143.38
392.534	158.38
392.759	143.38
392.984	138.38
393.208	133.38
393.433	146.38
393.658	143.38
393.882	146.38
394.107	137.38
394.331	128.38
394.556	138.38
394.78	159.38
395.005	147.38
395.229	156.38
395.454	154.38
395.678	153.38
395.903	151.38
396.127	155.38
396.352	148.38
396.576	146.38
396.801	162.38
397.025	134.38
397.249	154.38
397.474	144.38
397.698	148.38
397.922	166.38
398.147	147.38
398.371	159.38
398.595	153.38
398.82	150.38
399.044	161.38
399.268	179.38
399.492	169.38
399.717	195.38
399.941	179.38
400.165	184.38
400.389	180.38
400.613	169.38
400.837	169.38
401.062	159.38
401.286	126.38
401.51	166.38
401.734	155.38
401.958	139.38
402.182	151.38
402.406	177.38
402.63	166.38
402.854	168.38
403.078	168.38
403.302	166.38
403.526	165.38
403.75	184.38
403.974	173.38
404.198	172.38
404.422	165.38
404.645	170.38
404.869	161.38
405.093	147.38
405.317	171.38
405.541	190.38
405.765	171.38
405.988	146.38
406.212	179.38
406.436	188.38
406.66	194.38
406.883	176.38
407.107	178.38
407.331	182.38
407.555	173.38
407.778	180.38
408.002	173.38
408.226	175.38
408.449	183.38
408.673	178.38
408.896	168.38
409.12	177.38
409.344	170.38
409.567	178.38
409.791	171.38
410.014	177.38
410.238	175.38
410.461	188.38
410.685	169.38
410.908	182.38
411.132	183.38
411.355	154.38
411.578	186.38
411.802	163.38
412.025	168.38
412.249	177.38
412.472	174.38
412.695	161.38
412.919	146.38
413.142	163.38
413.365	173.38
413.589	172.38
413.812	165.38
414.035	173.38
414.258	163.38
414.482	162.38
414.705	157.38
414.928	157.38
415.151	178.38
415.374	181.38
415.597	166.38
415.821	167.38
416.044	166.38
416.267	170.38
416.49	171.38
416.713	176.38
416.936	179.38
417.159	164.38
417.382	161.38
417.605	182.38
417.828	173.38
418.051	184.38
418.274	178.38
418.497	178.38
418.72	179.38
418.943	176.38
419.166	190.38
419.389	193.38
419.611	178.38
419.834	194.38
420.057	174.38
420.28	195.38
420.503	189.38
420.726	184.38
420.948	173.38
421.171	196.38
421.394	197.38
421.617	192.38
421.839	182.38
422.062	194.38
422.285	177.38
422.507	189.38
422.73	181.38
422.953	168.38
423.175	169.38
423.398	170.38
423.621	190.38
423.843	185.38
424.066	188.38
424.288	199.38
424.511	189.38
424.733	181.38
424.956	198.38
425.178	185.38
425.401	181.38
425.623	195.38
425.846	185.38
426.068	163.38
426.291	175.38
426.513	173.38
426.735	170.38
426.958	169.38
427.18	178.38
427.402	186.38
427.625	176.38
427.847	167.38
428.069	181.38
428.292	170.38
428.514	174.38
428.736	158.38
428.958	174.38
429.181	173.38
429.403	177.38
429.625	172.38
429.847	189.38
430.069	166.38
430.292	185.38
430.514	172.38
430.736	162.38
430.958	172.38
431.18	165.38
431.402	173.38
431.624	150.38
431.846	147.38
432.068	133.38
432.29	157.38
432.512	169.38
432.734	164.38
432.956	169.38
433.178	190.38
433.4	183.38
433.622	189.38
433.844	179.38
434.066	161.38
434.287	142.38
434.509	124.38
434.731	160.38
434.953	159.38
435.175	176.38
435.397	182.38
435.618	166.38
435.84	143.38
436.062	166.38
436.284	163.38
436.505	189.38
436.727	174.38
436.949	168.38
437.17	181.38
437.392	158.38
437.614	153.38
437.835	154.38
438.057	136.38
438.278	152.38
438.5	145.38
438.721	184.38
438.943	189.38
439.165	182.38
439.386	166.38
439.608	183.38
439.829	169.38
440.05	190.38
440.272	179.38
440.493	182.38
440.715	184.38
440.936	186.38
441.158	194.38
441.379	179.38
441.6	201.38
441.822	203.38
442.043	205.38
442.264	201.38
442.486	172.38
442.707	179.38
442.928	182.38
443.149	198.38
443.371	180.38
443.592	174.38
443.813	191.38
444.034	188.38
444.255	205.38
444.476	197.38
444.698	201.38
444.919	196.38
445.14	460.38
445.361	314.38
445.582	177.38
445.803	207.38
446.024	182.38
446.245	213.38
446.466	191.38
446.687	198.38
446.908	192.38
447.129	209.38
447.35	178.38
447.571	202.38
447.792	181.38
448.013	177.38
448.234	186.38
448.455	190.38
448.675	173.38
448.896	170.38
449.117	181.38
449.338	185.38
449.559	182.38
449.779	165.38
450	166.38
450.221	174.38
450.442	182.38
450.662	169.38
450.883	160.38
451.104	167.38
451.324	150.38
451.545	186.38
451.766	161.38
451.986	169.38
452.207	163.38
452.428	171.38
452.648	156.38
452.869	171.38
453.089	137.38
453.31	141.38
453.53	155.38
453.751	124.38
453.971	119.38
454.192	139.38
454.412	137.38
454.633	139.38
454.853	149.38
455.073	146.38
455.294	158.38
455.514	141.38
455.734	159.38
455.955	146.38
456.175	135.38
456.395	138.38
456.616	139.38
456.836	151.38
457.056	150.38
457.276	133.38
457.497	122.38
457.717	142.38
457.937	141.38
458.157	138.38
458.377	130.38
458.598	114.38
458.818	128.38
459.038	127.38
459.258	134.38
459.478	130.38
459.698	127.38
459.918	130.38
460.138	134.38
460.358	145.38
460.578	170.38
460.798	166.38
461.018	162.38
461.238	157.38
461.458	168.38
461.678	168.38
461.898	150.38
462.118	164.38
462.338	162.38
462.558	165.38
462.777	162.38
462.997	168.38
463.217	177.38
463.437	165.38
463.657	151.38
463.876	161.38
464.096	178.38
464.316	153.38
464.536	176.38
464.755	163.38
464.975	164.38
465.195	169.38
465.414	160.38
465.634	138.38
465.854	155.38
466.073	149.38
466.293	161.38
466.512	159.38
466.732	152.38
466.951	161.38
467.171	165.38
467.391	162.38
467.61	177.38
467.829	165.38
468.049	185.38
468.268	168.38
468.488	159.38
468.707	165.38
468.927	158.38
469.146	165.38
469.365	183.38
469.585	190.38
469.804	176.38
470.023	183.38
470.243	189.38
470.462	177.38
470.681	182.38
470.901	179.38
471.12	181.38
471.339	179.38
471.558	205.38
471.777	177.38
471.997	167.38
472.216	164.38
472.435	167.38
472.654	136.38
472.873	141.38
473.092	155.38
473.311	153.38
473.53	161.38
473.749	174.38
473.968	176.38
474.187	136.38
474.406	150.38
474.625	149.38
474.844	172.38
475.063	165.38
475.282	157.38
475.501	147.38
475.72	165.38
475.939	158.38
476.158	161.38
476.377	162.38
476.596	145.38
476.814	147.38
477.033	152.38
477.252	167.38
477.471	154.38
477.69	162.38
477.908	188.38
478.127	180.38
478.346	170.38
478.564	176.38
478.783	171.38
479.002	181.38
479.22	180.38
479.439	184.38
479.658	179.38
479.876	165.38
480.095	157.38
480.313	146.38
480.532	145.38
480.751	136.38
480.969	148.38
481.188	138.38
481.406	130.38
481.624	122.38
481.843	110.38
482.061	127.38
482.28	149.38
482.498	133.38
482.717	139.38
482.935	156.38
483.153	171.38
483.372	183.38
483.59	178.38
483.808	178.38
484.027	166.38
484.245	177.38
484.463	173.38
484.681	197.38
484.9	170.38
485.118	173.38
485.336	166.38
485.554	136.38
485.772	153.38
485.99	132.38
486.209	138.38
486.427	137.38
486.645	158.38
486.863	170.38
487.081	173.38
487.299	177.38
487.517	193.38
487.735	224.38
487.953	218.38
488.171	215.38
488.389	206.38
488.607	198.38
488.825	193.38
489.043	157.38
489.261	161.38
489.479	156.38
489.696	189.38
489.914	179.38
490.132	185.38
490.35	186.38
490.568	192.38
490.786	217.38
491.003	231.38
491.221	225.38
491.439	243.38
491.657	234.38
491.874	254.38
492.092	270.38
492.31	288.38
492.527	270.38
492.745	267.38
492.963	244.38
493.18	234.38
493.398	213.38
493.615	216.38
493.833	216.38
494.05	228.38
494.268	223.38
494.485	241.38
494.703	238.38
494.92	242.38
495.138	224.38
495.355	229.38
495.573	228.38
495.79	218.38
496.008	227.38
496.225	231.38
496.442	214.38
496.66	227.38
496.877	205.38
497.094	219.38
497.312	217.38
497.529	202.38
497.746	213.38
497.963	182.38
498.181	194.38
498.398	175.38
498.615	174.38
498.832	182.38
499.049	204.38
499.267	211.38
499.484	205.38
499.701	235.38
499.918	242.38
500.135	250.38
500.352	280.38
500.569	280.38
500.786	277.38
501.003	250.38
501.22	230.38
501.437	229.38
501.654	220.38
501.871	199.38
502.088	203.38
502.305	205.38
502.522	205.38
502.739	204.38
502.956	187.38
503.172	178.38
503.389	158.38
503.606	164.38
503.823	178.38
504.04	166.38
504.256	170.38
504.473	166.38
504.69	177.38
504.907	199.38
505.123	165.38
505.34	160.38
505.557	149.38
505.773	158.38
505.99	162.38
506.207	154.38
506.423	156.38
506.64	162.38
506.856	168.38
507.073	163.38
