Data from SampD_HRD10591_00080.txt Node
Date: Mon Jan 19 11:48:05 EST 2026
User: Yrep
Spectrometer: HR+D1059
Trigger mode: 0
Integration Time (sec): 3.443000E-1
Scans to average: 1
Electric dark correction enabled: true
Nonlinearity correction enabled: false
Boxcar width: 0
XAxis mode: Wavelengths
Number of Pixels in Spectrum: 2048
>>>>>Begin Spectral Data<<<<<
223.165	-21.56
223.4	-21.56
223.635	-21.56
223.869	-20.56
224.104	-21.56
224.338	-21.56
224.573	-2.56
224.808	-15.56
225.042	-1.56
225.277	-18.56
225.511	5.44
225.746	-1.56
225.98	-12.56
226.215	12.44
226.449	17.44
226.683	30.44
226.918	25.44
227.152	46.44
227.387	30.44
227.621	25.44
227.856	57.44
228.09	51.44
228.324	55.44
228.559	74.44
228.793	56.44
229.027	71.44
229.262	65.44
229.496	78.44
229.73	66.44
229.964	84.44
230.199	73.44
230.433	80.44
230.667	78.44
230.901	65.44
231.136	77.44
231.37	76.44
231.604	82.44
231.838	91.44
232.072	89.44
232.306	74.44
232.541	70.44
232.775	80.44
233.009	65.44
233.243	77.44
233.477	80.44
233.711	78.44
233.945	86.44
234.179	84.44
234.413	76.44
234.647	91.44
234.881	77.44
235.115	102.44
235.349	84.44
235.583	99.44
235.817	87.44
236.051	74.44
236.285	63.44
236.519	89.44
236.753	86.44
236.987	90.44
237.221	71.44
237.455	81.44
237.689	87.44
237.922	69.44
238.156	83.44
238.39	71.44
238.624	88.44
238.858	82.44
239.091	97.44
239.325	64.44
239.559	80.44
239.793	85.44
240.027	76.44
240.26	72.44
240.494	78.44
240.728	73.44
240.961	84.44
241.195	84.44
241.429	87.44
241.662	72.44
241.896	74.44
242.13	72.44
242.363	88.44
242.597	80.44
242.83	84.44
243.064	78.44
243.298	78.44
243.531	76.44
243.765	76.44
243.998	88.44
244.232	87.44
244.465	86.44
244.699	73.44
244.932	81.44
245.166	73.44
245.399	90.44
245.633	93.44
245.866	76.44
246.099	67.44
246.333	89.44
246.566	76.44
246.8	84.44
247.033	87.44
247.266	86.44
247.5	93.44
247.733	84.44
247.966	89.44
248.2	65.44
248.433	81.44
248.666	81.44
248.899	95.44
249.133	82.44
249.366	93.44
249.599	106.44
249.832	94.44
250.066	81.44
250.299	100.44
250.532	108.44
250.765	100.44
250.998	84.44
251.231	86.44
251.465	98.44
251.698	79.44
251.931	80.44
252.164	91.44
252.397	88.44
252.63	84.44
252.863	81.44
253.096	104.44
253.329	87.44
253.562	91.44
253.795	95.44
254.028	82.44
254.261	82.44
254.494	101.44
254.727	94.44
254.96	90.44
255.193	79.44
255.426	92.44
255.659	81.44
255.892	103.44
256.124	85.44
256.357	92.44
256.59	95.44
256.823	86.44
257.056	94.44
257.289	98.44
257.521	78.44
257.754	98.44
257.987	84.44
258.22	86.44
258.452	93.44
258.685	92.44
258.918	91.44
259.151	103.44
259.383	93.44
259.616	101.44
259.849	95.44
260.081	96.44
260.314	97.44
260.547	97.44
260.779	105.44
261.012	93.44
261.244	91.44
261.477	97.44
261.71	87.44
261.942	93.44
262.175	82.44
262.407	99.44
262.64	100.44
262.872	103.44
263.105	88.44
263.337	100.44
263.57	85.44
263.802	102.44
264.035	99.44
264.267	106.44
264.499	104.44
264.732	104.44
264.964	101.44
265.197	100.44
265.429	111.44
265.661	107.44
265.894	92.44
266.126	95.44
266.358	114.44
266.591	96.44
266.823	96.44
267.055	90.44
267.287	103.44
267.52	81.44
267.752	100.44
267.984	102.44
268.216	98.44
268.448	114.44
268.681	118.44
268.913	110.44
269.145	114.44
269.377	101.44
269.609	101.44
269.841	99.44
270.073	92.44
270.306	100.44
270.538	96.44
270.77	102.44
271.002	108.44
271.234	103.44
271.466	117.44
271.698	104.44
271.93	85.44
272.162	110.44
272.394	108.44
272.626	111.44
272.858	109.44
273.09	124.44
273.322	107.44
273.553	89.44
273.785	99.44
274.017	102.44
274.249	103.44
274.481	104.44
274.713	110.44
274.945	124.44
275.176	100.44
275.408	101.44
275.64	98.44
275.872	119.44
276.104	103.44
276.335	107.44
276.567	100.44
276.799	102.44
277.031	92.44
277.262	106.44
277.494	88.44
277.726	92.44
277.957	103.44
278.189	117.44
278.421	95.44
278.652	97.44
278.884	94.44
279.115	98.44
279.347	112.44
279.579	111.44
279.81	110.44
280.042	97.44
280.273	92.44
280.505	114.44
280.736	118.44
280.968	109.44
281.199	121.44
281.431	109.44
281.662	119.44
281.894	109.44
282.125	114.44
282.356	109.44
282.588	104.44
282.819	124.44
283.051	121.44
283.282	117.44
283.513	115.44
283.745	102.44
283.976	122.44
284.207	109.44
284.439	104.44
284.67	118.44
284.901	106.44
285.132	114.44
285.364	124.44
285.595	112.44
285.826	108.44
286.057	116.44
286.288	118.44
286.52	109.44
286.751	104.44
286.982	112.44
287.213	118.44
287.444	136.44
287.675	117.44
287.906	125.44
288.138	124.44
288.369	116.44
288.6	117.44
288.831	104.44
289.062	123.44
289.293	109.44
289.524	135.44
289.755	117.44
289.986	112.44
290.217	126.44
290.448	130.44
290.679	109.44
290.91	125.44
291.141	125.44
291.371	131.44
291.602	89.44
291.833	110.44
292.064	128.44
292.295	128.44
292.526	114.44
292.757	119.44
292.987	120.44
293.218	106.44
293.449	109.44
293.68	125.44
293.91	114.44
294.141	118.44
294.372	108.44
294.603	102.44
294.833	106.44
295.064	108.44
295.295	97.44
295.525	115.44
295.756	129.44
295.987	126.44
296.217	107.44
296.448	119.44
296.679	109.44
296.909	126.44
297.14	123.44
297.37	142.44
297.601	121.44
297.831	117.44
298.062	112.44
298.292	123.44
298.523	129.44
298.753	124.44
298.984	113.44
299.214	109.44
299.445	117.44
299.675	128.44
299.905	144.44
300.136	123.44
300.366	122.44
300.597	124.44
300.827	114.44
301.057	121.44
301.288	118.44
301.518	131.44
301.748	128.44
301.979	160.44
302.209	133.44
302.439	133.44
302.669	130.44
302.9	116.44
303.13	131.44
303.36	111.44
303.59	113.44
303.82	116.44
304.051	128.44
304.281	136.44
304.511	119.44
304.741	130.44
304.971	124.44
305.201	113.44
305.431	122.44
305.661	126.44
305.891	118.44
306.121	129.44
306.352	145.44
306.582	118.44
306.812	130.44
307.042	126.44
307.272	128.44
307.502	119.44
307.731	128.44
307.961	124.44
308.191	118.44
308.421	114.44
308.651	120.44
308.881	125.44
309.111	115.44
309.341	125.44
309.571	121.44
309.8	119.44
310.03	121.44
310.26	117.44
310.49	125.44
310.72	126.44
310.949	131.44
311.179	124.44
311.409	114.44
311.639	111.44
311.868	133.44
312.098	123.44
312.328	117.44
312.557	145.44
312.787	128.44
313.017	142.44
313.246	129.44
313.476	133.44
313.706	128.44
313.935	128.44
314.165	120.44
314.394	131.44
314.624	122.44
314.853	136.44
315.083	138.44
315.312	127.44
315.542	123.44
315.771	116.44
316.001	132.44
316.23	123.44
316.46	116.44
316.689	118.44
316.919	128.44
317.148	127.44
317.377	122.44
317.607	114.44
317.836	127.44
318.065	136.44
318.295	144.44
318.524	112.44
318.753	122.44
318.983	119.44
319.212	116.44
319.441	135.44
319.67	122.44
319.9	104.44
320.129	126.44
320.358	137.44
320.587	134.44
320.816	122.44
321.046	127.44
321.275	112.44
321.504	120.44
321.733	128.44
321.962	124.44
322.191	133.44
322.42	137.44
322.649	140.44
322.878	132.44
323.108	118.44
323.337	128.44
323.566	140.44
323.795	130.44
324.024	125.44
324.253	115.44
324.482	121.44
324.71	126.44
324.939	127.44
325.168	126.44
325.397	128.44
325.626	121.44
325.855	115.44
326.084	141.44
326.313	138.44
326.542	135.44
326.77	130.44
326.999	134.44
327.228	129.44
327.457	112.44
327.686	133.44
327.914	129.44
328.143	145.44
328.372	130.44
328.6	130.44
328.829	138.44
329.058	117.44
329.287	154.44
329.515	143.44
329.744	149.44
329.972	144.44
330.201	132.44
330.43	126.44
330.658	114.44
330.887	142.44
331.115	139.44
331.344	141.44
331.572	143.44
331.801	137.44
332.03	143.44
332.258	128.44
332.486	133.44
332.715	140.44
332.943	161.44
333.172	166.44
333.4	152.44
333.629	144.44
333.857	143.44
334.085	157.44
334.314	162.44
334.542	156.44
334.771	168.44
334.999	145.44
335.227	144.44
335.455	147.44
335.684	140.44
335.912	150.44
336.14	146.44
336.369	143.44
336.597	127.44
336.825	150.44
337.053	162.44
337.281	147.44
337.51	136.44
337.738	146.44
337.966	135.44
338.194	135.44
338.422	140.44
338.65	140.44
338.878	146.44
339.106	138.44
339.334	140.44
339.562	137.44
339.79	139.44
340.018	136.44
340.246	148.44
340.474	131.44
340.702	127.44
340.93	130.44
341.158	125.44
341.386	126.44
341.614	133.44
341.842	133.44
342.07	136.44
342.298	140.44
342.526	153.44
342.754	137.44
342.981	142.44
343.209	143.44
343.437	160.44
343.665	129.44
343.893	154.44
344.12	148.44
344.348	133.44
344.576	139.44
344.804	135.44
345.031	141.44
345.259	127.44
345.487	134.44
345.714	125.44
345.942	126.44
346.17	128.44
346.397	138.44
346.625	126.44
346.853	142.44
347.08	128.44
347.308	137.44
347.535	127.44
347.763	133.44
347.99	125.44
348.218	133.44
348.445	143.44
348.673	133.44
348.9	135.44
349.128	137.44
349.355	119.44
349.583	121.44
349.81	120.44
350.037	147.44
350.265	140.44
350.492	130.44
350.72	118.44
350.947	141.44
351.174	142.44
351.402	136.44
351.629	113.44
351.856	141.44
352.083	122.44
352.311	124.44
352.538	132.44
352.765	136.44
352.992	145.44
353.22	135.44
353.447	119.44
353.674	137.44
353.901	136.44
354.128	138.44
354.355	131.44
354.583	120.44
354.81	127.44
355.037	131.44
355.264	136.44
355.491	132.44
355.718	124.44
355.945	123.44
356.172	131.44
356.399	135.44
356.626	125.44
356.853	118.44
357.08	141.44
357.307	133.44
357.534	127.44
357.761	133.44
357.988	142.44
358.215	128.44
358.441	133.44
358.668	132.44
358.895	127.44
359.122	132.44
359.349	116.44
359.576	131.44
359.802	122.44
360.029	126.44
360.256	130.44
360.483	122.44
360.709	122.44
360.936	145.44
361.163	124.44
361.39	134.44
361.616	122.44
361.843	123.44
362.07	138.44
362.296	164.44
362.523	148.44
362.749	127.44
362.976	129.44
363.203	153.44
363.429	117.44
363.656	145.44
363.882	128.44
364.109	128.44
364.335	144.44
364.562	125.44
364.788	128.44
365.015	138.44
365.241	143.44
365.468	142.44
365.694	125.44
365.92	129.44
366.147	148.44
366.373	127.44
366.599	140.44
366.826	144.44
367.052	129.44
367.278	162.44
367.505	139.44
367.731	166.44
367.957	153.44
368.184	136.44
368.41	148.44
368.636	142.44
368.862	147.44
369.089	132.44
369.315	137.44
369.541	151.44
369.767	149.44
369.993	145.44
370.219	126.44
370.445	149.44
370.672	156.44
370.898	147.44
371.124	149.44
371.35	151.44
371.576	160.44
371.802	141.44
372.028	161.44
372.254	152.44
372.48	165.44
372.706	179.44
372.932	158.44
373.158	160.44
373.384	158.44
373.61	149.44
373.835	152.44
374.061	142.44
374.287	166.44
374.513	162.44
374.739	165.44
374.965	161.44
375.191	164.44
375.416	170.44
375.642	182.44
375.868	164.44
376.094	161.44
376.319	148.44
376.545	167.44
376.771	169.44
376.997	162.44
377.222	153.44
377.448	149.44
377.674	142.44
377.899	164.44
378.125	163.44
378.35	178.44
378.576	167.44
378.802	169.44
379.027	150.44
379.253	161.44
379.478	157.44
379.704	158.44
379.929	170.44
380.155	155.44
380.38	162.44
380.606	150.44
380.831	156.44
381.057	176.44
381.282	169.44
381.507	164.44
381.733	169.44
381.958	158.44
382.184	151.44
382.409	184.44
382.634	167.44
382.86	160.44
383.085	183.44
383.31	163.44
383.535	173.44
383.761	170.44
383.986	163.44
384.211	185.44
384.436	171.44
384.662	183.44
384.887	182.44
385.112	188.44
385.337	193.44
385.562	187.44
385.787	186.44
386.013	191.44
386.238	192.44
386.463	187.44
386.688	200.44
386.913	195.44
387.138	189.44
387.363	193.44
387.588	205.44
387.813	209.44
388.038	194.44
388.263	186.44
388.488	199.44
388.713	193.44
388.938	185.44
389.163	188.44
389.387	186.44
389.612	213.44
389.837	192.44
390.062	197.44
390.287	188.44
390.512	200.44
390.736	204.44
390.961	201.44
391.186	172.44
391.411	207.44
391.636	208.44
391.86	213.44
392.085	230.44
392.31	218.44
392.534	202.44
392.759	216.44
392.984	222.44
393.208	202.44
393.433	200.44
393.658	210.44
393.882	206.44
394.107	192.44
394.331	206.44
394.556	214.44
394.78	210.44
395.005	193.44
395.229	212.44
395.454	210.44
395.678	225.44
395.903	222.44
396.127	223.44
396.352	209.44
396.576	196.44
396.801	192.44
397.025	209.44
397.249	215.44
397.474	225.44
397.698	234.44
397.922	222.44
398.147	209.44
398.371	232.44
398.595	229.44
398.82	233.44
399.044	245.44
399.268	255.44
399.492	269.44
399.717	299.44
399.941	293.44
400.165	272.44
400.389	258.44
400.613	240.44
400.837	227.44
401.062	230.44
401.286	253.44
401.51	259.44
401.734	254.44
401.958	238.44
402.182	246.44
402.406	242.44
402.63	240.44
402.854	245.44
403.078	266.44
403.302	241.44
403.526	259.44
403.75	282.44
403.974	276.44
404.198	265.44
404.422	280.44
404.645	290.44
404.869	265.44
405.093	273.44
405.317	280.44
405.541	273.44
405.765	276.44
405.988	272.44
406.212	278.44
406.436	255.44
406.66	265.44
406.883	281.44
407.107	280.44
407.331	284.44
407.555	280.44
407.778	280.44
408.002	283.44
408.226	289.44
408.449	285.44
408.673	268.44
408.896	266.44
409.12	259.44
409.344	255.44
409.567	278.44
409.791	290.44
410.014	284.44
410.238	261.44
410.461	282.44
410.685	261.44
410.908	260.44
411.132	298.44
411.355	267.44
411.578	257.44
411.802	260.44
412.025	257.44
412.249	273.44
412.472	268.44
412.695	264.44
412.919	280.44
413.142	275.44
413.365	255.44
413.589	278.44
413.812	261.44
414.035	280.44
414.258	262.44
414.482	256.44
414.705	268.44
414.928	276.44
415.151	271.44
415.374	274.44
415.597	263.44
415.821	263.44
416.044	261.44
416.267	275.44
416.49	277.44
416.713	264.44
416.936	282.44
417.159	260.44
417.382	284.44
417.605	264.44
417.828	272.44
418.051	271.44
418.274	287.44
418.497	261.44
418.72	280.44
418.943	286.44
419.166	299.44
419.389	309.44
419.611	284.44
419.834	289.44
420.057	304.44
420.28	295.44
420.503	282.44
420.726	287.44
420.948	274.44
421.171	292.44
421.394	278.44
421.617	295.44
421.839	294.44
422.062	295.44
422.285	278.44
422.507	285.44
422.73	273.44
422.953	261.44
423.175	268.44
423.398	292.44
423.621	276.44
423.843	294.44
424.066	296.44
424.288	300.44
424.511	305.44
424.733	318.44
424.956	296.44
425.178	290.44
425.401	298.44
425.623	272.44
425.846	286.44
426.068	287.44
426.291	272.44
426.513	268.44
426.735	271.44
426.958	288.44
427.18	263.44
427.402	257.44
427.625	254.44
427.847	275.44
428.069	273.44
428.292	265.44
428.514	274.44
428.736	260.44
428.958	266.44
429.181	270.44
429.403	270.44
429.625	263.44
429.847	272.44
430.069	268.44
430.292	277.44
430.514	257.44
430.736	262.44
430.958	252.44
431.18	254.44
431.402	254.44
431.624	246.44
431.846	207.44
432.068	182.44
432.29	188.44
432.512	248.44
432.734	268.44
432.956	273.44
433.178	274.44
433.4	279.44
433.622	282.44
433.844	277.44
434.066	240.44
434.287	216.44
434.509	208.44
434.731	208.44
434.953	236.44
435.175	270.44
435.397	282.44
435.618	249.44
435.84	212.44
436.062	238.44
436.284	264.44
436.505	264.44
436.727	272.44
436.949	273.44
437.17	242.44
437.392	248.44
437.614	232.44
437.835	205.44
438.057	208.44
438.278	230.44
438.5	254.44
438.721	270.44
438.943	282.44
439.165	267.44
439.386	260.44
439.608	298.44
439.829	294.44
440.05	299.44
440.272	298.44
440.493	313.44
440.715	293.44
440.936	281.44
441.158	296.44
441.379	315.44
441.6	318.44
441.822	324.44
442.043	318.44
442.264	302.44
442.486	308.44
442.707	288.44
442.928	292.44
443.149	301.44
443.371	311.44
443.592	293.44
443.813	304.44
444.034	316.44
444.255	292.44
444.476	312.44
444.698	329.44
444.919	334.44
445.14	583.44
445.361	439.44
445.582	326.44
445.803	306.44
446.024	303.44
446.245	328.44
446.466	325.44
446.687	301.44
446.908	326.44
447.129	308.44
447.35	302.44
447.571	288.44
447.792	277.44
448.013	278.44
448.234	278.44
448.455	279.44
448.675	273.44
448.896	279.44
449.117	268.44
449.338	271.44
449.559	293.44
449.779	278.44
450	272.44
450.221	275.44
450.442	257.44
450.662	276.44
450.883	244.44
451.104	271.44
451.324	268.44
451.545	262.44
451.766	271.44
451.986	268.44
452.207	248.44
452.428	245.44
452.648	235.44
452.869	238.44
453.089	209.44
453.31	221.44
453.53	200.44
453.751	196.44
453.971	193.44
454.192	213.44
454.412	196.44
454.633	214.44
454.853	230.44
455.073	228.44
455.294	223.44
455.514	229.44
455.734	229.44
455.955	205.44
456.175	198.44
456.395	185.44
456.616	192.44
456.836	217.44
457.056	197.44
457.276	204.44
457.497	214.44
457.717	201.44
457.937	210.44
458.157	215.44
458.377	182.44
458.598	176.44
458.818	179.44
459.038	164.44
459.258	195.44
459.478	168.44
459.698	182.44
459.918	200.44
460.138	234.44
460.358	227.44
460.578	231.44
460.798	226.44
461.018	255.44
461.238	250.44
461.458	254.44
461.678	251.44
461.898	258.44
462.118	241.44
462.338	244.44
462.558	245.44
462.777	246.44
462.997	294.44
463.217	282.44
463.437	265.44
463.657	239.44
463.876	232.44
464.096	264.44
464.316	254.44
464.536	265.44
464.755	266.44
464.975	257.44
465.195	232.44
465.414	232.44
465.634	228.44
465.854	240.44
466.073	245.44
466.293	247.44
466.512	251.44
466.732	256.44
466.951	259.44
467.171	261.44
467.391	264.44
467.61	271.44
467.829	257.44
468.049	264.44
468.268	245.44
468.488	254.44
468.707	261.44
468.927	261.44
469.146	265.44
469.365	277.44
469.585	269.44
469.804	267.44
470.023	287.44
470.243	281.44
470.462	292.44
470.681	305.44
470.901	282.44
471.12	265.44
471.339	277.44
471.558	287.44
471.777	280.44
471.997	251.44
472.216	241.44
472.435	206.44
472.654	215.44
472.873	209.44
473.092	224.44
473.311	242.44
473.53	238.44
473.749	242.44
473.968	239.44
474.187	232.44
474.406	224.44
474.625	231.44
474.844	268.44
475.063	262.44
475.282	240.44
475.501	235.44
475.72	241.44
475.939	216.44
476.158	241.44
476.377	231.44
476.596	239.44
476.814	207.44
477.033	203.44
477.252	226.44
477.471	254.44
477.69	263.44
477.908	289.44
478.127	301.44
478.346	263.44
478.564	286.44
478.783	276.44
479.002	303.44
479.22	276.44
479.439	292.44
479.658	256.44
479.876	233.44
480.095	216.44
480.313	243.44
480.532	253.44
480.751	230.44
480.969	197.44
481.188	176.44
481.406	191.44
481.624	181.44
481.843	188.44
482.061	224.44
482.28	233.44
482.498	224.44
482.717	213.44
482.935	234.44
483.153	278.44
483.372	296.44
483.59	297.44
483.808	273.44
484.027	241.44
484.245	255.44
484.463	260.44
484.681	276.44
484.9	265.44
485.118	274.44
485.336	224.44
485.554	220.44
485.772	189.44
485.99	206.44
486.209	216.44
486.427	217.44
486.645	261.44
486.863	281.44
487.081	279.44
487.299	270.44
487.517	272.44
487.735	325.44
487.953	373.44
488.171	365.44
488.389	360.44
488.607	277.44
488.825	276.44
489.043	248.44
489.261	265.44
489.479	262.44
489.696	275.44
489.914	298.44
490.132	272.44
490.35	313.44
490.568	319.44
490.786	361.44
491.003	357.44
491.221	384.44
491.439	389.44
491.657	378.44
491.874	438.44
492.092	454.44
492.31	501.44
492.527	468.44
492.745	428.44
492.963	413.44
493.18	394.44
493.398	382.44
493.615	383.44
493.833	369.44
494.05	372.44
494.268	350.44
494.485	356.44
494.703	374.44
494.92	389.44
495.138	349.44
495.355	364.44
495.573	344.44
495.79	351.44
496.008	332.44
496.225	357.44
496.442	343.44
496.66	355.44
496.877	341.44
497.094	353.44
497.312	346.44
497.529	333.44
497.746	320.44
497.963	290.44
498.181	286.44
498.398	274.44
498.615	292.44
498.832	286.44
499.049	301.44
499.267	323.44
499.484	372.44
499.701	388.44
499.918	446.44
500.135	478.44
500.352	525.44
500.569	530.44
500.786	535.44
501.003	502.44
501.22	436.44
501.437	403.44
501.654	370.44
501.871	354.44
502.088	315.44
502.305	323.44
502.522	326.44
502.739	303.44
502.956	306.44
503.172	288.44
503.389	280.44
503.606	250.44
503.823	265.44
504.04	278.44
504.256	259.44
504.473	259.44
504.69	269.44
504.907	278.44
