Data from SampD_HRD10591_00010.txt Node
Date: Mon Jan 19 11:47:41 EST 2026
User: Yrep
Spectrometer: HR+D1059
Trigger mode: 0
Integration Time (sec): 3.443000E-1
Scans to average: 1
Electric dark correction enabled: true
Nonlinearity correction enabled: false
Boxcar width: 0
XAxis mode: Wavelengths
Number of Pixels in Spectrum: 2048
>>>>>Begin Spectral Data<<<<<
223.165	-15.94
223.4	-15.94
223.635	-15.94
223.869	-19.94
224.104	-27.94
224.338	-29.94
224.573	-18.94
224.808	-10.94
225.042	-11.94
225.277	-4.94
225.511	0.06
225.746	2.06
225.98	11.06
226.215	20.06
226.449	14.06
226.683	17.06
226.918	38.06
227.152	38.06
227.387	33.06
227.621	50.06
227.856	43.06
228.09	43.06
228.324	49.06
228.559	65.06
228.793	53.06
229.027	54.06
229.262	74.06
229.496	58.06
229.73	67.06
229.964	82.06
230.199	74.06
230.433	69.06
230.667	72.06
230.901	82.06
231.136	72.06
231.37	78.06
231.604	71.06
231.838	78.06
232.072	69.06
232.306	86.06
232.541	78.06
232.775	65.06
233.009	69.06
233.243	75.06
233.477	80.06
233.711	74.06
233.945	88.06
234.179	76.06
234.413	85.06
234.647	84.06
234.881	86.06
235.115	92.06
235.349	81.06
235.583	88.06
235.817	89.06
236.051	85.06
236.285	85.06
236.519	87.06
236.753	85.06
236.987	75.06
237.221	75.06
237.455	86.06
237.689	100.06
237.922	82.06
238.156	89.06
238.39	79.06
238.624	87.06
238.858	72.06
239.091	66.06
239.325	61.06
239.559	83.06
239.793	73.06
240.027	87.06
240.26	86.06
240.494	90.06
240.728	90.06
240.961	68.06
241.195	92.06
241.429	89.06
241.662	83.06
241.896	86.06
242.13	88.06
242.363	84.06
242.597	87.06
242.83	72.06
243.064	76.06
243.298	75.06
243.531	91.06
243.765	89.06
243.998	70.06
244.232	102.06
244.465	93.06
244.699	86.06
244.932	79.06
245.166	88.06
245.399	91.06
245.633	67.06
245.866	95.06
246.099	88.06
246.333	93.06
246.566	93.06
246.8	84.06
247.033	82.06
247.266	81.06
247.5	89.06
247.733	81.06
247.966	75.06
248.2	90.06
248.433	91.06
248.666	87.06
248.899	83.06
249.133	91.06
249.366	102.06
249.599	85.06
249.832	90.06
250.066	73.06
250.299	68.06
250.532	92.06
250.765	87.06
250.998	75.06
251.231	85.06
251.465	90.06
251.698	88.06
251.931	89.06
252.164	90.06
252.397	83.06
252.63	88.06
252.863	93.06
253.096	103.06
253.329	90.06
253.562	98.06
253.795	96.06
254.028	101.06
254.261	81.06
254.494	90.06
254.727	95.06
254.96	84.06
255.193	105.06
255.426	78.06
255.659	82.06
255.892	96.06
256.124	77.06
256.357	99.06
256.59	100.06
256.823	67.06
257.056	101.06
257.289	94.06
257.521	87.06
257.754	78.06
257.987	86.06
258.22	97.06
258.452	82.06
258.685	79.06
258.918	105.06
259.151	91.06
259.383	81.06
259.616	88.06
259.849	96.06
260.081	94.06
260.314	91.06
260.547	103.06
260.779	102.06
261.012	100.06
261.244	92.06
261.477	99.06
261.71	78.06
261.942	86.06
262.175	107.06
262.407	95.06
262.64	84.06
262.872	98.06
263.105	100.06
263.337	100.06
263.57	94.06
263.802	86.06
264.035	96.06
264.267	99.06
264.499	103.06
264.732	106.06
264.964	100.06
265.197	99.06
265.429	112.06
265.661	107.06
265.894	95.06
266.126	104.06
266.358	105.06
266.591	80.06
266.823	98.06
267.055	101.06
267.287	107.06
267.52	87.06
267.752	110.06
267.984	104.06
268.216	107.06
268.448	110.06
268.681	112.06
268.913	102.06
269.145	97.06
269.377	113.06
269.609	105.06
269.841	94.06
270.073	110.06
270.306	97.06
270.538	102.06
270.77	99.06
271.002	91.06
271.234	99.06
271.466	108.06
271.698	111.06
271.93	105.06
272.162	100.06
272.394	107.06
272.626	92.06
272.858	95.06
273.09	108.06
273.322	115.06
273.553	84.06
273.785	113.06
274.017	85.06
274.249	105.06
274.481	91.06
274.713	115.06
274.945	113.06
275.176	89.06
275.408	115.06
275.64	118.06
275.872	107.06
276.104	100.06
276.335	111.06
276.567	99.06
276.799	87.06
277.031	104.06
277.262	100.06
277.494	111.06
277.726	103.06
277.957	111.06
278.189	108.06
278.421	103.06
278.652	97.06
278.884	109.06
279.115	105.06
279.347	97.06
279.579	96.06
279.81	103.06
280.042	114.06
280.273	108.06
280.505	109.06
280.736	118.06
280.968	93.06
281.199	137.06
281.431	112.06
281.662	112.06
281.894	107.06
282.125	122.06
282.356	119.06
282.588	110.06
282.819	110.06
283.051	102.06
283.282	112.06
283.513	112.06
283.745	108.06
283.976	105.06
284.207	120.06
284.439	115.06
284.67	114.06
284.901	106.06
285.132	99.06
285.364	121.06
285.595	99.06
285.826	106.06
286.057	113.06
286.288	112.06
286.52	124.06
286.751	105.06
286.982	104.06
287.213	114.06
287.444	121.06
287.675	127.06
287.906	111.06
288.138	117.06
288.369	112.06
288.6	118.06
288.831	106.06
289.062	120.06
289.293	118.06
289.524	119.06
289.755	116.06
289.986	118.06
290.217	123.06
290.448	116.06
290.679	104.06
290.91	122.06
291.141	113.06
291.371	129.06
291.602	129.06
291.833	119.06
292.064	121.06
292.295	127.06
292.526	114.06
292.757	112.06
292.987	117.06
293.218	138.06
293.449	104.06
293.68	120.06
293.91	122.06
294.141	139.06
294.372	120.06
294.603	125.06
294.833	116.06
295.064	127.06
295.295	120.06
295.525	113.06
295.756	126.06
295.987	128.06
296.217	114.06
296.448	113.06
296.679	118.06
296.909	111.06
297.14	123.06
297.37	115.06
297.601	124.06
297.831	117.06
298.062	123.06
298.292	122.06
298.523	117.06
298.753	115.06
298.984	116.06
299.214	135.06
299.445	131.06
299.675	137.06
299.905	121.06
300.136	122.06
300.366	118.06
300.597	116.06
300.827	126.06
301.057	127.06
301.288	126.06
301.518	119.06
301.748	129.06
301.979	170.06
302.209	128.06
302.439	122.06
302.669	132.06
302.9	103.06
303.13	118.06
303.36	106.06
303.59	122.06
303.82	118.06
304.051	129.06
304.281	152.06
304.511	131.06
304.741	109.06
304.971	114.06
305.201	125.06
305.431	115.06
305.661	96.06
305.891	117.06
306.121	130.06
306.352	120.06
306.582	129.06
306.812	133.06
307.042	116.06
307.272	132.06
307.502	118.06
307.731	116.06
307.961	128.06
308.191	123.06
308.421	111.06
308.651	129.06
308.881	113.06
309.111	115.06
309.341	121.06
309.571	116.06
309.8	109.06
310.03	118.06
310.26	124.06
310.49	122.06
310.72	122.06
310.949	120.06
311.179	127.06
311.409	115.06
311.639	121.06
311.868	116.06
312.098	143.06
312.328	118.06
312.557	129.06
312.787	127.06
313.017	131.06
313.246	116.06
313.476	116.06
313.706	124.06
313.935	119.06
314.165	121.06
314.394	129.06
314.624	130.06
314.853	115.06
315.083	122.06
315.312	130.06
315.542	116.06
315.771	131.06
316.001	121.06
316.23	125.06
316.46	110.06
316.689	123.06
316.919	132.06
317.148	114.06
317.377	133.06
317.607	134.06
317.836	112.06
318.065	133.06
318.295	133.06
318.524	118.06
318.753	116.06
318.983	123.06
319.212	121.06
319.441	117.06
319.67	126.06
319.9	131.06
320.129	146.06
320.358	111.06
320.587	112.06
320.816	120.06
321.046	127.06
321.275	128.06
321.504	128.06
321.733	118.06
321.962	120.06
322.191	134.06
322.42	126.06
322.649	132.06
322.878	123.06
323.108	127.06
323.337	125.06
323.566	126.06
323.795	122.06
324.024	125.06
324.253	130.06
324.482	121.06
324.71	138.06
324.939	127.06
325.168	137.06
325.397	119.06
325.626	128.06
325.855	131.06
326.084	119.06
326.313	111.06
326.542	127.06
326.77	129.06
326.999	128.06
327.228	123.06
327.457	132.06
327.686	127.06
327.914	142.06
328.143	131.06
328.372	137.06
328.6	116.06
328.829	131.06
329.058	121.06
329.287	131.06
329.515	144.06
329.744	108.06
329.972	132.06
330.201	137.06
330.43	147.06
330.658	126.06
330.887	128.06
331.115	110.06
331.344	136.06
331.572	139.06
331.801	135.06
332.03	150.06
332.258	144.06
332.486	142.06
332.715	139.06
332.943	141.06
333.172	148.06
333.4	132.06
333.629	162.06
333.857	149.06
334.085	144.06
334.314	155.06
334.542	139.06
334.771	146.06
334.999	147.06
335.227	142.06
335.455	158.06
335.684	160.06
335.912	145.06
336.14	148.06
336.369	145.06
336.597	150.06
336.825	137.06
337.053	134.06
337.281	131.06
337.51	135.06
337.738	142.06
337.966	144.06
338.194	133.06
338.422	131.06
338.65	130.06
338.878	139.06
339.106	137.06
339.334	140.06
339.562	134.06
339.79	150.06
340.018	140.06
340.246	130.06
340.474	148.06
340.702	135.06
340.93	128.06
341.158	123.06
341.386	123.06
341.614	126.06
341.842	144.06
342.07	139.06
342.298	121.06
342.526	124.06
342.754	141.06
342.981	132.06
343.209	130.06
343.437	167.06
343.665	154.06
343.893	158.06
344.12	158.06
344.348	163.06
344.576	145.06
344.804	140.06
345.031	138.06
345.259	131.06
345.487	143.06
345.714	117.06
345.942	135.06
346.17	140.06
346.397	126.06
346.625	136.06
346.853	123.06
347.08	122.06
347.308	142.06
347.535	124.06
347.763	131.06
347.99	133.06
348.218	138.06
348.445	132.06
348.673	115.06
348.9	131.06
349.128	139.06
349.355	131.06
349.583	124.06
349.81	126.06
350.037	128.06
350.265	136.06
350.492	116.06
350.72	130.06
350.947	142.06
351.174	142.06
351.402	133.06
351.629	125.06
351.856	124.06
352.083	138.06
352.311	114.06
352.538	129.06
352.765	136.06
352.992	149.06
353.22	127.06
353.447	134.06
353.674	125.06
353.901	131.06
354.128	112.06
354.355	122.06
354.583	132.06
354.81	134.06
355.037	129.06
355.264	120.06
355.491	128.06
355.718	120.06
355.945	121.06
356.172	143.06
356.399	135.06
356.626	119.06
356.853	132.06
357.08	137.06
357.307	103.06
357.534	137.06
357.761	130.06
357.988	142.06
358.215	130.06
358.441	126.06
358.668	128.06
358.895	118.06
359.122	147.06
359.349	143.06
359.576	139.06
359.802	119.06
360.029	128.06
360.256	132.06
360.483	129.06
360.709	134.06
360.936	137.06
361.163	128.06
361.39	113.06
361.616	126.06
361.843	129.06
362.07	140.06
362.296	146.06
362.523	127.06
362.749	136.06
362.976	123.06
363.203	162.06
363.429	131.06
363.656	141.06
363.882	135.06
364.109	147.06
364.335	141.06
364.562	143.06
364.788	134.06
365.015	133.06
365.241	131.06
365.468	127.06
365.694	123.06
365.92	153.06
366.147	133.06
366.373	142.06
366.599	124.06
366.826	127.06
367.052	130.06
367.278	147.06
367.505	139.06
367.731	161.06
367.957	134.06
368.184	120.06
368.41	142.06
368.636	135.06
368.862	147.06
369.089	135.06
369.315	128.06
369.541	146.06
369.767	142.06
369.993	137.06
370.219	134.06
370.445	139.06
370.672	154.06
370.898	138.06
371.124	146.06
371.35	148.06
371.576	154.06
371.802	154.06
372.028	165.06
372.254	156.06
372.48	149.06
372.706	147.06
372.932	158.06
373.158	161.06
373.384	163.06
373.61	138.06
373.835	137.06
374.061	144.06
374.287	166.06
374.513	158.06
374.739	166.06
374.965	167.06
375.191	153.06
375.416	164.06
375.642	162.06
375.868	147.06
376.094	166.06
376.319	161.06
376.545	150.06
376.771	143.06
376.997	153.06
377.222	151.06
377.448	167.06
377.674	167.06
377.899	148.06
378.125	151.06
378.35	155.06
378.576	165.06
378.802	162.06
379.027	159.06
379.253	161.06
379.478	160.06
379.704	161.06
379.929	167.06
380.155	143.06
380.38	151.06
380.606	165.06
380.831	173.06
381.057	202.06
381.282	176.06
381.507	163.06
381.733	172.06
381.958	162.06
382.184	155.06
382.409	161.06
382.634	176.06
382.86	178.06
383.085	180.06
383.31	177.06
383.535	199.06
383.761	166.06
383.986	168.06
384.211	173.06
384.436	191.06
384.662	181.06
384.887	174.06
385.112	176.06
385.337	183.06
385.562	174.06
385.787	183.06
386.013	173.06
386.238	199.06
386.463	187.06
386.688	231.06
386.913	179.06
387.138	176.06
387.363	181.06
387.588	183.06
387.813	188.06
388.038	195.06
388.263	200.06
388.488	193.06
388.713	188.06
388.938	193.06
389.163	191.06
389.387	192.06
389.612	183.06
389.837	197.06
390.062	191.06
390.287	179.06
390.512	188.06
390.736	175.06
390.961	201.06
391.186	203.06
391.411	182.06
391.636	203.06
391.86	206.06
392.085	201.06
392.31	191.06
392.534	216.06
392.759	196.06
392.984	216.06
393.208	197.06
393.433	194.06
393.658	195.06
393.882	199.06
394.107	191.06
394.331	214.06
394.556	215.06
394.78	229.06
395.005	217.06
395.229	214.06
395.454	213.06
395.678	210.06
395.903	210.06
396.127	211.06
396.352	210.06
396.576	208.06
396.801	211.06
397.025	205.06
397.249	216.06
397.474	225.06
397.698	224.06
397.922	233.06
398.147	206.06
398.371	218.06
398.595	230.06
398.82	226.06
399.044	250.06
399.268	254.06
399.492	267.06
399.717	274.06
399.941	259.06
400.165	276.06
400.389	253.06
400.613	232.06
400.837	238.06
401.062	228.06
401.286	240.06
401.51	247.06
401.734	243.06
401.958	248.06
402.182	256.06
402.406	243.06
402.63	247.06
402.854	259.06
403.078	254.06
403.302	239.06
403.526	270.06
403.75	266.06
403.974	278.06
404.198	272.06
404.422	271.06
404.645	251.06
404.869	272.06
405.093	254.06
405.317	270.06
405.541	248.06
405.765	251.06
405.988	258.06
406.212	271.06
406.436	272.06
406.66	264.06
406.883	272.06
407.107	271.06
407.331	292.06
407.555	280.06
407.778	290.06
408.002	284.06
408.226	268.06
408.449	252.06
408.673	271.06
408.896	268.06
409.12	261.06
409.344	278.06
409.567	263.06
409.791	272.06
410.014	279.06
410.238	276.06
410.461	261.06
410.685	286.06
410.908	255.06
411.132	264.06
411.355	249.06
411.578	253.06
411.802	253.06
412.025	254.06
412.249	250.06
412.472	257.06
412.695	253.06
412.919	264.06
413.142	258.06
413.365	245.06
413.589	269.06
413.812	259.06
414.035	260.06
414.258	255.06
414.482	254.06
414.705	260.06
414.928	263.06
415.151	254.06
415.374	273.06
415.597	276.06
415.821	272.06
416.044	265.06
416.267	269.06
416.49	255.06
416.713	260.06
416.936	267.06
417.159	261.06
417.382	251.06
417.605	259.06
417.828	264.06
418.051	281.06
418.274	302.06
418.497	282.06
418.72	253.06
418.943	302.06
419.166	280.06
419.389	319.06
419.611	298.06
419.834	293.06
420.057	282.06
420.28	284.06
420.503	279.06
420.726	279.06
420.948	259.06
421.171	281.06
421.394	272.06
421.617	286.06
421.839	292.06
422.062	284.06
422.285	288.06
422.507	281.06
422.73	264.06
422.953	292.06
423.175	269.06
423.398	274.06
423.621	278.06
423.843	305.06
424.066	308.06
424.288	306.06
424.511	310.06
424.733	300.06
424.956	292.06
425.178	288.06
425.401	291.06
425.623	289.06
425.846	281.06
426.068	292.06
426.291	267.06
426.513	263.06
426.735	276.06
426.958	257.06
427.18	268.06
427.402	284.06
427.625	277.06
427.847	255.06
428.069	266.06
428.292	276.06
428.514	276.06
428.736	258.06
428.958	265.06
429.181	264.06
429.403	256.06
429.625	255.06
429.847	236.06
430.069	258.06
430.292	268.06
430.514	269.06
430.736	243.06
430.958	251.06
431.18	243.06
431.402	240.06
431.624	221.06
431.846	216.06
432.068	177.06
432.29	196.06
432.512	212.06
432.734	226.06
432.956	271.06
433.178	283.06
433.4	262.06
433.622	268.06
433.844	265.06
434.066	226.06
434.287	203.06
434.509	187.06
434.731	217.06
434.953	230.06
435.175	258.06
435.397	260.06
435.618	227.06
435.84	224.06
436.062	250.06
436.284	246.06
436.505	262.06
436.727	274.06
436.949	256.06
437.17	262.06
437.392	250.06
437.614	234.06
437.835	212.06
438.057	200.06
438.278	221.06
438.5	244.06
438.721	273.06
438.943	275.06
439.165	274.06
439.386	288.06
439.608	273.06
439.829	282.06
440.05	299.06
440.272	294.06
440.493	289.06
440.715	284.06
440.936	297.06
441.158	309.06
441.379	303.06
441.6	320.06
441.822	304.06
442.043	300.06
442.264	284.06
442.486	286.06
442.707	257.06
442.928	277.06
443.149	297.06
443.371	315.06
443.592	287.06
443.813	283.06
444.034	275.06
444.255	303.06
444.476	305.06
444.698	311.06
444.919	318.06
445.14	520.06
445.361	406.06
445.582	302.06
445.803	295.06
446.024	299.06
446.245	306.06
446.466	319.06
446.687	292.06
446.908	308.06
447.129	315.06
447.35	289.06
447.571	304.06
447.792	290.06
448.013	280.06
448.234	290.06
448.455	270.06
448.675	282.06
448.896	286.06
449.117	257.06
449.338	236.06
449.559	250.06
449.779	258.06
450	259.06
450.221	243.06
450.442	267.06
450.662	272.06
450.883	263.06
451.104	254.06
451.324	252.06
451.545	263.06
451.766	258.06
451.986	248.06
452.207	263.06
452.428	234.06
452.648	251.06
452.869	233.06
453.089	222.06
453.31	206.06
453.53	211.06
453.751	192.06
453.971	189.06
454.192	191.06
454.412	226.06
454.633	198.06
454.853	231.06
455.073	232.06
455.294	214.06
455.514	222.06
455.734	223.06
455.955	212.06
456.175	195.06
456.395	223.06
456.616	196.06
456.836	197.06
457.056	190.06
457.276	187.06
457.497	192.06
457.717	194.06
457.937	187.06
458.157	200.06
458.377	178.06
458.598	164.06
458.818	172.06
459.038	171.06
459.258	176.06
459.478	170.06
459.698	175.06
459.918	188.06
460.138	213.06
460.358	235.06
460.578	239.06
460.798	258.06
461.018	254.06
461.238	236.06
461.458	231.06
461.678	233.06
461.898	242.06
462.118	231.06
462.338	243.06
462.558	265.06
462.777	259.06
462.997	261.06
463.217	254.06
463.437	271.06
463.657	238.06
463.876	259.06
464.096	248.06
464.316	229.06
464.536	240.06
464.755	259.06
464.975	253.06
465.195	261.06
465.414	246.06
465.634	226.06
465.854	225.06
466.073	211.06
466.293	240.06
466.512	233.06
466.732	250.06
466.951	255.06
467.171	262.06
467.391	255.06
467.61	272.06
467.829	261.06
468.049	245.06
468.268	242.06
468.488	259.06
468.707	257.06
468.927	263.06
469.146	272.06
469.365	274.06
469.585	272.06
469.804	281.06
470.023	288.06
470.243	268.06
470.462	296.06
470.681	277.06
470.901	286.06
471.12	275.06
471.339	290.06
471.558	286.06
471.777	268.06
471.997	262.06
472.216	239.06
472.435	219.06
472.654	210.06
472.873	209.06
473.092	229.06
473.311	223.06
473.53	210.06
473.749	212.06
473.968	233.06
474.187	214.06
474.406	216.06
474.625	230.06
474.844	245.06
475.063	235.06
475.282	235.06
475.501	216.06
475.72	235.06
475.939	247.06
476.158	250.06
476.377	244.06
476.596	226.06
476.814	199.06
477.033	200.06
477.252	215.06
477.471	240.06
477.69	265.06
477.908	272.06
478.127	283.06
478.346	272.06
478.564	278.06
478.783	266.06
479.002	278.06
479.22	270.06
479.439	266.06
479.658	238.06
479.876	222.06
480.095	234.06
480.313	252.06
480.532	242.06
480.751	231.06
480.969	185.06
481.188	190.06
481.406	172.06
481.624	174.06
481.843	177.06
482.061	196.06
482.28	212.06
482.498	203.06
482.717	214.06
482.935	242.06
483.153	254.06
483.372	282.06
483.59	286.06
483.808	284.06
484.027	247.06
484.245	244.06
484.463	282.06
484.681	282.06
484.9	254.06
485.118	249.06
485.336	237.06
485.554	208.06
485.772	190.06
485.99	221.06
486.209	216.06
486.427	236.06
486.645	225.06
486.863	282.06
487.081	292.06
487.299	267.06
487.517	301.06
487.735	334.06
487.953	370.06
488.171	358.06
488.389	323.06
488.607	286.06
488.825	262.06
489.043	243.06
489.261	259.06
489.479	266.06
489.696	278.06
489.914	290.06
490.132	290.06
490.35	291.06
490.568	320.06
490.786	351.06
491.003	382.06
491.221	358.06
491.439	369.06
491.657	378.06
491.874	438.06
492.092	484.06
492.31	479.06
492.527	462.06
492.745	411.06
492.963	382.06
493.18	380.06
493.398	372.06
493.615	376.06
493.833	355.06
494.05	355.06
494.268	356.06
494.485	360.06
494.703	354.06
494.92	351.06
495.138	349.06
495.355	368.06
495.573	362.06
495.79	339.06
496.008	345.06
496.225	350.06
496.442	342.06
496.66	339.06
496.877	347.06
497.094	324.06
497.312	340.06
497.529	315.06
497.746	319.06
497.963	282.06
498.181	293.06
498.398	280.06
498.615	294.06
498.832	283.06
499.049	293.06
499.267	321.06
499.484	346.06
499.701	377.06
499.918	414.06
500.135	454.06
500.352	502.06
500.569	480.06
500.786	492.06
501.003	437.06
501.22	436.06
501.437	394.06
501.654	378.06
501.871	356.06
502.088	327.06
502.305	314.06
502.522	300.06
502.739	303.06
502.956	298.06
503.172	266.06
503.389	254.06
503.606	258.06
503.823	250.06
504.04	270.06
504.256	260.06
504.473	246.06
504.69	278.06
504.907	268.06
