Data from SampD_HRD10591_00024.txt Node
Date: Mon Jan 19 11:47:46 EST 2026
User: Yrep
Spectrometer: HR+D1059
Trigger mode: 0
Integration Time (sec): 3.443000E-1
Scans to average: 1
Electric dark correction enabled: true
Nonlinearity correction enabled: false
Boxcar width: 0
XAxis mode: Wavelengths
Number of Pixels in Spectrum: 2048
>>>>>Begin Spectral Data<<<<<
223.165	-26.31
223.4	-26.31
223.635	-26.31
223.869	-26.31
224.104	-26.31
224.338	-5.31
224.573	-12.31
224.808	-3.31
225.042	-8.31
225.277	-5.31
225.511	1.69
225.746	-6.31
225.98	6.69
226.215	25.69
226.449	9.69
226.683	17.69
226.918	32.69
227.152	25.69
227.387	52.69
227.621	38.69
227.856	53.69
228.09	45.69
228.324	50.69
228.559	73.69
228.793	65.69
229.027	71.69
229.262	67.69
229.496	92.69
229.73	81.69
229.964	76.69
230.199	70.69
230.433	78.69
230.667	94.69
230.901	85.69
231.136	94.69
231.37	81.69
231.604	93.69
231.838	84.69
232.072	93.69
232.306	90.69
232.541	81.69
232.775	85.69
233.009	82.69
233.243	89.69
233.477	89.69
233.711	101.69
233.945	88.69
234.179	91.69
234.413	87.69
234.647	86.69
234.881	91.69
235.115	83.69
235.349	83.69
235.583	82.69
235.817	94.69
236.051	86.69
236.285	75.69
236.519	86.69
236.753	96.69
236.987	92.69
237.221	91.69
237.455	94.69
237.689	95.69
237.922	87.69
238.156	87.69
238.39	89.69
238.624	87.69
238.858	102.69
239.091	89.69
239.325	93.69
239.559	91.69
239.793	86.69
240.027	101.69
240.26	99.69
240.494	77.69
240.728	87.69
240.961	73.69
241.195	86.69
241.429	92.69
241.662	92.69
241.896	82.69
242.13	80.69
242.363	79.69
242.597	83.69
242.83	101.69
243.064	88.69
243.298	73.69
243.531	79.69
243.765	92.69
243.998	85.69
244.232	90.69
244.465	93.69
244.699	102.69
244.932	85.69
245.166	85.69
245.399	88.69
245.633	103.69
245.866	92.69
246.099	77.69
246.333	90.69
246.566	85.69
246.8	97.69
247.033	86.69
247.266	93.69
247.5	79.69
247.733	91.69
247.966	94.69
248.2	101.69
248.433	87.69
248.666	81.69
248.899	97.69
249.133	85.69
249.366	94.69
249.599	96.69
249.832	89.69
250.066	106.69
250.299	82.69
250.532	92.69
250.765	86.69
250.998	96.69
251.231	95.69
251.465	93.69
251.698	99.69
251.931	106.69
252.164	88.69
252.397	69.69
252.63	88.69
252.863	93.69
253.096	90.69
253.329	100.69
253.562	91.69
253.795	98.69
254.028	101.69
254.261	91.69
254.494	96.69
254.727	94.69
254.96	91.69
255.193	96.69
255.426	75.69
255.659	83.69
255.892	99.69
256.124	90.69
256.357	99.69
256.59	97.69
256.823	95.69
257.056	105.69
257.289	90.69
257.521	90.69
257.754	78.69
257.987	91.69
258.22	100.69
258.452	93.69
258.685	99.69
258.918	109.69
259.151	89.69
259.383	99.69
259.616	97.69
259.849	104.69
260.081	100.69
260.314	92.69
260.547	97.69
260.779	97.69
261.012	90.69
261.244	93.69
261.477	102.69
261.71	90.69
261.942	97.69
262.175	101.69
262.407	101.69
262.64	84.69
262.872	97.69
263.105	99.69
263.337	94.69
263.57	91.69
263.802	112.69
264.035	97.69
264.267	108.69
264.499	101.69
264.732	99.69
264.964	108.69
265.197	100.69
265.429	114.69
265.661	108.69
265.894	76.69
266.126	125.69
266.358	108.69
266.591	89.69
266.823	104.69
267.055	84.69
267.287	101.69
267.52	98.69
267.752	116.69
267.984	105.69
268.216	91.69
268.448	106.69
268.681	109.69
268.913	110.69
269.145	106.69
269.377	112.69
269.609	111.69
269.841	107.69
270.073	89.69
270.306	101.69
270.538	110.69
270.77	118.69
271.002	105.69
271.234	95.69
271.466	95.69
271.698	115.69
271.93	110.69
272.162	95.69
272.394	117.69
272.626	106.69
272.858	109.69
273.09	114.69
273.322	103.69
273.553	102.69
273.785	111.69
274.017	94.69
274.249	123.69
274.481	112.69
274.713	98.69
274.945	133.69
275.176	101.69
275.408	110.69
275.64	104.69
275.872	119.69
276.104	92.69
276.335	101.69
276.567	102.69
276.799	115.69
277.031	109.69
277.262	98.69
277.494	107.69
277.726	125.69
277.957	114.69
278.189	101.69
278.421	119.69
278.652	118.69
278.884	107.69
279.115	113.69
279.347	108.69
279.579	104.69
279.81	110.69
280.042	97.69
280.273	121.69
280.505	108.69
280.736	116.69
280.968	107.69
281.199	117.69
281.431	118.69
281.662	125.69
281.894	118.69
282.125	116.69
282.356	113.69
282.588	111.69
282.819	110.69
283.051	109.69
283.282	96.69
283.513	125.69
283.745	116.69
283.976	115.69
284.207	121.69
284.439	119.69
284.67	128.69
284.901	95.69
285.132	106.69
285.364	107.69
285.595	107.69
285.826	101.69
286.057	106.69
286.288	117.69
286.52	111.69
286.751	116.69
286.982	116.69
287.213	119.69
287.444	121.69
287.675	125.69
287.906	120.69
288.138	106.69
288.369	130.69
288.6	119.69
288.831	124.69
289.062	122.69
289.293	116.69
289.524	116.69
289.755	106.69
289.986	112.69
290.217	121.69
290.448	126.69
290.679	124.69
290.91	125.69
291.141	120.69
291.371	116.69
291.602	123.69
291.833	124.69
292.064	118.69
292.295	130.69
292.526	112.69
292.757	109.69
292.987	126.69
293.218	119.69
293.449	121.69
293.68	122.69
293.91	115.69
294.141	125.69
294.372	109.69
294.603	123.69
294.833	124.69
295.064	114.69
295.295	117.69
295.525	118.69
295.756	116.69
295.987	111.69
296.217	117.69
296.448	126.69
296.679	124.69
296.909	118.69
297.14	130.69
297.37	134.69
297.601	122.69
297.831	112.69
298.062	118.69
298.292	125.69
298.523	128.69
298.753	129.69
298.984	132.69
299.214	120.69
299.445	120.69
299.675	116.69
299.905	121.69
300.136	111.69
300.366	111.69
300.597	118.69
300.827	124.69
301.057	123.69
301.288	120.69
301.518	123.69
301.748	130.69
301.979	175.69
302.209	118.69
302.439	118.69
302.669	124.69
302.9	136.69
303.13	119.69
303.36	110.69
303.59	126.69
303.82	125.69
304.051	129.69
304.281	122.69
304.511	131.69
304.741	118.69
304.971	114.69
305.201	121.69
305.431	119.69
305.661	119.69
305.891	129.69
306.121	119.69
306.352	114.69
306.582	132.69
306.812	137.69
307.042	111.69
307.272	109.69
307.502	124.69
307.731	131.69
307.961	135.69
308.191	121.69
308.421	118.69
308.651	124.69
308.881	131.69
309.111	124.69
309.341	105.69
309.571	99.69
309.8	134.69
310.03	121.69
310.26	128.69
310.49	124.69
310.72	117.69
310.949	134.69
311.179	123.69
311.409	130.69
311.639	138.69
311.868	129.69
312.098	125.69
312.328	122.69
312.557	128.69
312.787	112.69
313.017	139.69
313.246	126.69
313.476	126.69
313.706	111.69
313.935	120.69
314.165	125.69
314.394	126.69
314.624	126.69
314.853	114.69
315.083	125.69
315.312	130.69
315.542	136.69
315.771	132.69
316.001	122.69
316.23	132.69
316.46	124.69
316.689	124.69
316.919	141.69
317.148	138.69
317.377	134.69
317.607	128.69
317.836	117.69
318.065	133.69
318.295	120.69
318.524	119.69
318.753	147.69
318.983	138.69
319.212	123.69
319.441	122.69
319.67	148.69
319.9	129.69
320.129	123.69
320.358	126.69
320.587	130.69
320.816	131.69
321.046	126.69
321.275	151.69
321.504	137.69
321.733	132.69
321.962	105.69
322.191	123.69
322.42	114.69
322.649	131.69
322.878	122.69
323.108	133.69
323.337	138.69
323.566	134.69
323.795	125.69
324.024	123.69
324.253	119.69
324.482	128.69
324.71	135.69
324.939	139.69
325.168	141.69
325.397	131.69
325.626	142.69
325.855	141.69
326.084	141.69
326.313	138.69
326.542	132.69
326.77	133.69
326.999	122.69
327.228	138.69
327.457	127.69
327.686	133.69
327.914	133.69
328.143	130.69
328.372	123.69
328.6	124.69
328.829	114.69
329.058	133.69
329.287	138.69
329.515	147.69
329.744	159.69
329.972	127.69
330.201	130.69
330.43	138.69
330.658	130.69
330.887	135.69
331.115	139.69
331.344	126.69
331.572	154.69
331.801	146.69
332.03	130.69
332.258	138.69
332.486	136.69
332.715	139.69
332.943	162.69
333.172	164.69
333.4	170.69
333.629	165.69
333.857	146.69
334.085	157.69
334.314	150.69
334.542	163.69
334.771	136.69
334.999	139.69
335.227	148.69
335.455	148.69
335.684	142.69
335.912	145.69
336.14	146.69
336.369	155.69
336.597	146.69
336.825	150.69
337.053	145.69
337.281	155.69
337.51	148.69
337.738	163.69
337.966	140.69
338.194	134.69
338.422	137.69
338.65	145.69
338.878	142.69
339.106	130.69
339.334	138.69
339.562	124.69
339.79	129.69
340.018	135.69
340.246	140.69
340.474	119.69
340.702	137.69
340.93	136.69
341.158	137.69
341.386	128.69
341.614	132.69
341.842	132.69
342.07	142.69
342.298	138.69
342.526	137.69
342.754	124.69
342.981	132.69
343.209	126.69
343.437	174.69
343.665	136.69
343.893	141.69
344.12	164.69
344.348	152.69
344.576	129.69
344.804	137.69
345.031	118.69
345.259	138.69
345.487	140.69
345.714	133.69
345.942	135.69
346.17	148.69
346.397	138.69
346.625	133.69
346.853	141.69
347.08	127.69
347.308	132.69
347.535	136.69
347.763	140.69
347.99	138.69
348.218	143.69
348.445	145.69
348.673	131.69
348.9	140.69
349.128	135.69
349.355	135.69
349.583	130.69
349.81	114.69
350.037	134.69
350.265	150.69
350.492	115.69
350.72	135.69
350.947	132.69
351.174	136.69
351.402	114.69
351.629	132.69
351.856	132.69
352.083	133.69
352.311	125.69
352.538	123.69
352.765	137.69
352.992	152.69
353.22	145.69
353.447	134.69
353.674	134.69
353.901	153.69
354.128	117.69
354.355	109.69
354.583	122.69
354.81	137.69
355.037	145.69
355.264	129.69
355.491	140.69
355.718	142.69
355.945	131.69
356.172	146.69
356.399	129.69
356.626	129.69
356.853	129.69
357.08	148.69
357.307	127.69
357.534	137.69
357.761	117.69
357.988	152.69
358.215	150.69
358.441	137.69
358.668	127.69
358.895	150.69
359.122	130.69
359.349	119.69
359.576	132.69
359.802	131.69
360.029	116.69
360.256	130.69
360.483	133.69
360.709	139.69
360.936	144.69
361.163	157.69
361.39	136.69
361.616	130.69
361.843	130.69
362.07	126.69
362.296	147.69
362.523	136.69
362.749	118.69
362.976	138.69
363.203	152.69
363.429	134.69
363.656	123.69
363.882	120.69
364.109	134.69
364.335	139.69
364.562	135.69
364.788	135.69
365.015	136.69
365.241	145.69
365.468	130.69
365.694	131.69
365.92	148.69
366.147	136.69
366.373	135.69
366.599	139.69
366.826	134.69
367.052	125.69
367.278	154.69
367.505	136.69
367.731	147.69
367.957	136.69
368.184	139.69
368.41	148.69
368.636	134.69
368.862	143.69
369.089	149.69
369.315	146.69
369.541	157.69
369.767	150.69
369.993	161.69
370.219	157.69
370.445	130.69
370.672	145.69
370.898	135.69
371.124	140.69
371.35	139.69
371.576	143.69
371.802	142.69
372.028	155.69
372.254	165.69
372.48	138.69
372.706	153.69
372.932	156.69
373.158	155.69
373.384	162.69
373.61	162.69
373.835	153.69
374.061	129.69
374.287	153.69
374.513	151.69
374.739	162.69
374.965	187.69
375.191	152.69
375.416	165.69
375.642	167.69
375.868	163.69
376.094	165.69
376.319	137.69
376.545	153.69
376.771	159.69
376.997	167.69
377.222	150.69
377.448	179.69
377.674	156.69
377.899	142.69
378.125	165.69
378.35	153.69
378.576	143.69
378.802	165.69
379.027	169.69
379.253	172.69
379.478	157.69
379.704	165.69
379.929	164.69
380.155	162.69
380.38	157.69
380.606	146.69
380.831	161.69
381.057	179.69
381.282	166.69
381.507	162.69
381.733	180.69
381.958	175.69
382.184	168.69
382.409	158.69
382.634	183.69
382.86	170.69
383.085	170.69
383.31	171.69
383.535	180.69
383.761	167.69
383.986	186.69
384.211	188.69
384.436	166.69
384.662	179.69
384.887	182.69
385.112	188.69
385.337	183.69
385.562	179.69
385.787	219.69
386.013	198.69
386.238	186.69
386.463	189.69
386.688	220.69
386.913	184.69
387.138	183.69
387.363	188.69
387.588	179.69
387.813	200.69
388.038	202.69
388.263	193.69
388.488	177.69
388.713	193.69
388.938	185.69
389.163	187.69
389.387	197.69
389.612	195.69
389.837	212.69
390.062	214.69
390.287	196.69
390.512	204.69
390.736	184.69
390.961	205.69
391.186	197.69
391.411	194.69
391.636	211.69
391.86	217.69
392.085	218.69
392.31	202.69
392.534	210.69
392.759	206.69
392.984	206.69
393.208	203.69
393.433	211.69
393.658	209.69
393.882	209.69
394.107	211.69
394.331	191.69
394.556	217.69
394.78	217.69
395.005	206.69
395.229	212.69
395.454	203.69
395.678	223.69
395.903	202.69
396.127	217.69
396.352	220.69
396.576	227.69
396.801	207.69
397.025	192.69
397.249	232.69
397.474	215.69
397.698	229.69
397.922	215.69
398.147	232.69
398.371	227.69
398.595	251.69
398.82	231.69
399.044	246.69
399.268	256.69
399.492	273.69
399.717	285.69
399.941	258.69
400.165	269.69
400.389	240.69
400.613	245.69
400.837	250.69
401.062	248.69
401.286	236.69
401.51	236.69
401.734	234.69
401.958	245.69
402.182	256.69
402.406	217.69
402.63	256.69
402.854	250.69
403.078	248.69
403.302	255.69
403.526	266.69
403.75	259.69
403.974	274.69
404.198	278.69
404.422	270.69
404.645	287.69
404.869	268.69
405.093	250.69
405.317	266.69
405.541	270.69
405.765	255.69
405.988	258.69
406.212	253.69
406.436	249.69
406.66	271.69
406.883	273.69
407.107	269.69
407.331	302.69
407.555	277.69
407.778	281.69
408.002	273.69
408.226	255.69
408.449	259.69
408.673	276.69
408.896	280.69
409.12	253.69
409.344	265.69
409.567	279.69
409.791	282.69
410.014	267.69
410.238	277.69
410.461	273.69
410.685	273.69
410.908	254.69
411.132	267.69
411.355	275.69
411.578	273.69
411.802	258.69
412.025	250.69
412.249	254.69
412.472	246.69
412.695	277.69
412.919	246.69
413.142	253.69
413.365	252.69
413.589	254.69
413.812	263.69
414.035	279.69
414.258	274.69
414.482	266.69
414.705	269.69
414.928	277.69
415.151	270.69
415.374	249.69
415.597	251.69
415.821	271.69
416.044	279.69
416.267	276.69
416.49	269.69
416.713	261.69
416.936	269.69
417.159	268.69
417.382	279.69
417.605	276.69
417.828	259.69
418.051	273.69
418.274	275.69
418.497	281.69
418.72	267.69
418.943	292.69
419.166	311.69
419.389	314.69
419.611	289.69
419.834	281.69
420.057	294.69
420.28	283.69
420.503	282.69
420.726	282.69
420.948	297.69
421.171	262.69
421.394	281.69
421.617	302.69
421.839	294.69
422.062	284.69
422.285	267.69
422.507	286.69
422.73	281.69
422.953	274.69
423.175	269.69
423.398	273.69
423.621	273.69
423.843	284.69
424.066	285.69
424.288	288.69
424.511	297.69
424.733	298.69
424.956	296.69
425.178	289.69
425.401	284.69
425.623	287.69
425.846	284.69
426.068	269.69
426.291	270.69
426.513	268.69
426.735	266.69
426.958	276.69
427.18	259.69
427.402	266.69
427.625	247.69
427.847	278.69
428.069	270.69
428.292	251.69
428.514	264.69
428.736	266.69
428.958	276.69
429.181	264.69
429.403	257.69
429.625	248.69
429.847	268.69
430.069	266.69
430.292	266.69
430.514	260.69
430.736	259.69
430.958	256.69
431.18	253.69
431.402	270.69
431.624	244.69
431.846	197.69
432.068	183.69
432.29	206.69
432.512	257.69
432.734	248.69
432.956	283.69
433.178	297.69
433.4	290.69
433.622	281.69
433.844	271.69
434.066	251.69
434.287	212.69
434.509	213.69
434.731	219.69
434.953	240.69
435.175	252.69
435.397	258.69
435.618	233.69
435.84	221.69
436.062	239.69
436.284	223.69
436.505	250.69
436.727	266.69
436.949	247.69
437.17	275.69
437.392	239.69
437.614	248.69
437.835	220.69
438.057	218.69
438.278	219.69
438.5	252.69
438.721	277.69
438.943	270.69
439.165	267.69
439.386	286.69
439.608	274.69
439.829	281.69
440.05	297.69
440.272	270.69
440.493	290.69
440.715	302.69
440.936	283.69
441.158	290.69
441.379	309.69
441.6	307.69
441.822	324.69
442.043	294.69
442.264	292.69
442.486	308.69
442.707	317.69
442.928	285.69
443.149	286.69
443.371	307.69
443.592	297.69
443.813	296.69
444.034	291.69
444.255	317.69
444.476	311.69
444.698	326.69
444.919	327.69
445.14	587.69
445.361	440.69
445.582	320.69
445.803	294.69
446.024	305.69
446.245	307.69
446.466	332.69
446.687	323.69
446.908	290.69
447.129	311.69
447.35	318.69
447.571	295.69
447.792	291.69
448.013	287.69
448.234	277.69
448.455	258.69
448.675	285.69
448.896	282.69
449.117	262.69
449.338	255.69
449.559	265.69
449.779	265.69
450	279.69
450.221	285.69
450.442	272.69
450.662	255.69
450.883	260.69
451.104	278.69
451.324	278.69
451.545	274.69
451.766	265.69
451.986	262.69
452.207	244.69
452.428	260.69
452.648	266.69
452.869	236.69
453.089	211.69
453.31	227.69
453.53	209.69
453.751	181.69
453.971	188.69
454.192	199.69
454.412	198.69
454.633	230.69
454.853	222.69
455.073	213.69
455.294	229.69
455.514	218.69
455.734	223.69
455.955	221.69
456.175	217.69
456.395	202.69
456.616	191.69
456.836	214.69
457.056	207.69
457.276	210.69
457.497	191.69
457.717	185.69
457.937	218.69
458.157	211.69
458.377	194.69
458.598	193.69
458.818	158.69
459.038	161.69
459.258	159.69
459.478	164.69
459.698	187.69
459.918	198.69
460.138	222.69
460.358	228.69
460.578	246.69
460.798	241.69
461.018	233.69
461.238	246.69
461.458	231.69
461.678	209.69
461.898	247.69
462.118	246.69
462.338	250.69
462.558	254.69
462.777	237.69
462.997	262.69
463.217	270.69
463.437	248.69
463.657	236.69
463.876	237.69
464.096	253.69
464.316	248.69
464.536	254.69
464.755	247.69
464.975	251.69
465.195	242.69
465.414	227.69
465.634	222.69
465.854	234.69
466.073	232.69
466.293	250.69
466.512	262.69
466.732	246.69
466.951	263.69
467.171	278.69
467.391	252.69
467.61	278.69
467.829	268.69
468.049	266.69
468.268	249.69
468.488	257.69
468.707	263.69
468.927	273.69
469.146	275.69
469.365	264.69
469.585	280.69
469.804	279.69
470.023	275.69
470.243	281.69
470.462	281.69
470.681	286.69
470.901	276.69
471.12	273.69
471.339	288.69
471.558	269.69
471.777	277.69
471.997	242.69
472.216	245.69
472.435	204.69
472.654	195.69
472.873	211.69
473.092	215.69
473.311	222.69
473.53	229.69
473.749	238.69
473.968	248.69
474.187	217.69
474.406	235.69
474.625	263.69
474.844	247.69
475.063	222.69
475.282	243.69
475.501	227.69
475.72	242.69
475.939	241.69
476.158	234.69
476.377	245.69
476.596	223.69
476.814	210.69
477.033	212.69
477.252	210.69
477.471	239.69
477.69	260.69
477.908	251.69
478.127	277.69
478.346	267.69
478.564	291.69
478.783	285.69
479.002	267.69
479.22	277.69
479.439	266.69
479.658	232.69
479.876	225.69
480.095	209.69
480.313	240.69
480.532	246.69
480.751	219.69
480.969	183.69
481.188	190.69
481.406	184.69
481.624	191.69
481.843	187.69
482.061	192.69
482.28	227.69
482.498	213.69
482.717	195.69
482.935	242.69
483.153	269.69
483.372	307.69
483.59	291.69
483.808	254.69
484.027	239.69
484.245	257.69
484.463	276.69
484.681	291.69
484.9	255.69
485.118	276.69
485.336	231.69
485.554	221.69
485.772	195.69
485.99	191.69
486.209	220.69
486.427	219.69
486.645	234.69
486.863	255.69
487.081	277.69
487.299	267.69
487.517	273.69
487.735	318.69
487.953	379.69
488.171	372.69
488.389	316.69
488.607	298.69
488.825	258.69
489.043	254.69
489.261	262.69
489.479	261.69
489.696	272.69
489.914	267.69
490.132	291.69
490.35	309.69
490.568	329.69
490.786	365.69
491.003	354.69
491.221	346.69
491.439	385.69
491.657	401.69
491.874	422.69
492.092	455.69
492.31	507.69
492.527	467.69
492.745	412.69
492.963	417.69
493.18	375.69
493.398	383.69
493.615	385.69
493.833	362.69
494.05	361.69
494.268	340.69
494.485	360.69
494.703	365.69
494.92	361.69
495.138	352.69
495.355	350.69
495.573	369.69
495.79	345.69
496.008	365.69
496.225	353.69
496.442	355.69
496.66	350.69
496.877	333.69
497.094	355.69
497.312	340.69
497.529	332.69
497.746	311.69
497.963	284.69
498.181	281.69
498.398	263.69
498.615	264.69
498.832	281.69
499.049	289.69
499.267	335.69
499.484	337.69
499.701	387.69
499.918	409.69
500.135	458.69
500.352	494.69
500.569	510.69
500.786	501.69
501.003	457.69
501.22	431.69
501.437	401.69
501.654	361.69
501.871	349.69
502.088	319.69
502.305	310.69
502.522	301.69
502.739	298.69
502.956	282.69
503.172	290.69
503.389	278.69
503.606	257.69
503.823	233.69
504.04	261.69
504.256	263.69
504.473	265.69
504.69	260.69
504.907	284.69
