Data from SampD_HRD10591_00034.txt Node
Date: Mon Jan 19 11:47:49 EST 2026
User: Yrep
Spectrometer: HR+D1059
Trigger mode: 0
Integration Time (sec): 3.443000E-1
Scans to average: 1
Electric dark correction enabled: true
Nonlinearity correction enabled: false
Boxcar width: 0
XAxis mode: Wavelengths
Number of Pixels in Spectrum: 2048
>>>>>Begin Spectral Data<<<<<
223.165	-22.81
223.4	-22.81
223.635	-22.81
223.869	-26.81
224.104	-28.81
224.338	-1.81
224.573	-9.81
224.808	-14.81
225.042	-8.81
225.277	10.19
225.511	-14.81
225.746	3.19
225.98	21.19
226.215	13.19
226.449	2.19
226.683	10.19
226.918	34.19
227.152	34.19
227.387	36.19
227.621	45.19
227.856	45.19
228.09	49.19
228.324	58.19
228.559	72.19
228.793	44.19
229.027	62.19
229.262	86.19
229.496	67.19
229.73	73.19
229.964	81.19
230.199	62.19
230.433	65.19
230.667	73.19
230.901	65.19
231.136	81.19
231.37	88.19
231.604	74.19
231.838	78.19
232.072	72.19
232.306	83.19
232.541	78.19
232.775	81.19
233.009	92.19
233.243	91.19
233.477	80.19
233.711	78.19
233.945	97.19
234.179	92.19
234.413	96.19
234.647	81.19
234.881	86.19
235.115	72.19
235.349	83.19
235.583	77.19
235.817	90.19
236.051	85.19
236.285	86.19
236.519	67.19
236.753	80.19
236.987	91.19
237.221	83.19
237.455	82.19
237.689	76.19
237.922	78.19
238.156	63.19
238.39	68.19
238.624	73.19
238.858	69.19
239.091	86.19
239.325	64.19
239.559	68.19
239.793	83.19
240.027	86.19
240.26	74.19
240.494	66.19
240.728	71.19
240.961	83.19
241.195	92.19
241.429	84.19
241.662	80.19
241.896	65.19
242.13	80.19
242.363	74.19
242.597	70.19
242.83	79.19
243.064	74.19
243.298	82.19
243.531	76.19
243.765	80.19
243.998	86.19
244.232	83.19
244.465	81.19
244.699	76.19
244.932	92.19
245.166	95.19
245.399	70.19
245.633	81.19
245.866	80.19
246.099	86.19
246.333	88.19
246.566	83.19
246.8	83.19
247.033	79.19
247.266	75.19
247.5	80.19
247.733	87.19
247.966	84.19
248.2	83.19
248.433	83.19
248.666	84.19
248.899	91.19
249.133	76.19
249.366	93.19
249.599	87.19
249.832	82.19
250.066	90.19
250.299	84.19
250.532	84.19
250.765	68.19
250.998	83.19
251.231	85.19
251.465	88.19
251.698	82.19
251.931	83.19
252.164	82.19
252.397	72.19
252.63	80.19
252.863	87.19
253.096	85.19
253.329	72.19
253.562	82.19
253.795	86.19
254.028	91.19
254.261	74.19
254.494	88.19
254.727	94.19
254.96	80.19
255.193	82.19
255.426	79.19
255.659	71.19
255.892	91.19
256.124	82.19
256.357	92.19
256.59	101.19
256.823	77.19
257.056	82.19
257.289	96.19
257.521	68.19
257.754	80.19
257.987	86.19
258.22	82.19
258.452	75.19
258.685	80.19
258.918	93.19
259.151	80.19
259.383	83.19
259.616	86.19
259.849	80.19
260.081	91.19
260.314	98.19
260.547	92.19
260.779	96.19
261.012	98.19
261.244	88.19
261.477	95.19
261.71	78.19
261.942	75.19
262.175	87.19
262.407	95.19
262.64	100.19
262.872	96.19
263.105	81.19
263.337	80.19
263.57	103.19
263.802	89.19
264.035	88.19
264.267	102.19
264.499	81.19
264.732	77.19
264.964	100.19
265.197	94.19
265.429	72.19
265.661	83.19
265.894	99.19
266.126	98.19
266.358	83.19
266.591	90.19
266.823	90.19
267.055	92.19
267.287	76.19
267.52	62.19
267.752	91.19
267.984	102.19
268.216	102.19
268.448	103.19
268.681	100.19
268.913	99.19
269.145	80.19
269.377	104.19
269.609	77.19
269.841	87.19
270.073	91.19
270.306	104.19
270.538	85.19
270.77	98.19
271.002	84.19
271.234	99.19
271.466	99.19
271.698	88.19
271.93	94.19
272.162	93.19
272.394	84.19
272.626	90.19
272.858	94.19
273.09	95.19
273.322	86.19
273.553	89.19
273.785	94.19
274.017	81.19
274.249	99.19
274.481	79.19
274.713	96.19
274.945	86.19
275.176	75.19
275.408	82.19
275.64	74.19
275.872	84.19
276.104	94.19
276.335	89.19
276.567	96.19
276.799	82.19
277.031	88.19
277.262	102.19
277.494	96.19
277.726	109.19
277.957	91.19
278.189	72.19
278.421	86.19
278.652	86.19
278.884	90.19
279.115	98.19
279.347	102.19
279.579	99.19
279.81	94.19
280.042	104.19
280.273	99.19
280.505	93.19
280.736	90.19
280.968	102.19
281.199	94.19
281.431	94.19
281.662	86.19
281.894	100.19
282.125	88.19
282.356	86.19
282.588	101.19
282.819	92.19
283.051	85.19
283.282	92.19
283.513	103.19
283.745	102.19
283.976	87.19
284.207	84.19
284.439	116.19
284.67	106.19
284.901	103.19
285.132	113.19
285.364	111.19
285.595	101.19
285.826	89.19
286.057	105.19
286.288	106.19
286.52	91.19
286.751	95.19
286.982	99.19
287.213	96.19
287.444	95.19
287.675	96.19
287.906	106.19
288.138	107.19
288.369	89.19
288.6	83.19
288.831	81.19
289.062	105.19
289.293	107.19
289.524	106.19
289.755	95.19
289.986	102.19
290.217	96.19
290.448	100.19
290.679	94.19
290.91	108.19
291.141	97.19
291.371	104.19
291.602	91.19
291.833	94.19
292.064	94.19
292.295	109.19
292.526	93.19
292.757	101.19
292.987	102.19
293.218	94.19
293.449	97.19
293.68	104.19
293.91	94.19
294.141	102.19
294.372	87.19
294.603	100.19
294.833	83.19
295.064	90.19
295.295	92.19
295.525	99.19
295.756	107.19
295.987	99.19
296.217	100.19
296.448	92.19
296.679	97.19
296.909	107.19
297.14	106.19
297.37	91.19
297.601	96.19
297.831	110.19
298.062	104.19
298.292	113.19
298.523	103.19
298.753	99.19
298.984	95.19
299.214	111.19
299.445	103.19
299.675	104.19
299.905	112.19
300.136	87.19
300.366	101.19
300.597	91.19
300.827	96.19
301.057	99.19
301.288	87.19
301.518	123.19
301.748	106.19
301.979	139.19
302.209	111.19
302.439	102.19
302.669	98.19
302.9	104.19
303.13	101.19
303.36	103.19
303.59	110.19
303.82	100.19
304.051	98.19
304.281	106.19
304.511	94.19
304.741	116.19
304.971	92.19
305.201	112.19
305.431	107.19
305.661	106.19
305.891	94.19
306.121	112.19
306.352	106.19
306.582	108.19
306.812	104.19
307.042	112.19
307.272	102.19
307.502	111.19
307.731	98.19
307.961	109.19
308.191	97.19
308.421	110.19
308.651	79.19
308.881	103.19
309.111	102.19
309.341	100.19
309.571	104.19
309.8	104.19
310.03	107.19
310.26	103.19
310.49	103.19
310.72	100.19
310.949	91.19
311.179	107.19
311.409	91.19
311.639	98.19
311.868	103.19
312.098	93.19
312.328	95.19
312.557	108.19
312.787	105.19
313.017	104.19
313.246	119.19
313.476	110.19
313.706	108.19
313.935	114.19
314.165	98.19
314.394	93.19
314.624	113.19
314.853	114.19
315.083	98.19
315.312	99.19
315.542	98.19
315.771	113.19
316.001	92.19
316.23	104.19
316.46	107.19
316.689	104.19
316.919	101.19
317.148	95.19
317.377	119.19
317.607	113.19
317.836	107.19
318.065	109.19
318.295	106.19
318.524	106.19
318.753	104.19
318.983	102.19
319.212	98.19
319.441	99.19
319.67	96.19
319.9	94.19
320.129	97.19
320.358	104.19
320.587	108.19
320.816	100.19
321.046	105.19
321.275	109.19
321.504	106.19
321.733	113.19
321.962	99.19
322.191	106.19
322.42	110.19
322.649	106.19
322.878	99.19
323.108	106.19
323.337	113.19
323.566	114.19
323.795	90.19
324.024	104.19
324.253	100.19
324.482	99.19
324.71	93.19
324.939	122.19
325.168	100.19
325.397	99.19
325.626	108.19
325.855	110.19
326.084	122.19
326.313	104.19
326.542	102.19
326.77	107.19
326.999	99.19
327.228	119.19
327.457	102.19
327.686	114.19
327.914	105.19
328.143	123.19
328.372	103.19
328.6	114.19
328.829	115.19
329.058	112.19
329.287	92.19
329.515	116.19
329.744	115.19
329.972	110.19
330.201	98.19
330.43	106.19
330.658	98.19
330.887	108.19
331.115	116.19
331.344	108.19
331.572	124.19
331.801	126.19
332.03	99.19
332.258	124.19
332.486	111.19
332.715	129.19
332.943	100.19
333.172	110.19
333.4	120.19
333.629	118.19
333.857	112.19
334.085	128.19
334.314	115.19
334.542	117.19
334.771	117.19
334.999	104.19
335.227	106.19
335.455	121.19
335.684	133.19
335.912	110.19
336.14	108.19
336.369	110.19
336.597	99.19
336.825	114.19
337.053	119.19
337.281	120.19
337.51	116.19
337.738	112.19
337.966	118.19
338.194	94.19
338.422	108.19
338.65	119.19
338.878	108.19
339.106	99.19
339.334	112.19
339.562	118.19
339.79	106.19
340.018	112.19
340.246	90.19
340.474	112.19
340.702	101.19
340.93	107.19
341.158	101.19
341.386	119.19
341.614	103.19
341.842	89.19
342.07	103.19
342.298	111.19
342.526	102.19
342.754	112.19
342.981	115.19
343.209	104.19
343.437	158.19
343.665	117.19
343.893	106.19
344.12	144.19
344.348	130.19
344.576	112.19
344.804	90.19
345.031	102.19
345.259	101.19
345.487	117.19
345.714	98.19
345.942	107.19
346.17	123.19
346.397	103.19
346.625	117.19
346.853	115.19
347.08	113.19
347.308	112.19
347.535	127.19
347.763	106.19
347.99	102.19
348.218	117.19
348.445	112.19
348.673	97.19
348.9	111.19
349.128	115.19
349.355	102.19
349.583	96.19
349.81	106.19
350.037	106.19
350.265	113.19
350.492	104.19
350.72	103.19
350.947	92.19
351.174	94.19
351.402	113.19
351.629	100.19
351.856	111.19
352.083	95.19
352.311	101.19
352.538	104.19
352.765	119.19
352.992	113.19
353.22	100.19
353.447	102.19
353.674	111.19
353.901	115.19
354.128	124.19
354.355	115.19
354.583	108.19
354.81	105.19
355.037	112.19
355.264	112.19
355.491	99.19
355.718	84.19
355.945	118.19
356.172	101.19
356.399	107.19
356.626	94.19
356.853	104.19
357.08	103.19
357.307	114.19
357.534	112.19
357.761	116.19
357.988	132.19
358.215	113.19
358.441	99.19
358.668	111.19
358.895	108.19
359.122	112.19
359.349	94.19
359.576	102.19
359.802	98.19
360.029	115.19
360.256	107.19
360.483	105.19
360.709	82.19
360.936	119.19
361.163	103.19
361.39	92.19
361.616	90.19
361.843	104.19
362.07	108.19
362.296	100.19
362.523	99.19
362.749	107.19
362.976	104.19
363.203	118.19
363.429	91.19
363.656	108.19
363.882	98.19
364.109	108.19
364.335	100.19
364.562	89.19
364.788	80.19
365.015	112.19
365.241	109.19
365.468	113.19
365.694	104.19
365.92	101.19
366.147	101.19
366.373	111.19
366.599	102.19
366.826	87.19
367.052	104.19
367.278	109.19
367.505	98.19
367.731	126.19
367.957	101.19
368.184	99.19
368.41	111.19
368.636	103.19
368.862	114.19
369.089	98.19
369.315	107.19
369.541	104.19
369.767	113.19
369.993	117.19
370.219	111.19
370.445	120.19
370.672	123.19
370.898	107.19
371.124	125.19
371.35	103.19
371.576	124.19
371.802	114.19
372.028	114.19
372.254	113.19
372.48	97.19
372.706	126.19
372.932	118.19
373.158	129.19
373.384	114.19
373.61	118.19
373.835	128.19
374.061	125.19
374.287	125.19
374.513	112.19
374.739	104.19
374.965	131.19
375.191	124.19
375.416	118.19
375.642	132.19
375.868	129.19
376.094	110.19
376.319	106.19
376.545	116.19
376.771	120.19
376.997	130.19
377.222	114.19
377.448	107.19
377.674	111.19
377.899	124.19
378.125	110.19
378.35	124.19
378.576	124.19
378.802	113.19
379.027	114.19
379.253	120.19
379.478	123.19
379.704	122.19
379.929	135.19
380.155	130.19
380.38	120.19
380.606	115.19
380.831	123.19
381.057	128.19
381.282	131.19
381.507	122.19
381.733	126.19
381.958	123.19
382.184	124.19
382.409	114.19
382.634	141.19
382.86	114.19
383.085	129.19
383.31	113.19
383.535	134.19
383.761	126.19
383.986	122.19
384.211	137.19
384.436	127.19
384.662	119.19
384.887	123.19
385.112	127.19
385.337	145.19
385.562	139.19
385.787	131.19
386.013	137.19
386.238	127.19
386.463	128.19
386.688	178.19
386.913	134.19
387.138	131.19
387.363	141.19
387.588	135.19
387.813	131.19
388.038	144.19
388.263	141.19
388.488	127.19
388.713	136.19
388.938	144.19
389.163	124.19
389.387	144.19
389.612	144.19
389.837	131.19
390.062	145.19
390.287	138.19
390.512	130.19
390.736	138.19
390.961	140.19
391.186	139.19
391.411	143.19
391.636	147.19
391.86	150.19
392.085	146.19
392.31	155.19
392.534	133.19
392.759	144.19
392.984	136.19
393.208	149.19
393.433	148.19
393.658	125.19
393.882	143.19
394.107	142.19
394.331	154.19
394.556	137.19
394.78	133.19
395.005	143.19
395.229	152.19
395.454	152.19
395.678	138.19
395.903	150.19
396.127	158.19
396.352	144.19
396.576	138.19
396.801	166.19
397.025	150.19
397.249	158.19
397.474	170.19
397.698	151.19
397.922	160.19
398.147	148.19
398.371	140.19
398.595	158.19
398.82	153.19
399.044	158.19
399.268	163.19
399.492	177.19
399.717	189.19
399.941	189.19
400.165	180.19
400.389	176.19
400.613	179.19
400.837	167.19
401.062	168.19
401.286	159.19
401.51	160.19
401.734	161.19
401.958	160.19
402.182	150.19
402.406	155.19
402.63	159.19
402.854	162.19
403.078	163.19
403.302	165.19
403.526	168.19
403.75	188.19
403.974	175.19
404.198	180.19
404.422	177.19
404.645	162.19
404.869	171.19
405.093	178.19
405.317	174.19
405.541	164.19
405.765	179.19
405.988	168.19
406.212	165.19
406.436	167.19
406.66	185.19
406.883	180.19
407.107	176.19
407.331	169.19
407.555	170.19
407.778	169.19
408.002	175.19
408.226	176.19
408.449	187.19
408.673	158.19
408.896	164.19
409.12	190.19
409.344	166.19
409.567	178.19
409.791	186.19
410.014	188.19
410.238	172.19
410.461	172.19
410.685	167.19
410.908	177.19
411.132	170.19
411.355	173.19
411.578	174.19
411.802	167.19
412.025	178.19
412.249	176.19
412.472	172.19
412.695	166.19
412.919	148.19
413.142	178.19
413.365	182.19
413.589	176.19
413.812	171.19
414.035	196.19
414.258	162.19
414.482	174.19
414.705	158.19
414.928	168.19
415.151	166.19
415.374	174.19
415.597	169.19
415.821	183.19
416.044	162.19
416.267	163.19
416.49	164.19
416.713	162.19
416.936	164.19
417.159	172.19
417.382	181.19
417.605	169.19
417.828	180.19
418.051	178.19
418.274	175.19
418.497	189.19
418.72	178.19
418.943	182.19
419.166	178.19
419.389	187.19
419.611	210.19
419.834	170.19
420.057	193.19
420.28	183.19
420.503	176.19
420.726	179.19
420.948	176.19
421.171	163.19
421.394	196.19
421.617	171.19
421.839	193.19
422.062	184.19
422.285	170.19
422.507	183.19
422.73	180.19
422.953	169.19
423.175	172.19
423.398	180.19
423.621	185.19
423.843	176.19
424.066	197.19
424.288	170.19
424.511	170.19
424.733	195.19
424.956	199.19
425.178	173.19
425.401	165.19
425.623	181.19
425.846	192.19
426.068	187.19
426.291	171.19
426.513	155.19
426.735	174.19
426.958	151.19
427.18	176.19
427.402	175.19
427.625	191.19
427.847	171.19
428.069	172.19
428.292	186.19
428.514	162.19
428.736	180.19
428.958	182.19
429.181	172.19
429.403	165.19
429.625	162.19
429.847	168.19
430.069	163.19
430.292	166.19
430.514	170.19
430.736	175.19
430.958	176.19
431.18	163.19
431.402	179.19
431.624	162.19
431.846	145.19
432.068	126.19
432.29	154.19
432.512	145.19
432.734	165.19
432.956	162.19
433.178	187.19
433.4	196.19
433.622	196.19
433.844	184.19
434.066	168.19
434.287	143.19
434.509	134.19
434.731	131.19
434.953	150.19
435.175	166.19
435.397	175.19
435.618	163.19
435.84	152.19
436.062	153.19
436.284	166.19
436.505	169.19
436.727	169.19
436.949	185.19
437.17	155.19
437.392	167.19
437.614	163.19
437.835	163.19
438.057	145.19
438.278	138.19
438.5	152.19
438.721	167.19
438.943	192.19
439.165	185.19
439.386	158.19
439.608	182.19
439.829	187.19
440.05	192.19
440.272	188.19
440.493	179.19
440.715	183.19
440.936	199.19
441.158	196.19
441.379	185.19
441.6	184.19
441.822	191.19
442.043	179.19
442.264	193.19
442.486	183.19
442.707	176.19
442.928	160.19
443.149	170.19
443.371	201.19
443.592	187.19
443.813	190.19
444.034	187.19
444.255	213.19
444.476	177.19
444.698	192.19
444.919	197.19
445.14	449.19
445.361	306.19
445.582	196.19
445.803	188.19
446.024	204.19
446.245	203.19
446.466	196.19
446.687	185.19
446.908	192.19
447.129	195.19
447.35	183.19
447.571	195.19
447.792	170.19
448.013	169.19
448.234	202.19
448.455	182.19
448.675	189.19
448.896	180.19
449.117	183.19
449.338	180.19
449.559	186.19
449.779	179.19
450	177.19
450.221	183.19
450.442	166.19
450.662	158.19
450.883	177.19
451.104	164.19
451.324	150.19
451.545	170.19
451.766	158.19
451.986	151.19
452.207	151.19
452.428	161.19
452.648	162.19
452.869	162.19
453.089	139.19
453.31	145.19
453.53	137.19
453.751	142.19
453.971	130.19
454.192	135.19
454.412	137.19
454.633	145.19
454.853	148.19
455.073	165.19
455.294	159.19
455.514	158.19
455.734	142.19
455.955	146.19
456.175	134.19
456.395	145.19
456.616	134.19
456.836	138.19
457.056	148.19
457.276	132.19
457.497	132.19
457.717	136.19
457.937	114.19
458.157	139.19
458.377	143.19
458.598	116.19
458.818	133.19
459.038	106.19
459.258	110.19
459.478	116.19
459.698	147.19
459.918	129.19
460.138	150.19
460.358	170.19
460.578	159.19
460.798	166.19
461.018	160.19
461.238	139.19
461.458	162.19
461.678	158.19
461.898	149.19
462.118	169.19
462.338	165.19
462.558	159.19
462.777	154.19
462.997	172.19
463.217	174.19
463.437	161.19
463.657	171.19
463.876	169.19
464.096	179.19
464.316	158.19
464.536	162.19
464.755	172.19
464.975	174.19
465.195	164.19
465.414	146.19
465.634	170.19
465.854	172.19
466.073	150.19
466.293	136.19
466.512	172.19
466.732	170.19
466.951	159.19
467.171	172.19
467.391	179.19
467.61	165.19
467.829	151.19
468.049	185.19
468.268	160.19
468.488	171.19
468.707	168.19
468.927	183.19
469.146	170.19
469.365	193.19
469.585	152.19
469.804	184.19
470.023	177.19
470.243	181.19
470.462	176.19
470.681	176.19
470.901	172.19
471.12	166.19
471.339	181.19
471.558	170.19
471.777	170.19
471.997	173.19
472.216	159.19
472.435	149.19
472.654	139.19
472.873	148.19
473.092	158.19
473.311	153.19
473.53	164.19
473.749	173.19
473.968	151.19
474.187	142.19
474.406	153.19
474.625	146.19
474.844	163.19
475.063	153.19
475.282	146.19
475.501	159.19
475.72	161.19
475.939	147.19
476.158	167.19
476.377	170.19
476.596	154.19
476.814	156.19
477.033	138.19
477.252	143.19
477.471	151.19
477.69	180.19
477.908	176.19
478.127	183.19
478.346	173.19
478.564	170.19
478.783	170.19
479.002	170.19
479.22	180.19
479.439	165.19
479.658	144.19
479.876	143.19
480.095	142.19
480.313	170.19
480.532	154.19
480.751	159.19
480.969	154.19
481.188	122.19
481.406	142.19
481.624	129.19
481.843	122.19
482.061	127.19
482.28	143.19
482.498	120.19
482.717	137.19
482.935	164.19
483.153	176.19
483.372	194.19
483.59	183.19
483.808	166.19
484.027	162.19
484.245	182.19
484.463	174.19
484.681	188.19
484.9	171.19
485.118	145.19
485.336	159.19
485.554	151.19
485.772	142.19
485.99	152.19
486.209	159.19
486.427	131.19
486.645	160.19
486.863	186.19
487.081	187.19
487.299	183.19
487.517	182.19
487.735	210.19
487.953	219.19
488.171	227.19
488.389	197.19
488.607	193.19
488.825	168.19
489.043	161.19
489.261	183.19
489.479	156.19
489.696	163.19
489.914	180.19
490.132	189.19
490.35	194.19
490.568	200.19
490.786	207.19
491.003	203.19
491.221	223.19
491.439	236.19
491.657	246.19
491.874	247.19
492.092	281.19
492.31	290.19
492.527	250.19
492.745	238.19
492.963	242.19
493.18	229.19
493.398	233.19
493.615	236.19
493.833	221.19
494.05	222.19
494.268	219.19
494.485	215.19
494.703	216.19
494.92	215.19
495.138	209.19
495.355	226.19
495.573	221.19
495.79	214.19
496.008	214.19
496.225	218.19
496.442	207.19
496.66	215.19
496.877	196.19
497.094	223.19
497.312	216.19
497.529	209.19
497.746	198.19
497.963	188.19
498.181	199.19
498.398	191.19
498.615	183.19
498.832	187.19
499.049	178.19
499.267	211.19
499.484	224.19
499.701	243.19
499.918	260.19
500.135	279.19
500.352	293.19
500.569	291.19
500.786	295.19
501.003	251.19
501.22	248.19
501.437	255.19
501.654	215.19
501.871	216.19
502.088	194.19
502.305	200.19
502.522	198.19
502.739	193.19
502.956	188.19
503.172	181.19
503.389	172.19
503.606	172.19
503.823	164.19
504.04	178.19
504.256	170.19
504.473	178.19
504.69	171.19
504.907	168.19
505.123	178.19
505.34	171.19
505.557	157.19
505.773	170.19
505.99	169.19
506.207	148.19
506.423	158.19
506.64	154.19
506.856	159.19
507.073	162.19
