Data from SampD_HRD10591_00022.txt Node
Date: Mon Jan 19 11:47:45 EST 2026
User: Yrep
Spectrometer: HR+D1059
Trigger mode: 0
Integration Time (sec): 3.443000E-1
Scans to average: 1
Electric dark correction enabled: true
Nonlinearity correction enabled: false
Boxcar width: 0
XAxis mode: Wavelengths
Number of Pixels in Spectrum: 2048
>>>>>Begin Spectral Data<<<<<
223.165	-25.75
223.4	-25.75
223.635	-25.75
223.869	-18.75
224.104	-15.75
224.338	-18.75
224.573	-20.75
224.808	-18.75
225.042	-0.75
225.277	3.25
225.511	-3.75
225.746	6.25
225.98	-2.75
226.215	18.25
226.449	25.25
226.683	16.25
226.918	11.25
227.152	45.25
227.387	40.25
227.621	30.25
227.856	37.25
228.09	35.25
228.324	57.25
228.559	72.25
228.793	60.25
229.027	86.25
229.262	66.25
229.496	75.25
229.73	73.25
229.964	84.25
230.199	95.25
230.433	89.25
230.667	73.25
230.901	87.25
231.136	89.25
231.37	85.25
231.604	66.25
231.838	76.25
232.072	92.25
232.306	89.25
232.541	90.25
232.775	82.25
233.009	97.25
233.243	103.25
233.477	88.25
233.711	78.25
233.945	99.25
234.179	86.25
234.413	85.25
234.647	84.25
234.881	88.25
235.115	97.25
235.349	86.25
235.583	82.25
235.817	90.25
236.051	76.25
236.285	75.25
236.519	84.25
236.753	85.25
236.987	76.25
237.221	70.25
237.455	77.25
237.689	99.25
237.922	91.25
238.156	73.25
238.39	65.25
238.624	92.25
238.858	93.25
239.091	79.25
239.325	92.25
239.559	80.25
239.793	91.25
240.027	95.25
240.26	93.25
240.494	87.25
240.728	81.25
240.961	81.25
241.195	96.25
241.429	95.25
241.662	88.25
241.896	65.25
242.13	100.25
242.363	79.25
242.597	87.25
242.83	86.25
243.064	76.25
243.298	78.25
243.531	85.25
243.765	73.25
243.998	75.25
244.232	83.25
244.465	98.25
244.699	83.25
244.932	86.25
245.166	75.25
245.399	95.25
245.633	113.25
245.866	85.25
246.099	86.25
246.333	75.25
246.566	92.25
246.8	94.25
247.033	69.25
247.266	79.25
247.5	85.25
247.733	98.25
247.966	82.25
248.2	88.25
248.433	95.25
248.666	83.25
248.899	88.25
249.133	87.25
249.366	109.25
249.599	86.25
249.832	94.25
250.066	97.25
250.299	77.25
250.532	95.25
250.765	92.25
250.998	99.25
251.231	81.25
251.465	86.25
251.698	95.25
251.931	98.25
252.164	67.25
252.397	84.25
252.63	84.25
252.863	80.25
253.096	101.25
253.329	104.25
253.562	98.25
253.795	91.25
254.028	95.25
254.261	90.25
254.494	83.25
254.727	86.25
254.96	103.25
255.193	90.25
255.426	103.25
255.659	94.25
255.892	97.25
256.124	99.25
256.357	109.25
256.59	107.25
256.823	96.25
257.056	97.25
257.289	102.25
257.521	106.25
257.754	95.25
257.987	87.25
258.22	107.25
258.452	121.25
258.685	101.25
258.918	93.25
259.151	92.25
259.383	113.25
259.616	102.25
259.849	113.25
260.081	103.25
260.314	96.25
260.547	104.25
260.779	72.25
261.012	97.25
261.244	117.25
261.477	108.25
261.71	89.25
261.942	97.25
262.175	104.25
262.407	108.25
262.64	98.25
262.872	87.25
263.105	111.25
263.337	100.25
263.57	94.25
263.802	97.25
264.035	103.25
264.267	100.25
264.499	104.25
264.732	113.25
264.964	93.25
265.197	105.25
265.429	91.25
265.661	95.25
265.894	111.25
266.126	109.25
266.358	104.25
266.591	108.25
266.823	95.25
267.055	88.25
267.287	87.25
267.52	93.25
267.752	112.25
267.984	113.25
268.216	100.25
268.448	108.25
268.681	109.25
268.913	105.25
269.145	98.25
269.377	113.25
269.609	112.25
269.841	99.25
270.073	95.25
270.306	102.25
270.538	102.25
270.77	101.25
271.002	107.25
271.234	114.25
271.466	116.25
271.698	99.25
271.93	100.25
272.162	108.25
272.394	109.25
272.626	107.25
272.858	106.25
273.09	122.25
273.322	119.25
273.553	100.25
273.785	109.25
274.017	110.25
274.249	108.25
274.481	106.25
274.713	101.25
274.945	107.25
275.176	104.25
275.408	101.25
275.64	121.25
275.872	105.25
276.104	99.25
276.335	100.25
276.567	120.25
276.799	113.25
277.031	104.25
277.262	115.25
277.494	107.25
277.726	99.25
277.957	109.25
278.189	112.25
278.421	111.25
278.652	118.25
278.884	106.25
279.115	104.25
279.347	114.25
279.579	109.25
279.81	113.25
280.042	102.25
280.273	99.25
280.505	106.25
280.736	100.25
280.968	129.25
281.199	115.25
281.431	105.25
281.662	119.25
281.894	119.25
282.125	103.25
282.356	116.25
282.588	106.25
282.819	96.25
283.051	108.25
283.282	124.25
283.513	121.25
283.745	106.25
283.976	120.25
284.207	117.25
284.439	114.25
284.67	124.25
284.901	121.25
285.132	111.25
285.364	123.25
285.595	122.25
285.826	132.25
286.057	107.25
286.288	117.25
286.52	118.25
286.751	126.25
286.982	130.25
287.213	122.25
287.444	122.25
287.675	104.25
287.906	128.25
288.138	128.25
288.369	107.25
288.6	118.25
288.831	112.25
289.062	123.25
289.293	135.25
289.524	107.25
289.755	124.25
289.986	126.25
290.217	116.25
290.448	118.25
290.679	127.25
290.91	125.25
291.141	116.25
291.371	118.25
291.602	125.25
291.833	130.25
292.064	108.25
292.295	110.25
292.526	113.25
292.757	124.25
292.987	114.25
293.218	100.25
293.449	117.25
293.68	113.25
293.91	118.25
294.141	136.25
294.372	100.25
294.603	123.25
294.833	114.25
295.064	135.25
295.295	133.25
295.525	112.25
295.756	122.25
295.987	118.25
296.217	121.25
296.448	120.25
296.679	119.25
296.909	138.25
297.14	122.25
297.37	128.25
297.601	123.25
297.831	119.25
298.062	150.25
298.292	133.25
298.523	125.25
298.753	123.25
298.984	134.25
299.214	127.25
299.445	127.25
299.675	120.25
299.905	116.25
300.136	125.25
300.366	120.25
300.597	120.25
300.827	119.25
301.057	118.25
301.288	118.25
301.518	129.25
301.748	126.25
301.979	152.25
302.209	127.25
302.439	130.25
302.669	109.25
302.9	121.25
303.13	141.25
303.36	135.25
303.59	131.25
303.82	114.25
304.051	130.25
304.281	138.25
304.511	133.25
304.741	117.25
304.971	126.25
305.201	126.25
305.431	125.25
305.661	124.25
305.891	130.25
306.121	121.25
306.352	111.25
306.582	114.25
306.812	126.25
307.042	123.25
307.272	131.25
307.502	124.25
307.731	145.25
307.961	121.25
308.191	121.25
308.421	119.25
308.651	123.25
308.881	108.25
309.111	128.25
309.341	132.25
309.571	124.25
309.8	128.25
310.03	122.25
310.26	129.25
310.49	122.25
310.72	123.25
310.949	116.25
311.179	121.25
311.409	124.25
311.639	125.25
311.868	130.25
312.098	132.25
312.328	121.25
312.557	135.25
312.787	140.25
313.017	125.25
313.246	128.25
313.476	121.25
313.706	126.25
313.935	121.25
314.165	130.25
314.394	139.25
314.624	131.25
314.853	140.25
315.083	123.25
315.312	125.25
315.542	106.25
315.771	131.25
316.001	145.25
316.23	121.25
316.46	117.25
316.689	119.25
316.919	125.25
317.148	128.25
317.377	131.25
317.607	119.25
317.836	116.25
318.065	127.25
318.295	124.25
318.524	115.25
318.753	124.25
318.983	114.25
319.212	123.25
319.441	119.25
319.67	126.25
319.9	119.25
320.129	124.25
320.358	125.25
320.587	122.25
320.816	132.25
321.046	120.25
321.275	130.25
321.504	133.25
321.733	119.25
321.962	122.25
322.191	108.25
322.42	132.25
322.649	146.25
322.878	114.25
323.108	128.25
323.337	146.25
323.566	132.25
323.795	124.25
324.024	138.25
324.253	131.25
324.482	132.25
324.71	145.25
324.939	139.25
325.168	124.25
325.397	123.25
325.626	127.25
325.855	132.25
326.084	137.25
326.313	143.25
326.542	136.25
326.77	145.25
326.999	134.25
327.228	131.25
327.457	129.25
327.686	141.25
327.914	136.25
328.143	141.25
328.372	138.25
328.6	135.25
328.829	126.25
329.058	122.25
329.287	136.25
329.515	131.25
329.744	152.25
329.972	153.25
330.201	142.25
330.43	136.25
330.658	135.25
330.887	141.25
331.115	130.25
331.344	131.25
331.572	138.25
331.801	130.25
332.03	145.25
332.258	135.25
332.486	134.25
332.715	138.25
332.943	147.25
333.172	135.25
333.4	138.25
333.629	164.25
333.857	156.25
334.085	156.25
334.314	156.25
334.542	162.25
334.771	137.25
334.999	147.25
335.227	129.25
335.455	155.25
335.684	154.25
335.912	137.25
336.14	148.25
336.369	139.25
336.597	140.25
336.825	136.25
337.053	144.25
337.281	142.25
337.51	138.25
337.738	136.25
337.966	136.25
338.194	124.25
338.422	135.25
338.65	141.25
338.878	136.25
339.106	127.25
339.334	124.25
339.562	136.25
339.79	132.25
340.018	121.25
340.246	123.25
340.474	145.25
340.702	146.25
340.93	133.25
341.158	137.25
341.386	134.25
341.614	129.25
341.842	139.25
342.07	135.25
342.298	143.25
342.526	136.25
342.754	123.25
342.981	128.25
343.209	131.25
343.437	171.25
343.665	137.25
343.893	149.25
344.12	151.25
344.348	133.25
344.576	147.25
344.804	135.25
345.031	142.25
345.259	131.25
345.487	122.25
345.714	126.25
345.942	127.25
346.17	139.25
346.397	132.25
346.625	138.25
346.853	120.25
347.08	128.25
347.308	135.25
347.535	123.25
347.763	147.25
347.99	129.25
348.218	129.25
348.445	127.25
348.673	114.25
348.9	140.25
349.128	141.25
349.355	128.25
349.583	113.25
349.81	122.25
350.037	129.25
350.265	129.25
350.492	130.25
350.72	130.25
350.947	139.25
351.174	143.25
351.402	131.25
351.629	110.25
351.856	129.25
352.083	130.25
352.311	132.25
352.538	125.25
352.765	137.25
352.992	163.25
353.22	144.25
353.447	134.25
353.674	133.25
353.901	131.25
354.128	129.25
354.355	124.25
354.583	125.25
354.81	130.25
355.037	136.25
355.264	135.25
355.491	152.25
355.718	139.25
355.945	129.25
356.172	119.25
356.399	136.25
356.626	136.25
356.853	132.25
357.08	147.25
357.307	131.25
357.534	130.25
357.761	151.25
357.988	147.25
358.215	150.25
358.441	146.25
358.668	127.25
358.895	143.25
359.122	134.25
359.349	116.25
359.576	117.25
359.802	127.25
360.029	135.25
360.256	127.25
360.483	134.25
360.709	132.25
360.936	145.25
361.163	135.25
361.39	131.25
361.616	138.25
361.843	139.25
362.07	129.25
362.296	114.25
362.523	127.25
362.749	125.25
362.976	131.25
363.203	147.25
363.429	126.25
363.656	133.25
363.882	133.25
364.109	126.25
364.335	126.25
364.562	147.25
364.788	131.25
365.015	152.25
365.241	122.25
365.468	147.25
365.694	135.25
365.92	145.25
366.147	121.25
366.373	120.25
366.599	132.25
366.826	141.25
367.052	123.25
367.278	130.25
367.505	125.25
367.731	156.25
367.957	137.25
368.184	138.25
368.41	131.25
368.636	148.25
368.862	132.25
369.089	151.25
369.315	149.25
369.541	159.25
369.767	161.25
369.993	138.25
370.219	140.25
370.445	149.25
370.672	159.25
370.898	144.25
371.124	147.25
371.35	132.25
371.576	137.25
371.802	135.25
372.028	157.25
372.254	151.25
372.48	157.25
372.706	155.25
372.932	148.25
373.158	181.25
373.384	169.25
373.61	159.25
373.835	168.25
374.061	136.25
374.287	155.25
374.513	148.25
374.739	174.25
374.965	161.25
375.191	177.25
375.416	163.25
375.642	156.25
375.868	162.25
376.094	151.25
376.319	160.25
376.545	162.25
376.771	158.25
376.997	152.25
377.222	144.25
377.448	156.25
377.674	165.25
377.899	164.25
378.125	163.25
378.35	171.25
378.576	160.25
378.802	159.25
379.027	162.25
379.253	167.25
379.478	169.25
379.704	164.25
379.929	173.25
380.155	153.25
380.38	159.25
380.606	154.25
380.831	156.25
381.057	184.25
381.282	162.25
381.507	156.25
381.733	182.25
381.958	167.25
382.184	156.25
382.409	172.25
382.634	187.25
382.86	172.25
383.085	171.25
383.31	171.25
383.535	174.25
383.761	181.25
383.986	179.25
384.211	183.25
384.436	175.25
384.662	173.25
384.887	174.25
385.112	175.25
385.337	188.25
385.562	193.25
385.787	190.25
386.013	194.25
386.238	185.25
386.463	187.25
386.688	219.25
386.913	190.25
387.138	173.25
387.363	179.25
387.588	181.25
387.813	191.25
388.038	190.25
388.263	189.25
388.488	179.25
388.713	173.25
388.938	187.25
389.163	185.25
389.387	188.25
389.612	187.25
389.837	205.25
390.062	198.25
390.287	189.25
390.512	188.25
390.736	194.25
390.961	192.25
391.186	201.25
391.411	200.25
391.636	218.25
391.86	199.25
392.085	194.25
392.31	187.25
392.534	213.25
392.759	214.25
392.984	212.25
393.208	213.25
393.433	211.25
393.658	195.25
393.882	202.25
394.107	203.25
394.331	211.25
394.556	203.25
394.78	211.25
395.005	204.25
395.229	221.25
395.454	235.25
395.678	222.25
395.903	227.25
396.127	214.25
396.352	197.25
396.576	213.25
396.801	203.25
397.025	212.25
397.249	220.25
397.474	219.25
397.698	208.25
397.922	220.25
398.147	213.25
398.371	217.25
398.595	226.25
398.82	219.25
399.044	237.25
399.268	272.25
399.492	275.25
399.717	287.25
399.941	262.25
400.165	262.25
400.389	233.25
400.613	247.25
400.837	242.25
401.062	228.25
401.286	247.25
401.51	237.25
401.734	232.25
401.958	235.25
402.182	241.25
402.406	233.25
402.63	248.25
402.854	258.25
403.078	251.25
403.302	247.25
403.526	259.25
403.75	257.25
403.974	261.25
404.198	264.25
404.422	238.25
404.645	279.25
404.869	273.25
405.093	267.25
405.317	253.25
405.541	257.25
405.765	262.25
405.988	259.25
406.212	253.25
406.436	266.25
406.66	275.25
406.883	271.25
407.107	271.25
407.331	273.25
407.555	278.25
407.778	277.25
408.002	275.25
408.226	276.25
408.449	256.25
408.673	266.25
408.896	271.25
409.12	266.25
409.344	259.25
409.567	260.25
409.791	279.25
410.014	277.25
410.238	263.25
410.461	271.25
410.685	281.25
410.908	269.25
411.132	276.25
411.355	247.25
411.578	261.25
411.802	266.25
412.025	259.25
412.249	264.25
412.472	271.25
412.695	255.25
412.919	252.25
413.142	244.25
413.365	266.25
413.589	256.25
413.812	265.25
414.035	256.25
414.258	265.25
414.482	257.25
414.705	252.25
414.928	260.25
415.151	262.25
415.374	270.25
415.597	255.25
415.821	268.25
416.044	257.25
416.267	262.25
416.49	251.25
416.713	245.25
416.936	276.25
417.159	269.25
417.382	259.25
417.605	278.25
417.828	283.25
418.051	257.25
418.274	248.25
418.497	271.25
418.72	271.25
418.943	292.25
419.166	285.25
419.389	296.25
419.611	314.25
419.834	279.25
420.057	279.25
420.28	275.25
420.503	271.25
420.726	265.25
420.948	279.25
421.171	277.25
421.394	289.25
421.617	300.25
421.839	301.25
422.062	270.25
422.285	279.25
422.507	279.25
422.73	265.25
422.953	266.25
423.175	279.25
423.398	281.25
423.621	287.25
423.843	287.25
424.066	295.25
424.288	302.25
424.511	311.25
424.733	290.25
424.956	289.25
425.178	273.25
425.401	290.25
425.623	288.25
425.846	290.25
426.068	277.25
426.291	275.25
426.513	284.25
426.735	277.25
426.958	268.25
427.18	279.25
427.402	260.25
427.625	257.25
427.847	247.25
428.069	265.25
428.292	281.25
428.514	265.25
428.736	251.25
428.958	259.25
429.181	250.25
429.403	260.25
429.625	251.25
429.847	250.25
430.069	261.25
430.292	273.25
430.514	248.25
430.736	248.25
430.958	277.25
431.18	247.25
431.402	243.25
431.624	236.25
431.846	203.25
432.068	198.25
432.29	201.25
432.512	242.25
432.734	265.25
432.956	263.25
433.178	276.25
433.4	297.25
433.622	295.25
433.844	272.25
434.066	237.25
434.287	203.25
434.509	201.25
434.731	207.25
434.953	231.25
435.175	242.25
435.397	258.25
435.618	232.25
435.84	211.25
436.062	217.25
436.284	236.25
436.505	264.25
436.727	264.25
436.949	269.25
437.17	256.25
437.392	240.25
437.614	230.25
437.835	213.25
438.057	200.25
438.278	236.25
438.5	231.25
438.721	252.25
438.943	283.25
439.165	279.25
439.386	285.25
439.608	285.25
439.829	291.25
440.05	287.25
440.272	282.25
440.493	296.25
440.715	281.25
440.936	293.25
441.158	299.25
441.379	296.25
441.6	331.25
441.822	293.25
442.043	299.25
442.264	288.25
442.486	297.25
442.707	283.25
442.928	292.25
443.149	300.25
443.371	316.25
443.592	275.25
443.813	302.25
444.034	298.25
444.255	297.25
444.476	311.25
444.698	307.25
444.919	311.25
445.14	561.25
445.361	425.25
445.582	342.25
445.803	309.25
446.024	317.25
446.245	314.25
446.466	326.25
446.687	299.25
446.908	314.25
447.129	302.25
447.35	282.25
447.571	287.25
447.792	282.25
448.013	284.25
448.234	274.25
448.455	288.25
448.675	274.25
448.896	273.25
449.117	255.25
449.338	264.25
449.559	284.25
449.779	279.25
450	260.25
450.221	264.25
450.442	262.25
450.662	257.25
450.883	229.25
451.104	285.25
451.324	254.25
451.545	249.25
451.766	251.25
451.986	253.25
452.207	263.25
452.428	240.25
452.648	248.25
452.869	224.25
453.089	200.25
453.31	204.25
453.53	184.25
453.751	183.25
453.971	198.25
454.192	191.25
454.412	212.25
454.633	211.25
454.853	212.25
455.073	204.25
455.294	222.25
455.514	227.25
455.734	218.25
455.955	217.25
456.175	216.25
456.395	201.25
456.616	197.25
456.836	208.25
457.056	196.25
457.276	189.25
457.497	171.25
457.717	194.25
457.937	196.25
458.157	190.25
458.377	200.25
458.598	167.25
458.818	173.25
459.038	171.25
459.258	168.25
459.478	171.25
459.698	186.25
459.918	196.25
460.138	215.25
460.358	237.25
460.578	236.25
460.798	241.25
461.018	241.25
461.238	252.25
461.458	240.25
461.678	232.25
461.898	236.25
462.118	223.25
462.338	236.25
462.558	247.25
462.777	237.25
462.997	276.25
463.217	283.25
463.437	259.25
463.657	237.25
463.876	251.25
464.096	267.25
464.316	244.25
464.536	254.25
464.755	246.25
464.975	249.25
465.195	235.25
465.414	237.25
465.634	229.25
465.854	224.25
466.073	246.25
466.293	248.25
466.512	238.25
466.732	263.25
466.951	259.25
467.171	246.25
467.391	270.25
467.61	283.25
467.829	256.25
468.049	240.25
468.268	255.25
468.488	259.25
468.707	236.25
468.927	255.25
469.146	262.25
469.365	268.25
469.585	273.25
469.804	287.25
470.023	278.25
470.243	281.25
470.462	289.25
470.681	300.25
470.901	268.25
471.12	266.25
471.339	269.25
471.558	274.25
471.777	289.25
471.997	263.25
472.216	235.25
472.435	225.25
472.654	177.25
472.873	205.25
473.092	220.25
473.311	231.25
473.53	235.25
473.749	249.25
473.968	261.25
474.187	207.25
474.406	238.25
474.625	256.25
474.844	251.25
475.063	256.25
475.282	232.25
475.501	229.25
475.72	227.25
475.939	228.25
476.158	249.25
476.377	240.25
476.596	207.25
476.814	202.25
477.033	193.25
477.252	216.25
477.471	250.25
477.69	274.25
477.908	283.25
478.127	281.25
478.346	273.25
478.564	273.25
478.783	267.25
479.002	271.25
479.22	266.25
479.439	262.25
479.658	237.25
479.876	223.25
480.095	231.25
480.313	249.25
480.532	244.25
480.751	220.25
480.969	200.25
481.188	186.25
481.406	178.25
481.624	165.25
481.843	182.25
482.061	187.25
482.28	217.25
482.498	209.25
482.717	226.25
482.935	243.25
483.153	274.25
483.372	281.25
483.59	288.25
483.808	271.25
484.027	245.25
484.245	249.25
484.463	276.25
484.681	311.25
484.9	272.25
485.118	264.25
485.336	245.25
485.554	211.25
485.772	210.25
485.99	195.25
486.209	220.25
486.427	206.25
486.645	241.25
486.863	277.25
487.081	283.25
487.299	264.25
487.517	285.25
487.735	323.25
487.953	378.25
488.171	346.25
488.389	329.25
488.607	284.25
488.825	259.25
489.043	249.25
489.261	252.25
489.479	286.25
489.696	274.25
489.914	260.25
490.132	275.25
490.35	305.25
490.568	329.25
490.786	339.25
491.003	364.25
491.221	390.25
491.439	386.25
491.657	388.25
491.874	434.25
492.092	457.25
492.31	475.25
492.527	447.25
492.745	423.25
492.963	411.25
493.18	385.25
493.398	382.25
493.615	365.25
493.833	347.25
494.05	384.25
494.268	353.25
494.485	367.25
494.703	375.25
494.92	352.25
495.138	337.25
495.355	354.25
495.573	356.25
495.79	322.25
496.008	365.25
496.225	355.25
496.442	341.25
496.66	357.25
496.877	340.25
497.094	353.25
497.312	339.25
497.529	326.25
497.746	311.25
497.963	298.25
498.181	287.25
498.398	269.25
498.615	283.25
498.832	285.25
499.049	295.25
499.267	322.25
499.484	356.25
499.701	375.25
499.918	412.25
500.135	464.25
500.352	491.25
500.569	485.25
500.786	491.25
501.003	475.25
501.22	424.25
501.437	392.25
501.654	367.25
501.871	309.25
502.088	316.25
502.305	307.25
502.522	307.25
502.739	307.25
502.956	280.25
503.172	275.25
503.389	279.25
503.606	261.25
503.823	247.25
504.04	266.25
504.256	254.25
504.473	249.25
504.69	272.25
