Data from SampD_HRD10591_00042.txt Node
Date: Mon Jan 19 11:47:52 EST 2026
User: Yrep
Spectrometer: HR+D1059
Trigger mode: 0
Integration Time (sec): 3.443000E-1
Scans to average: 1
Electric dark correction enabled: true
Nonlinearity correction enabled: false
Boxcar width: 0
XAxis mode: Wavelengths
Number of Pixels in Spectrum: 2048
>>>>>Begin Spectral Data<<<<<
223.165	-21.06
223.4	-21.06
223.635	-21.06
223.869	-20.06
224.104	-25.06
224.338	-10.06
224.573	-14.06
224.808	-12.06
225.042	-4.06
225.277	-0.06
225.511	-0.06
225.746	0.94
225.98	1.94
226.215	15.94
226.449	8.94
226.683	29.94
226.918	18.94
227.152	29.94
227.387	42.94
227.621	29.94
227.856	49.94
228.09	47.94
228.324	52.94
228.559	61.94
228.793	50.94
229.027	55.94
229.262	64.94
229.496	75.94
229.73	74.94
229.964	64.94
230.199	63.94
230.433	75.94
230.667	85.94
230.901	77.94
231.136	74.94
231.37	87.94
231.604	88.94
231.838	70.94
232.072	79.94
232.306	95.94
232.541	86.94
232.775	79.94
233.009	89.94
233.243	80.94
233.477	78.94
233.711	91.94
233.945	92.94
234.179	75.94
234.413	86.94
234.647	97.94
234.881	85.94
235.115	78.94
235.349	79.94
235.583	90.94
235.817	81.94
236.051	73.94
236.285	68.94
236.519	78.94
236.753	81.94
236.987	73.94
237.221	71.94
237.455	70.94
237.689	81.94
237.922	81.94
238.156	94.94
238.39	75.94
238.624	88.94
238.858	81.94
239.091	79.94
239.325	82.94
239.559	73.94
239.793	73.94
240.027	85.94
240.26	74.94
240.494	97.94
240.728	85.94
240.961	69.94
241.195	85.94
241.429	86.94
241.662	99.94
241.896	82.94
242.13	82.94
242.363	94.94
242.597	88.94
242.83	87.94
243.064	74.94
243.298	79.94
243.531	87.94
243.765	74.94
243.998	85.94
244.232	94.94
244.465	80.94
244.699	75.94
244.932	85.94
245.166	97.94
245.399	83.94
245.633	82.94
245.866	96.94
246.099	77.94
246.333	81.94
246.566	78.94
246.8	85.94
247.033	75.94
247.266	96.94
247.5	73.94
247.733	88.94
247.966	73.94
248.2	85.94
248.433	95.94
248.666	99.94
248.899	98.94
249.133	98.94
249.366	101.94
249.599	95.94
249.832	82.94
250.066	88.94
250.299	98.94
250.532	106.94
250.765	83.94
250.998	97.94
251.231	79.94
251.465	81.94
251.698	86.94
251.931	96.94
252.164	108.94
252.397	105.94
252.63	97.94
252.863	88.94
253.096	83.94
253.329	104.94
253.562	83.94
253.795	103.94
254.028	107.94
254.261	88.94
254.494	99.94
254.727	95.94
254.96	87.94
255.193	104.94
255.426	102.94
255.659	101.94
255.892	113.94
256.124	97.94
256.357	87.94
256.59	96.94
256.823	103.94
257.056	98.94
257.289	95.94
257.521	86.94
257.754	89.94
257.987	86.94
258.22	87.94
258.452	102.94
258.685	90.94
258.918	88.94
259.151	89.94
259.383	99.94
259.616	95.94
259.849	82.94
260.081	101.94
260.314	95.94
260.547	90.94
260.779	97.94
261.012	105.94
261.244	93.94
261.477	107.94
261.71	90.94
261.942	91.94
262.175	88.94
262.407	91.94
262.64	113.94
262.872	100.94
263.105	102.94
263.337	113.94
263.57	93.94
263.802	95.94
264.035	102.94
264.267	103.94
264.499	94.94
264.732	105.94
264.964	83.94
265.197	111.94
265.429	97.94
265.661	106.94
265.894	109.94
266.126	109.94
266.358	87.94
266.591	93.94
266.823	95.94
267.055	93.94
267.287	99.94
267.52	87.94
267.752	101.94
267.984	95.94
268.216	110.94
268.448	110.94
268.681	93.94
268.913	106.94
269.145	99.94
269.377	105.94
269.609	101.94
269.841	112.94
270.073	103.94
270.306	81.94
270.538	99.94
270.77	105.94
271.002	88.94
271.234	103.94
271.466	115.94
271.698	97.94
271.93	107.94
272.162	107.94
272.394	113.94
272.626	87.94
272.858	102.94
273.09	101.94
273.322	106.94
273.553	111.94
273.785	98.94
274.017	106.94
274.249	111.94
274.481	86.94
274.713	112.94
274.945	102.94
275.176	108.94
275.408	125.94
275.64	114.94
275.872	95.94
276.104	101.94
276.335	115.94
276.567	96.94
276.799	107.94
277.031	104.94
277.262	91.94
277.494	124.94
277.726	105.94
277.957	104.94
278.189	98.94
278.421	99.94
278.652	99.94
278.884	109.94
279.115	126.94
279.347	107.94
279.579	103.94
279.81	102.94
280.042	106.94
280.273	97.94
280.505	107.94
280.736	113.94
280.968	101.94
281.199	101.94
281.431	118.94
281.662	107.94
281.894	115.94
282.125	105.94
282.356	107.94
282.588	116.94
282.819	99.94
283.051	95.94
283.282	106.94
283.513	117.94
283.745	106.94
283.976	112.94
284.207	105.94
284.439	123.94
284.67	116.94
284.901	101.94
285.132	107.94
285.364	115.94
285.595	113.94
285.826	106.94
286.057	120.94
286.288	123.94
286.52	106.94
286.751	112.94
286.982	120.94
287.213	107.94
287.444	134.94
287.675	126.94
287.906	116.94
288.138	130.94
288.369	105.94
288.6	113.94
288.831	118.94
289.062	122.94
289.293	109.94
289.524	107.94
289.755	122.94
289.986	115.94
290.217	119.94
290.448	116.94
290.679	108.94
290.91	123.94
291.141	108.94
291.371	107.94
291.602	99.94
291.833	121.94
292.064	132.94
292.295	104.94
292.526	102.94
292.757	122.94
292.987	120.94
293.218	111.94
293.449	103.94
293.68	120.94
293.91	130.94
294.141	123.94
294.372	106.94
294.603	116.94
294.833	102.94
295.064	111.94
295.295	126.94
295.525	112.94
295.756	123.94
295.987	113.94
296.217	101.94
296.448	99.94
296.679	120.94
296.909	143.94
297.14	119.94
297.37	123.94
297.601	120.94
297.831	119.94
298.062	116.94
298.292	124.94
298.523	136.94
298.753	125.94
298.984	121.94
299.214	123.94
299.445	114.94
299.675	126.94
299.905	107.94
300.136	138.94
300.366	123.94
300.597	110.94
300.827	127.94
301.057	132.94
301.288	113.94
301.518	129.94
301.748	125.94
301.979	166.94
302.209	119.94
302.439	116.94
302.669	136.94
302.9	109.94
303.13	120.94
303.36	111.94
303.59	118.94
303.82	118.94
304.051	122.94
304.281	137.94
304.511	146.94
304.741	122.94
304.971	125.94
305.201	126.94
305.431	122.94
305.661	123.94
305.891	118.94
306.121	116.94
306.352	118.94
306.582	127.94
306.812	113.94
307.042	127.94
307.272	143.94
307.502	127.94
307.731	128.94
307.961	126.94
308.191	118.94
308.421	129.94
308.651	120.94
308.881	122.94
309.111	118.94
309.341	129.94
309.571	117.94
309.8	120.94
310.03	126.94
310.26	113.94
310.49	122.94
310.72	115.94
310.949	112.94
311.179	117.94
311.409	117.94
311.639	114.94
311.868	116.94
312.098	122.94
312.328	115.94
312.557	113.94
312.787	119.94
313.017	123.94
313.246	129.94
313.476	118.94
313.706	129.94
313.935	138.94
314.165	125.94
314.394	136.94
314.624	135.94
314.853	125.94
315.083	127.94
315.312	130.94
315.542	131.94
315.771	126.94
316.001	136.94
316.23	118.94
316.46	121.94
316.689	128.94
316.919	129.94
317.148	128.94
317.377	145.94
317.607	129.94
317.836	118.94
318.065	106.94
318.295	126.94
318.524	128.94
318.753	142.94
318.983	122.94
319.212	130.94
319.441	119.94
319.67	122.94
319.9	119.94
320.129	101.94
320.358	117.94
320.587	129.94
320.816	126.94
321.046	111.94
321.275	117.94
321.504	127.94
321.733	126.94
321.962	131.94
322.191	129.94
322.42	110.94
322.649	109.94
322.878	127.94
323.108	141.94
323.337	119.94
323.566	134.94
323.795	141.94
324.024	111.94
324.253	135.94
324.482	125.94
324.71	126.94
324.939	146.94
325.168	141.94
325.397	123.94
325.626	125.94
325.855	129.94
326.084	120.94
326.313	120.94
326.542	141.94
326.77	118.94
326.999	134.94
327.228	130.94
327.457	126.94
327.686	133.94
327.914	142.94
328.143	141.94
328.372	121.94
328.6	124.94
328.829	126.94
329.058	125.94
329.287	119.94
329.515	121.94
329.744	136.94
329.972	119.94
330.201	132.94
330.43	138.94
330.658	153.94
330.887	138.94
331.115	131.94
331.344	132.94
331.572	142.94
331.801	130.94
332.03	152.94
332.258	151.94
332.486	135.94
332.715	134.94
332.943	165.94
333.172	147.94
333.4	151.94
333.629	166.94
333.857	144.94
334.085	157.94
334.314	148.94
334.542	156.94
334.771	148.94
334.999	136.94
335.227	144.94
335.455	145.94
335.684	161.94
335.912	147.94
336.14	136.94
336.369	145.94
336.597	137.94
336.825	121.94
337.053	139.94
337.281	151.94
337.51	149.94
337.738	157.94
337.966	128.94
338.194	142.94
338.422	129.94
338.65	128.94
338.878	135.94
339.106	148.94
339.334	146.94
339.562	135.94
339.79	123.94
340.018	141.94
340.246	109.94
340.474	121.94
340.702	133.94
340.93	117.94
341.158	122.94
341.386	134.94
341.614	131.94
341.842	126.94
342.07	136.94
342.298	130.94
342.526	117.94
342.754	119.94
342.981	134.94
343.209	129.94
343.437	165.94
343.665	147.94
343.893	159.94
344.12	142.94
344.348	143.94
344.576	128.94
344.804	142.94
345.031	130.94
345.259	137.94
345.487	118.94
345.714	122.94
345.942	122.94
346.17	144.94
346.397	122.94
346.625	124.94
346.853	133.94
347.08	127.94
347.308	138.94
347.535	127.94
347.763	111.94
347.99	130.94
348.218	126.94
348.445	133.94
348.673	132.94
348.9	141.94
349.128	138.94
349.355	125.94
349.583	130.94
349.81	131.94
350.037	139.94
350.265	118.94
350.492	122.94
350.72	125.94
350.947	122.94
351.174	125.94
351.402	120.94
351.629	123.94
351.856	119.94
352.083	126.94
352.311	127.94
352.538	123.94
352.765	131.94
352.992	141.94
353.22	127.94
353.447	136.94
353.674	119.94
353.901	156.94
354.128	119.94
354.355	126.94
354.583	143.94
354.81	137.94
355.037	129.94
355.264	122.94
355.491	126.94
355.718	123.94
355.945	134.94
356.172	122.94
356.399	136.94
356.626	115.94
356.853	133.94
357.08	131.94
357.307	137.94
357.534	130.94
357.761	131.94
357.988	136.94
358.215	141.94
358.441	137.94
358.668	128.94
358.895	138.94
359.122	131.94
359.349	123.94
359.576	119.94
359.802	132.94
360.029	135.94
360.256	140.94
360.483	131.94
360.709	122.94
360.936	137.94
361.163	133.94
361.39	129.94
361.616	117.94
361.843	136.94
362.07	134.94
362.296	118.94
362.523	120.94
362.749	137.94
362.976	126.94
363.203	137.94
363.429	125.94
363.656	134.94
363.882	111.94
364.109	137.94
364.335	133.94
364.562	126.94
364.788	129.94
365.015	128.94
365.241	129.94
365.468	134.94
365.694	126.94
365.92	126.94
366.147	136.94
366.373	125.94
366.599	130.94
366.826	131.94
367.052	136.94
367.278	139.94
367.505	133.94
367.731	149.94
367.957	130.94
368.184	127.94
368.41	126.94
368.636	141.94
368.862	150.94
369.089	146.94
369.315	141.94
369.541	145.94
369.767	147.94
369.993	142.94
370.219	146.94
370.445	161.94
370.672	128.94
370.898	132.94
371.124	153.94
371.35	145.94
371.576	153.94
371.802	157.94
372.028	138.94
372.254	143.94
372.48	145.94
372.706	153.94
372.932	144.94
373.158	147.94
373.384	158.94
373.61	157.94
373.835	157.94
374.061	147.94
374.287	146.94
374.513	146.94
374.739	151.94
374.965	161.94
375.191	173.94
375.416	149.94
375.642	168.94
375.868	152.94
376.094	163.94
376.319	157.94
376.545	142.94
376.771	161.94
376.997	149.94
377.222	134.94
377.448	153.94
377.674	154.94
377.899	160.94
378.125	138.94
378.35	165.94
378.576	171.94
378.802	147.94
379.027	162.94
379.253	166.94
379.478	162.94
379.704	165.94
379.929	161.94
380.155	144.94
380.38	152.94
380.606	165.94
380.831	149.94
381.057	192.94
381.282	171.94
381.507	165.94
381.733	154.94
381.958	164.94
382.184	161.94
382.409	186.94
382.634	152.94
382.86	158.94
383.085	179.94
383.31	167.94
383.535	181.94
383.761	176.94
383.986	181.94
384.211	175.94
384.436	190.94
384.662	185.94
384.887	170.94
385.112	151.94
385.337	189.94
385.562	187.94
385.787	188.94
386.013	183.94
386.238	184.94
386.463	191.94
386.688	200.94
386.913	180.94
387.138	189.94
387.363	165.94
387.588	189.94
387.813	190.94
388.038	197.94
388.263	206.94
388.488	193.94
388.713	199.94
388.938	186.94
389.163	197.94
389.387	189.94
389.612	184.94
389.837	181.94
390.062	193.94
390.287	190.94
390.512	179.94
390.736	190.94
390.961	211.94
391.186	210.94
391.411	215.94
391.636	197.94
391.86	201.94
392.085	216.94
392.31	217.94
392.534	213.94
392.759	213.94
392.984	218.94
393.208	205.94
393.433	210.94
393.658	202.94
393.882	211.94
394.107	212.94
394.331	214.94
394.556	226.94
394.78	212.94
395.005	217.94
395.229	211.94
395.454	232.94
395.678	206.94
395.903	227.94
396.127	206.94
396.352	224.94
396.576	205.94
396.801	209.94
397.025	202.94
397.249	214.94
397.474	223.94
397.698	235.94
397.922	211.94
398.147	206.94
398.371	208.94
398.595	245.94
398.82	220.94
399.044	249.94
399.268	253.94
399.492	283.94
399.717	295.94
399.941	272.94
400.165	248.94
400.389	234.94
400.613	238.94
400.837	251.94
401.062	221.94
401.286	246.94
401.51	257.94
401.734	232.94
401.958	249.94
402.182	237.94
402.406	242.94
402.63	246.94
402.854	229.94
403.078	247.94
403.302	257.94
403.526	250.94
403.75	259.94
403.974	254.94
404.198	270.94
404.422	279.94
404.645	264.94
404.869	256.94
405.093	258.94
405.317	263.94
405.541	265.94
405.765	251.94
405.988	253.94
406.212	254.94
406.436	254.94
406.66	271.94
406.883	266.94
407.107	281.94
407.331	281.94
407.555	295.94
407.778	282.94
408.002	282.94
408.226	270.94
408.449	267.94
408.673	264.94
408.896	267.94
409.12	254.94
409.344	288.94
409.567	263.94
409.791	273.94
410.014	259.94
410.238	282.94
410.461	279.94
410.685	269.94
410.908	271.94
411.132	288.94
411.355	265.94
411.578	261.94
411.802	277.94
412.025	256.94
412.249	248.94
412.472	255.94
412.695	259.94
412.919	267.94
413.142	262.94
413.365	260.94
413.589	251.94
413.812	269.94
414.035	266.94
414.258	261.94
414.482	283.94
414.705	269.94
414.928	254.94
415.151	270.94
415.374	256.94
415.597	267.94
415.821	266.94
416.044	262.94
416.267	271.94
416.49	279.94
416.713	267.94
416.936	257.94
417.159	265.94
417.382	265.94
417.605	259.94
417.828	264.94
418.051	276.94
418.274	278.94
418.497	291.94
418.72	270.94
418.943	263.94
419.166	275.94
419.389	299.94
419.611	302.94
419.834	287.94
420.057	287.94
420.28	282.94
420.503	293.94
420.726	291.94
420.948	273.94
421.171	265.94
421.394	260.94
421.617	297.94
421.839	297.94
422.062	296.94
422.285	273.94
422.507	263.94
422.73	271.94
422.953	275.94
423.175	277.94
423.398	275.94
423.621	279.94
423.843	283.94
424.066	297.94
424.288	298.94
424.511	305.94
424.733	317.94
424.956	290.94
425.178	287.94
425.401	296.94
425.623	282.94
425.846	254.94
426.068	279.94
426.291	267.94
426.513	269.94
426.735	271.94
426.958	275.94
427.18	251.94
427.402	275.94
427.625	266.94
427.847	240.94
428.069	267.94
428.292	259.94
428.514	262.94
428.736	266.94
428.958	267.94
429.181	241.94
429.403	253.94
429.625	258.94
429.847	241.94
430.069	257.94
430.292	275.94
430.514	251.94
430.736	273.94
430.958	264.94
431.18	253.94
431.402	245.94
431.624	240.94
431.846	199.94
432.068	184.94
432.29	189.94
432.512	202.94
432.734	249.94
432.956	276.94
433.178	283.94
433.4	265.94
433.622	279.94
433.844	252.94
434.066	237.94
434.287	206.94
434.509	198.94
434.731	199.94
434.953	230.94
435.175	258.94
435.397	247.94
435.618	233.94
435.84	206.94
436.062	225.94
436.284	255.94
436.505	266.94
436.727	263.94
436.949	257.94
437.17	267.94
437.392	257.94
437.614	237.94
437.835	206.94
438.057	200.94
438.278	232.94
438.5	244.94
438.721	258.94
438.943	276.94
439.165	272.94
439.386	283.94
439.608	284.94
439.829	292.94
440.05	283.94
440.272	281.94
440.493	284.94
440.715	305.94
440.936	291.94
441.158	294.94
441.379	320.94
441.6	326.94
441.822	313.94
442.043	312.94
442.264	310.94
442.486	292.94
442.707	296.94
442.928	299.94
443.149	306.94
443.371	303.94
443.592	282.94
443.813	300.94
444.034	287.94
444.255	303.94
444.476	312.94
444.698	304.94
444.919	327.94
445.14	579.94
445.361	439.94
445.582	310.94
445.803	311.94
446.024	315.94
446.245	318.94
446.466	335.94
446.687	300.94
446.908	325.94
447.129	321.94
447.35	299.94
447.571	302.94
447.792	289.94
448.013	282.94
448.234	283.94
448.455	275.94
448.675	289.94
448.896	274.94
449.117	257.94
449.338	243.94
449.559	288.94
449.779	261.94
450	258.94
450.221	266.94
450.442	265.94
450.662	263.94
450.883	255.94
451.104	262.94
451.324	251.94
451.545	252.94
451.766	248.94
451.986	235.94
452.207	250.94
452.428	242.94
452.648	238.94
452.869	219.94
453.089	209.94
453.31	194.94
453.53	208.94
453.751	191.94
453.971	211.94
454.192	190.94
454.412	203.94
454.633	218.94
454.853	231.94
455.073	232.94
455.294	219.94
455.514	218.94
455.734	217.94
455.955	219.94
456.175	212.94
456.395	207.94
456.616	202.94
456.836	192.94
457.056	195.94
457.276	185.94
457.497	193.94
457.717	194.94
457.937	187.94
458.157	200.94
458.377	185.94
458.598	175.94
458.818	168.94
459.038	159.94
459.258	177.94
459.478	165.94
459.698	175.94
459.918	203.94
460.138	217.94
460.358	233.94
460.578	232.94
460.798	238.94
461.018	242.94
461.238	231.94
461.458	242.94
461.678	228.94
461.898	244.94
462.118	242.94
462.338	254.94
462.558	248.94
462.777	252.94
462.997	248.94
463.217	252.94
463.437	257.94
463.657	249.94
463.876	226.94
464.096	246.94
464.316	252.94
464.536	266.94
464.755	258.94
464.975	233.94
465.195	253.94
465.414	243.94
465.634	234.94
465.854	226.94
466.073	249.94
466.293	251.94
466.512	238.94
466.732	256.94
466.951	266.94
467.171	255.94
467.391	266.94
467.61	259.94
467.829	254.94
468.049	262.94
468.268	270.94
468.488	253.94
468.707	256.94
468.927	262.94
469.146	243.94
469.365	263.94
469.585	262.94
469.804	264.94
470.023	283.94
470.243	281.94
470.462	285.94
470.681	298.94
470.901	255.94
471.12	277.94
471.339	274.94
471.558	255.94
471.777	266.94
471.997	258.94
472.216	247.94
472.435	212.94
472.654	213.94
472.873	208.94
473.092	223.94
473.311	229.94
473.53	240.94
473.749	246.94
473.968	244.94
474.187	226.94
474.406	205.94
474.625	248.94
474.844	249.94
475.063	230.94
475.282	234.94
475.501	212.94
475.72	223.94
475.939	253.94
476.158	241.94
476.377	243.94
476.596	225.94
476.814	209.94
477.033	216.94
477.252	214.94
477.471	235.94
477.69	257.94
477.908	275.94
478.127	285.94
478.346	273.94
478.564	273.94
478.783	268.94
479.002	290.94
479.22	262.94
479.439	273.94
479.658	222.94
479.876	233.94
480.095	224.94
480.313	238.94
480.532	234.94
480.751	223.94
480.969	193.94
481.188	190.94
481.406	190.94
481.624	182.94
481.843	170.94
482.061	200.94
482.28	231.94
482.498	211.94
482.717	217.94
482.935	251.94
483.153	295.94
483.372	275.94
483.59	278.94
483.808	258.94
484.027	240.94
484.245	257.94
484.463	271.94
484.681	302.94
484.9	267.94
485.118	262.94
485.336	242.94
485.554	200.94
485.772	209.94
485.99	221.94
486.209	224.94
486.427	216.94
486.645	240.94
486.863	270.94
487.081	274.94
487.299	261.94
487.517	279.94
487.735	327.94
487.953	350.94
488.171	361.94
488.389	327.94
488.607	291.94
488.825	255.94
489.043	255.94
489.261	259.94
489.479	250.94
489.696	260.94
489.914	269.94
490.132	289.94
490.35	305.94
490.568	317.94
490.786	349.94
491.003	366.94
491.221	373.94
491.439	385.94
491.657	405.94
491.874	421.94
492.092	465.94
492.31	472.94
492.527	452.94
492.745	421.94
492.963	426.94
493.18	387.94
493.398	381.94
493.615	358.94
493.833	367.94
494.05	373.94
494.268	371.94
494.485	366.94
494.703	371.94
494.92	367.94
495.138	360.94
495.355	365.94
495.573	357.94
495.79	357.94
496.008	355.94
496.225	344.94
496.442	345.94
496.66	361.94
496.877	317.94
497.094	341.94
497.312	345.94
497.529	348.94
497.746	321.94
497.963	314.94
498.181	273.94
498.398	266.94
498.615	283.94
498.832	293.94
499.049	298.94
499.267	319.94
499.484	338.94
499.701	381.94
499.918	419.94
500.135	450.94
500.352	510.94
500.569	520.94
500.786	502.94
501.003	467.94
501.22	439.94
501.437	425.94
501.654	379.94
501.871	357.94
502.088	319.94
502.305	321.94
502.522	302.94
502.739	293.94
502.956	309.94
503.172	278.94
503.389	270.94
503.606	258.94
503.823	253.94
504.04	254.94
504.256	267.94
504.473	270.94
504.69	262.94
504.907	268.94
