Data from SampD_HRD10591_00039.txt Node
Date: Mon Jan 19 11:47:51 EST 2026
User: Yrep
Spectrometer: HR+D1059
Trigger mode: 0
Integration Time (sec): 3.443000E-1
Scans to average: 1
Electric dark correction enabled: true
Nonlinearity correction enabled: false
Boxcar width: 0
XAxis mode: Wavelengths
Number of Pixels in Spectrum: 2048
>>>>>Begin Spectral Data<<<<<
223.165	-29.31
223.4	-29.31
223.635	-29.31
223.869	-26.31
224.104	-29.31
224.338	-11.31
224.573	-13.31
224.808	-14.31
225.042	-0.31
225.277	-2.31
225.511	-3.31
225.746	8.69
225.98	0.69
226.215	15.69
226.449	23.69
226.683	22.69
226.918	26.69
227.152	31.69
227.387	48.69
227.621	47.69
227.856	45.69
228.09	42.69
228.324	50.69
228.559	49.69
228.793	68.69
229.027	74.69
229.262	72.69
229.496	65.69
229.73	64.69
229.964	83.69
230.199	64.69
230.433	86.69
230.667	66.69
230.901	81.69
231.136	78.69
231.37	86.69
231.604	97.69
231.838	85.69
232.072	87.69
232.306	109.69
232.541	65.69
232.775	64.69
233.009	84.69
233.243	86.69
233.477	88.69
233.711	83.69
233.945	80.69
234.179	83.69
234.413	90.69
234.647	100.69
234.881	100.69
235.115	88.69
235.349	83.69
235.583	83.69
235.817	103.69
236.051	88.69
236.285	95.69
236.519	95.69
236.753	96.69
236.987	73.69
237.221	78.69
237.455	77.69
237.689	90.69
237.922	87.69
238.156	96.69
238.39	75.69
238.624	90.69
238.858	93.69
239.091	88.69
239.325	80.69
239.559	87.69
239.793	86.69
240.027	100.69
240.26	85.69
240.494	63.69
240.728	82.69
240.961	90.69
241.195	94.69
241.429	86.69
241.662	82.69
241.896	99.69
242.13	100.69
242.363	85.69
242.597	83.69
242.83	89.69
243.064	81.69
243.298	87.69
243.531	60.69
243.765	82.69
243.998	84.69
244.232	99.69
244.465	96.69
244.699	99.69
244.932	89.69
245.166	96.69
245.399	91.69
245.633	85.69
245.866	73.69
246.099	82.69
246.333	83.69
246.566	96.69
246.8	83.69
247.033	97.69
247.266	90.69
247.5	78.69
247.733	90.69
247.966	99.69
248.2	69.69
248.433	84.69
248.666	90.69
248.899	96.69
249.133	79.69
249.366	112.69
249.599	98.69
249.832	91.69
250.066	100.69
250.299	94.69
250.532	94.69
250.765	95.69
250.998	105.69
251.231	89.69
251.465	107.69
251.698	83.69
251.931	78.69
252.164	97.69
252.397	89.69
252.63	84.69
252.863	97.69
253.096	96.69
253.329	100.69
253.562	107.69
253.795	98.69
254.028	97.69
254.261	95.69
254.494	94.69
254.727	103.69
254.96	94.69
255.193	94.69
255.426	99.69
255.659	91.69
255.892	105.69
256.124	85.69
256.357	94.69
256.59	103.69
256.823	85.69
257.056	90.69
257.289	100.69
257.521	90.69
257.754	97.69
257.987	94.69
258.22	90.69
258.452	94.69
258.685	81.69
258.918	92.69
259.151	104.69
259.383	112.69
259.616	96.69
259.849	89.69
260.081	86.69
260.314	102.69
260.547	89.69
260.779	98.69
261.012	94.69
261.244	103.69
261.477	89.69
261.71	90.69
261.942	116.69
262.175	88.69
262.407	97.69
262.64	99.69
262.872	97.69
263.105	94.69
263.337	130.69
263.57	97.69
263.802	96.69
264.035	109.69
264.267	99.69
264.499	95.69
264.732	118.69
264.964	99.69
265.197	88.69
265.429	91.69
265.661	101.69
265.894	102.69
266.126	117.69
266.358	101.69
266.591	101.69
266.823	89.69
267.055	100.69
267.287	108.69
267.52	105.69
267.752	99.69
267.984	87.69
268.216	101.69
268.448	110.69
268.681	92.69
268.913	111.69
269.145	99.69
269.377	104.69
269.609	102.69
269.841	89.69
270.073	122.69
270.306	93.69
270.538	106.69
270.77	107.69
271.002	105.69
271.234	96.69
271.466	103.69
271.698	105.69
271.93	94.69
272.162	121.69
272.394	118.69
272.626	113.69
272.858	100.69
273.09	116.69
273.322	104.69
273.553	99.69
273.785	98.69
274.017	102.69
274.249	98.69
274.481	100.69
274.713	106.69
274.945	117.69
275.176	108.69
275.408	123.69
275.64	104.69
275.872	101.69
276.104	115.69
276.335	130.69
276.567	102.69
276.799	92.69
277.031	115.69
277.262	118.69
277.494	115.69
277.726	127.69
277.957	106.69
278.189	113.69
278.421	116.69
278.652	112.69
278.884	112.69
279.115	134.69
279.347	116.69
279.579	129.69
279.81	111.69
280.042	113.69
280.273	109.69
280.505	104.69
280.736	109.69
280.968	119.69
281.199	117.69
281.431	128.69
281.662	111.69
281.894	111.69
282.125	116.69
282.356	105.69
282.588	106.69
282.819	107.69
283.051	111.69
283.282	100.69
283.513	115.69
283.745	115.69
283.976	106.69
284.207	119.69
284.439	121.69
284.67	110.69
284.901	115.69
285.132	119.69
285.364	121.69
285.595	131.69
285.826	119.69
286.057	121.69
286.288	118.69
286.52	116.69
286.751	119.69
286.982	132.69
287.213	126.69
287.444	121.69
287.675	121.69
287.906	111.69
288.138	113.69
288.369	125.69
288.6	130.69
288.831	138.69
289.062	126.69
289.293	127.69
289.524	116.69
289.755	116.69
289.986	133.69
290.217	112.69
290.448	135.69
290.679	121.69
290.91	115.69
291.141	124.69
291.371	107.69
291.602	126.69
291.833	110.69
292.064	114.69
292.295	123.69
292.526	113.69
292.757	123.69
292.987	129.69
293.218	114.69
293.449	122.69
293.68	132.69
293.91	114.69
294.141	133.69
294.372	125.69
294.603	121.69
294.833	117.69
295.064	101.69
295.295	110.69
295.525	110.69
295.756	139.69
295.987	115.69
296.217	117.69
296.448	126.69
296.679	119.69
296.909	135.69
297.14	122.69
297.37	122.69
297.601	125.69
297.831	116.69
298.062	122.69
298.292	127.69
298.523	126.69
298.753	129.69
298.984	115.69
299.214	131.69
299.445	125.69
299.675	124.69
299.905	130.69
300.136	126.69
300.366	113.69
300.597	114.69
300.827	119.69
301.057	129.69
301.288	134.69
301.518	109.69
301.748	102.69
301.979	151.69
302.209	131.69
302.439	129.69
302.669	117.69
302.9	136.69
303.13	115.69
303.36	108.69
303.59	124.69
303.82	117.69
304.051	128.69
304.281	133.69
304.511	133.69
304.741	130.69
304.971	128.69
305.201	128.69
305.431	127.69
305.661	123.69
305.891	122.69
306.121	114.69
306.352	117.69
306.582	133.69
306.812	136.69
307.042	134.69
307.272	127.69
307.502	128.69
307.731	127.69
307.961	129.69
308.191	125.69
308.421	123.69
308.651	115.69
308.881	120.69
309.111	130.69
309.341	120.69
309.571	124.69
309.8	117.69
310.03	113.69
310.26	137.69
310.49	116.69
310.72	137.69
310.949	136.69
311.179	123.69
311.409	126.69
311.639	114.69
311.868	131.69
312.098	107.69
312.328	116.69
312.557	131.69
312.787	131.69
313.017	120.69
313.246	120.69
313.476	116.69
313.706	116.69
313.935	124.69
314.165	132.69
314.394	142.69
314.624	112.69
314.853	137.69
315.083	115.69
315.312	143.69
315.542	126.69
315.771	127.69
316.001	128.69
316.23	132.69
316.46	119.69
316.689	118.69
316.919	131.69
317.148	144.69
317.377	147.69
317.607	133.69
317.836	139.69
318.065	138.69
318.295	131.69
318.524	130.69
318.753	133.69
318.983	134.69
319.212	128.69
319.441	123.69
319.67	126.69
319.9	126.69
320.129	109.69
320.358	126.69
320.587	134.69
320.816	125.69
321.046	116.69
321.275	123.69
321.504	118.69
321.733	136.69
321.962	128.69
322.191	135.69
322.42	118.69
322.649	140.69
322.878	127.69
323.108	142.69
323.337	138.69
323.566	128.69
323.795	133.69
324.024	133.69
324.253	131.69
324.482	144.69
324.71	124.69
324.939	142.69
325.168	127.69
325.397	148.69
325.626	131.69
325.855	130.69
326.084	128.69
326.313	126.69
326.542	136.69
326.77	132.69
326.999	133.69
327.228	136.69
327.457	137.69
327.686	133.69
327.914	145.69
328.143	157.69
328.372	135.69
328.6	144.69
328.829	120.69
329.058	129.69
329.287	136.69
329.515	151.69
329.744	148.69
329.972	138.69
330.201	128.69
330.43	118.69
330.658	124.69
330.887	142.69
331.115	133.69
331.344	124.69
331.572	137.69
331.801	134.69
332.03	148.69
332.258	131.69
332.486	127.69
332.715	154.69
332.943	157.69
333.172	154.69
333.4	160.69
333.629	158.69
333.857	167.69
334.085	157.69
334.314	152.69
334.542	150.69
334.771	148.69
334.999	144.69
335.227	150.69
335.455	121.69
335.684	154.69
335.912	152.69
336.14	128.69
336.369	137.69
336.597	144.69
336.825	149.69
337.053	136.69
337.281	133.69
337.51	148.69
337.738	139.69
337.966	143.69
338.194	142.69
338.422	142.69
338.65	136.69
338.878	143.69
339.106	134.69
339.334	150.69
339.562	132.69
339.79	125.69
340.018	131.69
340.246	137.69
340.474	136.69
340.702	136.69
340.93	144.69
341.158	128.69
341.386	129.69
341.614	118.69
341.842	127.69
342.07	130.69
342.298	140.69
342.526	140.69
342.754	131.69
342.981	145.69
343.209	130.69
343.437	170.69
343.665	117.69
343.893	150.69
344.12	162.69
344.348	146.69
344.576	142.69
344.804	157.69
345.031	142.69
345.259	144.69
345.487	118.69
345.714	133.69
345.942	137.69
346.17	137.69
346.397	139.69
346.625	130.69
346.853	123.69
347.08	122.69
347.308	135.69
347.535	149.69
347.763	126.69
347.99	146.69
348.218	139.69
348.445	127.69
348.673	131.69
348.9	144.69
349.128	121.69
349.355	139.69
349.583	124.69
349.81	143.69
350.037	128.69
350.265	154.69
350.492	126.69
350.72	123.69
350.947	145.69
351.174	124.69
351.402	128.69
351.629	118.69
351.856	112.69
352.083	121.69
352.311	127.69
352.538	126.69
352.765	125.69
352.992	133.69
353.22	139.69
353.447	120.69
353.674	137.69
353.901	139.69
354.128	120.69
354.355	128.69
354.583	133.69
354.81	125.69
355.037	129.69
355.264	122.69
355.491	115.69
355.718	125.69
355.945	124.69
356.172	131.69
356.399	135.69
356.626	133.69
356.853	124.69
357.08	139.69
357.307	135.69
357.534	131.69
357.761	128.69
357.988	153.69
358.215	140.69
358.441	124.69
358.668	138.69
358.895	120.69
359.122	124.69
359.349	128.69
359.576	128.69
359.802	128.69
360.029	147.69
360.256	142.69
360.483	131.69
360.709	134.69
360.936	150.69
361.163	142.69
361.39	131.69
361.616	117.69
361.843	121.69
362.07	146.69
362.296	138.69
362.523	131.69
362.749	146.69
362.976	132.69
363.203	143.69
363.429	123.69
363.656	151.69
363.882	126.69
364.109	158.69
364.335	142.69
364.562	138.69
364.788	129.69
365.015	141.69
365.241	125.69
365.468	136.69
365.694	139.69
365.92	146.69
366.147	130.69
366.373	128.69
366.599	136.69
366.826	143.69
367.052	135.69
367.278	152.69
367.505	128.69
367.731	135.69
367.957	129.69
368.184	146.69
368.41	142.69
368.636	147.69
368.862	151.69
369.089	130.69
369.315	135.69
369.541	160.69
369.767	150.69
369.993	147.69
370.219	156.69
370.445	133.69
370.672	150.69
370.898	152.69
371.124	147.69
371.35	154.69
371.576	140.69
371.802	139.69
372.028	161.69
372.254	166.69
372.48	165.69
372.706	161.69
372.932	155.69
373.158	159.69
373.384	165.69
373.61	180.69
373.835	165.69
374.061	167.69
374.287	150.69
374.513	158.69
374.739	158.69
374.965	161.69
375.191	164.69
375.416	181.69
375.642	183.69
375.868	161.69
376.094	159.69
376.319	163.69
376.545	168.69
376.771	159.69
376.997	142.69
377.222	158.69
377.448	166.69
377.674	151.69
377.899	158.69
378.125	139.69
378.35	160.69
378.576	155.69
378.802	164.69
379.027	147.69
379.253	162.69
379.478	170.69
379.704	156.69
379.929	151.69
380.155	152.69
380.38	158.69
380.606	160.69
380.831	168.69
381.057	181.69
381.282	167.69
381.507	169.69
381.733	156.69
381.958	163.69
382.184	168.69
382.409	179.69
382.634	192.69
382.86	173.69
383.085	182.69
383.31	184.69
383.535	187.69
383.761	195.69
383.986	181.69
384.211	174.69
384.436	170.69
384.662	184.69
384.887	188.69
385.112	180.69
385.337	192.69
385.562	171.69
385.787	179.69
386.013	177.69
386.238	191.69
386.463	194.69
386.688	206.69
386.913	196.69
387.138	185.69
387.363	190.69
387.588	193.69
387.813	191.69
388.038	187.69
388.263	195.69
388.488	191.69
388.713	191.69
388.938	185.69
389.163	211.69
389.387	189.69
389.612	184.69
389.837	193.69
390.062	190.69
390.287	197.69
390.512	179.69
390.736	192.69
390.961	187.69
391.186	214.69
391.411	200.69
391.636	211.69
391.86	207.69
392.085	219.69
392.31	228.69
392.534	219.69
392.759	215.69
392.984	210.69
393.208	217.69
393.433	218.69
393.658	218.69
393.882	211.69
394.107	207.69
394.331	207.69
394.556	222.69
394.78	237.69
395.005	212.69
395.229	207.69
395.454	209.69
395.678	219.69
395.903	204.69
396.127	220.69
396.352	215.69
396.576	200.69
396.801	220.69
397.025	216.69
397.249	233.69
397.474	234.69
397.698	214.69
397.922	220.69
398.147	216.69
398.371	229.69
398.595	235.69
398.82	237.69
399.044	243.69
399.268	275.69
399.492	288.69
399.717	291.69
399.941	274.69
400.165	262.69
400.389	249.69
400.613	247.69
400.837	244.69
401.062	228.69
401.286	241.69
401.51	226.69
401.734	227.69
401.958	238.69
402.182	240.69
402.406	259.69
402.63	235.69
402.854	249.69
403.078	243.69
403.302	254.69
403.526	261.69
403.75	275.69
403.974	281.69
404.198	270.69
404.422	278.69
404.645	251.69
404.869	265.69
405.093	254.69
405.317	255.69
405.541	259.69
405.765	281.69
405.988	244.69
406.212	274.69
406.436	274.69
406.66	271.69
406.883	277.69
407.107	290.69
407.331	273.69
407.555	282.69
407.778	282.69
408.002	292.69
408.226	276.69
408.449	262.69
408.673	259.69
408.896	270.69
409.12	259.69
409.344	272.69
409.567	266.69
409.791	261.69
410.014	295.69
410.238	270.69
410.461	276.69
410.685	260.69
410.908	274.69
411.132	275.69
411.355	240.69
411.578	278.69
411.802	257.69
412.025	271.69
412.249	258.69
412.472	262.69
412.695	265.69
412.919	248.69
413.142	284.69
413.365	243.69
413.589	262.69
413.812	251.69
414.035	278.69
414.258	272.69
414.482	256.69
414.705	261.69
414.928	258.69
415.151	245.69
415.374	249.69
415.597	256.69
415.821	259.69
416.044	260.69
416.267	268.69
416.49	262.69
416.713	274.69
416.936	274.69
417.159	280.69
417.382	265.69
417.605	266.69
417.828	281.69
418.051	288.69
418.274	271.69
418.497	276.69
418.72	278.69
418.943	272.69
419.166	286.69
419.389	307.69
419.611	288.69
419.834	286.69
420.057	280.69
420.28	272.69
420.503	280.69
420.726	279.69
420.948	274.69
421.171	308.69
421.394	264.69
421.617	286.69
421.839	299.69
422.062	297.69
422.285	277.69
422.507	314.69
422.73	284.69
422.953	279.69
423.175	286.69
423.398	284.69
423.621	296.69
423.843	272.69
424.066	290.69
424.288	303.69
424.511	320.69
424.733	291.69
424.956	288.69
425.178	293.69
425.401	274.69
425.623	296.69
425.846	282.69
426.068	281.69
426.291	271.69
426.513	282.69
426.735	271.69
426.958	263.69
427.18	265.69
427.402	274.69
427.625	255.69
427.847	270.69
428.069	268.69
428.292	264.69
428.514	269.69
428.736	266.69
428.958	259.69
429.181	249.69
429.403	256.69
429.625	266.69
429.847	262.69
430.069	254.69
430.292	250.69
430.514	254.69
430.736	258.69
430.958	248.69
431.18	252.69
431.402	245.69
431.624	230.69
431.846	203.69
432.068	210.69
432.29	192.69
432.512	231.69
432.734	246.69
432.956	263.69
433.178	266.69
433.4	275.69
433.622	288.69
433.844	271.69
434.066	226.69
434.287	216.69
434.509	194.69
434.731	216.69
434.953	247.69
435.175	275.69
435.397	270.69
435.618	238.69
435.84	213.69
436.062	233.69
436.284	252.69
436.505	249.69
436.727	273.69
436.949	262.69
437.17	275.69
437.392	228.69
437.614	220.69
437.835	216.69
438.057	218.69
438.278	218.69
438.5	250.69
438.721	258.69
438.943	280.69
439.165	281.69
439.386	257.69
439.608	276.69
439.829	301.69
440.05	298.69
440.272	287.69
440.493	283.69
440.715	296.69
440.936	274.69
441.158	312.69
441.379	296.69
441.6	326.69
441.822	323.69
442.043	290.69
442.264	301.69
442.486	289.69
442.707	301.69
442.928	291.69
443.149	285.69
443.371	282.69
443.592	275.69
443.813	287.69
444.034	291.69
444.255	300.69
444.476	311.69
444.698	311.69
444.919	335.69
445.14	571.69
445.361	429.69
445.582	324.69
445.803	299.69
446.024	329.69
446.245	320.69
446.466	323.69
446.687	328.69
446.908	322.69
447.129	310.69
447.35	316.69
447.571	314.69
447.792	297.69
448.013	283.69
448.234	295.69
448.455	281.69
448.675	280.69
448.896	264.69
449.117	246.69
449.338	263.69
449.559	286.69
449.779	283.69
450	272.69
450.221	276.69
450.442	262.69
450.662	260.69
450.883	266.69
451.104	270.69
451.324	267.69
451.545	237.69
451.766	256.69
451.986	260.69
452.207	255.69
452.428	242.69
452.648	224.69
452.869	224.69
453.089	220.69
453.31	219.69
453.53	197.69
453.751	182.69
453.971	202.69
454.192	195.69
454.412	210.69
454.633	213.69
454.853	228.69
455.073	219.69
455.294	225.69
455.514	225.69
455.734	238.69
455.955	216.69
456.175	201.69
456.395	211.69
456.616	201.69
456.836	201.69
457.056	190.69
457.276	187.69
457.497	203.69
457.717	208.69
457.937	214.69
458.157	211.69
458.377	183.69
458.598	192.69
458.818	184.69
459.038	178.69
459.258	178.69
459.478	177.69
459.698	165.69
459.918	191.69
460.138	215.69
460.358	233.69
460.578	249.69
460.798	226.69
461.018	222.69
461.238	239.69
461.458	251.69
461.678	231.69
461.898	238.69
462.118	235.69
462.338	230.69
462.558	241.69
462.777	243.69
462.997	255.69
463.217	247.69
463.437	272.69
463.657	263.69
463.876	263.69
464.096	260.69
464.316	233.69
464.536	247.69
464.755	242.69
464.975	247.69
465.195	249.69
465.414	232.69
465.634	237.69
465.854	236.69
466.073	229.69
466.293	258.69
466.512	247.69
466.732	253.69
466.951	263.69
467.171	259.69
467.391	252.69
467.61	255.69
467.829	253.69
468.049	252.69
468.268	254.69
468.488	250.69
468.707	247.69
468.927	255.69
469.146	281.69
469.365	272.69
469.585	270.69
469.804	263.69
470.023	270.69
470.243	288.69
470.462	284.69
470.681	279.69
470.901	279.69
471.12	283.69
471.339	274.69
471.558	258.69
471.777	258.69
471.997	229.69
472.216	228.69
472.435	207.69
472.654	199.69
472.873	214.69
473.092	226.69
473.311	239.69
473.53	236.69
473.749	232.69
473.968	235.69
474.187	227.69
474.406	224.69
474.625	253.69
474.844	239.69
475.063	262.69
475.282	219.69
475.501	226.69
475.72	240.69
475.939	242.69
476.158	224.69
476.377	247.69
476.596	218.69
476.814	203.69
477.033	199.69
477.252	225.69
477.471	248.69
477.69	257.69
477.908	266.69
478.127	294.69
478.346	284.69
478.564	283.69
478.783	273.69
479.002	305.69
479.22	283.69
479.439	275.69
479.658	257.69
479.876	227.69
480.095	221.69
480.313	240.69
480.532	255.69
480.751	229.69
480.969	193.69
481.188	172.69
481.406	192.69
481.624	192.69
481.843	182.69
482.061	189.69
482.28	215.69
482.498	196.69
482.717	204.69
482.935	255.69
483.153	279.69
483.372	293.69
483.59	295.69
483.808	270.69
484.027	258.69
484.245	253.69
484.463	278.69
484.681	285.69
484.9	255.69
485.118	252.69
485.336	235.69
485.554	221.69
485.772	194.69
485.99	199.69
486.209	214.69
486.427	222.69
486.645	238.69
486.863	281.69
487.081	264.69
487.299	261.69
487.517	290.69
487.735	331.69
487.953	348.69
488.171	361.69
488.389	329.69
488.607	297.69
488.825	258.69
489.043	249.69
489.261	276.69
489.479	282.69
489.696	280.69
489.914	298.69
490.132	288.69
490.35	326.69
490.568	322.69
490.786	353.69
491.003	371.69
491.221	371.69
491.439	358.69
491.657	384.69
491.874	416.69
492.092	454.69
492.31	488.69
492.527	464.69
492.745	410.69
492.963	392.69
493.18	393.69
493.398	384.69
493.615	367.69
493.833	358.69
494.05	351.69
494.268	362.69
494.485	350.69
494.703	364.69
494.92	369.69
495.138	346.69
495.355	333.69
495.573	353.69
495.79	364.69
496.008	365.69
496.225	346.69
496.442	336.69
496.66	366.69
496.877	350.69
497.094	350.69
497.312	340.69
497.529	327.69
497.746	308.69
497.963	305.69
498.181	267.69
498.398	280.69
498.615	285.69
498.832	288.69
499.049	301.69
499.267	330.69
499.484	353.69
499.701	377.69
499.918	433.69
500.135	453.69
500.352	502.69
500.569	520.69
500.786	504.69
501.003	458.69
501.22	451.69
501.437	400.69
501.654	361.69
501.871	347.69
502.088	322.69
502.305	310.69
502.522	301.69
502.739	277.69
502.956	276.69
503.172	280.69
503.389	288.69
503.606	264.69
503.823	261.69
504.04	270.69
504.256	254.69
504.473	275.69
504.69	259.69
