Data from SampD_HRD10591_00037.txt Node
Date: Mon Jan 19 11:47:50 EST 2026
User: Yrep
Spectrometer: HR+D1059
Trigger mode: 0
Integration Time (sec): 3.443000E-1
Scans to average: 1
Electric dark correction enabled: true
Nonlinearity correction enabled: false
Boxcar width: 0
XAxis mode: Wavelengths
Number of Pixels in Spectrum: 2048
>>>>>Begin Spectral Data<<<<<
223.165	-17.38
223.4	-17.38
223.635	-17.38
223.869	-26.38
224.104	-19.38
224.338	-9.38
224.573	-15.38
224.808	-2.38
225.042	-1.38
225.277	-5.38
225.511	-3.38
225.746	9.62
225.98	-0.38
226.215	2.62
226.449	11.62
226.683	22.62
226.918	22.62
227.152	31.62
227.387	29.62
227.621	32.62
227.856	36.62
228.09	45.62
228.324	56.62
228.559	57.62
228.793	59.62
229.027	63.62
229.262	71.62
229.496	63.62
229.73	65.62
229.964	74.62
230.199	73.62
230.433	69.62
230.667	81.62
230.901	64.62
231.136	90.62
231.37	87.62
231.604	89.62
231.838	77.62
232.072	90.62
232.306	84.62
232.541	90.62
232.775	96.62
233.009	90.62
233.243	55.62
233.477	69.62
233.711	76.62
233.945	85.62
234.179	82.62
234.413	80.62
234.647	87.62
234.881	88.62
235.115	79.62
235.349	74.62
235.583	78.62
235.817	68.62
236.051	86.62
236.285	83.62
236.519	69.62
236.753	83.62
236.987	85.62
237.221	80.62
237.455	80.62
237.689	68.62
237.922	78.62
238.156	67.62
238.39	82.62
238.624	77.62
238.858	82.62
239.091	86.62
239.325	85.62
239.559	85.62
239.793	72.62
240.027	84.62
240.26	73.62
240.494	80.62
240.728	84.62
240.961	80.62
241.195	69.62
241.429	82.62
241.662	75.62
241.896	90.62
242.13	81.62
242.363	74.62
242.597	96.62
242.83	90.62
243.064	79.62
243.298	80.62
243.531	70.62
243.765	79.62
243.998	80.62
244.232	87.62
244.465	96.62
244.699	79.62
244.932	87.62
245.166	85.62
245.399	80.62
245.633	80.62
245.866	81.62
246.099	78.62
246.333	71.62
246.566	68.62
246.8	99.62
247.033	83.62
247.266	91.62
247.5	86.62
247.733	77.62
247.966	78.62
248.2	104.62
248.433	81.62
248.666	88.62
248.899	83.62
249.133	74.62
249.366	97.62
249.599	86.62
249.832	80.62
250.066	94.62
250.299	95.62
250.532	78.62
250.765	87.62
250.998	87.62
251.231	89.62
251.465	89.62
251.698	80.62
251.931	87.62
252.164	86.62
252.397	79.62
252.63	99.62
252.863	72.62
253.096	78.62
253.329	96.62
253.562	91.62
253.795	80.62
254.028	83.62
254.261	73.62
254.494	92.62
254.727	107.62
254.96	97.62
255.193	82.62
255.426	82.62
255.659	90.62
255.892	87.62
256.124	85.62
256.357	101.62
256.59	97.62
256.823	74.62
257.056	86.62
257.289	87.62
257.521	97.62
257.754	82.62
257.987	84.62
258.22	86.62
258.452	99.62
258.685	92.62
258.918	82.62
259.151	95.62
259.383	101.62
259.616	87.62
259.849	97.62
260.081	78.62
260.314	83.62
260.547	68.62
260.779	94.62
261.012	97.62
261.244	87.62
261.477	94.62
261.71	84.62
261.942	82.62
262.175	82.62
262.407	87.62
262.64	84.62
262.872	96.62
263.105	82.62
263.337	98.62
263.57	84.62
263.802	94.62
264.035	89.62
264.267	75.62
264.499	78.62
264.732	90.62
264.964	85.62
265.197	94.62
265.429	95.62
265.661	88.62
265.894	114.62
266.126	105.62
266.358	101.62
266.591	96.62
266.823	93.62
267.055	87.62
267.287	91.62
267.52	88.62
267.752	93.62
267.984	95.62
268.216	84.62
268.448	93.62
268.681	92.62
268.913	90.62
269.145	93.62
269.377	90.62
269.609	86.62
269.841	100.62
270.073	104.62
270.306	103.62
270.538	95.62
270.77	102.62
271.002	105.62
271.234	87.62
271.466	95.62
271.698	95.62
271.93	98.62
272.162	96.62
272.394	100.62
272.626	84.62
272.858	81.62
273.09	110.62
273.322	94.62
273.553	94.62
273.785	101.62
274.017	78.62
274.249	100.62
274.481	91.62
274.713	89.62
274.945	98.62
275.176	80.62
275.408	96.62
275.64	82.62
275.872	83.62
276.104	103.62
276.335	92.62
276.567	89.62
276.799	88.62
277.031	111.62
277.262	100.62
277.494	105.62
277.726	100.62
277.957	110.62
278.189	94.62
278.421	92.62
278.652	96.62
278.884	85.62
279.115	99.62
279.347	82.62
279.579	89.62
279.81	95.62
280.042	101.62
280.273	89.62
280.505	90.62
280.736	87.62
280.968	120.62
281.199	100.62
281.431	105.62
281.662	102.62
281.894	95.62
282.125	93.62
282.356	110.62
282.588	103.62
282.819	95.62
283.051	81.62
283.282	101.62
283.513	111.62
283.745	105.62
283.976	98.62
284.207	96.62
284.439	90.62
284.67	104.62
284.901	91.62
285.132	99.62
285.364	106.62
285.595	102.62
285.826	103.62
286.057	115.62
286.288	83.62
286.52	101.62
286.751	87.62
286.982	107.62
287.213	86.62
287.444	96.62
287.675	98.62
287.906	109.62
288.138	106.62
288.369	98.62
288.6	104.62
288.831	89.62
289.062	102.62
289.293	91.62
289.524	100.62
289.755	95.62
289.986	108.62
290.217	102.62
290.448	99.62
290.679	86.62
290.91	94.62
291.141	96.62
291.371	89.62
291.602	104.62
291.833	103.62
292.064	103.62
292.295	96.62
292.526	100.62
292.757	101.62
292.987	97.62
293.218	107.62
293.449	95.62
293.68	97.62
293.91	88.62
294.141	106.62
294.372	109.62
294.603	98.62
294.833	112.62
295.064	95.62
295.295	94.62
295.525	91.62
295.756	106.62
295.987	110.62
296.217	94.62
296.448	107.62
296.679	87.62
296.909	104.62
297.14	119.62
297.37	104.62
297.601	98.62
297.831	97.62
298.062	104.62
298.292	106.62
298.523	103.62
298.753	101.62
298.984	96.62
299.214	80.62
299.445	104.62
299.675	108.62
299.905	105.62
300.136	91.62
300.366	102.62
300.597	98.62
300.827	101.62
301.057	105.62
301.288	89.62
301.518	112.62
301.748	105.62
301.979	143.62
302.209	103.62
302.439	100.62
302.669	109.62
302.9	97.62
303.13	115.62
303.36	80.62
303.59	102.62
303.82	98.62
304.051	107.62
304.281	100.62
304.511	116.62
304.741	100.62
304.971	103.62
305.201	111.62
305.431	108.62
305.661	104.62
305.891	114.62
306.121	103.62
306.352	107.62
306.582	90.62
306.812	100.62
307.042	89.62
307.272	83.62
307.502	105.62
307.731	89.62
307.961	113.62
308.191	87.62
308.421	88.62
308.651	95.62
308.881	108.62
309.111	100.62
309.341	103.62
309.571	98.62
309.8	108.62
310.03	109.62
310.26	92.62
310.49	97.62
310.72	100.62
310.949	101.62
311.179	98.62
311.409	99.62
311.639	107.62
311.868	101.62
312.098	105.62
312.328	102.62
312.557	114.62
312.787	99.62
313.017	97.62
313.246	105.62
313.476	96.62
313.706	90.62
313.935	97.62
314.165	108.62
314.394	103.62
314.624	96.62
314.853	108.62
315.083	107.62
315.312	97.62
315.542	89.62
315.771	104.62
316.001	111.62
316.23	108.62
316.46	89.62
316.689	88.62
316.919	121.62
317.148	112.62
317.377	117.62
317.607	102.62
317.836	94.62
318.065	104.62
318.295	97.62
318.524	102.62
318.753	103.62
318.983	105.62
319.212	104.62
319.441	117.62
319.67	121.62
319.9	106.62
320.129	102.62
320.358	114.62
320.587	89.62
320.816	111.62
321.046	116.62
321.275	106.62
321.504	103.62
321.733	107.62
321.962	106.62
322.191	98.62
322.42	96.62
322.649	96.62
322.878	105.62
323.108	119.62
323.337	104.62
323.566	103.62
323.795	112.62
324.024	118.62
324.253	112.62
324.482	111.62
324.71	107.62
324.939	115.62
325.168	114.62
325.397	95.62
325.626	90.62
325.855	92.62
326.084	110.62
326.313	115.62
326.542	108.62
326.77	118.62
326.999	110.62
327.228	122.62
327.457	111.62
327.686	112.62
327.914	107.62
328.143	110.62
328.372	97.62
328.6	114.62
328.829	96.62
329.058	104.62
329.287	114.62
329.515	107.62
329.744	112.62
329.972	94.62
330.201	118.62
330.43	98.62
330.658	103.62
330.887	104.62
331.115	110.62
331.344	103.62
331.572	112.62
331.801	106.62
332.03	113.62
332.258	110.62
332.486	103.62
332.715	111.62
332.943	124.62
333.172	112.62
333.4	116.62
333.629	115.62
333.857	112.62
334.085	121.62
334.314	110.62
334.542	111.62
334.771	120.62
334.999	118.62
335.227	109.62
335.455	112.62
335.684	121.62
335.912	121.62
336.14	123.62
336.369	115.62
336.597	121.62
336.825	110.62
337.053	96.62
337.281	111.62
337.51	113.62
337.738	117.62
337.966	107.62
338.194	103.62
338.422	113.62
338.65	115.62
338.878	113.62
339.106	122.62
339.334	103.62
339.562	96.62
339.79	120.62
340.018	100.62
340.246	121.62
340.474	125.62
340.702	100.62
340.93	114.62
341.158	113.62
341.386	116.62
341.614	106.62
341.842	112.62
342.07	103.62
342.298	131.62
342.526	108.62
342.754	98.62
342.981	110.62
343.209	124.62
343.437	143.62
343.665	105.62
343.893	100.62
344.12	122.62
344.348	123.62
344.576	113.62
344.804	111.62
345.031	97.62
345.259	105.62
345.487	117.62
345.714	97.62
345.942	108.62
346.17	107.62
346.397	110.62
346.625	111.62
346.853	111.62
347.08	98.62
347.308	115.62
347.535	105.62
347.763	108.62
347.99	111.62
348.218	97.62
348.445	105.62
348.673	104.62
348.9	115.62
349.128	125.62
349.355	89.62
349.583	100.62
349.81	126.62
350.037	110.62
350.265	116.62
350.492	100.62
350.72	106.62
350.947	120.62
351.174	112.62
351.402	115.62
351.629	103.62
351.856	97.62
352.083	86.62
352.311	120.62
352.538	95.62
352.765	96.62
352.992	126.62
353.22	101.62
353.447	119.62
353.674	108.62
353.901	111.62
354.128	111.62
354.355	100.62
354.583	96.62
354.81	114.62
355.037	122.62
355.264	108.62
355.491	108.62
355.718	107.62
355.945	91.62
356.172	101.62
356.399	104.62
356.626	101.62
356.853	102.62
357.08	102.62
357.307	109.62
357.534	95.62
357.761	127.62
357.988	133.62
358.215	114.62
358.441	101.62
358.668	106.62
358.895	108.62
359.122	106.62
359.349	100.62
359.576	98.62
359.802	103.62
360.029	109.62
360.256	106.62
360.483	102.62
360.709	121.62
360.936	132.62
361.163	119.62
361.39	113.62
361.616	108.62
361.843	113.62
362.07	104.62
362.296	114.62
362.523	98.62
362.749	105.62
362.976	102.62
363.203	120.62
363.429	115.62
363.656	93.62
363.882	110.62
364.109	97.62
364.335	117.62
364.562	113.62
364.788	109.62
365.015	105.62
365.241	108.62
365.468	111.62
365.694	97.62
365.92	102.62
366.147	92.62
366.373	103.62
366.599	102.62
366.826	120.62
367.052	110.62
367.278	119.62
367.505	119.62
367.731	108.62
367.957	102.62
368.184	105.62
368.41	115.62
368.636	122.62
368.862	103.62
369.089	112.62
369.315	117.62
369.541	106.62
369.767	116.62
369.993	106.62
370.219	112.62
370.445	117.62
370.672	111.62
370.898	123.62
371.124	120.62
371.35	118.62
371.576	122.62
371.802	123.62
372.028	104.62
372.254	114.62
372.48	116.62
372.706	124.62
372.932	123.62
373.158	118.62
373.384	121.62
373.61	124.62
373.835	107.62
374.061	127.62
374.287	122.62
374.513	120.62
374.739	122.62
374.965	120.62
375.191	129.62
375.416	119.62
375.642	114.62
375.868	130.62
376.094	121.62
376.319	123.62
376.545	120.62
376.771	127.62
376.997	112.62
377.222	124.62
377.448	122.62
377.674	119.62
377.899	118.62
378.125	126.62
378.35	125.62
378.576	134.62
378.802	117.62
379.027	119.62
379.253	121.62
379.478	111.62
379.704	123.62
379.929	119.62
380.155	114.62
380.38	123.62
380.606	126.62
380.831	139.62
381.057	146.62
381.282	125.62
381.507	116.62
381.733	133.62
381.958	114.62
382.184	133.62
382.409	124.62
382.634	130.62
382.86	119.62
383.085	139.62
383.31	139.62
383.535	137.62
383.761	131.62
383.986	131.62
384.211	139.62
384.436	116.62
384.662	117.62
384.887	117.62
385.112	135.62
385.337	122.62
385.562	128.62
385.787	150.62
386.013	132.62
386.238	138.62
386.463	160.62
386.688	166.62
386.913	125.62
387.138	143.62
387.363	132.62
387.588	145.62
387.813	150.62
388.038	145.62
388.263	129.62
388.488	149.62
388.713	135.62
388.938	146.62
389.163	118.62
389.387	125.62
389.612	132.62
389.837	121.62
390.062	133.62
390.287	146.62
390.512	132.62
390.736	139.62
390.961	147.62
391.186	132.62
391.411	142.62
391.636	140.62
391.86	149.62
392.085	149.62
392.31	165.62
392.534	146.62
392.759	142.62
392.984	144.62
393.208	153.62
393.433	140.62
393.658	146.62
393.882	138.62
394.107	148.62
394.331	158.62
394.556	139.62
394.78	163.62
395.005	152.62
395.229	143.62
395.454	163.62
395.678	164.62
395.903	177.62
396.127	169.62
396.352	158.62
396.576	158.62
396.801	167.62
397.025	151.62
397.249	154.62
397.474	165.62
397.698	148.62
397.922	158.62
398.147	155.62
398.371	173.62
398.595	160.62
398.82	171.62
399.044	160.62
399.268	162.62
399.492	188.62
399.717	179.62
399.941	194.62
400.165	185.62
400.389	170.62
400.613	169.62
400.837	178.62
401.062	147.62
401.286	167.62
401.51	182.62
401.734	166.62
401.958	160.62
402.182	159.62
402.406	160.62
402.63	151.62
402.854	182.62
403.078	164.62
403.302	174.62
403.526	177.62
403.75	183.62
403.974	173.62
404.198	187.62
404.422	170.62
404.645	183.62
404.869	195.62
405.093	173.62
405.317	181.62
405.541	180.62
405.765	176.62
405.988	190.62
406.212	186.62
406.436	173.62
406.66	195.62
406.883	174.62
407.107	191.62
407.331	200.62
407.555	195.62
407.778	171.62
408.002	189.62
408.226	185.62
408.449	195.62
408.673	192.62
408.896	178.62
409.12	147.62
409.344	190.62
409.567	192.62
409.791	190.62
410.014	191.62
410.238	179.62
410.461	186.62
410.685	175.62
410.908	183.62
411.132	191.62
411.355	174.62
411.578	173.62
411.802	155.62
412.025	172.62
412.249	161.62
412.472	184.62
412.695	182.62
412.919	180.62
413.142	189.62
413.365	172.62
413.589	190.62
413.812	178.62
414.035	196.62
414.258	182.62
414.482	174.62
414.705	178.62
414.928	190.62
415.151	177.62
415.374	177.62
415.597	195.62
415.821	176.62
416.044	184.62
416.267	192.62
416.49	184.62
416.713	188.62
416.936	203.62
417.159	187.62
417.382	190.62
417.605	180.62
417.828	172.62
418.051	194.62
418.274	208.62
418.497	199.62
418.72	202.62
418.943	199.62
419.166	184.62
419.389	196.62
419.611	199.62
419.834	192.62
420.057	189.62
420.28	186.62
420.503	197.62
420.726	194.62
420.948	189.62
421.171	202.62
421.394	198.62
421.617	210.62
421.839	202.62
422.062	202.62
422.285	210.62
422.507	177.62
422.73	166.62
422.953	187.62
423.175	178.62
423.398	191.62
423.621	202.62
423.843	193.62
424.066	188.62
424.288	212.62
424.511	204.62
424.733	207.62
424.956	214.62
425.178	195.62
425.401	186.62
425.623	203.62
425.846	203.62
426.068	180.62
426.291	174.62
426.513	167.62
426.735	200.62
426.958	220.62
427.18	190.62
427.402	197.62
427.625	183.62
427.847	179.62
428.069	177.62
428.292	170.62
428.514	194.62
428.736	176.62
428.958	184.62
429.181	190.62
429.403	185.62
429.625	191.62
429.847	194.62
430.069	182.62
430.292	181.62
430.514	186.62
430.736	179.62
430.958	170.62
431.18	175.62
431.402	193.62
431.624	168.62
431.846	143.62
432.068	136.62
432.29	158.62
432.512	169.62
432.734	179.62
432.956	190.62
433.178	183.62
433.4	182.62
433.622	195.62
433.844	202.62
434.066	163.62
434.287	163.62
434.509	127.62
434.731	136.62
434.953	162.62
435.175	172.62
435.397	187.62
435.618	179.62
435.84	154.62
436.062	149.62
436.284	172.62
436.505	187.62
436.727	171.62
436.949	182.62
437.17	183.62
437.392	168.62
437.614	165.62
437.835	136.62
438.057	158.62
438.278	167.62
438.5	186.62
438.721	176.62
438.943	176.62
439.165	187.62
439.386	186.62
439.608	199.62
439.829	188.62
440.05	206.62
440.272	208.62
440.493	211.62
440.715	188.62
440.936	192.62
441.158	193.62
441.379	195.62
441.6	214.62
441.822	213.62
442.043	204.62
442.264	210.62
442.486	200.62
442.707	209.62
442.928	195.62
443.149	187.62
443.371	196.62
443.592	174.62
443.813	178.62
444.034	195.62
444.255	210.62
444.476	208.62
444.698	213.62
444.919	212.62
445.14	481.62
445.361	338.62
445.582	223.62
445.803	200.62
446.024	191.62
446.245	228.62
446.466	235.62
446.687	206.62
446.908	225.62
447.129	219.62
447.35	202.62
447.571	221.62
447.792	193.62
448.013	180.62
448.234	184.62
448.455	214.62
448.675	197.62
448.896	194.62
449.117	184.62
449.338	187.62
449.559	178.62
449.779	177.62
450	188.62
450.221	186.62
450.442	199.62
450.662	185.62
450.883	180.62
451.104	188.62
451.324	188.62
451.545	190.62
451.766	173.62
451.986	197.62
452.207	176.62
452.428	172.62
452.648	187.62
452.869	158.62
453.089	157.62
453.31	142.62
453.53	150.62
453.751	152.62
453.971	143.62
454.192	130.62
454.412	141.62
454.633	162.62
454.853	166.62
455.073	158.62
455.294	157.62
455.514	162.62
455.734	160.62
455.955	160.62
456.175	134.62
456.395	148.62
456.616	148.62
456.836	142.62
457.056	154.62
457.276	128.62
457.497	133.62
457.717	150.62
457.937	138.62
458.157	140.62
458.377	135.62
458.598	143.62
458.818	112.62
459.038	118.62
459.258	133.62
459.478	112.62
459.698	115.62
459.918	141.62
460.138	154.62
460.358	154.62
460.578	170.62
460.798	184.62
461.018	164.62
461.238	168.62
461.458	185.62
461.678	171.62
461.898	150.62
462.118	159.62
462.338	173.62
462.558	169.62
462.777	168.62
462.997	179.62
463.217	207.62
463.437	182.62
463.657	170.62
463.876	176.62
464.096	158.62
464.316	162.62
464.536	170.62
464.755	165.62
464.975	170.62
465.195	175.62
465.414	156.62
465.634	163.62
465.854	159.62
466.073	172.62
466.293	171.62
466.512	170.62
466.732	158.62
466.951	179.62
467.171	146.62
467.391	175.62
467.61	173.62
467.829	182.62
468.049	196.62
468.268	179.62
468.488	169.62
468.707	189.62
468.927	186.62
469.146	184.62
469.365	173.62
469.585	180.62
469.804	203.62
470.023	177.62
470.243	197.62
470.462	188.62
470.681	188.62
470.901	199.62
471.12	181.62
471.339	202.62
471.558	185.62
471.777	185.62
471.997	170.62
472.216	168.62
472.435	160.62
472.654	147.62
472.873	145.62
473.092	157.62
473.311	150.62
473.53	167.62
473.749	186.62
473.968	176.62
474.187	143.62
474.406	157.62
474.625	178.62
474.844	148.62
475.063	182.62
475.282	160.62
475.501	170.62
475.72	184.62
475.939	165.62
476.158	179.62
476.377	174.62
476.596	163.62
476.814	136.62
477.033	142.62
477.252	143.62
477.471	168.62
477.69	189.62
477.908	189.62
478.127	190.62
478.346	189.62
478.564	194.62
478.783	188.62
479.002	188.62
479.22	215.62
479.439	187.62
479.658	168.62
479.876	155.62
480.095	135.62
480.313	167.62
480.532	168.62
480.751	171.62
480.969	144.62
481.188	144.62
481.406	128.62
481.624	124.62
481.843	122.62
482.061	134.62
482.28	145.62
482.498	154.62
482.717	144.62
482.935	164.62
483.153	183.62
483.372	200.62
483.59	187.62
483.808	170.62
484.027	171.62
484.245	175.62
484.463	187.62
484.681	223.62
484.9	186.62
485.118	171.62
485.336	168.62
485.554	154.62
485.772	164.62
485.99	148.62
486.209	162.62
486.427	155.62
486.645	161.62
486.863	177.62
487.081	194.62
487.299	176.62
487.517	199.62
487.735	224.62
487.953	246.62
488.171	256.62
488.389	224.62
488.607	208.62
488.825	183.62
489.043	184.62
489.261	199.62
489.479	193.62
489.696	202.62
489.914	208.62
490.132	201.62
490.35	209.62
490.568	217.62
490.786	238.62
491.003	248.62
491.221	235.62
491.439	261.62
491.657	246.62
491.874	273.62
492.092	332.62
492.31	319.62
492.527	300.62
492.745	276.62
492.963	251.62
493.18	266.62
493.398	244.62
493.615	235.62
493.833	247.62
494.05	241.62
494.268	246.62
494.485	262.62
494.703	231.62
494.92	232.62
495.138	246.62
495.355	236.62
495.573	244.62
495.79	226.62
496.008	236.62
496.225	230.62
496.442	237.62
496.66	246.62
496.877	228.62
497.094	246.62
497.312	246.62
497.529	222.62
497.746	219.62
497.963	213.62
498.181	199.62
498.398	188.62
498.615	195.62
498.832	179.62
499.049	199.62
499.267	214.62
499.484	220.62
499.701	228.62
499.918	249.62
500.135	276.62
500.352	310.62
500.569	302.62
500.786	297.62
501.003	276.62
501.22	284.62
501.437	244.62
501.654	228.62
501.871	216.62
502.088	207.62
502.305	201.62
502.522	208.62
502.739	195.62
502.956	182.62
503.172	199.62
503.389	181.62
503.606	172.62
503.823	182.62
504.04	185.62
504.256	190.62
504.473	176.62
504.69	184.62
504.907	189.62
505.123	178.62
505.34	176.62
505.557	171.62
505.773	160.62
505.99	168.62
506.207	173.62
506.423	137.62
506.64	167.62
506.856	162.62
