Data from SampD_HRD10591_00065.txt Node
Date: Mon Jan 19 11:48:00 EST 2026
User: Yrep
Spectrometer: HR+D1059
Trigger mode: 0
Integration Time (sec): 3.443000E-1
Scans to average: 1
Electric dark correction enabled: true
Nonlinearity correction enabled: false
Boxcar width: 0
XAxis mode: Wavelengths
Number of Pixels in Spectrum: 2048
>>>>>Begin Spectral Data<<<<<
223.165	-21.81
223.4	-21.81
223.635	-21.81
223.869	-18.81
224.104	-28.81
224.338	-11.81
224.573	-20.81
224.808	-15.81
225.042	2.19
225.277	7.19
225.511	2.19
225.746	7.19
225.98	2.19
226.215	19.19
226.449	21.19
226.683	18.19
226.918	19.19
227.152	19.19
227.387	41.19
227.621	25.19
227.856	38.19
228.09	46.19
228.324	60.19
228.559	70.19
228.793	59.19
229.027	70.19
229.262	60.19
229.496	78.19
229.73	77.19
229.964	82.19
230.199	82.19
230.433	88.19
230.667	78.19
230.901	94.19
231.136	80.19
231.37	93.19
231.604	86.19
231.838	73.19
232.072	77.19
232.306	80.19
232.541	89.19
232.775	80.19
233.009	77.19
233.243	74.19
233.477	83.19
233.711	89.19
233.945	89.19
234.179	92.19
234.413	105.19
234.647	74.19
234.881	84.19
235.115	83.19
235.349	90.19
235.583	92.19
235.817	88.19
236.051	79.19
236.285	84.19
236.519	69.19
236.753	80.19
236.987	72.19
237.221	91.19
237.455	85.19
237.689	72.19
237.922	79.19
238.156	70.19
238.39	74.19
238.624	78.19
238.858	79.19
239.091	93.19
239.325	82.19
239.559	76.19
239.793	79.19
240.027	83.19
240.26	77.19
240.494	87.19
240.728	73.19
240.961	79.19
241.195	99.19
241.429	85.19
241.662	85.19
241.896	83.19
242.13	92.19
242.363	80.19
242.597	92.19
242.83	78.19
243.064	87.19
243.298	96.19
243.531	82.19
243.765	88.19
243.998	84.19
244.232	102.19
244.465	86.19
244.699	81.19
244.932	98.19
245.166	93.19
245.399	80.19
245.633	99.19
245.866	92.19
246.099	75.19
246.333	83.19
246.566	74.19
246.8	97.19
247.033	96.19
247.266	100.19
247.5	87.19
247.733	86.19
247.966	90.19
248.2	90.19
248.433	86.19
248.666	102.19
248.899	109.19
249.133	87.19
249.366	99.19
249.599	97.19
249.832	73.19
250.066	100.19
250.299	98.19
250.532	89.19
250.765	98.19
250.998	95.19
251.231	95.19
251.465	92.19
251.698	69.19
251.931	106.19
252.164	105.19
252.397	108.19
252.63	79.19
252.863	90.19
253.096	85.19
253.329	106.19
253.562	102.19
253.795	105.19
254.028	119.19
254.261	96.19
254.494	91.19
254.727	92.19
254.96	100.19
255.193	85.19
255.426	94.19
255.659	92.19
255.892	108.19
256.124	102.19
256.357	96.19
256.59	109.19
256.823	94.19
257.056	88.19
257.289	108.19
257.521	106.19
257.754	115.19
257.987	107.19
258.22	108.19
258.452	98.19
258.685	73.19
258.918	81.19
259.151	87.19
259.383	103.19
259.616	105.19
259.849	91.19
260.081	103.19
260.314	102.19
260.547	94.19
260.779	98.19
261.012	103.19
261.244	95.19
261.477	110.19
261.71	106.19
261.942	111.19
262.175	110.19
262.407	90.19
262.64	122.19
262.872	105.19
263.105	94.19
263.337	96.19
263.57	111.19
263.802	110.19
264.035	110.19
264.267	111.19
264.499	99.19
264.732	113.19
264.964	91.19
265.197	103.19
265.429	100.19
265.661	93.19
265.894	103.19
266.126	111.19
266.358	103.19
266.591	96.19
266.823	109.19
267.055	104.19
267.287	102.19
267.52	89.19
267.752	109.19
267.984	118.19
268.216	125.19
268.448	125.19
268.681	111.19
268.913	132.19
269.145	108.19
269.377	105.19
269.609	98.19
269.841	117.19
270.073	107.19
270.306	107.19
270.538	101.19
270.77	109.19
271.002	107.19
271.234	112.19
271.466	106.19
271.698	97.19
271.93	117.19
272.162	110.19
272.394	111.19
272.626	107.19
272.858	104.19
273.09	111.19
273.322	118.19
273.553	103.19
273.785	115.19
274.017	111.19
274.249	117.19
274.481	102.19
274.713	120.19
274.945	112.19
275.176	113.19
275.408	114.19
275.64	120.19
275.872	103.19
276.104	116.19
276.335	115.19
276.567	107.19
276.799	118.19
277.031	103.19
277.262	128.19
277.494	121.19
277.726	119.19
277.957	121.19
278.189	113.19
278.421	117.19
278.652	111.19
278.884	116.19
279.115	112.19
279.347	122.19
279.579	126.19
279.81	119.19
280.042	120.19
280.273	104.19
280.505	119.19
280.736	112.19
280.968	110.19
281.199	116.19
281.431	120.19
281.662	125.19
281.894	129.19
282.125	116.19
282.356	106.19
282.588	135.19
282.819	122.19
283.051	115.19
283.282	134.19
283.513	131.19
283.745	127.19
283.976	134.19
284.207	141.19
284.439	130.19
284.67	126.19
284.901	117.19
285.132	122.19
285.364	110.19
285.595	127.19
285.826	118.19
286.057	120.19
286.288	128.19
286.52	140.19
286.751	133.19
286.982	122.19
287.213	122.19
287.444	127.19
287.675	118.19
287.906	134.19
288.138	125.19
288.369	122.19
288.6	111.19
288.831	124.19
289.062	129.19
289.293	127.19
289.524	113.19
289.755	134.19
289.986	126.19
290.217	130.19
290.448	130.19
290.679	136.19
290.91	150.19
291.141	128.19
291.371	128.19
291.602	144.19
291.833	129.19
292.064	121.19
292.295	120.19
292.526	132.19
292.757	123.19
292.987	118.19
293.218	134.19
293.449	136.19
293.68	145.19
293.91	141.19
294.141	138.19
294.372	141.19
294.603	140.19
294.833	135.19
295.064	130.19
295.295	122.19
295.525	135.19
295.756	118.19
295.987	122.19
296.217	140.19
296.448	139.19
296.679	153.19
296.909	120.19
297.14	121.19
297.37	143.19
297.601	135.19
297.831	120.19
298.062	120.19
298.292	136.19
298.523	147.19
298.753	134.19
298.984	145.19
299.214	129.19
299.445	145.19
299.675	123.19
299.905	152.19
300.136	129.19
300.366	127.19
300.597	143.19
300.827	130.19
301.057	142.19
301.288	153.19
301.518	138.19
301.748	138.19
301.979	182.19
302.209	139.19
302.439	137.19
302.669	136.19
302.9	143.19
303.13	130.19
303.36	142.19
303.59	135.19
303.82	134.19
304.051	122.19
304.281	142.19
304.511	137.19
304.741	157.19
304.971	130.19
305.201	143.19
305.431	136.19
305.661	135.19
305.891	133.19
306.121	138.19
306.352	129.19
306.582	136.19
306.812	126.19
307.042	145.19
307.272	144.19
307.502	129.19
307.731	124.19
307.961	145.19
308.191	132.19
308.421	134.19
308.651	154.19
308.881	152.19
309.111	123.19
309.341	129.19
309.571	133.19
309.8	141.19
310.03	151.19
310.26	159.19
310.49	151.19
310.72	133.19
310.949	119.19
311.179	149.19
311.409	143.19
311.639	130.19
311.868	140.19
312.098	136.19
312.328	139.19
312.557	137.19
312.787	152.19
313.017	130.19
313.246	145.19
313.476	164.19
313.706	130.19
313.935	124.19
314.165	149.19
314.394	144.19
314.624	145.19
314.853	134.19
315.083	151.19
315.312	136.19
315.542	147.19
315.771	141.19
316.001	118.19
316.23	144.19
316.46	121.19
316.689	130.19
316.919	131.19
317.148	157.19
317.377	158.19
317.607	130.19
317.836	144.19
318.065	131.19
318.295	129.19
318.524	141.19
318.753	150.19
318.983	137.19
319.212	139.19
319.441	151.19
319.67	152.19
319.9	133.19
320.129	138.19
320.358	148.19
320.587	154.19
320.816	147.19
321.046	141.19
321.275	144.19
321.504	129.19
321.733	145.19
321.962	154.19
322.191	143.19
322.42	128.19
322.649	159.19
322.878	134.19
323.108	159.19
323.337	151.19
323.566	144.19
323.795	151.19
324.024	149.19
324.253	146.19
324.482	145.19
324.71	133.19
324.939	160.19
325.168	166.19
325.397	153.19
325.626	147.19
325.855	138.19
326.084	146.19
326.313	145.19
326.542	151.19
326.77	157.19
326.999	152.19
327.228	146.19
327.457	147.19
327.686	157.19
327.914	152.19
328.143	159.19
328.372	164.19
328.6	142.19
328.829	149.19
329.058	133.19
329.287	146.19
329.515	145.19
329.744	145.19
329.972	136.19
330.201	143.19
330.43	155.19
330.658	142.19
330.887	156.19
331.115	153.19
331.344	157.19
331.572	171.19
331.801	169.19
332.03	166.19
332.258	163.19
332.486	167.19
332.715	164.19
332.943	170.19
333.172	177.19
333.4	173.19
333.629	164.19
333.857	175.19
334.085	173.19
334.314	183.19
334.542	173.19
334.771	177.19
334.999	163.19
335.227	174.19
335.455	167.19
335.684	161.19
335.912	171.19
336.14	171.19
336.369	171.19
336.597	163.19
336.825	168.19
337.053	153.19
337.281	180.19
337.51	174.19
337.738	175.19
337.966	157.19
338.194	161.19
338.422	162.19
338.65	156.19
338.878	166.19
339.106	150.19
339.334	154.19
339.562	146.19
339.79	176.19
340.018	158.19
340.246	141.19
340.474	147.19
340.702	185.19
340.93	153.19
341.158	163.19
341.386	167.19
341.614	154.19
341.842	149.19
342.07	158.19
342.298	145.19
342.526	147.19
342.754	159.19
342.981	152.19
343.209	165.19
343.437	215.19
343.665	177.19
343.893	178.19
344.12	181.19
344.348	179.19
344.576	166.19
344.804	164.19
345.031	158.19
345.259	160.19
345.487	146.19
345.714	163.19
345.942	168.19
346.17	160.19
346.397	174.19
346.625	162.19
346.853	163.19
347.08	142.19
347.308	166.19
347.535	154.19
347.763	157.19
347.99	156.19
348.218	159.19
348.445	157.19
348.673	153.19
348.9	160.19
349.128	152.19
349.355	158.19
349.583	170.19
349.81	141.19
350.037	161.19
350.265	163.19
350.492	127.19
350.72	145.19
350.947	138.19
351.174	160.19
351.402	137.19
351.629	147.19
351.856	151.19
352.083	142.19
352.311	153.19
352.538	141.19
352.765	147.19
352.992	163.19
353.22	150.19
353.447	157.19
353.674	156.19
353.901	170.19
354.128	145.19
354.355	160.19
354.583	156.19
354.81	129.19
355.037	152.19
355.264	145.19
355.491	158.19
355.718	147.19
355.945	164.19
356.172	150.19
356.399	161.19
356.626	149.19
356.853	128.19
357.08	138.19
357.307	158.19
357.534	126.19
357.761	145.19
357.988	152.19
358.215	148.19
358.441	150.19
358.668	157.19
358.895	158.19
359.122	161.19
359.349	151.19
359.576	153.19
359.802	150.19
360.029	138.19
360.256	157.19
360.483	141.19
360.709	136.19
360.936	168.19
361.163	145.19
361.39	138.19
361.616	159.19
361.843	147.19
362.07	165.19
362.296	159.19
362.523	169.19
362.749	142.19
362.976	145.19
363.203	152.19
363.429	152.19
363.656	156.19
363.882	156.19
364.109	150.19
364.335	164.19
364.562	155.19
364.788	144.19
365.015	152.19
365.241	151.19
365.468	150.19
365.694	141.19
365.92	145.19
366.147	157.19
366.373	159.19
366.599	163.19
366.826	161.19
367.052	155.19
367.278	148.19
367.505	160.19
367.731	161.19
367.957	167.19
368.184	157.19
368.41	168.19
368.636	170.19
368.862	169.19
369.089	151.19
369.315	155.19
369.541	179.19
369.767	167.19
369.993	166.19
370.219	176.19
370.445	168.19
370.672	173.19
370.898	165.19
371.124	169.19
371.35	179.19
371.576	175.19
371.802	176.19
372.028	175.19
372.254	179.19
372.48	151.19
372.706	183.19
372.932	199.19
373.158	191.19
373.384	172.19
373.61	168.19
373.835	158.19
374.061	183.19
374.287	169.19
374.513	173.19
374.739	175.19
374.965	174.19
375.191	196.19
375.416	181.19
375.642	181.19
375.868	171.19
376.094	184.19
376.319	186.19
376.545	186.19
376.771	175.19
376.997	182.19
377.222	174.19
377.448	186.19
377.674	170.19
377.899	183.19
378.125	180.19
378.35	177.19
378.576	181.19
378.802	182.19
379.027	166.19
379.253	194.19
379.478	195.19
379.704	187.19
379.929	192.19
380.155	179.19
380.38	181.19
380.606	167.19
380.831	179.19
381.057	223.19
381.282	199.19
381.507	199.19
381.733	195.19
381.958	194.19
382.184	193.19
382.409	184.19
382.634	203.19
382.86	194.19
383.085	195.19
383.31	191.19
383.535	214.19
383.761	198.19
383.986	202.19
384.211	202.19
384.436	206.19
384.662	213.19
384.887	206.19
385.112	177.19
385.337	212.19
385.562	205.19
385.787	203.19
386.013	225.19
386.238	216.19
386.463	221.19
386.688	244.19
386.913	205.19
387.138	209.19
387.363	241.19
387.588	222.19
387.813	215.19
388.038	218.19
388.263	231.19
388.488	211.19
388.713	234.19
388.938	213.19
389.163	212.19
389.387	228.19
389.612	221.19
389.837	224.19
390.062	223.19
390.287	235.19
390.512	239.19
390.736	222.19
390.961	229.19
391.186	235.19
391.411	204.19
391.636	247.19
391.86	262.19
392.085	251.19
392.31	246.19
392.534	229.19
392.759	237.19
392.984	229.19
393.208	227.19
393.433	226.19
393.658	242.19
393.882	249.19
394.107	229.19
394.331	242.19
394.556	238.19
394.78	253.19
395.005	241.19
395.229	251.19
395.454	249.19
395.678	255.19
395.903	243.19
396.127	260.19
396.352	229.19
396.576	244.19
396.801	247.19
397.025	234.19
397.249	250.19
397.474	266.19
397.698	255.19
397.922	250.19
398.147	241.19
398.371	241.19
398.595	289.19
398.82	261.19
399.044	279.19
399.268	327.19
399.492	337.19
399.717	354.19
399.941	327.19
400.165	310.19
400.389	288.19
400.613	283.19
400.837	271.19
401.062	272.19
401.286	277.19
401.51	280.19
401.734	281.19
401.958	284.19
402.182	292.19
402.406	280.19
402.63	281.19
402.854	280.19
403.078	267.19
403.302	295.19
403.526	297.19
403.75	317.19
403.974	304.19
404.198	327.19
404.422	299.19
404.645	317.19
404.869	315.19
405.093	304.19
405.317	300.19
405.541	296.19
405.765	304.19
405.988	287.19
406.212	315.19
406.436	299.19
406.66	328.19
406.883	319.19
407.107	323.19
407.331	319.19
407.555	344.19
407.778	323.19
408.002	326.19
408.226	290.19
408.449	312.19
408.673	307.19
408.896	312.19
409.12	308.19
409.344	322.19
409.567	304.19
409.791	319.19
410.014	313.19
410.238	305.19
410.461	311.19
410.685	310.19
410.908	303.19
411.132	310.19
411.355	296.19
411.578	305.19
411.802	300.19
412.025	311.19
412.249	296.19
412.472	299.19
412.695	301.19
412.919	298.19
413.142	297.19
413.365	305.19
413.589	292.19
413.812	285.19
414.035	323.19
414.258	297.19
414.482	285.19
414.705	303.19
414.928	285.19
415.151	304.19
415.374	298.19
415.597	294.19
415.821	292.19
416.044	294.19
416.267	288.19
416.49	295.19
416.713	285.19
416.936	295.19
417.159	294.19
417.382	302.19
417.605	294.19
417.828	307.19
418.051	312.19
418.274	327.19
418.497	319.19
418.72	323.19
418.943	319.19
419.166	313.19
419.389	333.19
419.611	323.19
419.834	314.19
420.057	310.19
420.28	311.19
420.503	307.19
420.726	329.19
420.948	310.19
421.171	294.19
421.394	328.19
421.617	339.19
421.839	318.19
422.062	325.19
422.285	319.19
422.507	319.19
422.73	324.19
422.953	314.19
423.175	319.19
423.398	307.19
423.621	327.19
423.843	321.19
424.066	342.19
424.288	332.19
424.511	344.19
424.733	341.19
424.956	331.19
425.178	339.19
425.401	331.19
425.623	329.19
425.846	311.19
426.068	304.19
426.291	302.19
426.513	304.19
426.735	310.19
426.958	318.19
427.18	317.19
427.402	305.19
427.625	299.19
427.847	280.19
428.069	299.19
428.292	307.19
428.514	303.19
428.736	296.19
428.958	289.19
429.181	287.19
429.403	279.19
429.625	284.19
429.847	275.19
430.069	302.19
430.292	305.19
430.514	279.19
430.736	279.19
430.958	290.19
431.18	283.19
431.402	287.19
431.624	244.19
431.846	251.19
432.068	215.19
432.29	212.19
432.512	246.19
432.734	275.19
432.956	319.19
433.178	301.19
433.4	276.19
433.622	306.19
433.844	299.19
434.066	275.19
434.287	242.19
434.509	234.19
434.731	241.19
434.953	279.19
435.175	279.19
435.397	289.19
435.618	259.19
435.84	256.19
436.062	266.19
436.284	278.19
436.505	303.19
436.727	297.19
436.949	313.19
437.17	306.19
437.392	276.19
437.614	238.19
437.835	239.19
438.057	230.19
438.278	257.19
438.5	292.19
438.721	287.19
438.943	288.19
439.165	329.19
439.386	319.19
439.608	332.19
439.829	327.19
440.05	326.19
440.272	314.19
440.493	317.19
440.715	317.19
440.936	314.19
441.158	328.19
441.379	332.19
441.6	361.19
441.822	348.19
442.043	339.19
442.264	305.19
442.486	328.19
442.707	306.19
442.928	324.19
443.149	311.19
443.371	327.19
443.592	329.19
443.813	330.19
444.034	352.19
444.255	343.19
444.476	345.19
444.698	347.19
444.919	379.19
445.14	608.19
445.361	471.19
445.582	358.19
445.803	349.19
446.024	348.19
446.245	328.19
446.466	355.19
446.687	331.19
446.908	343.19
447.129	335.19
447.35	342.19
447.571	337.19
447.792	315.19
448.013	317.19
448.234	323.19
448.455	320.19
448.675	303.19
448.896	297.19
449.117	305.19
449.338	299.19
449.559	288.19
449.779	291.19
450	292.19
450.221	287.19
450.442	291.19
450.662	297.19
450.883	288.19
451.104	302.19
451.324	290.19
451.545	288.19
451.766	292.19
451.986	285.19
452.207	291.19
452.428	273.19
452.648	282.19
452.869	258.19
453.089	247.19
453.31	247.19
453.53	228.19
453.751	218.19
453.971	223.19
454.192	235.19
454.412	229.19
454.633	243.19
454.853	244.19
455.073	234.19
455.294	247.19
455.514	250.19
455.734	236.19
455.955	254.19
456.175	242.19
456.395	230.19
456.616	223.19
456.836	231.19
457.056	226.19
457.276	220.19
457.497	208.19
457.717	223.19
457.937	223.19
458.157	226.19
458.377	219.19
458.598	213.19
458.818	190.19
459.038	195.19
459.258	202.19
459.478	191.19
459.698	219.19
459.918	228.19
460.138	260.19
460.358	280.19
460.578	285.19
460.798	286.19
461.018	263.19
461.238	277.19
461.458	282.19
461.678	260.19
461.898	287.19
462.118	288.19
462.338	298.19
462.558	305.19
462.777	287.19
462.997	317.19
463.217	328.19
463.437	301.19
463.657	280.19
463.876	266.19
464.096	285.19
464.316	289.19
464.536	300.19
464.755	287.19
464.975	277.19
465.195	272.19
465.414	279.19
465.634	272.19
465.854	261.19
466.073	257.19
466.293	257.19
466.512	264.19
466.732	278.19
466.951	285.19
467.171	299.19
467.391	281.19
467.61	285.19
467.829	282.19
468.049	284.19
468.268	291.19
468.488	289.19
468.707	277.19
468.927	289.19
469.146	304.19
469.365	290.19
469.585	315.19
469.804	301.19
470.023	303.19
470.243	311.19
470.462	319.19
470.681	294.19
470.901	312.19
471.12	309.19
471.339	311.19
471.558	289.19
471.777	304.19
471.997	298.19
472.216	290.19
472.435	242.19
472.654	232.19
472.873	229.19
473.092	252.19
473.311	244.19
473.53	258.19
473.749	278.19
473.968	258.19
474.187	249.19
474.406	253.19
474.625	267.19
474.844	270.19
475.063	271.19
475.282	252.19
475.501	230.19
475.72	245.19
475.939	261.19
476.158	265.19
476.377	258.19
476.596	238.19
476.814	246.19
477.033	230.19
477.252	264.19
477.471	260.19
477.69	312.19
477.908	304.19
478.127	327.19
478.346	314.19
478.564	304.19
478.783	306.19
479.002	303.19
479.22	307.19
479.439	302.19
479.658	275.19
479.876	253.19
480.095	256.19
480.313	288.19
480.532	282.19
480.751	249.19
480.969	230.19
481.188	230.19
481.406	216.19
481.624	209.19
481.843	211.19
482.061	234.19
482.28	245.19
482.498	251.19
482.717	232.19
482.935	281.19
483.153	315.19
483.372	318.19
483.59	314.19
483.808	291.19
484.027	292.19
484.245	291.19
484.463	305.19
484.681	330.19
484.9	300.19
485.118	298.19
485.336	290.19
485.554	252.19
485.772	238.19
485.99	234.19
486.209	239.19
486.427	245.19
486.645	274.19
486.863	323.19
487.081	301.19
487.299	289.19
487.517	323.19
487.735	363.19
487.953	412.19
488.171	390.19
488.389	367.19
488.607	314.19
488.825	283.19
489.043	272.19
489.261	279.19
489.479	301.19
489.696	328.19
489.914	307.19
490.132	311.19
490.35	349.19
490.568	361.19
490.786	399.19
491.003	394.19
491.221	402.19
491.439	421.19
491.657	428.19
491.874	446.19
492.092	480.19
492.31	521.19
492.527	482.19
492.745	450.19
492.963	416.19
493.18	434.19
493.398	442.19
493.615	413.19
493.833	415.19
494.05	375.19
494.268	388.19
494.485	402.19
494.703	401.19
494.92	390.19
495.138	402.19
495.355	405.19
495.573	416.19
495.79	376.19
496.008	401.19
496.225	366.19
496.442	378.19
496.66	393.19
496.877	387.19
497.094	400.19
497.312	407.19
497.529	386.19
497.746	348.19
497.963	323.19
498.181	352.19
498.398	319.19
498.615	320.19
498.832	324.19
499.049	381.19
499.267	400.19
499.484	433.19
499.701	460.19
499.918	527.19
500.135	563.19
500.352	624.19
500.569	613.19
500.786	603.19
501.003	565.19
501.22	515.19
501.437	486.19
501.654	434.19
501.871	416.19
502.088	373.19
502.305	382.19
502.522	357.19
502.739	345.19
502.956	344.19
503.172	330.19
503.389	320.19
503.606	289.19
503.823	276.19
504.04	319.19
504.256	313.19
504.473	335.19
