Data from SampD_HRD10591_00047.txt Node
Date: Mon Jan 19 11:47:54 EST 2026
User: Yrep
Spectrometer: HR+D1059
Trigger mode: 0
Integration Time (sec): 3.443000E-1
Scans to average: 1
Electric dark correction enabled: true
Nonlinearity correction enabled: false
Boxcar width: 0
XAxis mode: Wavelengths
Number of Pixels in Spectrum: 2048
>>>>>Begin Spectral Data<<<<<
223.165	-22.69
223.4	-22.69
223.635	-22.69
223.869	-28.69
224.104	-14.69
224.338	-7.69
224.573	-9.69
224.808	-13.69
225.042	-1.69
225.277	2.31
225.511	2.31
225.746	4.31
225.98	17.31
226.215	6.31
226.449	13.31
226.683	19.31
226.918	8.31
227.152	25.31
227.387	28.31
227.621	37.31
227.856	56.31
228.09	56.31
228.324	50.31
228.559	54.31
228.793	63.31
229.027	71.31
229.262	61.31
229.496	75.31
229.73	73.31
229.964	77.31
230.199	70.31
230.433	96.31
230.667	80.31
230.901	87.31
231.136	94.31
231.37	89.31
231.604	83.31
231.838	78.31
232.072	78.31
232.306	85.31
232.541	77.31
232.775	93.31
233.009	82.31
233.243	70.31
233.477	91.31
233.711	87.31
233.945	87.31
234.179	92.31
234.413	104.31
234.647	97.31
234.881	85.31
235.115	79.31
235.349	74.31
235.583	97.31
235.817	82.31
236.051	90.31
236.285	92.31
236.519	78.31
236.753	82.31
236.987	71.31
237.221	57.31
237.455	81.31
237.689	74.31
237.922	93.31
238.156	70.31
238.39	82.31
238.624	65.31
238.858	79.31
239.091	67.31
239.325	91.31
239.559	81.31
239.793	90.31
240.027	88.31
240.26	95.31
240.494	93.31
240.728	87.31
240.961	87.31
241.195	88.31
241.429	104.31
241.662	76.31
241.896	73.31
242.13	74.31
242.363	81.31
242.597	81.31
242.83	88.31
243.064	87.31
243.298	92.31
243.531	89.31
243.765	76.31
243.998	95.31
244.232	95.31
244.465	82.31
244.699	96.31
244.932	88.31
245.166	65.31
245.399	93.31
245.633	104.31
245.866	83.31
246.099	74.31
246.333	79.31
246.566	99.31
246.8	91.31
247.033	87.31
247.266	94.31
247.5	99.31
247.733	95.31
247.966	90.31
248.2	98.31
248.433	93.31
248.666	81.31
248.899	77.31
249.133	85.31
249.366	89.31
249.599	100.31
249.832	73.31
250.066	85.31
250.299	95.31
250.532	89.31
250.765	100.31
250.998	73.31
251.231	104.31
251.465	93.31
251.698	82.31
251.931	99.31
252.164	96.31
252.397	88.31
252.63	98.31
252.863	97.31
253.096	82.31
253.329	101.31
253.562	81.31
253.795	93.31
254.028	88.31
254.261	103.31
254.494	93.31
254.727	98.31
254.96	99.31
255.193	82.31
255.426	107.31
255.659	76.31
255.892	108.31
256.124	94.31
256.357	105.31
256.59	84.31
256.823	105.31
257.056	98.31
257.289	99.31
257.521	103.31
257.754	96.31
257.987	97.31
258.22	105.31
258.452	107.31
258.685	86.31
258.918	96.31
259.151	89.31
259.383	101.31
259.616	95.31
259.849	87.31
260.081	100.31
260.314	91.31
260.547	100.31
260.779	95.31
261.012	103.31
261.244	104.31
261.477	92.31
261.71	101.31
261.942	93.31
262.175	105.31
262.407	89.31
262.64	99.31
262.872	88.31
263.105	104.31
263.337	98.31
263.57	96.31
263.802	90.31
264.035	97.31
264.267	93.31
264.499	96.31
264.732	90.31
264.964	105.31
265.197	100.31
265.429	109.31
265.661	104.31
265.894	111.31
266.126	99.31
266.358	103.31
266.591	94.31
266.823	87.31
267.055	96.31
267.287	96.31
267.52	97.31
267.752	83.31
267.984	102.31
268.216	99.31
268.448	105.31
268.681	115.31
268.913	110.31
269.145	88.31
269.377	108.31
269.609	91.31
269.841	104.31
270.073	93.31
270.306	93.31
270.538	100.31
270.77	106.31
271.002	108.31
271.234	117.31
271.466	107.31
271.698	103.31
271.93	113.31
272.162	105.31
272.394	101.31
272.626	99.31
272.858	104.31
273.09	110.31
273.322	99.31
273.553	106.31
273.785	98.31
274.017	88.31
274.249	119.31
274.481	120.31
274.713	107.31
274.945	112.31
275.176	114.31
275.408	111.31
275.64	104.31
275.872	112.31
276.104	123.31
276.335	111.31
276.567	94.31
276.799	89.31
277.031	104.31
277.262	112.31
277.494	118.31
277.726	111.31
277.957	108.31
278.189	118.31
278.421	110.31
278.652	99.31
278.884	115.31
279.115	97.31
279.347	100.31
279.579	104.31
279.81	111.31
280.042	114.31
280.273	83.31
280.505	127.31
280.736	110.31
280.968	119.31
281.199	113.31
281.431	103.31
281.662	125.31
281.894	124.31
282.125	125.31
282.356	116.31
282.588	102.31
282.819	103.31
283.051	126.31
283.282	109.31
283.513	123.31
283.745	116.31
283.976	110.31
284.207	107.31
284.439	113.31
284.67	120.31
284.901	100.31
285.132	112.31
285.364	112.31
285.595	127.31
285.826	120.31
286.057	108.31
286.288	115.31
286.52	137.31
286.751	108.31
286.982	114.31
287.213	114.31
287.444	114.31
287.675	119.31
287.906	131.31
288.138	120.31
288.369	110.31
288.6	125.31
288.831	116.31
289.062	119.31
289.293	116.31
289.524	122.31
289.755	110.31
289.986	111.31
290.217	135.31
290.448	109.31
290.679	126.31
290.91	112.31
291.141	122.31
291.371	128.31
291.602	119.31
291.833	104.31
292.064	125.31
292.295	96.31
292.526	120.31
292.757	114.31
292.987	114.31
293.218	115.31
293.449	124.31
293.68	125.31
293.91	108.31
294.141	115.31
294.372	115.31
294.603	133.31
294.833	110.31
295.064	107.31
295.295	131.31
295.525	120.31
295.756	133.31
295.987	117.31
296.217	126.31
296.448	121.31
296.679	125.31
296.909	130.31
297.14	110.31
297.37	125.31
297.601	119.31
297.831	115.31
298.062	122.31
298.292	114.31
298.523	131.31
298.753	118.31
298.984	124.31
299.214	111.31
299.445	123.31
299.675	125.31
299.905	121.31
300.136	126.31
300.366	115.31
300.597	112.31
300.827	127.31
301.057	127.31
301.288	128.31
301.518	135.31
301.748	126.31
301.979	166.31
302.209	149.31
302.439	116.31
302.669	125.31
302.9	121.31
303.13	122.31
303.36	119.31
303.59	121.31
303.82	130.31
304.051	123.31
304.281	136.31
304.511	141.31
304.741	122.31
304.971	118.31
305.201	121.31
305.431	129.31
305.661	121.31
305.891	124.31
306.121	126.31
306.352	125.31
306.582	109.31
306.812	113.31
307.042	114.31
307.272	101.31
307.502	115.31
307.731	128.31
307.961	128.31
308.191	111.31
308.421	121.31
308.651	115.31
308.881	119.31
309.111	114.31
309.341	125.31
309.571	134.31
309.8	111.31
310.03	132.31
310.26	122.31
310.49	112.31
310.72	121.31
310.949	100.31
311.179	121.31
311.409	119.31
311.639	118.31
311.868	134.31
312.098	137.31
312.328	125.31
312.557	129.31
312.787	131.31
313.017	118.31
313.246	126.31
313.476	138.31
313.706	118.31
313.935	122.31
314.165	131.31
314.394	133.31
314.624	129.31
314.853	128.31
315.083	115.31
315.312	127.31
315.542	133.31
315.771	135.31
316.001	125.31
316.23	130.31
316.46	130.31
316.689	111.31
316.919	122.31
317.148	120.31
317.377	130.31
317.607	118.31
317.836	128.31
318.065	136.31
318.295	118.31
318.524	139.31
318.753	116.31
318.983	117.31
319.212	125.31
319.441	114.31
319.67	123.31
319.9	135.31
320.129	136.31
320.358	125.31
320.587	103.31
320.816	113.31
321.046	134.31
321.275	150.31
321.504	118.31
321.733	126.31
321.962	121.31
322.191	134.31
322.42	135.31
322.649	134.31
322.878	126.31
323.108	133.31
323.337	116.31
323.566	142.31
323.795	129.31
324.024	137.31
324.253	132.31
324.482	130.31
324.71	125.31
324.939	135.31
325.168	128.31
325.397	127.31
325.626	120.31
325.855	124.31
326.084	114.31
326.313	120.31
326.542	124.31
326.77	124.31
326.999	135.31
327.228	128.31
327.457	128.31
327.686	128.31
327.914	120.31
328.143	153.31
328.372	143.31
328.6	140.31
328.829	138.31
329.058	123.31
329.287	127.31
329.515	137.31
329.744	142.31
329.972	132.31
330.201	134.31
330.43	127.31
330.658	118.31
330.887	135.31
331.115	147.31
331.344	146.31
331.572	141.31
331.801	129.31
332.03	143.31
332.258	147.31
332.486	142.31
332.715	138.31
332.943	135.31
333.172	144.31
333.4	163.31
333.629	152.31
333.857	145.31
334.085	158.31
334.314	143.31
334.542	137.31
334.771	136.31
334.999	153.31
335.227	142.31
335.455	149.31
335.684	154.31
335.912	143.31
336.14	145.31
336.369	152.31
336.597	132.31
336.825	150.31
337.053	142.31
337.281	142.31
337.51	138.31
337.738	157.31
337.966	144.31
338.194	130.31
338.422	137.31
338.65	156.31
338.878	143.31
339.106	143.31
339.334	141.31
339.562	142.31
339.79	128.31
340.018	115.31
340.246	136.31
340.474	133.31
340.702	129.31
340.93	133.31
341.158	142.31
341.386	133.31
341.614	139.31
341.842	127.31
342.07	127.31
342.298	134.31
342.526	143.31
342.754	139.31
342.981	139.31
343.209	134.31
343.437	172.31
343.665	154.31
343.893	159.31
344.12	169.31
344.348	142.31
344.576	148.31
344.804	131.31
345.031	145.31
345.259	132.31
345.487	152.31
345.714	135.31
345.942	142.31
346.17	148.31
346.397	138.31
346.625	141.31
346.853	135.31
347.08	129.31
347.308	135.31
347.535	135.31
347.763	136.31
347.99	143.31
348.218	138.31
348.445	133.31
348.673	136.31
348.9	121.31
349.128	141.31
349.355	145.31
349.583	128.31
349.81	140.31
350.037	140.31
350.265	132.31
350.492	128.31
350.72	129.31
350.947	146.31
351.174	127.31
351.402	124.31
351.629	126.31
351.856	130.31
352.083	129.31
352.311	130.31
352.538	122.31
352.765	134.31
352.992	155.31
353.22	135.31
353.447	142.31
353.674	128.31
353.901	125.31
354.128	141.31
354.355	119.31
354.583	118.31
354.81	132.31
355.037	128.31
355.264	128.31
355.491	120.31
355.718	124.31
355.945	133.31
356.172	135.31
356.399	131.31
356.626	130.31
356.853	135.31
357.08	131.31
357.307	110.31
357.534	131.31
357.761	129.31
357.988	136.31
358.215	133.31
358.441	126.31
358.668	134.31
358.895	131.31
359.122	127.31
359.349	130.31
359.576	128.31
359.802	117.31
360.029	139.31
360.256	141.31
360.483	139.31
360.709	122.31
360.936	143.31
361.163	131.31
361.39	115.31
361.616	141.31
361.843	121.31
362.07	119.31
362.296	117.31
362.523	123.31
362.749	119.31
362.976	127.31
363.203	145.31
363.429	117.31
363.656	132.31
363.882	130.31
364.109	117.31
364.335	157.31
364.562	118.31
364.788	135.31
365.015	129.31
365.241	123.31
365.468	142.31
365.694	132.31
365.92	149.31
366.147	130.31
366.373	116.31
366.599	132.31
366.826	144.31
367.052	139.31
367.278	149.31
367.505	136.31
367.731	155.31
367.957	121.31
368.184	152.31
368.41	140.31
368.636	149.31
368.862	146.31
369.089	141.31
369.315	128.31
369.541	150.31
369.767	155.31
369.993	152.31
370.219	147.31
370.445	132.31
370.672	146.31
370.898	152.31
371.124	154.31
371.35	150.31
371.576	141.31
371.802	146.31
372.028	157.31
372.254	168.31
372.48	157.31
372.706	139.31
372.932	142.31
373.158	159.31
373.384	168.31
373.61	155.31
373.835	174.31
374.061	153.31
374.287	167.31
374.513	169.31
374.739	165.31
374.965	153.31
375.191	154.31
375.416	170.31
375.642	153.31
375.868	163.31
376.094	160.31
376.319	156.31
376.545	150.31
376.771	146.31
376.997	155.31
377.222	141.31
377.448	169.31
377.674	159.31
377.899	165.31
378.125	145.31
378.35	161.31
378.576	150.31
378.802	142.31
379.027	163.31
379.253	158.31
379.478	151.31
379.704	171.31
379.929	166.31
380.155	151.31
380.38	172.31
380.606	172.31
380.831	158.31
381.057	169.31
381.282	145.31
381.507	173.31
381.733	158.31
381.958	163.31
382.184	169.31
382.409	158.31
382.634	162.31
382.86	182.31
383.085	178.31
383.31	181.31
383.535	178.31
383.761	177.31
383.986	177.31
384.211	187.31
384.436	184.31
384.662	193.31
384.887	188.31
385.112	192.31
385.337	166.31
385.562	171.31
385.787	183.31
386.013	197.31
386.238	200.31
386.463	189.31
386.688	213.31
386.913	206.31
387.138	178.31
387.363	189.31
387.588	203.31
387.813	201.31
388.038	191.31
388.263	193.31
388.488	178.31
388.713	186.31
388.938	185.31
389.163	177.31
389.387	205.31
389.612	200.31
389.837	185.31
390.062	201.31
390.287	213.31
390.512	198.31
390.736	198.31
390.961	185.31
391.186	193.31
391.411	197.31
391.636	199.31
391.86	214.31
392.085	205.31
392.31	213.31
392.534	216.31
392.759	209.31
392.984	198.31
393.208	195.31
393.433	207.31
393.658	213.31
393.882	212.31
394.107	217.31
394.331	208.31
394.556	214.31
394.78	211.31
395.005	217.31
395.229	203.31
395.454	215.31
395.678	218.31
395.903	212.31
396.127	218.31
396.352	201.31
396.576	207.31
396.801	217.31
397.025	205.31
397.249	213.31
397.474	239.31
397.698	226.31
397.922	210.31
398.147	219.31
398.371	226.31
398.595	222.31
398.82	227.31
399.044	250.31
399.268	276.31
399.492	285.31
399.717	305.31
399.941	280.31
400.165	268.31
400.389	253.31
400.613	231.31
400.837	253.31
401.062	249.31
401.286	234.31
401.51	226.31
401.734	254.31
401.958	240.31
402.182	250.31
402.406	266.31
402.63	248.31
402.854	247.31
403.078	246.31
403.302	263.31
403.526	272.31
403.75	265.31
403.974	263.31
404.198	261.31
404.422	284.31
404.645	263.31
404.869	281.31
405.093	270.31
405.317	267.31
405.541	279.31
405.765	247.31
405.988	253.31
406.212	270.31
406.436	281.31
406.66	277.31
406.883	276.31
407.107	286.31
407.331	263.31
407.555	280.31
407.778	305.31
408.002	265.31
408.226	276.31
408.449	271.31
408.673	257.31
408.896	273.31
409.12	273.31
409.344	295.31
409.567	271.31
409.791	283.31
410.014	291.31
410.238	277.31
410.461	274.31
410.685	266.31
410.908	265.31
411.132	269.31
411.355	276.31
411.578	259.31
411.802	257.31
412.025	279.31
412.249	277.31
412.472	258.31
412.695	261.31
412.919	245.31
413.142	271.31
413.365	266.31
413.589	260.31
413.812	262.31
414.035	277.31
414.258	276.31
414.482	248.31
414.705	265.31
414.928	246.31
415.151	238.31
415.374	272.31
415.597	251.31
415.821	269.31
416.044	247.31
416.267	264.31
416.49	263.31
416.713	270.31
416.936	274.31
417.159	247.31
417.382	269.31
417.605	263.31
417.828	270.31
418.051	269.31
418.274	267.31
418.497	282.31
418.72	295.31
418.943	279.31
419.166	288.31
419.389	293.31
419.611	304.31
419.834	273.31
420.057	273.31
420.28	285.31
420.503	296.31
420.726	277.31
420.948	277.31
421.171	273.31
421.394	309.31
421.617	299.31
421.839	306.31
422.062	293.31
422.285	279.31
422.507	284.31
422.73	286.31
422.953	276.31
423.175	299.31
423.398	283.31
423.621	274.31
423.843	298.31
424.066	300.31
424.288	291.31
424.511	294.31
424.733	308.31
424.956	301.31
425.178	285.31
425.401	309.31
425.623	287.31
425.846	281.31
426.068	262.31
426.291	271.31
426.513	276.31
426.735	259.31
426.958	240.31
427.18	270.31
427.402	287.31
427.625	248.31
427.847	277.31
428.069	265.31
428.292	279.31
428.514	278.31
428.736	245.31
428.958	253.31
429.181	262.31
429.403	245.31
429.625	260.31
429.847	243.31
430.069	272.31
430.292	279.31
430.514	265.31
430.736	253.31
430.958	269.31
431.18	246.31
431.402	245.31
431.624	239.31
431.846	206.31
432.068	190.31
432.29	215.31
432.512	217.31
432.734	233.31
432.956	263.31
433.178	266.31
433.4	260.31
433.622	265.31
433.844	270.31
434.066	234.31
434.287	223.31
434.509	207.31
434.731	209.31
434.953	243.31
435.175	263.31
435.397	283.31
435.618	245.31
435.84	225.31
436.062	226.31
436.284	251.31
436.505	254.31
436.727	282.31
436.949	287.31
437.17	259.31
437.392	233.31
437.614	233.31
437.835	207.31
438.057	202.31
438.278	216.31
438.5	246.31
438.721	285.31
438.943	273.31
439.165	285.31
439.386	271.31
439.608	294.31
439.829	308.31
440.05	311.31
440.272	302.31
440.493	296.31
440.715	291.31
440.936	290.31
441.158	316.31
441.379	295.31
441.6	324.31
441.822	312.31
442.043	303.31
442.264	303.31
442.486	299.31
442.707	303.31
442.928	275.31
443.149	288.31
443.371	290.31
443.592	298.31
443.813	307.31
444.034	291.31
444.255	293.31
444.476	312.31
444.698	324.31
444.919	322.31
445.14	576.31
445.361	424.31
445.582	323.31
445.803	312.31
446.024	300.31
446.245	301.31
446.466	314.31
446.687	322.31
446.908	311.31
447.129	317.31
447.35	285.31
447.571	302.31
447.792	293.31
448.013	271.31
448.234	271.31
448.455	275.31
448.675	281.31
448.896	291.31
449.117	269.31
449.338	261.31
449.559	281.31
449.779	285.31
450	264.31
450.221	250.31
450.442	257.31
450.662	279.31
450.883	254.31
451.104	260.31
451.324	258.31
451.545	253.31
451.766	261.31
451.986	254.31
452.207	255.31
452.428	249.31
452.648	248.31
452.869	225.31
453.089	221.31
453.31	209.31
453.53	208.31
453.751	202.31
453.971	185.31
454.192	186.31
454.412	202.31
454.633	211.31
454.853	231.31
455.073	219.31
455.294	219.31
455.514	222.31
455.734	234.31
455.955	197.31
456.175	198.31
456.395	196.31
456.616	199.31
456.836	216.31
457.056	203.31
457.276	192.31
457.497	194.31
457.717	193.31
457.937	196.31
458.157	190.31
458.377	199.31
458.598	182.31
458.818	171.31
459.038	164.31
459.258	161.31
459.478	163.31
459.698	180.31
459.918	198.31
460.138	221.31
460.358	241.31
460.578	245.31
460.798	224.31
461.018	245.31
461.238	241.31
461.458	226.31
461.678	240.31
461.898	234.31
462.118	231.31
462.338	238.31
462.558	245.31
462.777	255.31
462.997	261.31
463.217	271.31
463.437	263.31
463.657	244.31
463.876	250.31
464.096	246.31
464.316	233.31
464.536	256.31
464.755	258.31
464.975	254.31
465.195	238.31
465.414	226.31
465.634	224.31
465.854	222.31
466.073	222.31
466.293	236.31
466.512	232.31
466.732	237.31
466.951	266.31
467.171	261.31
467.391	274.31
467.61	279.31
467.829	251.31
468.049	265.31
468.268	269.31
468.488	261.31
468.707	271.31
468.927	269.31
469.146	257.31
469.365	259.31
469.585	265.31
469.804	279.31
470.023	263.31
470.243	273.31
470.462	281.31
470.681	289.31
470.901	287.31
471.12	291.31
471.339	300.31
471.558	264.31
471.777	275.31
471.997	257.31
472.216	223.31
472.435	216.31
472.654	223.31
472.873	223.31
473.092	217.31
473.311	248.31
473.53	255.31
473.749	241.31
473.968	247.31
474.187	253.31
474.406	213.31
474.625	237.31
474.844	245.31
475.063	239.31
475.282	252.31
475.501	224.31
475.72	232.31
475.939	239.31
476.158	249.31
476.377	236.31
476.596	211.31
476.814	194.31
477.033	190.31
477.252	228.31
477.471	231.31
477.69	272.31
477.908	261.31
478.127	277.31
478.346	261.31
478.564	279.31
478.783	275.31
479.002	284.31
479.22	282.31
479.439	270.31
479.658	237.31
479.876	211.31
480.095	217.31
480.313	245.31
480.532	235.31
480.751	219.31
480.969	195.31
481.188	191.31
481.406	183.31
481.624	167.31
481.843	182.31
482.061	192.31
482.28	205.31
482.498	211.31
482.717	202.31
482.935	247.31
483.153	285.31
483.372	279.31
483.59	270.31
483.808	251.31
484.027	243.31
484.245	250.31
484.463	249.31
484.681	302.31
484.9	280.31
485.118	270.31
485.336	234.31
485.554	209.31
485.772	184.31
485.99	220.31
486.209	231.31
486.427	229.31
486.645	236.31
486.863	255.31
487.081	274.31
487.299	256.31
487.517	264.31
487.735	319.31
487.953	376.31
488.171	366.31
488.389	330.31
488.607	277.31
488.825	272.31
489.043	250.31
489.261	265.31
489.479	262.31
489.696	273.31
489.914	269.31
490.132	295.31
490.35	301.31
490.568	340.31
490.786	346.31
491.003	359.31
491.221	359.31
491.439	364.31
491.657	406.31
491.874	431.31
492.092	469.31
492.31	486.31
492.527	456.31
492.745	421.31
492.963	390.31
493.18	387.31
493.398	360.31
493.615	371.31
493.833	375.31
494.05	385.31
494.268	349.31
494.485	360.31
494.703	371.31
494.92	365.31
495.138	351.31
495.355	391.31
495.573	354.31
495.79	357.31
496.008	383.31
496.225	370.31
496.442	350.31
496.66	350.31
496.877	343.31
497.094	352.31
497.312	343.31
497.529	322.31
497.746	311.31
497.963	300.31
498.181	277.31
498.398	287.31
498.615	280.31
498.832	281.31
499.049	279.31
499.267	320.31
499.484	355.31
499.701	373.31
499.918	418.31
500.135	479.31
500.352	517.31
500.569	508.31
500.786	507.31
501.003	477.31
501.22	424.31
501.437	391.31
501.654	361.31
501.871	368.31
502.088	333.31
502.305	322.31
502.522	313.31
502.739	304.31
502.956	294.31
503.172	293.31
503.389	253.31
503.606	258.31
503.823	266.31
504.04	259.31
504.256	260.31
504.473	253.31
504.69	261.31
504.907	282.31
