Data from SampD_HRD10591_00100.txt Node
Date: Mon Jan 19 11:48:12 EST 2026
User: Yrep
Spectrometer: HR+D1059
Trigger mode: 0
Integration Time (sec): 3.443000E-1
Scans to average: 1
Electric dark correction enabled: true
Nonlinearity correction enabled: false
Boxcar width: 0
XAxis mode: Wavelengths
Number of Pixels in Spectrum: 2048
>>>>>Begin Spectral Data<<<<<
223.165	-18.25
223.4	-18.25
223.635	-18.25
223.869	-24.25
224.104	-18.25
224.338	-7.25
224.573	-17.25
224.808	-15.25
225.042	-5.25
225.277	2.75
225.511	-13.25
225.746	12.75
225.98	9.75
226.215	11.75
226.449	17.75
226.683	5.75
226.918	23.75
227.152	34.75
227.387	44.75
227.621	45.75
227.856	48.75
228.09	54.75
228.324	61.75
228.559	69.75
228.793	60.75
229.027	68.75
229.262	66.75
229.496	74.75
229.73	80.75
229.964	96.75
230.199	85.75
230.433	76.75
230.667	91.75
230.901	89.75
231.136	82.75
231.37	88.75
231.604	99.75
231.838	86.75
232.072	90.75
232.306	91.75
232.541	94.75
232.775	87.75
233.009	92.75
233.243	109.75
233.477	92.75
233.711	85.75
233.945	94.75
234.179	89.75
234.413	82.75
234.647	76.75
234.881	92.75
235.115	87.75
235.349	81.75
235.583	96.75
235.817	71.75
236.051	84.75
236.285	83.75
236.519	76.75
236.753	84.75
236.987	64.75
237.221	84.75
237.455	92.75
237.689	82.75
237.922	82.75
238.156	85.75
238.39	75.75
238.624	81.75
238.858	101.75
239.091	89.75
239.325	74.75
239.559	76.75
239.793	77.75
240.027	78.75
240.26	84.75
240.494	93.75
240.728	77.75
240.961	87.75
241.195	89.75
241.429	95.75
241.662	88.75
241.896	80.75
242.13	82.75
242.363	82.75
242.597	85.75
242.83	87.75
243.064	77.75
243.298	87.75
243.531	81.75
243.765	87.75
243.998	97.75
244.232	92.75
244.465	80.75
244.699	97.75
244.932	92.75
245.166	91.75
245.399	88.75
245.633	81.75
245.866	91.75
246.099	90.75
246.333	89.75
246.566	95.75
246.8	73.75
247.033	76.75
247.266	93.75
247.5	81.75
247.733	109.75
247.966	79.75
248.2	82.75
248.433	89.75
248.666	94.75
248.899	105.75
249.133	83.75
249.366	86.75
249.599	86.75
249.832	87.75
250.066	85.75
250.299	106.75
250.532	90.75
250.765	90.75
250.998	104.75
251.231	91.75
251.465	104.75
251.698	80.75
251.931	110.75
252.164	96.75
252.397	99.75
252.63	93.75
252.863	104.75
253.096	99.75
253.329	88.75
253.562	93.75
253.795	90.75
254.028	104.75
254.261	98.75
254.494	92.75
254.727	96.75
254.96	112.75
255.193	91.75
255.426	91.75
255.659	97.75
255.892	103.75
256.124	87.75
256.357	97.75
256.59	104.75
256.823	92.75
257.056	111.75
257.289	108.75
257.521	91.75
257.754	104.75
257.987	95.75
258.22	103.75
258.452	99.75
258.685	103.75
258.918	107.75
259.151	98.75
259.383	101.75
259.616	93.75
259.849	116.75
260.081	110.75
260.314	100.75
260.547	92.75
260.779	89.75
261.012	94.75
261.244	100.75
261.477	97.75
261.71	105.75
261.942	96.75
262.175	99.75
262.407	88.75
262.64	99.75
262.872	105.75
263.105	89.75
263.337	105.75
263.57	111.75
263.802	112.75
264.035	100.75
264.267	98.75
264.499	115.75
264.732	110.75
264.964	102.75
265.197	100.75
265.429	99.75
265.661	112.75
265.894	88.75
266.126	105.75
266.358	100.75
266.591	93.75
266.823	116.75
267.055	104.75
267.287	107.75
267.52	105.75
267.752	98.75
267.984	117.75
268.216	104.75
268.448	114.75
268.681	123.75
268.913	120.75
269.145	106.75
269.377	107.75
269.609	97.75
269.841	109.75
270.073	101.75
270.306	105.75
270.538	103.75
270.77	110.75
271.002	113.75
271.234	107.75
271.466	107.75
271.698	102.75
271.93	115.75
272.162	107.75
272.394	126.75
272.626	100.75
272.858	103.75
273.09	108.75
273.322	103.75
273.553	106.75
273.785	126.75
274.017	117.75
274.249	112.75
274.481	105.75
274.713	98.75
274.945	114.75
275.176	100.75
275.408	109.75
275.64	120.75
275.872	117.75
276.104	96.75
276.335	104.75
276.567	108.75
276.799	127.75
277.031	108.75
277.262	111.75
277.494	117.75
277.726	110.75
277.957	112.75
278.189	103.75
278.421	108.75
278.652	106.75
278.884	95.75
279.115	121.75
279.347	118.75
279.579	117.75
279.81	107.75
280.042	119.75
280.273	113.75
280.505	106.75
280.736	116.75
280.968	121.75
281.199	128.75
281.431	119.75
281.662	125.75
281.894	121.75
282.125	102.75
282.356	125.75
282.588	125.75
282.819	104.75
283.051	98.75
283.282	104.75
283.513	123.75
283.745	121.75
283.976	128.75
284.207	102.75
284.439	123.75
284.67	119.75
284.901	114.75
285.132	127.75
285.364	117.75
285.595	120.75
285.826	116.75
286.057	115.75
286.288	108.75
286.52	113.75
286.751	115.75
286.982	117.75
287.213	115.75
287.444	108.75
287.675	120.75
287.906	129.75
288.138	103.75
288.369	113.75
288.6	96.75
288.831	113.75
289.062	132.75
289.293	123.75
289.524	129.75
289.755	117.75
289.986	105.75
290.217	122.75
290.448	108.75
290.679	120.75
290.91	129.75
291.141	105.75
291.371	122.75
291.602	116.75
291.833	114.75
292.064	118.75
292.295	124.75
292.526	121.75
292.757	109.75
292.987	114.75
293.218	121.75
293.449	116.75
293.68	125.75
293.91	117.75
294.141	128.75
294.372	116.75
294.603	115.75
294.833	128.75
295.064	114.75
295.295	114.75
295.525	123.75
295.756	126.75
295.987	134.75
296.217	144.75
296.448	121.75
296.679	106.75
296.909	115.75
297.14	139.75
297.37	122.75
297.601	136.75
297.831	137.75
298.062	128.75
298.292	124.75
298.523	124.75
298.753	124.75
298.984	127.75
299.214	133.75
299.445	134.75
299.675	122.75
299.905	128.75
300.136	118.75
300.366	125.75
300.597	136.75
300.827	128.75
301.057	120.75
301.288	127.75
301.518	124.75
301.748	132.75
301.979	156.75
302.209	130.75
302.439	128.75
302.669	116.75
302.9	122.75
303.13	126.75
303.36	114.75
303.59	124.75
303.82	134.75
304.051	131.75
304.281	140.75
304.511	131.75
304.741	140.75
304.971	121.75
305.201	131.75
305.431	123.75
305.661	121.75
305.891	116.75
306.121	137.75
306.352	132.75
306.582	122.75
306.812	120.75
307.042	116.75
307.272	114.75
307.502	141.75
307.731	124.75
307.961	139.75
308.191	146.75
308.421	130.75
308.651	123.75
308.881	131.75
309.111	127.75
309.341	119.75
309.571	138.75
309.8	120.75
310.03	134.75
310.26	134.75
310.49	131.75
310.72	124.75
310.949	134.75
311.179	119.75
311.409	131.75
311.639	122.75
311.868	132.75
312.098	128.75
312.328	131.75
312.557	130.75
312.787	110.75
313.017	122.75
313.246	128.75
313.476	114.75
313.706	132.75
313.935	155.75
314.165	118.75
314.394	125.75
314.624	117.75
314.853	138.75
315.083	140.75
315.312	119.75
315.542	126.75
315.771	109.75
316.001	131.75
316.23	136.75
316.46	125.75
316.689	123.75
316.919	126.75
317.148	123.75
317.377	130.75
317.607	117.75
317.836	106.75
318.065	125.75
318.295	123.75
318.524	137.75
318.753	140.75
318.983	116.75
319.212	141.75
319.441	114.75
319.67	137.75
319.9	119.75
320.129	138.75
320.358	141.75
320.587	126.75
320.816	114.75
321.046	116.75
321.275	123.75
321.504	116.75
321.733	139.75
321.962	122.75
322.191	129.75
322.42	124.75
322.649	141.75
322.878	118.75
323.108	121.75
323.337	137.75
323.566	119.75
323.795	136.75
324.024	132.75
324.253	129.75
324.482	118.75
324.71	124.75
324.939	132.75
325.168	110.75
325.397	118.75
325.626	132.75
325.855	137.75
326.084	149.75
326.313	130.75
326.542	124.75
326.77	133.75
326.999	139.75
327.228	129.75
327.457	127.75
327.686	154.75
327.914	132.75
328.143	136.75
328.372	140.75
328.6	140.75
328.829	137.75
329.058	145.75
329.287	130.75
329.515	136.75
329.744	136.75
329.972	135.75
330.201	126.75
330.43	136.75
330.658	123.75
330.887	126.75
331.115	146.75
331.344	133.75
331.572	146.75
331.801	144.75
332.03	147.75
332.258	160.75
332.486	150.75
332.715	140.75
332.943	157.75
333.172	142.75
333.4	144.75
333.629	156.75
333.857	166.75
334.085	146.75
334.314	152.75
334.542	137.75
334.771	162.75
334.999	166.75
335.227	142.75
335.455	150.75
335.684	161.75
335.912	146.75
336.14	146.75
336.369	165.75
336.597	152.75
336.825	153.75
337.053	149.75
337.281	148.75
337.51	145.75
337.738	150.75
337.966	135.75
338.194	148.75
338.422	146.75
338.65	136.75
338.878	144.75
339.106	132.75
339.334	158.75
339.562	156.75
339.79	136.75
340.018	147.75
340.246	137.75
340.474	128.75
340.702	151.75
340.93	145.75
341.158	138.75
341.386	137.75
341.614	135.75
341.842	122.75
342.07	149.75
342.298	138.75
342.526	144.75
342.754	148.75
342.981	138.75
343.209	146.75
343.437	162.75
343.665	142.75
343.893	160.75
344.12	136.75
344.348	149.75
344.576	144.75
344.804	150.75
345.031	116.75
345.259	132.75
345.487	141.75
345.714	132.75
345.942	135.75
346.17	149.75
346.397	153.75
346.625	134.75
346.853	128.75
347.08	136.75
347.308	130.75
347.535	146.75
347.763	122.75
347.99	131.75
348.218	137.75
348.445	144.75
348.673	139.75
348.9	130.75
349.128	129.75
349.355	129.75
349.583	140.75
349.81	143.75
350.037	135.75
350.265	145.75
350.492	131.75
350.72	140.75
350.947	159.75
351.174	137.75
351.402	149.75
351.629	126.75
351.856	132.75
352.083	124.75
352.311	116.75
352.538	123.75
352.765	136.75
352.992	142.75
353.22	137.75
353.447	132.75
353.674	137.75
353.901	139.75
354.128	137.75
354.355	132.75
354.583	138.75
354.81	141.75
355.037	144.75
355.264	133.75
355.491	130.75
355.718	141.75
355.945	129.75
356.172	130.75
356.399	128.75
356.626	134.75
356.853	133.75
357.08	154.75
357.307	140.75
357.534	121.75
357.761	133.75
357.988	138.75
358.215	131.75
358.441	127.75
358.668	137.75
358.895	134.75
359.122	134.75
359.349	141.75
359.576	129.75
359.802	136.75
360.029	131.75
360.256	131.75
360.483	143.75
360.709	145.75
360.936	157.75
361.163	150.75
361.39	144.75
361.616	137.75
361.843	141.75
362.07	128.75
362.296	152.75
362.523	138.75
362.749	132.75
362.976	134.75
363.203	139.75
363.429	140.75
363.656	138.75
363.882	128.75
364.109	138.75
364.335	145.75
364.562	123.75
364.788	135.75
365.015	131.75
365.241	126.75
365.468	151.75
365.694	153.75
365.92	123.75
366.147	134.75
366.373	131.75
366.599	145.75
366.826	146.75
367.052	142.75
367.278	154.75
367.505	132.75
367.731	145.75
367.957	136.75
368.184	131.75
368.41	156.75
368.636	133.75
368.862	150.75
369.089	145.75
369.315	156.75
369.541	145.75
369.767	139.75
369.993	147.75
370.219	152.75
370.445	147.75
370.672	155.75
370.898	142.75
371.124	152.75
371.35	142.75
371.576	135.75
371.802	148.75
372.028	149.75
372.254	145.75
372.48	145.75
372.706	156.75
372.932	158.75
373.158	165.75
373.384	155.75
373.61	152.75
373.835	164.75
374.061	146.75
374.287	143.75
374.513	158.75
374.739	187.75
374.965	161.75
375.191	161.75
375.416	165.75
375.642	157.75
375.868	155.75
376.094	169.75
376.319	171.75
376.545	150.75
376.771	153.75
376.997	165.75
377.222	145.75
377.448	152.75
377.674	142.75
377.899	167.75
378.125	162.75
378.35	170.75
378.576	159.75
378.802	164.75
379.027	147.75
379.253	164.75
379.478	154.75
379.704	155.75
379.929	164.75
380.155	163.75
380.38	168.75
380.606	170.75
380.831	150.75
381.057	183.75
381.282	164.75
381.507	165.75
381.733	170.75
381.958	163.75
382.184	157.75
382.409	184.75
382.634	170.75
382.86	187.75
383.085	176.75
383.31	167.75
383.535	166.75
383.761	180.75
383.986	177.75
384.211	181.75
384.436	189.75
384.662	171.75
384.887	196.75
385.112	189.75
385.337	197.75
385.562	161.75
385.787	187.75
386.013	182.75
386.238	188.75
386.463	196.75
386.688	230.75
386.913	195.75
387.138	192.75
387.363	180.75
387.588	199.75
387.813	179.75
388.038	199.75
388.263	203.75
388.488	187.75
388.713	203.75
388.938	192.75
389.163	200.75
389.387	195.75
389.612	196.75
389.837	206.75
390.062	193.75
390.287	200.75
390.512	201.75
390.736	195.75
390.961	201.75
391.186	199.75
391.411	208.75
391.636	215.75
391.86	210.75
392.085	222.75
392.31	213.75
392.534	204.75
392.759	228.75
392.984	194.75
393.208	224.75
393.433	209.75
393.658	220.75
393.882	209.75
394.107	211.75
394.331	200.75
394.556	214.75
394.78	224.75
395.005	224.75
395.229	211.75
395.454	222.75
395.678	215.75
395.903	216.75
396.127	231.75
396.352	214.75
396.576	220.75
396.801	212.75
397.025	214.75
397.249	224.75
397.474	227.75
397.698	222.75
397.922	224.75
398.147	216.75
398.371	222.75
398.595	221.75
398.82	228.75
399.044	257.75
399.268	244.75
399.492	294.75
399.717	294.75
399.941	287.75
400.165	274.75
400.389	258.75
400.613	246.75
400.837	235.75
401.062	266.75
401.286	244.75
401.51	236.75
401.734	245.75
401.958	227.75
402.182	244.75
402.406	252.75
402.63	237.75
402.854	245.75
403.078	245.75
403.302	249.75
403.526	276.75
403.75	267.75
403.974	266.75
404.198	273.75
404.422	288.75
404.645	270.75
404.869	248.75
405.093	275.75
405.317	273.75
405.541	275.75
405.765	268.75
405.988	259.75
406.212	278.75
406.436	260.75
406.66	274.75
406.883	286.75
407.107	273.75
407.331	278.75
407.555	289.75
407.778	283.75
408.002	258.75
408.226	279.75
408.449	276.75
408.673	280.75
408.896	274.75
409.12	274.75
409.344	273.75
409.567	268.75
409.791	284.75
410.014	292.75
410.238	273.75
410.461	269.75
410.685	295.75
410.908	270.75
411.132	272.75
411.355	239.75
411.578	267.75
411.802	258.75
412.025	266.75
412.249	248.75
412.472	263.75
412.695	262.75
412.919	256.75
413.142	276.75
413.365	255.75
413.589	261.75
413.812	245.75
414.035	263.75
414.258	256.75
414.482	284.75
414.705	264.75
414.928	275.75
415.151	272.75
415.374	260.75
415.597	240.75
415.821	263.75
416.044	274.75
416.267	263.75
416.49	279.75
416.713	260.75
416.936	250.75
417.159	267.75
417.382	281.75
417.605	278.75
417.828	284.75
418.051	285.75
418.274	288.75
418.497	294.75
418.72	279.75
418.943	288.75
419.166	293.75
419.389	284.75
419.611	301.75
419.834	284.75
420.057	299.75
420.28	286.75
420.503	282.75
420.726	284.75
420.948	288.75
421.171	286.75
421.394	302.75
421.617	295.75
421.839	308.75
422.062	290.75
422.285	280.75
422.507	288.75
422.73	264.75
422.953	265.75
423.175	276.75
423.398	267.75
423.621	283.75
423.843	291.75
424.066	302.75
424.288	305.75
424.511	319.75
424.733	314.75
424.956	293.75
425.178	292.75
425.401	295.75
425.623	289.75
425.846	286.75
426.068	277.75
426.291	273.75
426.513	277.75
426.735	265.75
426.958	272.75
427.18	270.75
427.402	275.75
427.625	265.75
427.847	269.75
428.069	281.75
428.292	269.75
428.514	278.75
428.736	282.75
428.958	274.75
429.181	276.75
429.403	253.75
429.625	252.75
429.847	249.75
430.069	260.75
430.292	262.75
430.514	258.75
430.736	260.75
430.958	265.75
431.18	254.75
431.402	247.75
431.624	224.75
431.846	212.75
432.068	184.75
432.29	197.75
432.512	236.75
432.734	267.75
432.956	286.75
433.178	280.75
433.4	289.75
433.622	282.75
433.844	265.75
434.066	244.75
434.287	198.75
434.509	192.75
434.731	227.75
434.953	233.75
435.175	249.75
435.397	258.75
435.618	237.75
435.84	239.75
436.062	232.75
436.284	247.75
436.505	245.75
436.727	270.75
436.949	249.75
437.17	259.75
437.392	241.75
437.614	236.75
437.835	217.75
438.057	213.75
438.278	235.75
438.5	243.75
438.721	277.75
438.943	281.75
439.165	273.75
439.386	281.75
439.608	290.75
439.829	289.75
440.05	302.75
440.272	301.75
440.493	307.75
440.715	287.75
440.936	300.75
441.158	325.75
441.379	298.75
441.6	312.75
441.822	307.75
442.043	312.75
442.264	308.75
442.486	293.75
442.707	291.75
442.928	299.75
443.149	303.75
443.371	298.75
443.592	283.75
443.813	288.75
444.034	321.75
444.255	304.75
444.476	306.75
444.698	316.75
444.919	315.75
445.14	565.75
445.361	428.75
445.582	316.75
445.803	313.75
446.024	309.75
446.245	316.75
446.466	300.75
446.687	325.75
446.908	324.75
447.129	312.75
447.35	308.75
447.571	297.75
447.792	284.75
448.013	290.75
448.234	278.75
448.455	274.75
448.675	276.75
448.896	278.75
449.117	247.75
449.338	261.75
449.559	292.75
449.779	255.75
450	285.75
450.221	259.75
450.442	268.75
450.662	283.75
450.883	285.75
451.104	267.75
451.324	276.75
451.545	257.75
451.766	262.75
451.986	258.75
452.207	253.75
452.428	241.75
452.648	233.75
452.869	223.75
453.089	235.75
453.31	222.75
453.53	204.75
453.751	191.75
453.971	194.75
454.192	199.75
454.412	199.75
454.633	194.75
454.853	210.75
455.073	236.75
455.294	220.75
455.514	225.75
455.734	240.75
455.955	218.75
456.175	219.75
456.395	203.75
456.616	210.75
456.836	200.75
457.056	205.75
457.276	190.75
457.497	208.75
457.717	199.75
457.937	191.75
458.157	185.75
458.377	178.75
458.598	173.75
458.818	172.75
459.038	165.75
459.258	171.75
459.478	164.75
459.698	187.75
459.918	213.75
460.138	214.75
460.358	222.75
460.578	247.75
460.798	242.75
461.018	250.75
461.238	260.75
461.458	256.75
461.678	243.75
461.898	236.75
462.118	243.75
462.338	253.75
462.558	248.75
462.777	256.75
462.997	252.75
463.217	284.75
463.437	263.75
463.657	240.75
463.876	248.75
464.096	254.75
464.316	237.75
464.536	250.75
464.755	257.75
464.975	253.75
465.195	252.75
465.414	248.75
465.634	241.75
465.854	230.75
466.073	237.75
466.293	236.75
466.512	245.75
466.732	259.75
466.951	270.75
467.171	268.75
467.391	264.75
467.61	269.75
467.829	277.75
468.049	285.75
468.268	250.75
468.488	257.75
468.707	252.75
468.927	262.75
469.146	276.75
469.365	284.75
469.585	280.75
469.804	273.75
470.023	278.75
470.243	274.75
470.462	303.75
470.681	283.75
470.901	306.75
471.12	283.75
471.339	296.75
471.558	289.75
471.777	278.75
471.997	263.75
472.216	234.75
472.435	201.75
472.654	205.75
472.873	222.75
473.092	223.75
473.311	235.75
473.53	215.75
473.749	244.75
473.968	272.75
474.187	222.75
474.406	224.75
474.625	247.75
474.844	242.75
475.063	251.75
475.282	243.75
475.501	233.75
475.72	242.75
475.939	222.75
476.158	244.75
476.377	258.75
476.596	222.75
476.814	223.75
477.033	195.75
477.252	216.75
477.471	250.75
477.69	262.75
477.908	296.75
478.127	292.75
478.346	268.75
478.564	285.75
478.783	284.75
479.002	285.75
479.22	281.75
479.439	272.75
479.658	243.75
479.876	233.75
480.095	226.75
480.313	241.75
480.532	259.75
480.751	221.75
480.969	201.75
481.188	187.75
481.406	189.75
481.624	180.75
481.843	198.75
482.061	188.75
482.28	230.75
482.498	229.75
482.717	215.75
482.935	246.75
483.153	266.75
483.372	308.75
483.59	298.75
483.808	256.75
484.027	239.75
484.245	255.75
484.463	263.75
484.681	287.75
484.9	281.75
485.118	276.75
485.336	245.75
485.554	213.75
485.772	206.75
485.99	192.75
486.209	217.75
486.427	223.75
486.645	237.75
486.863	285.75
487.081	268.75
487.299	255.75
487.517	269.75
487.735	348.75
487.953	348.75
488.171	347.75
488.389	336.75
488.607	299.75
488.825	255.75
489.043	240.75
489.261	257.75
489.479	256.75
489.696	268.75
489.914	285.75
490.132	288.75
490.35	330.75
490.568	356.75
490.786	370.75
491.003	341.75
491.221	379.75
491.439	372.75
491.657	381.75
491.874	428.75
492.092	471.75
492.31	490.75
492.527	458.75
492.745	421.75
492.963	411.75
493.18	393.75
493.398	369.75
493.615	376.75
493.833	364.75
494.05	381.75
494.268	367.75
494.485	375.75
494.703	369.75
494.92	384.75
495.138	372.75
495.355	359.75
495.573	352.75
495.79	344.75
496.008	344.75
496.225	368.75
496.442	339.75
496.66	360.75
496.877	334.75
497.094	329.75
497.312	349.75
497.529	325.75
497.746	314.75
497.963	297.75
498.181	284.75
498.398	280.75
498.615	281.75
498.832	293.75
499.049	304.75
499.267	311.75
499.484	339.75
499.701	384.75
499.918	433.75
500.135	474.75
500.352	500.75
500.569	514.75
500.786	485.75
501.003	502.75
501.22	447.75
501.437	408.75
501.654	377.75
501.871	338.75
502.088	335.75
502.305	324.75
502.522	300.75
502.739	316.75
502.956	282.75
503.172	278.75
503.389	279.75
503.606	262.75
503.823	258.75
504.04	264.75
504.256	272.75
504.473	252.75
