Data from SampD_HRD10591_00068.txt Node
Date: Mon Jan 19 11:48:01 EST 2026
User: Yrep
Spectrometer: HR+D1059
Trigger mode: 0
Integration Time (sec): 3.443000E-1
Scans to average: 1
Electric dark correction enabled: true
Nonlinearity correction enabled: false
Boxcar width: 0
XAxis mode: Wavelengths
Number of Pixels in Spectrum: 2048
>>>>>Begin Spectral Data<<<<<
223.165	-19.06
223.4	-19.06
223.635	-19.06
223.869	-25.06
224.104	-32.06
224.338	10.94
224.573	2.94
224.808	-8.06
225.042	-23.06
225.277	-17.06
225.511	-20.06
225.746	4.94
225.98	1.94
226.215	24.94
226.449	20.94
226.683	13.94
226.918	20.94
227.152	42.94
227.387	27.94
227.621	44.94
227.856	47.94
228.09	46.94
228.324	50.94
228.559	52.94
228.793	61.94
229.027	70.94
229.262	59.94
229.496	66.94
229.73	66.94
229.964	63.94
230.199	64.94
230.433	71.94
230.667	82.94
230.901	82.94
231.136	75.94
231.37	79.94
231.604	73.94
231.838	63.94
232.072	70.94
232.306	80.94
232.541	99.94
232.775	86.94
233.009	83.94
233.243	82.94
233.477	88.94
233.711	80.94
233.945	81.94
234.179	83.94
234.413	71.94
234.647	72.94
234.881	86.94
235.115	80.94
235.349	93.94
235.583	85.94
235.817	85.94
236.051	85.94
236.285	77.94
236.519	78.94
236.753	76.94
236.987	74.94
237.221	74.94
237.455	77.94
237.689	82.94
237.922	72.94
238.156	90.94
238.39	68.94
238.624	44.94
238.858	75.94
239.091	72.94
239.325	78.94
239.559	73.94
239.793	75.94
240.027	75.94
240.26	76.94
240.494	74.94
240.728	80.94
240.961	86.94
241.195	82.94
241.429	86.94
241.662	76.94
241.896	76.94
242.13	78.94
242.363	80.94
242.597	83.94
242.83	72.94
243.064	91.94
243.298	84.94
243.531	75.94
243.765	82.94
243.998	75.94
244.232	83.94
244.465	94.94
244.699	77.94
244.932	66.94
245.166	74.94
245.399	75.94
245.633	90.94
245.866	76.94
246.099	80.94
246.333	85.94
246.566	78.94
246.8	78.94
247.033	78.94
247.266	62.94
247.5	67.94
247.733	94.94
247.966	87.94
248.2	75.94
248.433	96.94
248.666	80.94
248.899	76.94
249.133	81.94
249.366	106.94
249.599	88.94
249.832	83.94
250.066	106.94
250.299	88.94
250.532	90.94
250.765	64.94
250.998	82.94
251.231	81.94
251.465	77.94
251.698	80.94
251.931	101.94
252.164	90.94
252.397	99.94
252.63	90.94
252.863	77.94
253.096	93.94
253.329	98.94
253.562	78.94
253.795	99.94
254.028	95.94
254.261	92.94
254.494	100.94
254.727	93.94
254.96	101.94
255.193	86.94
255.426	93.94
255.659	91.94
255.892	117.94
256.124	94.94
256.357	85.94
256.59	91.94
256.823	90.94
257.056	78.94
257.289	84.94
257.521	84.94
257.754	107.94
257.987	87.94
258.22	95.94
258.452	90.94
258.685	90.94
258.918	85.94
259.151	94.94
259.383	104.94
259.616	90.94
259.849	101.94
260.081	108.94
260.314	97.94
260.547	104.94
260.779	99.94
261.012	90.94
261.244	108.94
261.477	103.94
261.71	95.94
261.942	91.94
262.175	97.94
262.407	92.94
262.64	85.94
262.872	110.94
263.105	95.94
263.337	98.94
263.57	98.94
263.802	92.94
264.035	98.94
264.267	86.94
264.499	90.94
264.732	82.94
264.964	98.94
265.197	108.94
265.429	88.94
265.661	77.94
265.894	99.94
266.126	112.94
266.358	92.94
266.591	87.94
266.823	114.94
267.055	94.94
267.287	94.94
267.52	83.94
267.752	116.94
267.984	84.94
268.216	90.94
268.448	108.94
268.681	101.94
268.913	98.94
269.145	104.94
269.377	92.94
269.609	99.94
269.841	104.94
270.073	97.94
270.306	98.94
270.538	111.94
270.77	101.94
271.002	102.94
271.234	94.94
271.466	98.94
271.698	93.94
271.93	95.94
272.162	98.94
272.394	88.94
272.626	101.94
272.858	101.94
273.09	100.94
273.322	104.94
273.553	109.94
273.785	96.94
274.017	98.94
274.249	113.94
274.481	110.94
274.713	108.94
274.945	111.94
275.176	97.94
275.408	110.94
275.64	103.94
275.872	97.94
276.104	90.94
276.335	98.94
276.567	103.94
276.799	110.94
277.031	102.94
277.262	96.94
277.494	114.94
277.726	103.94
277.957	104.94
278.189	104.94
278.421	102.94
278.652	96.94
278.884	120.94
279.115	111.94
279.347	106.94
279.579	115.94
279.81	108.94
280.042	110.94
280.273	115.94
280.505	102.94
280.736	98.94
280.968	104.94
281.199	107.94
281.431	108.94
281.662	111.94
281.894	97.94
282.125	97.94
282.356	114.94
282.588	100.94
282.819	116.94
283.051	94.94
283.282	110.94
283.513	111.94
283.745	103.94
283.976	112.94
284.207	112.94
284.439	97.94
284.67	117.94
284.901	108.94
285.132	98.94
285.364	102.94
285.595	109.94
285.826	106.94
286.057	118.94
286.288	121.94
286.52	113.94
286.751	101.94
286.982	110.94
287.213	123.94
287.444	112.94
287.675	109.94
287.906	116.94
288.138	102.94
288.369	115.94
288.6	118.94
288.831	106.94
289.062	109.94
289.293	102.94
289.524	112.94
289.755	127.94
289.986	109.94
290.217	118.94
290.448	115.94
290.679	118.94
290.91	126.94
291.141	119.94
291.371	109.94
291.602	117.94
291.833	119.94
292.064	99.94
292.295	115.94
292.526	110.94
292.757	110.94
292.987	117.94
293.218	120.94
293.449	111.94
293.68	112.94
293.91	116.94
294.141	123.94
294.372	106.94
294.603	120.94
294.833	124.94
295.064	112.94
295.295	114.94
295.525	110.94
295.756	135.94
295.987	118.94
296.217	121.94
296.448	115.94
296.679	125.94
296.909	117.94
297.14	128.94
297.37	129.94
297.601	118.94
297.831	110.94
298.062	127.94
298.292	120.94
298.523	126.94
298.753	109.94
298.984	116.94
299.214	103.94
299.445	114.94
299.675	115.94
299.905	129.94
300.136	131.94
300.366	119.94
300.597	112.94
300.827	125.94
301.057	118.94
301.288	126.94
301.518	119.94
301.748	122.94
301.979	168.94
302.209	140.94
302.439	106.94
302.669	126.94
302.9	124.94
303.13	120.94
303.36	123.94
303.59	118.94
303.82	102.94
304.051	115.94
304.281	116.94
304.511	123.94
304.741	116.94
304.971	129.94
305.201	118.94
305.431	128.94
305.661	117.94
305.891	119.94
306.121	126.94
306.352	110.94
306.582	107.94
306.812	121.94
307.042	113.94
307.272	127.94
307.502	114.94
307.731	134.94
307.961	117.94
308.191	105.94
308.421	124.94
308.651	108.94
308.881	115.94
309.111	112.94
309.341	129.94
309.571	119.94
309.8	113.94
310.03	112.94
310.26	114.94
310.49	115.94
310.72	113.94
310.949	120.94
311.179	129.94
311.409	118.94
311.639	116.94
311.868	129.94
312.098	107.94
312.328	126.94
312.557	124.94
312.787	114.94
313.017	131.94
313.246	128.94
313.476	136.94
313.706	109.94
313.935	126.94
314.165	119.94
314.394	125.94
314.624	123.94
314.853	126.94
315.083	122.94
315.312	119.94
315.542	115.94
315.771	113.94
316.001	126.94
316.23	129.94
316.46	120.94
316.689	137.94
316.919	108.94
317.148	115.94
317.377	156.94
317.607	123.94
317.836	124.94
318.065	116.94
318.295	120.94
318.524	111.94
318.753	101.94
318.983	118.94
319.212	135.94
319.441	123.94
319.67	119.94
319.9	118.94
320.129	116.94
320.358	126.94
320.587	122.94
320.816	114.94
321.046	139.94
321.275	126.94
321.504	121.94
321.733	115.94
321.962	128.94
322.191	117.94
322.42	119.94
322.649	122.94
322.878	130.94
323.108	122.94
323.337	128.94
323.566	123.94
323.795	120.94
324.024	142.94
324.253	122.94
324.482	133.94
324.71	133.94
324.939	118.94
325.168	131.94
325.397	110.94
325.626	120.94
325.855	125.94
326.084	123.94
326.313	127.94
326.542	114.94
326.77	134.94
326.999	127.94
327.228	113.94
327.457	131.94
327.686	135.94
327.914	126.94
328.143	130.94
328.372	114.94
328.6	118.94
328.829	131.94
329.058	131.94
329.287	135.94
329.515	140.94
329.744	127.94
329.972	112.94
330.201	150.94
330.43	126.94
330.658	119.94
330.887	123.94
331.115	129.94
331.344	138.94
331.572	134.94
331.801	149.94
332.03	143.94
332.258	131.94
332.486	146.94
332.715	154.94
332.943	133.94
333.172	150.94
333.4	143.94
333.629	142.94
333.857	141.94
334.085	147.94
334.314	152.94
334.542	126.94
334.771	138.94
334.999	130.94
335.227	138.94
335.455	118.94
335.684	149.94
335.912	146.94
336.14	130.94
336.369	144.94
336.597	137.94
336.825	142.94
337.053	130.94
337.281	148.94
337.51	146.94
337.738	158.94
337.966	122.94
338.194	126.94
338.422	128.94
338.65	152.94
338.878	135.94
339.106	134.94
339.334	139.94
339.562	139.94
339.79	131.94
340.018	133.94
340.246	134.94
340.474	129.94
340.702	117.94
340.93	119.94
341.158	130.94
341.386	138.94
341.614	117.94
341.842	124.94
342.07	124.94
342.298	113.94
342.526	129.94
342.754	132.94
342.981	134.94
343.209	118.94
343.437	176.94
343.665	150.94
343.893	149.94
344.12	154.94
344.348	144.94
344.576	124.94
344.804	117.94
345.031	124.94
345.259	133.94
345.487	138.94
345.714	126.94
345.942	133.94
346.17	119.94
346.397	122.94
346.625	119.94
346.853	114.94
347.08	123.94
347.308	137.94
347.535	134.94
347.763	120.94
347.99	140.94
348.218	138.94
348.445	132.94
348.673	134.94
348.9	117.94
349.128	139.94
349.355	125.94
349.583	118.94
349.81	132.94
350.037	123.94
350.265	133.94
350.492	119.94
350.72	127.94
350.947	120.94
351.174	132.94
351.402	113.94
351.629	127.94
351.856	126.94
352.083	127.94
352.311	132.94
352.538	118.94
352.765	121.94
352.992	130.94
353.22	133.94
353.447	135.94
353.674	123.94
353.901	140.94
354.128	127.94
354.355	133.94
354.583	142.94
354.81	120.94
355.037	130.94
355.264	126.94
355.491	125.94
355.718	141.94
355.945	122.94
356.172	126.94
356.399	134.94
356.626	119.94
356.853	125.94
357.08	124.94
357.307	128.94
357.534	126.94
357.761	121.94
357.988	117.94
358.215	131.94
358.441	139.94
358.668	126.94
358.895	123.94
359.122	133.94
359.349	127.94
359.576	132.94
359.802	125.94
360.029	129.94
360.256	133.94
360.483	147.94
360.709	130.94
360.936	134.94
361.163	115.94
361.39	125.94
361.616	128.94
361.843	125.94
362.07	134.94
362.296	133.94
362.523	122.94
362.749	138.94
362.976	122.94
363.203	131.94
363.429	122.94
363.656	115.94
363.882	115.94
364.109	126.94
364.335	141.94
364.562	139.94
364.788	130.94
365.015	127.94
365.241	139.94
365.468	131.94
365.694	115.94
365.92	136.94
366.147	117.94
366.373	113.94
366.599	113.94
366.826	124.94
367.052	149.94
367.278	144.94
367.505	142.94
367.731	154.94
367.957	134.94
368.184	144.94
368.41	143.94
368.636	131.94
368.862	149.94
369.089	134.94
369.315	138.94
369.541	136.94
369.767	129.94
369.993	139.94
370.219	160.94
370.445	135.94
370.672	145.94
370.898	140.94
371.124	145.94
371.35	143.94
371.576	148.94
371.802	131.94
372.028	140.94
372.254	156.94
372.48	147.94
372.706	150.94
372.932	143.94
373.158	146.94
373.384	143.94
373.61	150.94
373.835	147.94
374.061	142.94
374.287	174.94
374.513	159.94
374.739	146.94
374.965	155.94
375.191	158.94
375.416	147.94
375.642	165.94
375.868	176.94
376.094	150.94
376.319	141.94
376.545	148.94
376.771	150.94
376.997	173.94
377.222	143.94
377.448	152.94
377.674	147.94
377.899	164.94
378.125	163.94
378.35	169.94
378.576	156.94
378.802	150.94
379.027	134.94
379.253	166.94
379.478	151.94
379.704	154.94
379.929	180.94
380.155	138.94
380.38	150.94
380.606	161.94
380.831	168.94
381.057	183.94
381.282	174.94
381.507	168.94
381.733	172.94
381.958	142.94
382.184	177.94
382.409	173.94
382.634	174.94
382.86	171.94
383.085	157.94
383.31	190.94
383.535	183.94
383.761	176.94
383.986	191.94
384.211	183.94
384.436	187.94
384.662	182.94
384.887	165.94
385.112	167.94
385.337	177.94
385.562	186.94
385.787	174.94
386.013	179.94
386.238	185.94
386.463	194.94
386.688	202.94
386.913	175.94
387.138	184.94
387.363	180.94
387.588	194.94
387.813	191.94
388.038	196.94
388.263	191.94
388.488	191.94
388.713	183.94
388.938	210.94
389.163	183.94
389.387	191.94
389.612	191.94
389.837	205.94
390.062	202.94
390.287	199.94
390.512	200.94
390.736	186.94
390.961	202.94
391.186	205.94
391.411	204.94
391.636	216.94
391.86	223.94
392.085	223.94
392.31	193.94
392.534	199.94
392.759	199.94
392.984	204.94
393.208	186.94
393.433	205.94
393.658	214.94
393.882	208.94
394.107	191.94
394.331	203.94
394.556	189.94
394.78	209.94
395.005	215.94
395.229	208.94
395.454	218.94
395.678	199.94
395.903	242.94
396.127	234.94
396.352	206.94
396.576	213.94
396.801	200.94
397.025	198.94
397.249	219.94
397.474	231.94
397.698	216.94
397.922	204.94
398.147	217.94
398.371	222.94
398.595	222.94
398.82	226.94
399.044	254.94
399.268	241.94
399.492	280.94
399.717	291.94
399.941	276.94
400.165	261.94
400.389	245.94
400.613	242.94
400.837	234.94
401.062	247.94
401.286	234.94
401.51	241.94
401.734	222.94
401.958	234.94
402.182	248.94
402.406	243.94
402.63	248.94
402.854	246.94
403.078	250.94
403.302	244.94
403.526	264.94
403.75	267.94
403.974	261.94
404.198	262.94
404.422	259.94
404.645	257.94
404.869	252.94
405.093	267.94
405.317	260.94
405.541	268.94
405.765	253.94
405.988	250.94
406.212	259.94
406.436	249.94
406.66	271.94
406.883	242.94
407.107	266.94
407.331	263.94
407.555	263.94
407.778	260.94
408.002	256.94
408.226	290.94
408.449	255.94
408.673	271.94
408.896	259.94
409.12	274.94
409.344	269.94
409.567	265.94
409.791	285.94
410.014	277.94
410.238	270.94
410.461	260.94
410.685	248.94
410.908	257.94
411.132	274.94
411.355	261.94
411.578	264.94
411.802	255.94
412.025	257.94
412.249	253.94
412.472	243.94
412.695	260.94
412.919	240.94
413.142	258.94
413.365	244.94
413.589	232.94
413.812	248.94
414.035	262.94
414.258	247.94
414.482	250.94
414.705	268.94
414.928	267.94
415.151	260.94
415.374	261.94
415.597	260.94
415.821	260.94
416.044	247.94
416.267	260.94
416.49	270.94
416.713	261.94
416.936	254.94
417.159	262.94
417.382	269.94
417.605	250.94
417.828	289.94
418.051	256.94
418.274	259.94
418.497	261.94
418.72	270.94
418.943	268.94
419.166	288.94
419.389	286.94
419.611	279.94
419.834	290.94
420.057	271.94
420.28	303.94
420.503	276.94
420.726	269.94
420.948	269.94
421.171	287.94
421.394	264.94
421.617	276.94
421.839	278.94
422.062	289.94
422.285	275.94
422.507	271.94
422.73	276.94
422.953	255.94
423.175	269.94
423.398	286.94
423.621	284.94
423.843	290.94
424.066	294.94
424.288	290.94
424.511	304.94
424.733	293.94
424.956	285.94
425.178	284.94
425.401	292.94
425.623	285.94
425.846	274.94
426.068	291.94
426.291	275.94
426.513	256.94
426.735	272.94
426.958	266.94
427.18	270.94
427.402	272.94
427.625	250.94
427.847	255.94
428.069	261.94
428.292	260.94
428.514	251.94
428.736	261.94
428.958	261.94
429.181	257.94
429.403	252.94
429.625	239.94
429.847	252.94
430.069	270.94
430.292	266.94
430.514	263.94
430.736	269.94
430.958	246.94
431.18	258.94
431.402	229.94
431.624	243.94
431.846	203.94
432.068	183.94
432.29	212.94
432.512	240.94
432.734	250.94
432.956	270.94
433.178	255.94
433.4	269.94
433.622	267.94
433.844	254.94
434.066	227.94
434.287	192.94
434.509	192.94
434.731	225.94
434.953	229.94
435.175	243.94
435.397	238.94
435.618	231.94
435.84	228.94
436.062	229.94
436.284	251.94
436.505	240.94
436.727	268.94
436.949	267.94
437.17	265.94
437.392	245.94
437.614	218.94
437.835	201.94
438.057	218.94
438.278	228.94
438.5	247.94
438.721	261.94
438.943	278.94
439.165	261.94
439.386	280.94
439.608	286.94
439.829	288.94
440.05	272.94
440.272	308.94
440.493	286.94
440.715	300.94
440.936	289.94
441.158	288.94
441.379	286.94
441.6	304.94
441.822	325.94
442.043	302.94
442.264	294.94
442.486	282.94
442.707	285.94
442.928	283.94
443.149	276.94
443.371	308.94
443.592	300.94
443.813	290.94
444.034	268.94
444.255	294.94
444.476	300.94
444.698	302.94
444.919	320.94
445.14	579.94
445.361	438.94
445.582	309.94
445.803	303.94
446.024	295.94
446.245	306.94
446.466	320.94
446.687	299.94
446.908	311.94
447.129	302.94
447.35	289.94
447.571	295.94
447.792	289.94
448.013	293.94
448.234	294.94
448.455	267.94
448.675	260.94
448.896	283.94
449.117	265.94
449.338	272.94
449.559	288.94
449.779	257.94
450	251.94
450.221	259.94
450.442	254.94
450.662	269.94
450.883	238.94
451.104	264.94
451.324	259.94
451.545	248.94
451.766	251.94
451.986	246.94
452.207	244.94
452.428	236.94
452.648	245.94
452.869	228.94
453.089	211.94
453.31	215.94
453.53	186.94
453.751	199.94
453.971	194.94
454.192	192.94
454.412	207.94
454.633	209.94
454.853	223.94
455.073	232.94
455.294	222.94
455.514	214.94
455.734	214.94
455.955	204.94
456.175	205.94
456.395	200.94
456.616	182.94
456.836	193.94
457.056	182.94
457.276	175.94
457.497	176.94
457.717	194.94
457.937	210.94
458.157	192.94
458.377	200.94
458.598	181.94
458.818	192.94
459.038	156.94
459.258	160.94
459.478	176.94
459.698	189.94
459.918	181.94
460.138	213.94
460.358	234.94
460.578	243.94
460.798	231.94
461.018	228.94
461.238	228.94
461.458	238.94
461.678	226.94
461.898	238.94
462.118	228.94
462.338	250.94
462.558	234.94
462.777	243.94
462.997	260.94
463.217	256.94
463.437	252.94
463.657	250.94
463.876	238.94
464.096	246.94
464.316	231.94
464.536	235.94
464.755	251.94
464.975	231.94
465.195	234.94
465.414	226.94
465.634	226.94
465.854	216.94
466.073	237.94
466.293	253.94
466.512	240.94
466.732	238.94
466.951	254.94
467.171	255.94
467.391	251.94
467.61	268.94
467.829	255.94
468.049	228.94
468.268	258.94
468.488	250.94
468.707	254.94
468.927	267.94
469.146	266.94
469.365	279.94
469.585	270.94
469.804	262.94
470.023	261.94
470.243	296.94
470.462	288.94
470.681	285.94
470.901	275.94
471.12	262.94
471.339	292.94
471.558	297.94
471.777	272.94
471.997	262.94
472.216	234.94
472.435	214.94
472.654	187.94
472.873	199.94
473.092	213.94
473.311	225.94
473.53	241.94
473.749	234.94
473.968	224.94
474.187	215.94
474.406	225.94
474.625	225.94
474.844	243.94
475.063	244.94
475.282	237.94
475.501	206.94
475.72	229.94
475.939	211.94
476.158	230.94
476.377	243.94
476.596	242.94
476.814	205.94
477.033	184.94
477.252	222.94
477.471	230.94
477.69	244.94
477.908	264.94
478.127	293.94
478.346	271.94
478.564	250.94
478.783	262.94
479.002	268.94
479.22	280.94
479.439	270.94
479.658	243.94
479.876	215.94
480.095	224.94
480.313	219.94
480.532	246.94
480.751	219.94
480.969	208.94
481.188	182.94
481.406	180.94
481.624	176.94
481.843	177.94
482.061	195.94
482.28	234.94
482.498	206.94
482.717	198.94
482.935	244.94
483.153	278.94
483.372	291.94
483.59	288.94
483.808	259.94
484.027	260.94
484.245	252.94
484.463	256.94
484.681	290.94
484.9	261.94
485.118	252.94
485.336	236.94
485.554	206.94
485.772	199.94
485.99	202.94
486.209	229.94
486.427	213.94
486.645	243.94
486.863	255.94
487.081	255.94
487.299	256.94
487.517	289.94
487.735	330.94
487.953	340.94
488.171	346.94
488.389	323.94
488.607	285.94
488.825	262.94
489.043	227.94
489.261	261.94
489.479	274.94
489.696	268.94
489.914	256.94
490.132	266.94
490.35	310.94
490.568	328.94
490.786	339.94
491.003	362.94
491.221	355.94
491.439	380.94
491.657	391.94
491.874	407.94
492.092	438.94
492.31	479.94
492.527	460.94
492.745	388.94
492.963	391.94
493.18	363.94
493.398	358.94
493.615	379.94
493.833	354.94
494.05	368.94
494.268	366.94
494.485	348.94
494.703	343.94
494.92	350.94
495.138	355.94
495.355	370.94
495.573	360.94
495.79	347.94
496.008	346.94
496.225	338.94
496.442	354.94
496.66	359.94
496.877	348.94
497.094	350.94
497.312	357.94
497.529	334.94
497.746	317.94
497.963	293.94
498.181	283.94
498.398	274.94
498.615	301.94
498.832	264.94
499.049	292.94
499.267	322.94
499.484	346.94
499.701	380.94
499.918	399.94
500.135	469.94
500.352	488.94
500.569	492.94
500.786	504.94
501.003	463.94
501.22	423.94
501.437	395.94
501.654	358.94
501.871	330.94
502.088	323.94
502.305	318.94
502.522	305.94
502.739	288.94
502.956	288.94
503.172	276.94
503.389	268.94
503.606	255.94
503.823	257.94
504.04	274.94
504.256	257.94
504.473	246.94
504.69	250.94
504.907	237.94
505.123	230.94
