Data from SampD_HRD10591_00089.txt Node
Date: Mon Jan 19 11:48:08 EST 2026
User: Yrep
Spectrometer: HR+D1059
Trigger mode: 0
Integration Time (sec): 3.443000E-1
Scans to average: 1
Electric dark correction enabled: true
Nonlinearity correction enabled: false
Boxcar width: 0
XAxis mode: Wavelengths
Number of Pixels in Spectrum: 2048
>>>>>Begin Spectral Data<<<<<
223.165	-26.06
223.4	-26.06
223.635	-26.06
223.869	-36.06
224.104	-31.06
224.338	-4.06
224.573	-10.06
224.808	-11.06
225.042	-7.06
225.277	-3.06
225.511	-10.06
225.746	11.94
225.98	22.94
226.215	3.94
226.449	18.94
226.683	20.94
226.918	24.94
227.152	34.94
227.387	37.94
227.621	41.94
227.856	43.94
228.09	44.94
228.324	35.94
228.559	42.94
228.793	59.94
229.027	68.94
229.262	70.94
229.496	72.94
229.73	67.94
229.964	72.94
230.199	71.94
230.433	80.94
230.667	84.94
230.901	65.94
231.136	69.94
231.37	75.94
231.604	88.94
231.838	76.94
232.072	78.94
232.306	88.94
232.541	80.94
232.775	78.94
233.009	79.94
233.243	88.94
233.477	86.94
233.711	91.94
233.945	73.94
234.179	80.94
234.413	86.94
234.647	80.94
234.881	73.94
235.115	82.94
235.349	83.94
235.583	88.94
235.817	73.94
236.051	77.94
236.285	64.94
236.519	69.94
236.753	77.94
236.987	73.94
237.221	78.94
237.455	81.94
237.689	76.94
237.922	85.94
238.156	57.94
238.39	66.94
238.624	81.94
238.858	85.94
239.091	67.94
239.325	84.94
239.559	88.94
239.793	84.94
240.027	85.94
240.26	62.94
240.494	80.94
240.728	88.94
240.961	66.94
241.195	82.94
241.429	81.94
241.662	77.94
241.896	68.94
242.13	89.94
242.363	77.94
242.597	68.94
242.83	96.94
243.064	86.94
243.298	70.94
243.531	70.94
243.765	83.94
243.998	76.94
244.232	97.94
244.465	78.94
244.699	92.94
244.932	64.94
245.166	75.94
245.399	96.94
245.633	80.94
245.866	80.94
246.099	79.94
246.333	90.94
246.566	91.94
246.8	83.94
247.033	80.94
247.266	83.94
247.5	75.94
247.733	74.94
247.966	80.94
248.2	72.94
248.433	73.94
248.666	88.94
248.899	86.94
249.133	83.94
249.366	87.94
249.599	73.94
249.832	77.94
250.066	92.94
250.299	83.94
250.532	89.94
250.765	63.94
250.998	71.94
251.231	78.94
251.465	95.94
251.698	69.94
251.931	76.94
252.164	88.94
252.397	91.94
252.63	90.94
252.863	86.94
253.096	90.94
253.329	86.94
253.562	86.94
253.795	85.94
254.028	101.94
254.261	90.94
254.494	77.94
254.727	98.94
254.96	80.94
255.193	95.94
255.426	90.94
255.659	84.94
255.892	91.94
256.124	79.94
256.357	88.94
256.59	100.94
256.823	90.94
257.056	65.94
257.289	90.94
257.521	90.94
257.754	88.94
257.987	79.94
258.22	94.94
258.452	94.94
258.685	109.94
258.918	76.94
259.151	82.94
259.383	72.94
259.616	96.94
259.849	90.94
260.081	95.94
260.314	104.94
260.547	94.94
260.779	95.94
261.012	75.94
261.244	97.94
261.477	96.94
261.71	95.94
261.942	109.94
262.175	101.94
262.407	83.94
262.64	100.94
262.872	103.94
263.105	82.94
263.337	91.94
263.57	85.94
263.802	98.94
264.035	92.94
264.267	92.94
264.499	100.94
264.732	112.94
264.964	84.94
265.197	92.94
265.429	94.94
265.661	101.94
265.894	88.94
266.126	117.94
266.358	91.94
266.591	108.94
266.823	98.94
267.055	99.94
267.287	94.94
267.52	91.94
267.752	106.94
267.984	96.94
268.216	99.94
268.448	105.94
268.681	107.94
268.913	104.94
269.145	93.94
269.377	91.94
269.609	93.94
269.841	81.94
270.073	98.94
270.306	106.94
270.538	109.94
270.77	97.94
271.002	110.94
271.234	101.94
271.466	114.94
271.698	96.94
271.93	101.94
272.162	96.94
272.394	100.94
272.626	96.94
272.858	100.94
273.09	119.94
273.322	85.94
273.553	92.94
273.785	110.94
274.017	97.94
274.249	94.94
274.481	104.94
274.713	106.94
274.945	103.94
275.176	98.94
275.408	104.94
275.64	104.94
275.872	94.94
276.104	104.94
276.335	94.94
276.567	96.94
276.799	96.94
277.031	100.94
277.262	100.94
277.494	106.94
277.726	110.94
277.957	96.94
278.189	90.94
278.421	116.94
278.652	101.94
278.884	110.94
279.115	100.94
279.347	92.94
279.579	108.94
279.81	112.94
280.042	104.94
280.273	107.94
280.505	103.94
280.736	115.94
280.968	105.94
281.199	107.94
281.431	98.94
281.662	112.94
281.894	113.94
282.125	118.94
282.356	106.94
282.588	105.94
282.819	99.94
283.051	108.94
283.282	109.94
283.513	114.94
283.745	100.94
283.976	113.94
284.207	113.94
284.439	116.94
284.67	115.94
284.901	108.94
285.132	114.94
285.364	115.94
285.595	117.94
285.826	98.94
286.057	98.94
286.288	104.94
286.52	124.94
286.751	80.94
286.982	110.94
287.213	97.94
287.444	108.94
287.675	123.94
287.906	130.94
288.138	116.94
288.369	108.94
288.6	107.94
288.831	108.94
289.062	113.94
289.293	118.94
289.524	106.94
289.755	112.94
289.986	108.94
290.217	100.94
290.448	101.94
290.679	117.94
290.91	126.94
291.141	121.94
291.371	115.94
291.602	120.94
291.833	122.94
292.064	115.94
292.295	119.94
292.526	109.94
292.757	123.94
292.987	113.94
293.218	119.94
293.449	121.94
293.68	107.94
293.91	97.94
294.141	121.94
294.372	105.94
294.603	108.94
294.833	119.94
295.064	116.94
295.295	104.94
295.525	113.94
295.756	107.94
295.987	120.94
296.217	118.94
296.448	98.94
296.679	100.94
296.909	125.94
297.14	109.94
297.37	117.94
297.601	115.94
297.831	115.94
298.062	121.94
298.292	112.94
298.523	112.94
298.753	131.94
298.984	106.94
299.214	118.94
299.445	117.94
299.675	117.94
299.905	136.94
300.136	110.94
300.366	116.94
300.597	123.94
300.827	116.94
301.057	127.94
301.288	125.94
301.518	125.94
301.748	116.94
301.979	154.94
302.209	124.94
302.439	114.94
302.669	130.94
302.9	129.94
303.13	118.94
303.36	125.94
303.59	108.94
303.82	130.94
304.051	131.94
304.281	122.94
304.511	129.94
304.741	110.94
304.971	128.94
305.201	104.94
305.431	117.94
305.661	108.94
305.891	137.94
306.121	117.94
306.352	106.94
306.582	109.94
306.812	103.94
307.042	114.94
307.272	126.94
307.502	108.94
307.731	124.94
307.961	125.94
308.191	121.94
308.421	105.94
308.651	109.94
308.881	112.94
309.111	106.94
309.341	125.94
309.571	129.94
309.8	120.94
310.03	108.94
310.26	133.94
310.49	127.94
310.72	121.94
310.949	112.94
311.179	112.94
311.409	117.94
311.639	126.94
311.868	129.94
312.098	121.94
312.328	120.94
312.557	116.94
312.787	110.94
313.017	139.94
313.246	134.94
313.476	106.94
313.706	122.94
313.935	112.94
314.165	121.94
314.394	122.94
314.624	129.94
314.853	130.94
315.083	118.94
315.312	115.94
315.542	122.94
315.771	123.94
316.001	112.94
316.23	140.94
316.46	120.94
316.689	110.94
316.919	126.94
317.148	137.94
317.377	124.94
317.607	131.94
317.836	122.94
318.065	137.94
318.295	114.94
318.524	131.94
318.753	118.94
318.983	118.94
319.212	111.94
319.441	113.94
319.67	131.94
319.9	123.94
320.129	120.94
320.358	118.94
320.587	117.94
320.816	105.94
321.046	111.94
321.275	117.94
321.504	122.94
321.733	124.94
321.962	128.94
322.191	123.94
322.42	112.94
322.649	133.94
322.878	101.94
323.108	119.94
323.337	114.94
323.566	125.94
323.795	134.94
324.024	128.94
324.253	130.94
324.482	117.94
324.71	128.94
324.939	122.94
325.168	125.94
325.397	140.94
325.626	150.94
325.855	131.94
326.084	139.94
326.313	127.94
326.542	138.94
326.77	142.94
326.999	113.94
327.228	124.94
327.457	113.94
327.686	132.94
327.914	127.94
328.143	125.94
328.372	129.94
328.6	112.94
328.829	116.94
329.058	113.94
329.287	127.94
329.515	126.94
329.744	131.94
329.972	126.94
330.201	130.94
330.43	126.94
330.658	140.94
330.887	128.94
331.115	122.94
331.344	131.94
331.572	134.94
331.801	125.94
332.03	130.94
332.258	142.94
332.486	144.94
332.715	152.94
332.943	129.94
333.172	138.94
333.4	151.94
333.629	154.94
333.857	158.94
334.085	164.94
334.314	164.94
334.542	139.94
334.771	134.94
334.999	150.94
335.227	142.94
335.455	143.94
335.684	151.94
335.912	151.94
336.14	138.94
336.369	144.94
336.597	133.94
336.825	129.94
337.053	119.94
337.281	123.94
337.51	141.94
337.738	160.94
337.966	156.94
338.194	128.94
338.422	132.94
338.65	139.94
338.878	140.94
339.106	133.94
339.334	157.94
339.562	137.94
339.79	129.94
340.018	139.94
340.246	121.94
340.474	117.94
340.702	150.94
340.93	146.94
341.158	115.94
341.386	126.94
341.614	120.94
341.842	132.94
342.07	124.94
342.298	131.94
342.526	145.94
342.754	113.94
342.981	125.94
343.209	137.94
343.437	160.94
343.665	141.94
343.893	131.94
344.12	153.94
344.348	134.94
344.576	145.94
344.804	132.94
345.031	126.94
345.259	126.94
345.487	129.94
345.714	130.94
345.942	144.94
346.17	143.94
346.397	138.94
346.625	126.94
346.853	140.94
347.08	111.94
347.308	138.94
347.535	158.94
347.763	129.94
347.99	136.94
348.218	146.94
348.445	135.94
348.673	119.94
348.9	105.94
349.128	155.94
349.355	122.94
349.583	119.94
349.81	115.94
350.037	129.94
350.265	139.94
350.492	129.94
350.72	125.94
350.947	142.94
351.174	139.94
351.402	124.94
351.629	126.94
351.856	138.94
352.083	125.94
352.311	121.94
352.538	116.94
352.765	124.94
352.992	140.94
353.22	121.94
353.447	122.94
353.674	127.94
353.901	131.94
354.128	123.94
354.355	115.94
354.583	112.94
354.81	125.94
355.037	131.94
355.264	130.94
355.491	135.94
355.718	118.94
355.945	122.94
356.172	138.94
356.399	128.94
356.626	127.94
356.853	128.94
357.08	124.94
357.307	129.94
357.534	137.94
357.761	135.94
357.988	130.94
358.215	127.94
358.441	123.94
358.668	117.94
358.895	120.94
359.122	131.94
359.349	127.94
359.576	134.94
359.802	104.94
360.029	114.94
360.256	124.94
360.483	134.94
360.709	118.94
360.936	128.94
361.163	124.94
361.39	129.94
361.616	138.94
361.843	129.94
362.07	117.94
362.296	121.94
362.523	126.94
362.749	153.94
362.976	121.94
363.203	136.94
363.429	123.94
363.656	137.94
363.882	119.94
364.109	131.94
364.335	144.94
364.562	127.94
364.788	115.94
365.015	139.94
365.241	134.94
365.468	140.94
365.694	100.94
365.92	127.94
366.147	123.94
366.373	127.94
366.599	126.94
366.826	138.94
367.052	131.94
367.278	115.94
367.505	139.94
367.731	157.94
367.957	144.94
368.184	135.94
368.41	161.94
368.636	133.94
368.862	152.94
369.089	140.94
369.315	132.94
369.541	133.94
369.767	144.94
369.993	141.94
370.219	124.94
370.445	128.94
370.672	160.94
370.898	138.94
371.124	163.94
371.35	144.94
371.576	161.94
371.802	132.94
372.028	128.94
372.254	143.94
372.48	153.94
372.706	154.94
372.932	144.94
373.158	148.94
373.384	169.94
373.61	138.94
373.835	146.94
374.061	161.94
374.287	142.94
374.513	141.94
374.739	146.94
374.965	148.94
375.191	163.94
375.416	166.94
375.642	155.94
375.868	164.94
376.094	142.94
376.319	163.94
376.545	146.94
376.771	163.94
376.997	144.94
377.222	140.94
377.448	166.94
377.674	159.94
377.899	153.94
378.125	162.94
378.35	150.94
378.576	158.94
378.802	163.94
379.027	141.94
379.253	175.94
379.478	162.94
379.704	158.94
379.929	163.94
380.155	145.94
380.38	145.94
380.606	167.94
380.831	159.94
381.057	180.94
381.282	175.94
381.507	150.94
381.733	178.94
381.958	161.94
382.184	166.94
382.409	158.94
382.634	162.94
382.86	160.94
383.085	179.94
383.31	163.94
383.535	184.94
383.761	180.94
383.986	172.94
384.211	174.94
384.436	175.94
384.662	173.94
384.887	169.94
385.112	168.94
385.337	168.94
385.562	169.94
385.787	180.94
386.013	187.94
386.238	182.94
386.463	179.94
386.688	214.94
386.913	178.94
387.138	194.94
387.363	171.94
387.588	190.94
387.813	183.94
388.038	190.94
388.263	179.94
388.488	196.94
388.713	185.94
388.938	169.94
389.163	199.94
389.387	164.94
389.612	180.94
389.837	191.94
390.062	199.94
390.287	184.94
390.512	195.94
390.736	202.94
390.961	189.94
391.186	181.94
391.411	201.94
391.636	195.94
391.86	209.94
392.085	214.94
392.31	204.94
392.534	196.94
392.759	210.94
392.984	208.94
393.208	211.94
393.433	209.94
393.658	202.94
393.882	206.94
394.107	213.94
394.331	207.94
394.556	210.94
394.78	211.94
395.005	208.94
395.229	202.94
395.454	207.94
395.678	208.94
395.903	205.94
396.127	208.94
396.352	206.94
396.576	220.94
396.801	218.94
397.025	202.94
397.249	220.94
397.474	234.94
397.698	228.94
397.922	230.94
398.147	228.94
398.371	237.94
398.595	238.94
398.82	233.94
399.044	231.94
399.268	259.94
399.492	273.94
399.717	284.94
399.941	266.94
400.165	257.94
400.389	247.94
400.613	240.94
400.837	231.94
401.062	249.94
401.286	250.94
401.51	250.94
401.734	250.94
401.958	242.94
402.182	236.94
402.406	217.94
402.63	222.94
402.854	232.94
403.078	240.94
403.302	233.94
403.526	252.94
403.75	265.94
403.974	274.94
404.198	279.94
404.422	282.94
404.645	257.94
404.869	256.94
405.093	251.94
405.317	256.94
405.541	245.94
405.765	251.94
405.988	243.94
406.212	256.94
406.436	249.94
406.66	283.94
406.883	257.94
407.107	262.94
407.331	272.94
407.555	287.94
407.778	275.94
408.002	285.94
408.226	280.94
408.449	261.94
408.673	263.94
408.896	274.94
409.12	257.94
409.344	260.94
409.567	248.94
409.791	251.94
410.014	274.94
410.238	264.94
410.461	289.94
410.685	274.94
410.908	270.94
411.132	267.94
411.355	256.94
411.578	266.94
411.802	265.94
412.025	258.94
412.249	262.94
412.472	252.94
412.695	254.94
412.919	257.94
413.142	259.94
413.365	257.94
413.589	264.94
413.812	277.94
414.035	255.94
414.258	262.94
414.482	260.94
414.705	276.94
414.928	277.94
415.151	264.94
415.374	266.94
415.597	260.94
415.821	272.94
416.044	252.94
416.267	276.94
416.49	256.94
416.713	260.94
416.936	267.94
417.159	267.94
417.382	259.94
417.605	284.94
417.828	260.94
418.051	258.94
418.274	279.94
418.497	274.94
418.72	273.94
418.943	291.94
419.166	273.94
419.389	296.94
419.611	302.94
419.834	298.94
420.057	282.94
420.28	269.94
420.503	281.94
420.726	292.94
420.948	280.94
421.171	272.94
421.394	284.94
421.617	300.94
421.839	280.94
422.062	303.94
422.285	278.94
422.507	284.94
422.73	256.94
422.953	284.94
423.175	275.94
423.398	277.94
423.621	274.94
423.843	302.94
424.066	293.94
424.288	310.94
424.511	292.94
424.733	303.94
424.956	289.94
425.178	291.94
425.401	301.94
425.623	298.94
425.846	273.94
426.068	266.94
426.291	272.94
426.513	270.94
426.735	279.94
426.958	257.94
427.18	264.94
427.402	260.94
427.625	277.94
427.847	258.94
428.069	268.94
428.292	257.94
428.514	259.94
428.736	236.94
428.958	262.94
429.181	249.94
429.403	245.94
429.625	250.94
429.847	267.94
430.069	256.94
430.292	262.94
430.514	257.94
430.736	256.94
430.958	246.94
431.18	268.94
431.402	240.94
431.624	252.94
431.846	196.94
432.068	186.94
432.29	182.94
432.512	209.94
432.734	255.94
432.956	253.94
433.178	270.94
433.4	274.94
433.622	265.94
433.844	254.94
434.066	243.94
434.287	208.94
434.509	179.94
434.731	206.94
434.953	236.94
435.175	262.94
435.397	262.94
435.618	246.94
435.84	210.94
436.062	227.94
436.284	237.94
436.505	252.94
436.727	261.94
436.949	245.94
437.17	254.94
437.392	242.94
437.614	225.94
437.835	193.94
438.057	180.94
438.278	228.94
438.5	244.94
438.721	260.94
438.943	270.94
439.165	272.94
439.386	265.94
439.608	303.94
439.829	293.94
440.05	296.94
440.272	294.94
440.493	289.94
440.715	290.94
440.936	275.94
441.158	292.94
441.379	303.94
441.6	305.94
441.822	322.94
442.043	285.94
442.264	309.94
442.486	283.94
442.707	281.94
442.928	301.94
443.149	283.94
443.371	280.94
443.592	284.94
443.813	280.94
444.034	304.94
444.255	295.94
444.476	295.94
444.698	301.94
444.919	315.94
445.14	595.94
445.361	432.94
445.582	334.94
445.803	303.94
446.024	296.94
446.245	322.94
446.466	329.94
446.687	294.94
446.908	312.94
447.129	314.94
447.35	301.94
447.571	313.94
447.792	284.94
448.013	284.94
448.234	279.94
448.455	276.94
448.675	271.94
448.896	278.94
449.117	264.94
449.338	261.94
449.559	270.94
449.779	272.94
450	273.94
450.221	265.94
450.442	261.94
450.662	253.94
450.883	244.94
451.104	252.94
451.324	249.94
451.545	260.94
451.766	245.94
451.986	234.94
452.207	237.94
452.428	243.94
452.648	243.94
452.869	222.94
453.089	218.94
453.31	194.94
453.53	197.94
453.751	189.94
453.971	181.94
454.192	180.94
454.412	207.94
454.633	210.94
454.853	223.94
455.073	230.94
455.294	227.94
455.514	230.94
455.734	229.94
455.955	218.94
456.175	195.94
456.395	189.94
456.616	185.94
456.836	192.94
457.056	200.94
457.276	172.94
457.497	186.94
457.717	184.94
457.937	185.94
458.157	197.94
458.377	206.94
458.598	178.94
458.818	161.94
459.038	157.94
459.258	179.94
459.478	178.94
459.698	182.94
459.918	198.94
460.138	190.94
460.358	208.94
460.578	240.94
460.798	226.94
461.018	244.94
461.238	241.94
461.458	243.94
461.678	224.94
461.898	237.94
462.118	231.94
462.338	248.94
462.558	255.94
462.777	233.94
462.997	257.94
463.217	272.94
463.437	253.94
463.657	251.94
463.876	245.94
464.096	232.94
464.316	233.94
464.536	240.94
464.755	232.94
464.975	249.94
465.195	235.94
465.414	230.94
465.634	231.94
465.854	225.94
466.073	225.94
466.293	228.94
466.512	249.94
466.732	244.94
466.951	265.94
467.171	244.94
467.391	250.94
467.61	250.94
467.829	257.94
468.049	249.94
468.268	244.94
468.488	249.94
468.707	253.94
468.927	248.94
469.146	262.94
469.365	276.94
469.585	282.94
469.804	280.94
470.023	276.94
470.243	265.94
470.462	271.94
470.681	293.94
470.901	268.94
471.12	269.94
471.339	276.94
471.558	253.94
471.777	277.94
471.997	261.94
472.216	256.94
472.435	201.94
472.654	195.94
472.873	222.94
473.092	196.94
473.311	235.94
473.53	218.94
473.749	240.94
473.968	229.94
474.187	230.94
474.406	231.94
474.625	242.94
474.844	247.94
475.063	239.94
475.282	240.94
475.501	199.94
475.72	230.94
475.939	236.94
476.158	238.94
476.377	231.94
476.596	214.94
476.814	216.94
477.033	193.94
477.252	210.94
477.471	234.94
477.69	254.94
477.908	274.94
478.127	282.94
478.346	272.94
478.564	272.94
478.783	268.94
479.002	273.94
479.22	274.94
479.439	248.94
479.658	227.94
479.876	217.94
480.095	208.94
480.313	242.94
480.532	235.94
480.751	222.94
480.969	179.94
481.188	180.94
481.406	178.94
481.624	164.94
481.843	174.94
482.061	200.94
482.28	219.94
482.498	204.94
482.717	211.94
482.935	224.94
483.153	274.94
483.372	280.94
483.59	284.94
483.808	264.94
484.027	248.94
484.245	254.94
484.463	248.94
484.681	272.94
484.9	269.94
485.118	240.94
485.336	222.94
485.554	213.94
485.772	189.94
485.99	185.94
486.209	219.94
486.427	225.94
486.645	230.94
486.863	272.94
487.081	275.94
487.299	245.94
487.517	276.94
487.735	314.94
487.953	352.94
488.171	354.94
488.389	326.94
488.607	280.94
488.825	252.94
489.043	227.94
489.261	270.94
489.479	257.94
489.696	268.94
489.914	265.94
490.132	272.94
490.35	312.94
490.568	323.94
490.786	362.94
491.003	368.94
491.221	363.94
491.439	361.94
491.657	393.94
491.874	423.94
492.092	458.94
492.31	490.94
492.527	443.94
492.745	401.94
492.963	409.94
493.18	385.94
493.398	378.94
493.615	361.94
493.833	356.94
494.05	358.94
494.268	352.94
494.485	345.94
494.703	366.94
494.92	358.94
495.138	347.94
495.355	370.94
495.573	364.94
495.79	337.94
496.008	368.94
496.225	350.94
496.442	330.94
496.66	333.94
496.877	319.94
497.094	328.94
497.312	347.94
497.529	307.94
497.746	313.94
497.963	283.94
498.181	274.94
498.398	264.94
498.615	260.94
498.832	268.94
499.049	295.94
499.267	326.94
499.484	315.94
499.701	370.94
499.918	413.94
500.135	458.94
500.352	500.94
500.569	503.94
500.786	509.94
501.003	481.94
501.22	414.94
501.437	399.94
501.654	365.94
501.871	336.94
502.088	319.94
502.305	314.94
502.522	303.94
502.739	311.94
502.956	297.94
503.172	288.94
503.389	267.94
503.606	239.94
503.823	250.94
504.04	262.94
504.256	259.94
504.473	241.94
504.69	245.94
504.907	276.94
505.123	253.94
505.34	258.94
