Data from SampD_HRD10591_00077.txt Node
Date: Mon Jan 19 11:48:04 EST 2026
User: Yrep
Spectrometer: HR+D1059
Trigger mode: 0
Integration Time (sec): 3.443000E-1
Scans to average: 1
Electric dark correction enabled: true
Nonlinearity correction enabled: false
Boxcar width: 0
XAxis mode: Wavelengths
Number of Pixels in Spectrum: 2048
>>>>>Begin Spectral Data<<<<<
223.165	-15.56
223.4	-15.56
223.635	-15.56
223.869	-35.56
224.104	-30.56
224.338	6.44
224.573	-33.56
224.808	-16.56
225.042	-2.56
225.277	4.44
225.511	-24.56
225.746	8.44
225.98	15.44
226.215	24.44
226.449	21.44
226.683	24.44
226.918	26.44
227.152	27.44
227.387	46.44
227.621	35.44
227.856	60.44
228.09	61.44
228.324	42.44
228.559	57.44
228.793	64.44
229.027	60.44
229.262	69.44
229.496	68.44
229.73	71.44
229.964	78.44
230.199	86.44
230.433	83.44
230.667	81.44
230.901	90.44
231.136	70.44
231.37	73.44
231.604	88.44
231.838	85.44
232.072	87.44
232.306	82.44
232.541	84.44
232.775	110.44
233.009	88.44
233.243	99.44
233.477	74.44
233.711	95.44
233.945	82.44
234.179	88.44
234.413	93.44
234.647	99.44
234.881	86.44
235.115	77.44
235.349	78.44
235.583	89.44
235.817	76.44
236.051	83.44
236.285	81.44
236.519	87.44
236.753	83.44
236.987	88.44
237.221	78.44
237.455	103.44
237.689	92.44
237.922	83.44
238.156	75.44
238.39	70.44
238.624	90.44
238.858	81.44
239.091	62.44
239.325	74.44
239.559	68.44
239.793	84.44
240.027	92.44
240.26	74.44
240.494	87.44
240.728	77.44
240.961	88.44
241.195	85.44
241.429	69.44
241.662	74.44
241.896	93.44
242.13	85.44
242.363	64.44
242.597	77.44
242.83	93.44
243.064	95.44
243.298	85.44
243.531	81.44
243.765	81.44
243.998	81.44
244.232	87.44
244.465	77.44
244.699	85.44
244.932	78.44
245.166	76.44
245.399	90.44
245.633	86.44
245.866	85.44
246.099	89.44
246.333	89.44
246.566	86.44
246.8	78.44
247.033	90.44
247.266	85.44
247.5	101.44
247.733	96.44
247.966	87.44
248.2	94.44
248.433	82.44
248.666	94.44
248.899	73.44
249.133	94.44
249.366	97.44
249.599	93.44
249.832	83.44
250.066	89.44
250.299	90.44
250.532	90.44
250.765	94.44
250.998	91.44
251.231	84.44
251.465	93.44
251.698	84.44
251.931	97.44
252.164	89.44
252.397	84.44
252.63	91.44
252.863	83.44
253.096	100.44
253.329	114.44
253.562	98.44
253.795	84.44
254.028	103.44
254.261	82.44
254.494	89.44
254.727	96.44
254.96	92.44
255.193	85.44
255.426	81.44
255.659	86.44
255.892	111.44
256.124	98.44
256.357	91.44
256.59	92.44
256.823	91.44
257.056	85.44
257.289	103.44
257.521	90.44
257.754	102.44
257.987	81.44
258.22	106.44
258.452	92.44
258.685	92.44
258.918	97.44
259.151	93.44
259.383	71.44
259.616	95.44
259.849	106.44
260.081	85.44
260.314	83.44
260.547	91.44
260.779	92.44
261.012	99.44
261.244	86.44
261.477	98.44
261.71	105.44
261.942	78.44
262.175	84.44
262.407	89.44
262.64	98.44
262.872	102.44
263.105	91.44
263.337	103.44
263.57	93.44
263.802	99.44
264.035	97.44
264.267	81.44
264.499	88.44
264.732	91.44
264.964	82.44
265.197	114.44
265.429	100.44
265.661	105.44
265.894	100.44
266.126	92.44
266.358	97.44
266.591	114.44
266.823	78.44
267.055	90.44
267.287	98.44
267.52	99.44
267.752	98.44
267.984	92.44
268.216	92.44
268.448	107.44
268.681	95.44
268.913	81.44
269.145	97.44
269.377	83.44
269.609	101.44
269.841	100.44
270.073	87.44
270.306	93.44
270.538	81.44
270.77	90.44
271.002	103.44
271.234	89.44
271.466	99.44
271.698	89.44
271.93	92.44
272.162	101.44
272.394	102.44
272.626	92.44
272.858	93.44
273.09	87.44
273.322	94.44
273.553	95.44
273.785	97.44
274.017	94.44
274.249	107.44
274.481	95.44
274.713	103.44
274.945	115.44
275.176	106.44
275.408	115.44
275.64	84.44
275.872	109.44
276.104	100.44
276.335	85.44
276.567	84.44
276.799	90.44
277.031	99.44
277.262	88.44
277.494	103.44
277.726	109.44
277.957	93.44
278.189	100.44
278.421	99.44
278.652	97.44
278.884	94.44
279.115	111.44
279.347	105.44
279.579	95.44
279.81	99.44
280.042	101.44
280.273	104.44
280.505	106.44
280.736	95.44
280.968	99.44
281.199	95.44
281.431	102.44
281.662	111.44
281.894	99.44
282.125	93.44
282.356	105.44
282.588	114.44
282.819	94.44
283.051	97.44
283.282	99.44
283.513	96.44
283.745	96.44
283.976	103.44
284.207	98.44
284.439	99.44
284.67	100.44
284.901	108.44
285.132	102.44
285.364	101.44
285.595	92.44
285.826	85.44
286.057	103.44
286.288	104.44
286.52	115.44
286.751	102.44
286.982	107.44
287.213	109.44
287.444	108.44
287.675	109.44
287.906	97.44
288.138	105.44
288.369	110.44
288.6	89.44
288.831	106.44
289.062	106.44
289.293	106.44
289.524	103.44
289.755	103.44
289.986	100.44
290.217	106.44
290.448	107.44
290.679	99.44
290.91	119.44
291.141	106.44
291.371	113.44
291.602	113.44
291.833	98.44
292.064	112.44
292.295	106.44
292.526	96.44
292.757	93.44
292.987	99.44
293.218	101.44
293.449	99.44
293.68	115.44
293.91	92.44
294.141	115.44
294.372	101.44
294.603	105.44
294.833	110.44
295.064	111.44
295.295	94.44
295.525	102.44
295.756	104.44
295.987	107.44
296.217	111.44
296.448	104.44
296.679	116.44
296.909	110.44
297.14	123.44
297.37	100.44
297.601	105.44
297.831	111.44
298.062	112.44
298.292	100.44
298.523	94.44
298.753	108.44
298.984	117.44
299.214	104.44
299.445	98.44
299.675	97.44
299.905	113.44
300.136	111.44
300.366	105.44
300.597	111.44
300.827	104.44
301.057	94.44
301.288	101.44
301.518	124.44
301.748	108.44
301.979	167.44
302.209	122.44
302.439	118.44
302.669	115.44
302.9	102.44
303.13	95.44
303.36	113.44
303.59	115.44
303.82	115.44
304.051	105.44
304.281	105.44
304.511	120.44
304.741	111.44
304.971	115.44
305.201	107.44
305.431	105.44
305.661	116.44
305.891	111.44
306.121	106.44
306.352	101.44
306.582	104.44
306.812	98.44
307.042	100.44
307.272	104.44
307.502	98.44
307.731	94.44
307.961	120.44
308.191	95.44
308.421	107.44
308.651	118.44
308.881	116.44
309.111	108.44
309.341	99.44
309.571	100.44
309.8	107.44
310.03	105.44
310.26	101.44
310.49	102.44
310.72	110.44
310.949	106.44
311.179	101.44
311.409	116.44
311.639	105.44
311.868	123.44
312.098	105.44
312.328	123.44
312.557	110.44
312.787	109.44
313.017	112.44
313.246	115.44
313.476	99.44
313.706	106.44
313.935	109.44
314.165	111.44
314.394	102.44
314.624	105.44
314.853	104.44
315.083	115.44
315.312	116.44
315.542	119.44
315.771	117.44
316.001	96.44
316.23	111.44
316.46	115.44
316.689	117.44
316.919	103.44
317.148	119.44
317.377	114.44
317.607	125.44
317.836	101.44
318.065	101.44
318.295	111.44
318.524	98.44
318.753	109.44
318.983	129.44
319.212	106.44
319.441	100.44
319.67	106.44
319.9	117.44
320.129	130.44
320.358	127.44
320.587	98.44
320.816	101.44
321.046	101.44
321.275	130.44
321.504	119.44
321.733	109.44
321.962	106.44
322.191	107.44
322.42	118.44
322.649	117.44
322.878	101.44
323.108	110.44
323.337	120.44
323.566	115.44
323.795	102.44
324.024	108.44
324.253	111.44
324.482	119.44
324.71	107.44
324.939	113.44
325.168	117.44
325.397	111.44
325.626	94.44
325.855	120.44
326.084	111.44
326.313	115.44
326.542	110.44
326.77	105.44
326.999	101.44
327.228	105.44
327.457	110.44
327.686	90.44
327.914	118.44
328.143	126.44
328.372	122.44
328.6	115.44
328.829	116.44
329.058	102.44
329.287	114.44
329.515	106.44
329.744	120.44
329.972	114.44
330.201	105.44
330.43	119.44
330.658	101.44
330.887	121.44
331.115	125.44
331.344	110.44
331.572	122.44
331.801	94.44
332.03	117.44
332.258	105.44
332.486	128.44
332.715	118.44
332.943	111.44
333.172	108.44
333.4	113.44
333.629	114.44
333.857	110.44
334.085	135.44
334.314	114.44
334.542	122.44
334.771	110.44
334.999	130.44
335.227	113.44
335.455	122.44
335.684	127.44
335.912	101.44
336.14	111.44
336.369	114.44
336.597	126.44
336.825	125.44
337.053	116.44
337.281	108.44
337.51	115.44
337.738	120.44
337.966	109.44
338.194	99.44
338.422	109.44
338.65	118.44
338.878	114.44
339.106	120.44
339.334	126.44
339.562	104.44
339.79	118.44
340.018	101.44
340.246	123.44
340.474	112.44
340.702	112.44
340.93	118.44
341.158	123.44
341.386	118.44
341.614	129.44
341.842	116.44
342.07	95.44
342.298	105.44
342.526	107.44
342.754	108.44
342.981	107.44
343.209	114.44
343.437	147.44
343.665	131.44
343.893	124.44
344.12	121.44
344.348	130.44
344.576	115.44
344.804	115.44
345.031	109.44
345.259	106.44
345.487	116.44
345.714	126.44
345.942	126.44
346.17	122.44
346.397	116.44
346.625	111.44
346.853	100.44
347.08	108.44
347.308	116.44
347.535	111.44
347.763	130.44
347.99	124.44
348.218	117.44
348.445	120.44
348.673	116.44
348.9	118.44
349.128	116.44
349.355	111.44
349.583	125.44
349.81	112.44
350.037	121.44
350.265	106.44
350.492	107.44
350.72	117.44
350.947	103.44
351.174	116.44
351.402	124.44
351.629	102.44
351.856	127.44
352.083	108.44
352.311	111.44
352.538	112.44
352.765	106.44
352.992	129.44
353.22	119.44
353.447	123.44
353.674	119.44
353.901	112.44
354.128	111.44
354.355	113.44
354.583	104.44
354.81	105.44
355.037	118.44
355.264	111.44
355.491	115.44
355.718	113.44
355.945	127.44
356.172	110.44
356.399	107.44
356.626	91.44
356.853	113.44
357.08	107.44
357.307	117.44
357.534	106.44
357.761	112.44
357.988	116.44
358.215	108.44
358.441	112.44
358.668	113.44
358.895	102.44
359.122	102.44
359.349	114.44
359.576	106.44
359.802	109.44
360.029	95.44
360.256	111.44
360.483	108.44
360.709	116.44
360.936	125.44
361.163	111.44
361.39	111.44
361.616	114.44
361.843	116.44
362.07	117.44
362.296	100.44
362.523	108.44
362.749	106.44
362.976	110.44
363.203	105.44
363.429	95.44
363.656	111.44
363.882	112.44
364.109	115.44
364.335	123.44
364.562	113.44
364.788	109.44
365.015	101.44
365.241	117.44
365.468	111.44
365.694	115.44
365.92	103.44
366.147	101.44
366.373	100.44
366.599	102.44
366.826	125.44
367.052	102.44
367.278	124.44
367.505	111.44
367.731	147.44
367.957	118.44
368.184	109.44
368.41	105.44
368.636	122.44
368.862	130.44
369.089	126.44
369.315	105.44
369.541	126.44
369.767	125.44
369.993	132.44
370.219	117.44
370.445	110.44
370.672	119.44
370.898	115.44
371.124	105.44
371.35	117.44
371.576	124.44
371.802	112.44
372.028	115.44
372.254	128.44
372.48	130.44
372.706	106.44
372.932	134.44
373.158	126.44
373.384	135.44
373.61	133.44
373.835	118.44
374.061	114.44
374.287	123.44
374.513	124.44
374.739	120.44
374.965	122.44
375.191	137.44
375.416	127.44
375.642	136.44
375.868	136.44
376.094	122.44
376.319	118.44
376.545	115.44
376.771	117.44
376.997	119.44
377.222	123.44
377.448	123.44
377.674	127.44
377.899	120.44
378.125	119.44
378.35	112.44
378.576	118.44
378.802	117.44
379.027	116.44
379.253	132.44
379.478	129.44
379.704	125.44
379.929	122.44
380.155	113.44
380.38	126.44
380.606	121.44
380.831	142.44
381.057	149.44
381.282	127.44
381.507	124.44
381.733	117.44
381.958	129.44
382.184	135.44
382.409	131.44
382.634	139.44
382.86	120.44
383.085	134.44
383.31	137.44
383.535	148.44
383.761	123.44
383.986	125.44
384.211	136.44
384.436	137.44
384.662	129.44
384.887	161.44
385.112	129.44
385.337	139.44
385.562	136.44
385.787	140.44
386.013	133.44
386.238	115.44
386.463	120.44
386.688	174.44
386.913	137.44
387.138	139.44
387.363	150.44
387.588	166.44
387.813	140.44
388.038	149.44
388.263	131.44
388.488	130.44
388.713	139.44
388.938	134.44
389.163	148.44
389.387	133.44
389.612	140.44
389.837	144.44
390.062	151.44
390.287	133.44
390.512	159.44
390.736	132.44
390.961	157.44
391.186	141.44
391.411	146.44
391.636	131.44
391.86	150.44
392.085	138.44
392.31	161.44
392.534	147.44
392.759	140.44
392.984	155.44
393.208	138.44
393.433	141.44
393.658	150.44
393.882	155.44
394.107	158.44
394.331	159.44
394.556	148.44
394.78	154.44
395.005	139.44
395.229	151.44
395.454	154.44
395.678	157.44
395.903	141.44
396.127	146.44
396.352	158.44
396.576	142.44
396.801	161.44
397.025	151.44
397.249	165.44
397.474	160.44
397.698	158.44
397.922	141.44
398.147	164.44
398.371	142.44
398.595	174.44
398.82	147.44
399.044	167.44
399.268	168.44
399.492	177.44
399.717	194.44
399.941	183.44
400.165	193.44
400.389	172.44
400.613	159.44
400.837	191.44
401.062	177.44
401.286	171.44
401.51	165.44
401.734	175.44
401.958	182.44
402.182	167.44
402.406	155.44
402.63	162.44
402.854	185.44
403.078	177.44
403.302	179.44
403.526	169.44
403.75	175.44
403.974	175.44
404.198	181.44
404.422	183.44
404.645	180.44
404.869	172.44
405.093	169.44
405.317	175.44
405.541	180.44
405.765	172.44
405.988	172.44
406.212	182.44
406.436	189.44
406.66	200.44
406.883	172.44
407.107	181.44
407.331	188.44
407.555	177.44
407.778	172.44
408.002	188.44
408.226	170.44
408.449	169.44
408.673	177.44
408.896	180.44
409.12	182.44
409.344	176.44
409.567	188.44
409.791	172.44
410.014	183.44
410.238	195.44
410.461	174.44
410.685	173.44
410.908	168.44
411.132	173.44
411.355	168.44
411.578	185.44
411.802	174.44
412.025	165.44
412.249	182.44
412.472	176.44
412.695	180.44
412.919	189.44
413.142	161.44
413.365	186.44
413.589	185.44
413.812	171.44
414.035	172.44
414.258	165.44
414.482	184.44
414.705	197.44
414.928	189.44
415.151	170.44
415.374	190.44
415.597	195.44
415.821	181.44
416.044	173.44
416.267	173.44
416.49	155.44
416.713	183.44
416.936	178.44
417.159	183.44
417.382	185.44
417.605	162.44
417.828	180.44
418.051	171.44
418.274	194.44
418.497	199.44
418.72	205.44
418.943	197.44
419.166	182.44
419.389	204.44
419.611	193.44
419.834	185.44
420.057	198.44
420.28	196.44
420.503	198.44
420.726	195.44
420.948	185.44
421.171	184.44
421.394	186.44
421.617	172.44
421.839	217.44
422.062	179.44
422.285	173.44
422.507	198.44
422.73	202.44
422.953	183.44
423.175	185.44
423.398	188.44
423.621	202.44
423.843	192.44
424.066	187.44
424.288	193.44
424.511	201.44
424.733	185.44
424.956	195.44
425.178	198.44
425.401	181.44
425.623	197.44
425.846	188.44
426.068	184.44
426.291	180.44
426.513	186.44
426.735	199.44
426.958	179.44
427.18	168.44
427.402	185.44
427.625	173.44
427.847	189.44
428.069	181.44
428.292	190.44
428.514	187.44
428.736	181.44
428.958	179.44
429.181	191.44
429.403	168.44
429.625	180.44
429.847	179.44
430.069	175.44
430.292	190.44
430.514	181.44
430.736	173.44
430.958	194.44
431.18	178.44
431.402	188.44
431.624	169.44
431.846	142.44
432.068	135.44
432.29	155.44
432.512	142.44
432.734	150.44
432.956	167.44
433.178	183.44
433.4	187.44
433.622	192.44
433.844	186.44
434.066	169.44
434.287	154.44
434.509	145.44
434.731	147.44
434.953	147.44
435.175	172.44
435.397	177.44
435.618	170.44
435.84	153.44
436.062	144.44
436.284	171.44
436.505	178.44
436.727	182.44
436.949	186.44
437.17	163.44
437.392	158.44
437.614	141.44
437.835	138.44
438.057	149.44
438.278	156.44
438.5	149.44
438.721	187.44
438.943	174.44
439.165	185.44
439.386	187.44
439.608	195.44
439.829	185.44
440.05	209.44
440.272	190.44
440.493	179.44
440.715	193.44
440.936	198.44
441.158	200.44
441.379	205.44
441.6	204.44
441.822	211.44
442.043	191.44
442.264	187.44
442.486	198.44
442.707	189.44
442.928	193.44
443.149	178.44
443.371	194.44
443.592	207.44
443.813	184.44
444.034	201.44
444.255	198.44
444.476	218.44
444.698	217.44
444.919	211.44
445.14	486.44
445.361	315.44
445.582	211.44
445.803	187.44
446.024	182.44
446.245	209.44
446.466	196.44
446.687	200.44
446.908	216.44
447.129	203.44
447.35	191.44
447.571	197.44
447.792	165.44
448.013	176.44
448.234	179.44
448.455	191.44
448.675	192.44
448.896	195.44
449.117	177.44
449.338	173.44
449.559	183.44
449.779	182.44
450	164.44
450.221	172.44
450.442	177.44
450.662	169.44
450.883	189.44
451.104	193.44
451.324	175.44
451.545	175.44
451.766	166.44
451.986	167.44
452.207	173.44
452.428	162.44
452.648	150.44
452.869	172.44
453.089	154.44
453.31	139.44
453.53	128.44
453.751	140.44
453.971	153.44
454.192	123.44
454.412	147.44
454.633	140.44
454.853	166.44
455.073	159.44
455.294	146.44
455.514	170.44
455.734	158.44
455.955	146.44
456.175	142.44
456.395	153.44
456.616	145.44
456.836	142.44
457.056	141.44
457.276	139.44
457.497	124.44
457.717	145.44
457.937	133.44
458.157	136.44
458.377	138.44
458.598	123.44
458.818	123.44
459.038	120.44
459.258	117.44
459.478	129.44
459.698	139.44
459.918	138.44
460.138	162.44
460.358	158.44
460.578	174.44
460.798	153.44
461.018	182.44
461.238	177.44
461.458	178.44
461.678	170.44
461.898	170.44
462.118	169.44
462.338	178.44
462.558	172.44
462.777	187.44
462.997	185.44
463.217	169.44
463.437	176.44
463.657	165.44
463.876	157.44
464.096	163.44
464.316	168.44
464.536	170.44
464.755	194.44
464.975	180.44
465.195	157.44
465.414	170.44
465.634	155.44
465.854	163.44
466.073	165.44
466.293	161.44
466.512	162.44
466.732	151.44
466.951	148.44
467.171	170.44
467.391	174.44
467.61	169.44
467.829	171.44
468.049	170.44
468.268	163.44
468.488	169.44
468.707	164.44
468.927	166.44
469.146	179.44
469.365	178.44
469.585	178.44
469.804	180.44
470.023	176.44
470.243	185.44
470.462	200.44
470.681	187.44
470.901	184.44
471.12	168.44
471.339	195.44
471.558	186.44
471.777	179.44
471.997	174.44
472.216	161.44
472.435	140.44
472.654	150.44
472.873	151.44
473.092	159.44
473.311	162.44
473.53	147.44
473.749	150.44
473.968	164.44
474.187	148.44
474.406	159.44
474.625	179.44
474.844	170.44
475.063	166.44
475.282	156.44
475.501	164.44
475.72	175.44
475.939	168.44
476.158	171.44
476.377	164.44
476.596	166.44
476.814	155.44
477.033	159.44
477.252	141.44
477.471	167.44
477.69	183.44
477.908	192.44
478.127	184.44
478.346	192.44
478.564	175.44
478.783	183.44
479.002	185.44
479.22	186.44
479.439	186.44
479.658	171.44
479.876	167.44
480.095	152.44
480.313	161.44
480.532	163.44
480.751	170.44
480.969	121.44
481.188	142.44
481.406	129.44
481.624	131.44
481.843	122.44
482.061	136.44
482.28	166.44
482.498	146.44
482.717	149.44
482.935	159.44
483.153	185.44
483.372	189.44
483.59	193.44
483.808	176.44
484.027	181.44
484.245	179.44
484.463	176.44
484.681	201.44
484.9	177.44
485.118	185.44
485.336	170.44
485.554	152.44
485.772	156.44
485.99	136.44
486.209	159.44
486.427	137.44
486.645	153.44
486.863	185.44
487.081	175.44
487.299	178.44
487.517	175.44
487.735	218.44
487.953	245.44
488.171	213.44
488.389	220.44
488.607	186.44
488.825	190.44
489.043	166.44
489.261	176.44
489.479	170.44
489.696	175.44
489.914	189.44
490.132	201.44
490.35	214.44
490.568	215.44
490.786	233.44
491.003	224.44
491.221	244.44
491.439	238.44
491.657	241.44
491.874	268.44
492.092	282.44
492.31	304.44
492.527	283.44
492.745	249.44
492.963	253.44
493.18	260.44
493.398	241.44
493.615	218.44
493.833	224.44
494.05	239.44
494.268	228.44
494.485	223.44
494.703	225.44
494.92	219.44
495.138	225.44
495.355	223.44
495.573	223.44
495.79	218.44
496.008	218.44
496.225	225.44
496.442	237.44
496.66	220.44
496.877	217.44
497.094	222.44
497.312	202.44
497.529	218.44
497.746	218.44
497.963	191.44
498.181	193.44
498.398	181.44
498.615	184.44
498.832	177.44
499.049	202.44
499.267	232.44
499.484	230.44
499.701	231.44
499.918	254.44
500.135	270.44
500.352	306.44
500.569	300.44
500.786	305.44
501.003	273.44
501.22	277.44
501.437	267.44
501.654	229.44
501.871	213.44
502.088	201.44
502.305	214.44
502.522	215.44
502.739	203.44
502.956	185.44
503.172	178.44
503.389	189.44
503.606	171.44
503.823	167.44
504.04	179.44
504.256	176.44
504.473	187.44
504.69	188.44
504.907	196.44
505.123	182.44
505.34	185.44
505.557	173.44
505.773	166.44
