Data from SampD_HRD10591_00073.txt Node
Date: Mon Jan 19 11:48:03 EST 2026
User: Yrep
Spectrometer: HR+D1059
Trigger mode: 0
Integration Time (sec): 3.443000E-1
Scans to average: 1
Electric dark correction enabled: true
Nonlinearity correction enabled: false
Boxcar width: 0
XAxis mode: Wavelengths
Number of Pixels in Spectrum: 2048
>>>>>Begin Spectral Data<<<<<
223.165	-13.62
223.4	-13.62
223.635	-13.62
223.869	-25.62
224.104	-31.62
224.338	-21.62
224.573	-19.62
224.808	-20.62
225.042	2.38
225.277	1.38
225.511	-6.62
225.746	9.38
225.98	15.38
226.215	4.38
226.449	26.38
226.683	22.38
226.918	27.38
227.152	30.38
227.387	42.38
227.621	46.38
227.856	54.38
228.09	44.38
228.324	44.38
228.559	52.38
228.793	68.38
229.027	49.38
229.262	72.38
229.496	87.38
229.73	90.38
229.964	54.38
230.199	70.38
230.433	66.38
230.667	90.38
230.901	87.38
231.136	77.38
231.37	76.38
231.604	86.38
231.838	69.38
232.072	76.38
232.306	73.38
232.541	66.38
232.775	82.38
233.009	82.38
233.243	75.38
233.477	86.38
233.711	88.38
233.945	88.38
234.179	96.38
234.413	75.38
234.647	83.38
234.881	81.38
235.115	79.38
235.349	96.38
235.583	84.38
235.817	73.38
236.051	88.38
236.285	86.38
236.519	74.38
236.753	86.38
236.987	83.38
237.221	88.38
237.455	83.38
237.689	57.38
237.922	82.38
238.156	76.38
238.39	84.38
238.624	92.38
238.858	85.38
239.091	84.38
239.325	73.38
239.559	82.38
239.793	72.38
240.027	87.38
240.26	80.38
240.494	97.38
240.728	91.38
240.961	74.38
241.195	95.38
241.429	92.38
241.662	88.38
241.896	70.38
242.13	75.38
242.363	74.38
242.597	63.38
242.83	96.38
243.064	87.38
243.298	80.38
243.531	83.38
243.765	94.38
243.998	86.38
244.232	90.38
244.465	68.38
244.699	71.38
244.932	58.38
245.166	94.38
245.399	80.38
245.633	96.38
245.866	75.38
246.099	75.38
246.333	86.38
246.566	90.38
246.8	82.38
247.033	82.38
247.266	78.38
247.5	83.38
247.733	72.38
247.966	91.38
248.2	84.38
248.433	72.38
248.666	73.38
248.899	84.38
249.133	82.38
249.366	118.38
249.599	96.38
249.832	83.38
250.066	90.38
250.299	83.38
250.532	98.38
250.765	87.38
250.998	88.38
251.231	82.38
251.465	89.38
251.698	83.38
251.931	88.38
252.164	82.38
252.397	89.38
252.63	71.38
252.863	73.38
253.096	92.38
253.329	93.38
253.562	82.38
253.795	74.38
254.028	87.38
254.261	86.38
254.494	83.38
254.727	84.38
254.96	91.38
255.193	97.38
255.426	72.38
255.659	83.38
255.892	95.38
256.124	81.38
256.357	82.38
256.59	89.38
256.823	93.38
257.056	98.38
257.289	96.38
257.521	84.38
257.754	95.38
257.987	89.38
258.22	87.38
258.452	84.38
258.685	82.38
258.918	92.38
259.151	89.38
259.383	98.38
259.616	91.38
259.849	91.38
260.081	89.38
260.314	89.38
260.547	88.38
260.779	92.38
261.012	96.38
261.244	81.38
261.477	101.38
261.71	90.38
261.942	79.38
262.175	90.38
262.407	90.38
262.64	88.38
262.872	85.38
263.105	80.38
263.337	86.38
263.57	90.38
263.802	101.38
264.035	89.38
264.267	78.38
264.499	98.38
264.732	103.38
264.964	89.38
265.197	90.38
265.429	97.38
265.661	91.38
265.894	87.38
266.126	92.38
266.358	85.38
266.591	86.38
266.823	88.38
267.055	81.38
267.287	87.38
267.52	103.38
267.752	92.38
267.984	97.38
268.216	88.38
268.448	90.38
268.681	100.38
268.913	95.38
269.145	106.38
269.377	104.38
269.609	90.38
269.841	90.38
270.073	96.38
270.306	94.38
270.538	94.38
270.77	100.38
271.002	87.38
271.234	92.38
271.466	97.38
271.698	91.38
271.93	91.38
272.162	104.38
272.394	98.38
272.626	98.38
272.858	84.38
273.09	98.38
273.322	94.38
273.553	79.38
273.785	95.38
274.017	82.38
274.249	97.38
274.481	90.38
274.713	94.38
274.945	86.38
275.176	86.38
275.408	89.38
275.64	88.38
275.872	108.38
276.104	98.38
276.335	95.38
276.567	89.38
276.799	95.38
277.031	89.38
277.262	107.38
277.494	131.38
277.726	102.38
277.957	83.38
278.189	94.38
278.421	96.38
278.652	94.38
278.884	105.38
279.115	102.38
279.347	91.38
279.579	95.38
279.81	90.38
280.042	94.38
280.273	96.38
280.505	104.38
280.736	106.38
280.968	100.38
281.199	96.38
281.431	99.38
281.662	105.38
281.894	89.38
282.125	98.38
282.356	100.38
282.588	99.38
282.819	94.38
283.051	103.38
283.282	98.38
283.513	102.38
283.745	92.38
283.976	102.38
284.207	103.38
284.439	106.38
284.67	106.38
284.901	113.38
285.132	109.38
285.364	99.38
285.595	109.38
285.826	108.38
286.057	95.38
286.288	95.38
286.52	104.38
286.751	99.38
286.982	98.38
287.213	115.38
287.444	116.38
287.675	92.38
287.906	91.38
288.138	100.38
288.369	106.38
288.6	115.38
288.831	99.38
289.062	106.38
289.293	114.38
289.524	95.38
289.755	94.38
289.986	105.38
290.217	104.38
290.448	100.38
290.679	105.38
290.91	107.38
291.141	109.38
291.371	123.38
291.602	106.38
291.833	116.38
292.064	98.38
292.295	90.38
292.526	81.38
292.757	106.38
292.987	98.38
293.218	89.38
293.449	95.38
293.68	106.38
293.91	96.38
294.141	95.38
294.372	101.38
294.603	101.38
294.833	102.38
295.064	98.38
295.295	90.38
295.525	95.38
295.756	102.38
295.987	112.38
296.217	92.38
296.448	105.38
296.679	100.38
296.909	108.38
297.14	106.38
297.37	107.38
297.601	110.38
297.831	107.38
298.062	110.38
298.292	100.38
298.523	106.38
298.753	100.38
298.984	98.38
299.214	112.38
299.445	101.38
299.675	107.38
299.905	114.38
300.136	110.38
300.366	101.38
300.597	104.38
300.827	106.38
301.057	98.38
301.288	87.38
301.518	102.38
301.748	98.38
301.979	123.38
302.209	110.38
302.439	91.38
302.669	96.38
302.9	107.38
303.13	105.38
303.36	99.38
303.59	103.38
303.82	96.38
304.051	117.38
304.281	100.38
304.511	100.38
304.741	105.38
304.971	92.38
305.201	101.38
305.431	104.38
305.661	112.38
305.891	104.38
306.121	106.38
306.352	92.38
306.582	95.38
306.812	114.38
307.042	98.38
307.272	126.38
307.502	123.38
307.731	102.38
307.961	105.38
308.191	99.38
308.421	94.38
308.651	104.38
308.881	108.38
309.111	87.38
309.341	107.38
309.571	116.38
309.8	103.38
310.03	91.38
310.26	107.38
310.49	108.38
310.72	101.38
310.949	100.38
311.179	101.38
311.409	107.38
311.639	112.38
311.868	115.38
312.098	99.38
312.328	112.38
312.557	97.38
312.787	115.38
313.017	99.38
313.246	105.38
313.476	104.38
313.706	101.38
313.935	104.38
314.165	99.38
314.394	98.38
314.624	108.38
314.853	102.38
315.083	100.38
315.312	108.38
315.542	97.38
315.771	112.38
316.001	103.38
316.23	100.38
316.46	113.38
316.689	106.38
316.919	99.38
317.148	112.38
317.377	118.38
317.607	103.38
317.836	107.38
318.065	120.38
318.295	112.38
318.524	99.38
318.753	93.38
318.983	97.38
319.212	95.38
319.441	104.38
319.67	90.38
319.9	105.38
320.129	107.38
320.358	102.38
320.587	114.38
320.816	100.38
321.046	100.38
321.275	91.38
321.504	91.38
321.733	109.38
321.962	104.38
322.191	102.38
322.42	108.38
322.649	115.38
322.878	116.38
323.108	117.38
323.337	93.38
323.566	102.38
323.795	103.38
324.024	117.38
324.253	113.38
324.482	110.38
324.71	113.38
324.939	102.38
325.168	119.38
325.397	95.38
325.626	118.38
325.855	96.38
326.084	114.38
326.313	118.38
326.542	115.38
326.77	106.38
326.999	110.38
327.228	128.38
327.457	118.38
327.686	98.38
327.914	108.38
328.143	100.38
328.372	98.38
328.6	115.38
328.829	96.38
329.058	115.38
329.287	104.38
329.515	96.38
329.744	115.38
329.972	112.38
330.201	127.38
330.43	119.38
330.658	91.38
330.887	100.38
331.115	99.38
331.344	111.38
331.572	118.38
331.801	100.38
332.03	107.38
332.258	112.38
332.486	110.38
332.715	105.38
332.943	107.38
333.172	124.38
333.4	106.38
333.629	121.38
333.857	129.38
334.085	116.38
334.314	124.38
334.542	107.38
334.771	115.38
334.999	120.38
335.227	118.38
335.455	112.38
335.684	129.38
335.912	122.38
336.14	121.38
336.369	114.38
336.597	103.38
336.825	103.38
337.053	107.38
337.281	114.38
337.51	101.38
337.738	122.38
337.966	119.38
338.194	117.38
338.422	105.38
338.65	129.38
338.878	120.38
339.106	107.38
339.334	125.38
339.562	103.38
339.79	124.38
340.018	94.38
340.246	100.38
340.474	102.38
340.702	123.38
340.93	106.38
341.158	108.38
341.386	123.38
341.614	105.38
341.842	104.38
342.07	83.38
342.298	110.38
342.526	107.38
342.754	114.38
342.981	111.38
343.209	113.38
343.437	138.38
343.665	115.38
343.893	108.38
344.12	124.38
344.348	123.38
344.576	111.38
344.804	104.38
345.031	116.38
345.259	114.38
345.487	103.38
345.714	101.38
345.942	106.38
346.17	98.38
346.397	108.38
346.625	111.38
346.853	104.38
347.08	103.38
347.308	126.38
347.535	109.38
347.763	101.38
347.99	115.38
348.218	115.38
348.445	113.38
348.673	104.38
348.9	111.38
349.128	117.38
349.355	109.38
349.583	102.38
349.81	103.38
350.037	98.38
350.265	85.38
350.492	104.38
350.72	104.38
350.947	96.38
351.174	120.38
351.402	106.38
351.629	106.38
351.856	94.38
352.083	116.38
352.311	105.38
352.538	98.38
352.765	119.38
352.992	113.38
353.22	118.38
353.447	112.38
353.674	117.38
353.901	115.38
354.128	117.38
354.355	119.38
354.583	92.38
354.81	121.38
355.037	115.38
355.264	100.38
355.491	103.38
355.718	105.38
355.945	110.38
356.172	106.38
356.399	103.38
356.626	105.38
356.853	94.38
357.08	102.38
357.307	110.38
357.534	105.38
357.761	107.38
357.988	111.38
358.215	98.38
358.441	108.38
358.668	98.38
358.895	106.38
359.122	113.38
359.349	120.38
359.576	110.38
359.802	119.38
360.029	113.38
360.256	115.38
360.483	117.38
360.709	111.38
360.936	127.38
361.163	108.38
361.39	107.38
361.616	97.38
361.843	122.38
362.07	98.38
362.296	110.38
362.523	112.38
362.749	96.38
362.976	113.38
363.203	123.38
363.429	103.38
363.656	114.38
363.882	97.38
364.109	108.38
364.335	128.38
364.562	111.38
364.788	109.38
365.015	114.38
365.241	97.38
365.468	119.38
365.694	95.38
365.92	119.38
366.147	103.38
366.373	95.38
366.599	107.38
366.826	116.38
367.052	111.38
367.278	109.38
367.505	109.38
367.731	132.38
367.957	114.38
368.184	106.38
368.41	111.38
368.636	112.38
368.862	136.38
369.089	112.38
369.315	109.38
369.541	111.38
369.767	103.38
369.993	112.38
370.219	125.38
370.445	112.38
370.672	107.38
370.898	112.38
371.124	107.38
371.35	121.38
371.576	126.38
371.802	109.38
372.028	124.38
372.254	121.38
372.48	134.38
372.706	110.38
372.932	126.38
373.158	126.38
373.384	129.38
373.61	134.38
373.835	105.38
374.061	118.38
374.287	123.38
374.513	118.38
374.739	126.38
374.965	109.38
375.191	122.38
375.416	126.38
375.642	140.38
375.868	137.38
376.094	116.38
376.319	119.38
376.545	117.38
376.771	117.38
376.997	121.38
377.222	109.38
377.448	128.38
377.674	119.38
377.899	115.38
378.125	128.38
378.35	128.38
378.576	115.38
378.802	114.38
379.027	121.38
379.253	136.38
379.478	126.38
379.704	132.38
379.929	138.38
380.155	126.38
380.38	132.38
380.606	118.38
380.831	128.38
381.057	146.38
381.282	128.38
381.507	131.38
381.733	139.38
381.958	126.38
382.184	117.38
382.409	119.38
382.634	124.38
382.86	133.38
383.085	134.38
383.31	135.38
383.535	132.38
383.761	136.38
383.986	132.38
384.211	134.38
384.436	141.38
384.662	138.38
384.887	124.38
385.112	117.38
385.337	134.38
385.562	121.38
385.787	132.38
386.013	139.38
386.238	129.38
386.463	121.38
386.688	172.38
386.913	130.38
387.138	125.38
387.363	142.38
387.588	149.38
387.813	142.38
388.038	120.38
388.263	140.38
388.488	134.38
388.713	135.38
388.938	138.38
389.163	121.38
389.387	135.38
389.612	124.38
389.837	138.38
390.062	143.38
390.287	132.38
390.512	146.38
390.736	142.38
390.961	143.38
391.186	149.38
391.411	156.38
391.636	143.38
391.86	143.38
392.085	147.38
392.31	139.38
392.534	144.38
392.759	145.38
392.984	146.38
393.208	137.38
393.433	140.38
393.658	134.38
393.882	144.38
394.107	158.38
394.331	148.38
394.556	149.38
394.78	151.38
395.005	140.38
395.229	137.38
395.454	152.38
395.678	137.38
395.903	153.38
396.127	156.38
396.352	170.38
396.576	139.38
396.801	146.38
397.025	140.38
397.249	129.38
397.474	167.38
397.698	156.38
397.922	162.38
398.147	160.38
398.371	144.38
398.595	140.38
398.82	156.38
399.044	162.38
399.268	143.38
399.492	173.38
399.717	196.38
399.941	186.38
400.165	193.38
400.389	173.38
400.613	170.38
400.837	160.38
401.062	168.38
401.286	170.38
401.51	162.38
401.734	158.38
401.958	181.38
402.182	178.38
402.406	172.38
402.63	165.38
402.854	179.38
403.078	164.38
403.302	146.38
403.526	176.38
403.75	181.38
403.974	163.38
404.198	172.38
404.422	171.38
404.645	169.38
404.869	178.38
405.093	172.38
405.317	165.38
405.541	181.38
405.765	160.38
405.988	172.38
406.212	172.38
406.436	158.38
406.66	179.38
406.883	167.38
407.107	188.38
407.331	178.38
407.555	193.38
407.778	185.38
408.002	172.38
408.226	186.38
408.449	179.38
408.673	179.38
408.896	168.38
409.12	182.38
409.344	183.38
409.567	177.38
409.791	174.38
410.014	176.38
410.238	169.38
410.461	178.38
410.685	181.38
410.908	166.38
411.132	177.38
411.355	170.38
411.578	184.38
411.802	170.38
412.025	173.38
412.249	166.38
412.472	174.38
412.695	180.38
412.919	173.38
413.142	171.38
413.365	165.38
413.589	179.38
413.812	175.38
414.035	171.38
414.258	164.38
414.482	164.38
414.705	185.38
414.928	176.38
415.151	172.38
415.374	173.38
415.597	174.38
415.821	182.38
416.044	176.38
416.267	173.38
416.49	185.38
416.713	168.38
416.936	172.38
417.159	167.38
417.382	170.38
417.605	168.38
417.828	202.38
418.051	180.38
418.274	179.38
418.497	183.38
418.72	184.38
418.943	176.38
419.166	187.38
419.389	207.38
419.611	184.38
419.834	187.38
420.057	181.38
420.28	166.38
420.503	180.38
420.726	170.38
420.948	181.38
421.171	180.38
421.394	183.38
421.617	197.38
421.839	183.38
422.062	212.38
422.285	193.38
422.507	186.38
422.73	185.38
422.953	177.38
423.175	176.38
423.398	187.38
423.621	197.38
423.843	178.38
424.066	178.38
424.288	191.38
424.511	177.38
424.733	188.38
424.956	168.38
425.178	203.38
425.401	193.38
425.623	197.38
425.846	168.38
426.068	193.38
426.291	168.38
426.513	193.38
426.735	168.38
426.958	169.38
427.18	175.38
427.402	176.38
427.625	188.38
427.847	185.38
428.069	177.38
428.292	161.38
428.514	173.38
428.736	185.38
428.958	176.38
429.181	176.38
429.403	161.38
429.625	173.38
429.847	157.38
430.069	179.38
430.292	183.38
430.514	167.38
430.736	176.38
430.958	166.38
431.18	174.38
431.402	181.38
431.624	148.38
431.846	132.38
432.068	163.38
432.29	146.38
432.512	171.38
432.734	162.38
432.956	188.38
433.178	207.38
433.4	187.38
433.622	173.38
433.844	185.38
434.066	161.38
434.287	151.38
434.509	158.38
434.731	144.38
434.953	161.38
435.175	160.38
435.397	195.38
435.618	159.38
435.84	149.38
436.062	164.38
436.284	166.38
436.505	163.38
436.727	167.38
436.949	183.38
437.17	168.38
437.392	163.38
437.614	177.38
437.835	169.38
438.057	163.38
438.278	156.38
438.5	162.38
438.721	180.38
438.943	171.38
439.165	187.38
439.386	173.38
439.608	194.38
439.829	187.38
440.05	176.38
440.272	188.38
440.493	182.38
440.715	182.38
440.936	167.38
441.158	190.38
441.379	182.38
441.6	187.38
441.822	194.38
442.043	193.38
442.264	194.38
442.486	183.38
442.707	186.38
442.928	172.38
443.149	188.38
443.371	188.38
443.592	171.38
443.813	178.38
444.034	207.38
444.255	207.38
444.476	201.38
444.698	202.38
444.919	199.38
445.14	453.38
445.361	316.38
445.582	215.38
445.803	183.38
446.024	186.38
446.245	211.38
446.466	213.38
446.687	193.38
446.908	212.38
447.129	201.38
447.35	198.38
447.571	206.38
447.792	188.38
448.013	188.38
448.234	202.38
448.455	172.38
448.675	172.38
448.896	173.38
449.117	183.38
449.338	182.38
449.559	196.38
449.779	180.38
450	172.38
450.221	184.38
450.442	169.38
450.662	165.38
450.883	180.38
451.104	165.38
451.324	172.38
451.545	169.38
451.766	168.38
451.986	175.38
452.207	172.38
452.428	146.38
452.648	159.38
452.869	158.38
453.089	162.38
453.31	143.38
453.53	139.38
453.751	141.38
453.971	150.38
454.192	129.38
454.412	149.38
454.633	153.38
454.853	159.38
455.073	144.38
455.294	164.38
455.514	149.38
455.734	139.38
455.955	163.38
456.175	178.38
456.395	160.38
456.616	144.38
456.836	127.38
457.056	137.38
457.276	144.38
457.497	143.38
457.717	138.38
457.937	129.38
458.157	139.38
458.377	116.38
458.598	144.38
458.818	132.38
459.038	123.38
459.258	122.38
459.478	135.38
459.698	142.38
459.918	141.38
460.138	142.38
460.358	135.38
460.578	170.38
460.798	166.38
461.018	155.38
461.238	162.38
461.458	161.38
461.678	158.38
461.898	176.38
462.118	187.38
462.338	164.38
462.558	159.38
462.777	154.38
462.997	163.38
463.217	183.38
463.437	170.38
463.657	179.38
463.876	162.38
464.096	168.38
464.316	170.38
464.536	166.38
464.755	185.38
464.975	172.38
465.195	167.38
465.414	165.38
465.634	156.38
465.854	158.38
466.073	147.38
466.293	158.38
466.512	156.38
466.732	173.38
466.951	178.38
467.171	177.38
467.391	170.38
467.61	167.38
467.829	179.38
468.049	179.38
468.268	177.38
468.488	164.38
468.707	170.38
468.927	177.38
469.146	166.38
469.365	166.38
469.585	183.38
469.804	171.38
470.023	197.38
470.243	190.38
470.462	189.38
470.681	193.38
470.901	171.38
471.12	179.38
471.339	174.38
471.558	187.38
471.777	152.38
471.997	181.38
472.216	169.38
472.435	148.38
472.654	152.38
472.873	151.38
473.092	148.38
473.311	158.38
473.53	159.38
473.749	164.38
473.968	173.38
474.187	169.38
474.406	146.38
474.625	169.38
474.844	176.38
475.063	146.38
475.282	144.38
475.501	147.38
475.72	160.38
475.939	170.38
476.158	172.38
476.377	136.38
476.596	149.38
476.814	148.38
477.033	143.38
477.252	151.38
477.471	155.38
477.69	176.38
477.908	186.38
478.127	182.38
478.346	178.38
478.564	176.38
478.783	187.38
479.002	184.38
479.22	177.38
479.439	186.38
479.658	150.38
479.876	171.38
480.095	161.38
480.313	171.38
480.532	164.38
480.751	161.38
480.969	147.38
481.188	135.38
481.406	123.38
481.624	128.38
481.843	135.38
482.061	137.38
482.28	161.38
482.498	165.38
482.717	167.38
482.935	173.38
483.153	168.38
483.372	191.38
483.59	175.38
483.808	163.38
484.027	170.38
484.245	182.38
484.463	176.38
484.681	191.38
484.9	175.38
485.118	156.38
485.336	166.38
485.554	159.38
485.772	143.38
485.99	151.38
486.209	148.38
486.427	147.38
486.645	160.38
486.863	180.38
487.081	187.38
487.299	154.38
487.517	165.38
487.735	218.38
487.953	218.38
488.171	219.38
488.389	228.38
488.607	198.38
488.825	186.38
489.043	163.38
489.261	179.38
489.479	197.38
489.696	194.38
489.914	185.38
490.132	177.38
490.35	200.38
490.568	201.38
490.786	223.38
491.003	225.38
491.221	235.38
491.439	223.38
491.657	229.38
491.874	250.38
492.092	278.38
492.31	284.38
492.527	273.38
492.745	253.38
492.963	254.38
493.18	217.38
493.398	222.38
493.615	229.38
493.833	210.38
494.05	230.38
494.268	228.38
494.485	207.38
494.703	232.38
494.92	230.38
495.138	212.38
495.355	224.38
495.573	210.38
495.79	240.38
496.008	218.38
496.225	212.38
496.442	211.38
496.66	209.38
496.877	191.38
497.094	213.38
497.312	220.38
497.529	215.38
497.746	202.38
497.963	192.38
498.181	177.38
498.398	192.38
498.615	181.38
498.832	173.38
499.049	206.38
499.267	224.38
499.484	227.38
499.701	253.38
499.918	254.38
500.135	276.38
500.352	286.38
500.569	299.38
500.786	282.38
501.003	274.38
501.22	247.38
501.437	238.38
501.654	231.38
501.871	231.38
502.088	192.38
502.305	224.38
502.522	168.38
502.739	190.38
502.956	189.38
503.172	184.38
503.389	191.38
503.606	164.38
503.823	168.38
504.04	180.38
504.256	176.38
504.473	171.38
504.69	163.38
504.907	177.38
505.123	172.38
505.34	166.38
505.557	146.38
505.773	164.38
505.99	170.38
506.207	160.38
506.423	154.38
506.64	154.38
506.856	176.38
