Data from SampD_HRD10591_00014.txt Node
Date: Mon Jan 19 11:47:42 EST 2026
User: Yrep
Spectrometer: HR+D1059
Trigger mode: 0
Integration Time (sec): 3.443000E-1
Scans to average: 1
Electric dark correction enabled: true
Nonlinearity correction enabled: false
Boxcar width: 0
XAxis mode: Wavelengths
Number of Pixels in Spectrum: 2048
>>>>>Begin Spectral Data<<<<<
223.165	-29.62
223.4	-29.62
223.635	-29.62
223.869	-26.62
224.104	-35.62
224.338	-4.62
224.573	-8.62
224.808	-23.62
225.042	-1.62
225.277	8.38
225.511	-5.62
225.746	17.38
225.98	8.38
226.215	14.38
226.449	12.38
226.683	22.38
226.918	24.38
227.152	28.38
227.387	40.38
227.621	41.38
227.856	47.38
228.09	40.38
228.324	67.38
228.559	61.38
228.793	49.38
229.027	78.38
229.262	82.38
229.496	69.38
229.73	67.38
229.964	79.38
230.199	64.38
230.433	82.38
230.667	87.38
230.901	84.38
231.136	86.38
231.37	80.38
231.604	76.38
231.838	94.38
232.072	87.38
232.306	91.38
232.541	83.38
232.775	81.38
233.009	81.38
233.243	89.38
233.477	71.38
233.711	85.38
233.945	92.38
234.179	95.38
234.413	93.38
234.647	87.38
234.881	97.38
235.115	74.38
235.349	89.38
235.583	97.38
235.817	85.38
236.051	93.38
236.285	91.38
236.519	82.38
236.753	86.38
236.987	92.38
237.221	80.38
237.455	81.38
237.689	71.38
237.922	78.38
238.156	87.38
238.39	72.38
238.624	82.38
238.858	71.38
239.091	86.38
239.325	87.38
239.559	79.38
239.793	96.38
240.027	98.38
240.26	81.38
240.494	90.38
240.728	80.38
240.961	87.38
241.195	99.38
241.429	84.38
241.662	76.38
241.896	87.38
242.13	83.38
242.363	87.38
242.597	95.38
242.83	97.38
243.064	86.38
243.298	65.38
243.531	81.38
243.765	82.38
243.998	91.38
244.232	100.38
244.465	100.38
244.699	82.38
244.932	85.38
245.166	83.38
245.399	91.38
245.633	95.38
245.866	82.38
246.099	85.38
246.333	74.38
246.566	92.38
246.8	80.38
247.033	107.38
247.266	96.38
247.5	81.38
247.733	89.38
247.966	94.38
248.2	107.38
248.433	95.38
248.666	90.38
248.899	88.38
249.133	76.38
249.366	94.38
249.599	91.38
249.832	100.38
250.066	90.38
250.299	85.38
250.532	95.38
250.765	92.38
250.998	92.38
251.231	83.38
251.465	92.38
251.698	84.38
251.931	98.38
252.164	85.38
252.397	85.38
252.63	97.38
252.863	83.38
253.096	80.38
253.329	102.38
253.562	107.38
253.795	94.38
254.028	99.38
254.261	98.38
254.494	100.38
254.727	115.38
254.96	98.38
255.193	93.38
255.426	98.38
255.659	96.38
255.892	101.38
256.124	97.38
256.357	96.38
256.59	102.38
256.823	85.38
257.056	87.38
257.289	90.38
257.521	110.38
257.754	105.38
257.987	88.38
258.22	95.38
258.452	94.38
258.685	93.38
258.918	91.38
259.151	93.38
259.383	91.38
259.616	99.38
259.849	104.38
260.081	86.38
260.314	99.38
260.547	94.38
260.779	85.38
261.012	107.38
261.244	96.38
261.477	107.38
261.71	98.38
261.942	91.38
262.175	102.38
262.407	101.38
262.64	109.38
262.872	102.38
263.105	103.38
263.337	100.38
263.57	96.38
263.802	102.38
264.035	103.38
264.267	123.38
264.499	90.38
264.732	98.38
264.964	97.38
265.197	104.38
265.429	95.38
265.661	88.38
265.894	102.38
266.126	106.38
266.358	100.38
266.591	89.38
266.823	95.38
267.055	96.38
267.287	100.38
267.52	106.38
267.752	96.38
267.984	111.38
268.216	115.38
268.448	107.38
268.681	109.38
268.913	105.38
269.145	102.38
269.377	105.38
269.609	90.38
269.841	106.38
270.073	94.38
270.306	115.38
270.538	94.38
270.77	98.38
271.002	113.38
271.234	97.38
271.466	106.38
271.698	104.38
271.93	86.38
272.162	107.38
272.394	104.38
272.626	114.38
272.858	105.38
273.09	99.38
273.322	118.38
273.553	113.38
273.785	98.38
274.017	117.38
274.249	104.38
274.481	105.38
274.713	105.38
274.945	106.38
275.176	108.38
275.408	102.38
275.64	97.38
275.872	105.38
276.104	114.38
276.335	109.38
276.567	109.38
276.799	99.38
277.031	108.38
277.262	116.38
277.494	116.38
277.726	107.38
277.957	108.38
278.189	103.38
278.421	113.38
278.652	107.38
278.884	122.38
279.115	108.38
279.347	108.38
279.579	113.38
279.81	119.38
280.042	109.38
280.273	108.38
280.505	108.38
280.736	102.38
280.968	103.38
281.199	113.38
281.431	109.38
281.662	108.38
281.894	110.38
282.125	120.38
282.356	113.38
282.588	123.38
282.819	125.38
283.051	113.38
283.282	102.38
283.513	114.38
283.745	119.38
283.976	116.38
284.207	109.38
284.439	116.38
284.67	129.38
284.901	114.38
285.132	115.38
285.364	110.38
285.595	118.38
285.826	125.38
286.057	122.38
286.288	120.38
286.52	109.38
286.751	114.38
286.982	132.38
287.213	108.38
287.444	122.38
287.675	114.38
287.906	126.38
288.138	109.38
288.369	110.38
288.6	114.38
288.831	114.38
289.062	118.38
289.293	125.38
289.524	104.38
289.755	112.38
289.986	109.38
290.217	115.38
290.448	114.38
290.679	123.38
290.91	123.38
291.141	98.38
291.371	122.38
291.602	119.38
291.833	104.38
292.064	112.38
292.295	106.38
292.526	116.38
292.757	123.38
292.987	136.38
293.218	124.38
293.449	113.38
293.68	110.38
293.91	117.38
294.141	140.38
294.372	115.38
294.603	132.38
294.833	104.38
295.064	110.38
295.295	107.38
295.525	124.38
295.756	148.38
295.987	110.38
296.217	116.38
296.448	116.38
296.679	106.38
296.909	123.38
297.14	108.38
297.37	127.38
297.601	116.38
297.831	125.38
298.062	142.38
298.292	116.38
298.523	109.38
298.753	124.38
298.984	135.38
299.214	122.38
299.445	123.38
299.675	119.38
299.905	130.38
300.136	121.38
300.366	118.38
300.597	110.38
300.827	123.38
301.057	115.38
301.288	108.38
301.518	121.38
301.748	116.38
301.979	154.38
302.209	117.38
302.439	119.38
302.669	116.38
302.9	117.38
303.13	112.38
303.36	121.38
303.59	117.38
303.82	120.38
304.051	113.38
304.281	121.38
304.511	137.38
304.741	119.38
304.971	109.38
305.201	140.38
305.431	121.38
305.661	117.38
305.891	108.38
306.121	139.38
306.352	130.38
306.582	124.38
306.812	120.38
307.042	117.38
307.272	125.38
307.502	121.38
307.731	118.38
307.961	136.38
308.191	113.38
308.421	125.38
308.651	131.38
308.881	122.38
309.111	110.38
309.341	119.38
309.571	116.38
309.8	119.38
310.03	107.38
310.26	123.38
310.49	116.38
310.72	114.38
310.949	115.38
311.179	127.38
311.409	118.38
311.639	118.38
311.868	145.38
312.098	132.38
312.328	132.38
312.557	144.38
312.787	114.38
313.017	131.38
313.246	131.38
313.476	134.38
313.706	120.38
313.935	139.38
314.165	116.38
314.394	131.38
314.624	128.38
314.853	129.38
315.083	135.38
315.312	131.38
315.542	113.38
315.771	120.38
316.001	96.38
316.23	125.38
316.46	128.38
316.689	123.38
316.919	128.38
317.148	137.38
317.377	112.38
317.607	133.38
317.836	116.38
318.065	108.38
318.295	125.38
318.524	132.38
318.753	133.38
318.983	122.38
319.212	138.38
319.441	121.38
319.67	131.38
319.9	126.38
320.129	112.38
320.358	125.38
320.587	122.38
320.816	129.38
321.046	121.38
321.275	129.38
321.504	126.38
321.733	133.38
321.962	130.38
322.191	129.38
322.42	134.38
322.649	135.38
322.878	137.38
323.108	125.38
323.337	121.38
323.566	121.38
323.795	135.38
324.024	136.38
324.253	110.38
324.482	120.38
324.71	115.38
324.939	138.38
325.168	141.38
325.397	128.38
325.626	133.38
325.855	135.38
326.084	129.38
326.313	120.38
326.542	125.38
326.77	113.38
326.999	126.38
327.228	136.38
327.457	124.38
327.686	115.38
327.914	137.38
328.143	135.38
328.372	114.38
328.6	110.38
328.829	127.38
329.058	122.38
329.287	136.38
329.515	130.38
329.744	124.38
329.972	117.38
330.201	134.38
330.43	143.38
330.658	121.38
330.887	141.38
331.115	132.38
331.344	122.38
331.572	149.38
331.801	141.38
332.03	138.38
332.258	140.38
332.486	145.38
332.715	146.38
332.943	146.38
333.172	138.38
333.4	147.38
333.629	154.38
333.857	146.38
334.085	136.38
334.314	146.38
334.542	150.38
334.771	140.38
334.999	150.38
335.227	137.38
335.455	135.38
335.684	138.38
335.912	143.38
336.14	137.38
336.369	151.38
336.597	141.38
336.825	149.38
337.053	144.38
337.281	135.38
337.51	117.38
337.738	128.38
337.966	124.38
338.194	127.38
338.422	128.38
338.65	128.38
338.878	133.38
339.106	134.38
339.334	152.38
339.562	132.38
339.79	133.38
340.018	126.38
340.246	124.38
340.474	121.38
340.702	133.38
340.93	140.38
341.158	115.38
341.386	118.38
341.614	112.38
341.842	109.38
342.07	128.38
342.298	123.38
342.526	142.38
342.754	139.38
342.981	137.38
343.209	130.38
343.437	172.38
343.665	153.38
343.893	132.38
344.12	149.38
344.348	129.38
344.576	139.38
344.804	132.38
345.031	134.38
345.259	122.38
345.487	140.38
345.714	131.38
345.942	133.38
346.17	125.38
346.397	132.38
346.625	120.38
346.853	140.38
347.08	127.38
347.308	116.38
347.535	139.38
347.763	123.38
347.99	131.38
348.218	147.38
348.445	137.38
348.673	144.38
348.9	131.38
349.128	137.38
349.355	137.38
349.583	135.38
349.81	120.38
350.037	132.38
350.265	135.38
350.492	135.38
350.72	131.38
350.947	122.38
351.174	129.38
351.402	133.38
351.629	118.38
351.856	121.38
352.083	123.38
352.311	138.38
352.538	139.38
352.765	134.38
352.992	141.38
353.22	129.38
353.447	120.38
353.674	143.38
353.901	128.38
354.128	142.38
354.355	128.38
354.583	135.38
354.81	148.38
355.037	135.38
355.264	131.38
355.491	127.38
355.718	133.38
355.945	141.38
356.172	138.38
356.399	130.38
356.626	125.38
356.853	124.38
357.08	133.38
357.307	138.38
357.534	136.38
357.761	121.38
357.988	133.38
358.215	124.38
358.441	131.38
358.668	137.38
358.895	146.38
359.122	118.38
359.349	128.38
359.576	147.38
359.802	131.38
360.029	129.38
360.256	114.38
360.483	129.38
360.709	156.38
360.936	149.38
361.163	132.38
361.39	120.38
361.616	125.38
361.843	141.38
362.07	125.38
362.296	140.38
362.523	131.38
362.749	118.38
362.976	134.38
363.203	157.38
363.429	121.38
363.656	126.38
363.882	130.38
364.109	137.38
364.335	148.38
364.562	132.38
364.788	138.38
365.015	124.38
365.241	125.38
365.468	132.38
365.694	135.38
365.92	129.38
366.147	121.38
366.373	127.38
366.599	127.38
366.826	149.38
367.052	136.38
367.278	110.38
367.505	136.38
367.731	146.38
367.957	150.38
368.184	147.38
368.41	133.38
368.636	148.38
368.862	144.38
369.089	145.38
369.315	143.38
369.541	146.38
369.767	161.38
369.993	137.38
370.219	133.38
370.445	127.38
370.672	141.38
370.898	131.38
371.124	149.38
371.35	150.38
371.576	145.38
371.802	142.38
372.028	151.38
372.254	168.38
372.48	142.38
372.706	154.38
372.932	139.38
373.158	128.38
373.384	143.38
373.61	144.38
373.835	140.38
374.061	140.38
374.287	155.38
374.513	163.38
374.739	158.38
374.965	168.38
375.191	149.38
375.416	155.38
375.642	153.38
375.868	158.38
376.094	142.38
376.319	176.38
376.545	159.38
376.771	167.38
376.997	161.38
377.222	157.38
377.448	164.38
377.674	165.38
377.899	163.38
378.125	178.38
378.35	164.38
378.576	154.38
378.802	147.38
379.027	152.38
379.253	181.38
379.478	153.38
379.704	168.38
379.929	144.38
380.155	156.38
380.38	144.38
380.606	153.38
380.831	164.38
381.057	162.38
381.282	164.38
381.507	150.38
381.733	163.38
381.958	170.38
382.184	161.38
382.409	153.38
382.634	166.38
382.86	172.38
383.085	166.38
383.31	165.38
383.535	174.38
383.761	185.38
383.986	178.38
384.211	181.38
384.436	167.38
384.662	171.38
384.887	180.38
385.112	149.38
385.337	166.38
385.562	186.38
385.787	171.38
386.013	204.38
386.238	173.38
386.463	179.38
386.688	200.38
386.913	178.38
387.138	181.38
387.363	173.38
387.588	201.38
387.813	182.38
388.038	184.38
388.263	196.38
388.488	195.38
388.713	198.38
388.938	173.38
389.163	199.38
389.387	199.38
389.612	181.38
389.837	187.38
390.062	183.38
390.287	182.38
390.512	187.38
390.736	190.38
390.961	189.38
391.186	192.38
391.411	183.38
391.636	200.38
391.86	203.38
392.085	196.38
392.31	202.38
392.534	198.38
392.759	211.38
392.984	222.38
393.208	204.38
393.433	214.38
393.658	210.38
393.882	210.38
394.107	204.38
394.331	204.38
394.556	201.38
394.78	205.38
395.005	204.38
395.229	201.38
395.454	214.38
395.678	214.38
395.903	220.38
396.127	209.38
396.352	197.38
396.576	212.38
396.801	204.38
397.025	212.38
397.249	217.38
397.474	226.38
397.698	213.38
397.922	192.38
398.147	229.38
398.371	228.38
398.595	215.38
398.82	226.38
399.044	243.38
399.268	250.38
399.492	279.38
399.717	285.38
399.941	281.38
400.165	262.38
400.389	222.38
400.613	251.38
400.837	242.38
401.062	230.38
401.286	237.38
401.51	247.38
401.734	220.38
401.958	231.38
402.182	240.38
402.406	259.38
402.63	243.38
402.854	259.38
403.078	253.38
403.302	238.38
403.526	226.38
403.75	255.38
403.974	270.38
404.198	266.38
404.422	264.38
404.645	280.38
404.869	248.38
405.093	254.38
405.317	238.38
405.541	258.38
405.765	236.38
405.988	261.38
406.212	257.38
406.436	256.38
406.66	256.38
406.883	265.38
407.107	269.38
407.331	264.38
407.555	279.38
407.778	269.38
408.002	265.38
408.226	282.38
408.449	263.38
408.673	276.38
408.896	274.38
409.12	269.38
409.344	286.38
409.567	240.38
409.791	258.38
410.014	263.38
410.238	256.38
410.461	273.38
410.685	267.38
410.908	258.38
411.132	262.38
411.355	266.38
411.578	258.38
411.802	252.38
412.025	259.38
412.249	269.38
412.472	260.38
412.695	255.38
412.919	259.38
413.142	248.38
413.365	250.38
413.589	253.38
413.812	256.38
414.035	252.38
414.258	252.38
414.482	273.38
414.705	258.38
414.928	275.38
415.151	256.38
415.374	260.38
415.597	256.38
415.821	247.38
416.044	264.38
416.267	272.38
416.49	261.38
416.713	263.38
416.936	265.38
417.159	261.38
417.382	257.38
417.605	256.38
417.828	274.38
418.051	273.38
418.274	275.38
418.497	261.38
418.72	301.38
418.943	267.38
419.166	284.38
419.389	289.38
419.611	291.38
419.834	272.38
420.057	293.38
420.28	269.38
420.503	276.38
420.726	259.38
420.948	282.38
421.171	264.38
421.394	266.38
421.617	293.38
421.839	288.38
422.062	284.38
422.285	249.38
422.507	260.38
422.73	279.38
422.953	288.38
423.175	276.38
423.398	285.38
423.621	280.38
423.843	281.38
424.066	301.38
424.288	303.38
424.511	315.38
424.733	294.38
424.956	291.38
425.178	297.38
425.401	286.38
425.623	278.38
425.846	256.38
426.068	275.38
426.291	264.38
426.513	258.38
426.735	277.38
426.958	263.38
427.18	259.38
427.402	267.38
427.625	258.38
427.847	242.38
428.069	280.38
428.292	267.38
428.514	258.38
428.736	243.38
428.958	254.38
429.181	270.38
429.403	266.38
429.625	244.38
429.847	265.38
430.069	267.38
430.292	261.38
430.514	262.38
430.736	249.38
430.958	259.38
431.18	272.38
431.402	231.38
431.624	240.38
431.846	197.38
432.068	192.38
432.29	186.38
432.512	227.38
432.734	230.38
432.956	259.38
433.178	278.38
433.4	258.38
433.622	282.38
433.844	272.38
434.066	237.38
434.287	206.38
434.509	194.38
434.731	199.38
434.953	228.38
435.175	260.38
435.397	252.38
435.618	240.38
435.84	223.38
436.062	228.38
436.284	248.38
436.505	255.38
436.727	259.38
436.949	251.38
437.17	273.38
437.392	241.38
437.614	235.38
437.835	205.38
438.057	189.38
438.278	220.38
438.5	257.38
438.721	269.38
438.943	269.38
439.165	265.38
439.386	275.38
439.608	284.38
439.829	280.38
440.05	305.38
440.272	276.38
440.493	282.38
440.715	279.38
440.936	308.38
441.158	294.38
441.379	292.38
441.6	307.38
441.822	302.38
442.043	298.38
442.264	300.38
442.486	294.38
442.707	276.38
442.928	286.38
443.149	285.38
443.371	282.38
443.592	287.38
443.813	280.38
444.034	281.38
444.255	330.38
444.476	310.38
444.698	309.38
444.919	313.38
445.14	501.38
445.361	402.38
445.582	301.38
445.803	310.38
446.024	298.38
446.245	299.38
446.466	313.38
446.687	295.38
446.908	315.38
447.129	294.38
447.35	306.38
447.571	312.38
447.792	300.38
448.013	265.38
448.234	276.38
448.455	272.38
448.675	266.38
448.896	280.38
449.117	263.38
449.338	275.38
449.559	255.38
449.779	261.38
450	254.38
450.221	278.38
450.442	260.38
450.662	258.38
450.883	258.38
451.104	265.38
451.324	253.38
451.545	243.38
451.766	260.38
451.986	247.38
452.207	243.38
452.428	231.38
452.648	222.38
452.869	215.38
453.089	188.38
453.31	199.38
453.53	196.38
453.751	188.38
453.971	192.38
454.192	210.38
454.412	205.38
454.633	216.38
454.853	252.38
455.073	216.38
455.294	216.38
455.514	222.38
455.734	217.38
455.955	218.38
456.175	223.38
456.395	210.38
456.616	202.38
456.836	205.38
457.056	197.38
457.276	187.38
457.497	202.38
457.717	188.38
457.937	201.38
458.157	196.38
458.377	186.38
458.598	178.38
458.818	165.38
459.038	157.38
459.258	171.38
459.478	173.38
459.698	178.38
459.918	205.38
460.138	211.38
460.358	232.38
460.578	229.38
460.798	204.38
461.018	228.38
461.238	234.38
461.458	226.38
461.678	235.38
461.898	225.38
462.118	248.38
462.338	237.38
462.558	251.38
462.777	239.38
462.997	254.38
463.217	263.38
463.437	271.38
463.657	240.38
463.876	248.38
464.096	245.38
464.316	235.38
464.536	238.38
464.755	244.38
464.975	236.38
465.195	245.38
465.414	248.38
465.634	210.38
465.854	227.38
466.073	242.38
466.293	226.38
466.512	254.38
466.732	253.38
466.951	256.38
467.171	252.38
467.391	252.38
467.61	257.38
467.829	260.38
468.049	261.38
468.268	253.38
468.488	262.38
468.707	258.38
468.927	257.38
469.146	265.38
469.365	281.38
469.585	279.38
469.804	275.38
470.023	266.38
470.243	276.38
470.462	281.38
470.681	284.38
470.901	269.38
471.12	277.38
471.339	268.38
471.558	270.38
471.777	266.38
471.997	253.38
472.216	236.38
472.435	209.38
472.654	195.38
472.873	207.38
473.092	200.38
473.311	208.38
473.53	232.38
473.749	234.38
473.968	253.38
474.187	231.38
474.406	203.38
474.625	244.38
474.844	237.38
475.063	232.38
475.282	234.38
475.501	220.38
475.72	235.38
475.939	248.38
476.158	234.38
476.377	231.38
476.596	216.38
476.814	214.38
477.033	219.38
477.252	227.38
477.471	237.38
477.69	266.38
477.908	265.38
478.127	280.38
478.346	241.38
478.564	260.38
478.783	253.38
479.002	285.38
479.22	286.38
479.439	268.38
479.658	239.38
479.876	207.38
480.095	219.38
480.313	234.38
480.532	258.38
480.751	212.38
480.969	189.38
481.188	188.38
481.406	173.38
481.624	178.38
481.843	158.38
482.061	179.38
482.28	204.38
482.498	225.38
482.717	193.38
482.935	231.38
483.153	267.38
483.372	289.38
483.59	287.38
483.808	242.38
484.027	237.38
484.245	244.38
484.463	264.38
484.681	288.38
484.9	285.38
485.118	250.38
485.336	236.38
485.554	213.38
485.772	200.38
485.99	190.38
486.209	208.38
486.427	225.38
486.645	253.38
486.863	277.38
487.081	250.38
487.299	242.38
487.517	264.38
487.735	321.38
487.953	346.38
488.171	340.38
488.389	308.38
488.607	280.38
488.825	249.38
489.043	244.38
489.261	247.38
489.479	262.38
489.696	255.38
489.914	269.38
490.132	303.38
490.35	300.38
490.568	321.38
490.786	344.38
491.003	354.38
491.221	367.38
491.439	386.38
491.657	378.38
491.874	429.38
492.092	444.38
492.31	483.38
492.527	453.38
492.745	432.38
492.963	416.38
493.18	381.38
493.398	379.38
493.615	370.38
493.833	380.38
494.05	359.38
494.268	340.38
494.485	352.38
494.703	345.38
494.92	352.38
495.138	342.38
495.355	358.38
495.573	357.38
495.79	332.38
496.008	350.38
496.225	322.38
496.442	346.38
496.66	346.38
496.877	335.38
497.094	347.38
497.312	353.38
497.529	346.38
497.746	313.38
497.963	286.38
498.181	280.38
498.398	261.38
498.615	282.38
498.832	280.38
499.049	295.38
499.267	320.38
499.484	327.38
499.701	361.38
499.918	398.38
500.135	453.38
500.352	493.38
500.569	494.38
500.786	492.38
501.003	455.38
501.22	396.38
501.437	386.38
501.654	365.38
501.871	330.38
502.088	308.38
502.305	320.38
502.522	319.38
502.739	310.38
502.956	297.38
503.172	266.38
503.389	264.38
503.606	250.38
503.823	256.38
504.04	255.38
504.256	255.38
504.473	265.38
504.69	250.38
