Data from SampD_HRD10591_00019.txt Node
Date: Mon Jan 19 11:47:44 EST 2026
User: Yrep
Spectrometer: HR+D1059
Trigger mode: 0
Integration Time (sec): 3.443000E-1
Scans to average: 1
Electric dark correction enabled: true
Nonlinearity correction enabled: false
Boxcar width: 0
XAxis mode: Wavelengths
Number of Pixels in Spectrum: 2048
>>>>>Begin Spectral Data<<<<<
223.165	-25.38
223.4	-25.38
223.635	-25.38
223.869	-39.38
224.104	-26.38
224.338	-11.38
224.573	-9.38
224.808	-14.38
225.042	-4.38
225.277	4.62
225.511	-10.38
225.746	4.62
225.98	12.62
226.215	8.62
226.449	13.62
226.683	29.62
226.918	31.62
227.152	35.62
227.387	33.62
227.621	44.62
227.856	44.62
228.09	47.62
228.324	55.62
228.559	68.62
228.793	75.62
229.027	64.62
229.262	76.62
229.496	58.62
229.73	77.62
229.964	83.62
230.199	83.62
230.433	86.62
230.667	87.62
230.901	94.62
231.136	87.62
231.37	88.62
231.604	75.62
231.838	90.62
232.072	88.62
232.306	85.62
232.541	76.62
232.775	86.62
233.009	96.62
233.243	73.62
233.477	83.62
233.711	100.62
233.945	105.62
234.179	88.62
234.413	77.62
234.647	99.62
234.881	91.62
235.115	89.62
235.349	97.62
235.583	86.62
235.817	99.62
236.051	67.62
236.285	85.62
236.519	96.62
236.753	94.62
236.987	83.62
237.221	85.62
237.455	77.62
237.689	76.62
237.922	83.62
238.156	81.62
238.39	66.62
238.624	83.62
238.858	81.62
239.091	93.62
239.325	91.62
239.559	98.62
239.793	89.62
240.027	85.62
240.26	94.62
240.494	86.62
240.728	84.62
240.961	83.62
241.195	97.62
241.429	98.62
241.662	87.62
241.896	91.62
242.13	92.62
242.363	96.62
242.597	74.62
242.83	97.62
243.064	91.62
243.298	77.62
243.531	97.62
243.765	99.62
243.998	92.62
244.232	90.62
244.465	93.62
244.699	82.62
244.932	87.62
245.166	85.62
245.399	90.62
245.633	68.62
245.866	93.62
246.099	81.62
246.333	99.62
246.566	86.62
246.8	74.62
247.033	81.62
247.266	89.62
247.5	105.62
247.733	90.62
247.966	91.62
248.2	108.62
248.433	89.62
248.666	96.62
248.899	108.62
249.133	98.62
249.366	106.62
249.599	77.62
249.832	82.62
250.066	110.62
250.299	83.62
250.532	91.62
250.765	100.62
250.998	93.62
251.231	94.62
251.465	105.62
251.698	97.62
251.931	100.62
252.164	99.62
252.397	106.62
252.63	105.62
252.863	89.62
253.096	86.62
253.329	108.62
253.562	90.62
253.795	91.62
254.028	89.62
254.261	98.62
254.494	94.62
254.727	97.62
254.96	86.62
255.193	105.62
255.426	97.62
255.659	90.62
255.892	99.62
256.124	87.62
256.357	90.62
256.59	102.62
256.823	83.62
257.056	103.62
257.289	93.62
257.521	107.62
257.754	106.62
257.987	87.62
258.22	102.62
258.452	88.62
258.685	105.62
258.918	101.62
259.151	100.62
259.383	94.62
259.616	103.62
259.849	101.62
260.081	106.62
260.314	95.62
260.547	95.62
260.779	104.62
261.012	94.62
261.244	101.62
261.477	109.62
261.71	99.62
261.942	76.62
262.175	103.62
262.407	89.62
262.64	90.62
262.872	107.62
263.105	90.62
263.337	106.62
263.57	95.62
263.802	102.62
264.035	100.62
264.267	109.62
264.499	111.62
264.732	114.62
264.964	118.62
265.197	99.62
265.429	104.62
265.661	104.62
265.894	102.62
266.126	106.62
266.358	107.62
266.591	103.62
266.823	111.62
267.055	92.62
267.287	105.62
267.52	107.62
267.752	110.62
267.984	108.62
268.216	98.62
268.448	105.62
268.681	109.62
268.913	121.62
269.145	99.62
269.377	107.62
269.609	103.62
269.841	118.62
270.073	97.62
270.306	99.62
270.538	121.62
270.77	107.62
271.002	93.62
271.234	122.62
271.466	111.62
271.698	102.62
271.93	120.62
272.162	93.62
272.394	116.62
272.626	126.62
272.858	110.62
273.09	108.62
273.322	94.62
273.553	115.62
273.785	122.62
274.017	111.62
274.249	108.62
274.481	104.62
274.713	102.62
274.945	108.62
275.176	107.62
275.408	126.62
275.64	129.62
275.872	115.62
276.104	106.62
276.335	119.62
276.567	113.62
276.799	109.62
277.031	110.62
277.262	120.62
277.494	112.62
277.726	107.62
277.957	108.62
278.189	107.62
278.421	109.62
278.652	121.62
278.884	114.62
279.115	116.62
279.347	119.62
279.579	130.62
279.81	118.62
280.042	124.62
280.273	117.62
280.505	111.62
280.736	115.62
280.968	115.62
281.199	117.62
281.431	111.62
281.662	121.62
281.894	125.62
282.125	122.62
282.356	117.62
282.588	119.62
282.819	127.62
283.051	121.62
283.282	129.62
283.513	124.62
283.745	119.62
283.976	123.62
284.207	122.62
284.439	119.62
284.67	124.62
284.901	112.62
285.132	107.62
285.364	117.62
285.595	117.62
285.826	128.62
286.057	133.62
286.288	140.62
286.52	127.62
286.751	119.62
286.982	123.62
287.213	113.62
287.444	114.62
287.675	128.62
287.906	125.62
288.138	126.62
288.369	112.62
288.6	113.62
288.831	101.62
289.062	118.62
289.293	114.62
289.524	118.62
289.755	110.62
289.986	124.62
290.217	114.62
290.448	116.62
290.679	131.62
290.91	125.62
291.141	111.62
291.371	138.62
291.602	126.62
291.833	107.62
292.064	121.62
292.295	125.62
292.526	124.62
292.757	132.62
292.987	118.62
293.218	101.62
293.449	116.62
293.68	130.62
293.91	107.62
294.141	125.62
294.372	119.62
294.603	114.62
294.833	119.62
295.064	125.62
295.295	110.62
295.525	132.62
295.756	125.62
295.987	123.62
296.217	125.62
296.448	127.62
296.679	116.62
296.909	122.62
297.14	132.62
297.37	130.62
297.601	122.62
297.831	136.62
298.062	130.62
298.292	125.62
298.523	110.62
298.753	121.62
298.984	137.62
299.214	140.62
299.445	128.62
299.675	115.62
299.905	138.62
300.136	111.62
300.366	134.62
300.597	132.62
300.827	110.62
301.057	130.62
301.288	124.62
301.518	118.62
301.748	134.62
301.979	181.62
302.209	127.62
302.439	122.62
302.669	125.62
302.9	125.62
303.13	125.62
303.36	120.62
303.59	125.62
303.82	137.62
304.051	111.62
304.281	138.62
304.511	131.62
304.741	123.62
304.971	111.62
305.201	142.62
305.431	143.62
305.661	121.62
305.891	124.62
306.121	118.62
306.352	133.62
306.582	134.62
306.812	127.62
307.042	116.62
307.272	129.62
307.502	119.62
307.731	127.62
307.961	115.62
308.191	136.62
308.421	126.62
308.651	127.62
308.881	131.62
309.111	127.62
309.341	125.62
309.571	119.62
309.8	119.62
310.03	127.62
310.26	117.62
310.49	124.62
310.72	128.62
310.949	134.62
311.179	130.62
311.409	117.62
311.639	125.62
311.868	135.62
312.098	135.62
312.328	130.62
312.557	142.62
312.787	106.62
313.017	124.62
313.246	133.62
313.476	132.62
313.706	138.62
313.935	129.62
314.165	133.62
314.394	127.62
314.624	126.62
314.853	135.62
315.083	134.62
315.312	130.62
315.542	118.62
315.771	147.62
316.001	119.62
316.23	122.62
316.46	126.62
316.689	127.62
316.919	132.62
317.148	131.62
317.377	139.62
317.607	135.62
317.836	130.62
318.065	121.62
318.295	122.62
318.524	119.62
318.753	140.62
318.983	121.62
319.212	145.62
319.441	146.62
319.67	120.62
319.9	129.62
320.129	143.62
320.358	113.62
320.587	129.62
320.816	127.62
321.046	130.62
321.275	132.62
321.504	118.62
321.733	138.62
321.962	126.62
322.191	136.62
322.42	130.62
322.649	140.62
322.878	114.62
323.108	142.62
323.337	125.62
323.566	130.62
323.795	127.62
324.024	134.62
324.253	136.62
324.482	126.62
324.71	118.62
324.939	134.62
325.168	136.62
325.397	124.62
325.626	135.62
325.855	140.62
326.084	140.62
326.313	149.62
326.542	134.62
326.77	145.62
326.999	135.62
327.228	131.62
327.457	140.62
327.686	128.62
327.914	141.62
328.143	155.62
328.372	142.62
328.6	138.62
328.829	132.62
329.058	140.62
329.287	132.62
329.515	117.62
329.744	139.62
329.972	139.62
330.201	137.62
330.43	138.62
330.658	137.62
330.887	128.62
331.115	130.62
331.344	142.62
331.572	145.62
331.801	137.62
332.03	138.62
332.258	150.62
332.486	151.62
332.715	163.62
332.943	151.62
333.172	164.62
333.4	171.62
333.629	151.62
333.857	162.62
334.085	167.62
334.314	162.62
334.542	136.62
334.771	163.62
334.999	141.62
335.227	150.62
335.455	147.62
335.684	173.62
335.912	146.62
336.14	150.62
336.369	145.62
336.597	146.62
336.825	144.62
337.053	151.62
337.281	159.62
337.51	135.62
337.738	142.62
337.966	146.62
338.194	130.62
338.422	148.62
338.65	144.62
338.878	147.62
339.106	134.62
339.334	138.62
339.562	135.62
339.79	134.62
340.018	145.62
340.246	143.62
340.474	143.62
340.702	140.62
340.93	137.62
341.158	138.62
341.386	138.62
341.614	124.62
341.842	122.62
342.07	146.62
342.298	145.62
342.526	140.62
342.754	141.62
342.981	146.62
343.209	142.62
343.437	181.62
343.665	153.62
343.893	149.62
344.12	143.62
344.348	165.62
344.576	147.62
344.804	149.62
345.031	147.62
345.259	134.62
345.487	146.62
345.714	124.62
345.942	114.62
346.17	145.62
346.397	139.62
346.625	124.62
346.853	121.62
347.08	147.62
347.308	134.62
347.535	145.62
347.763	141.62
347.99	132.62
348.218	131.62
348.445	138.62
348.673	148.62
348.9	117.62
349.128	137.62
349.355	142.62
349.583	141.62
349.81	136.62
350.037	129.62
350.265	131.62
350.492	131.62
350.72	122.62
350.947	134.62
351.174	137.62
351.402	129.62
351.629	125.62
351.856	126.62
352.083	124.62
352.311	124.62
352.538	138.62
352.765	142.62
352.992	153.62
353.22	128.62
353.447	127.62
353.674	142.62
353.901	147.62
354.128	149.62
354.355	134.62
354.583	138.62
354.81	142.62
355.037	154.62
355.264	139.62
355.491	134.62
355.718	129.62
355.945	135.62
356.172	129.62
356.399	139.62
356.626	141.62
356.853	134.62
357.08	140.62
357.307	147.62
357.534	130.62
357.761	135.62
357.988	159.62
358.215	149.62
358.441	126.62
358.668	144.62
358.895	122.62
359.122	135.62
359.349	134.62
359.576	133.62
359.802	136.62
360.029	134.62
360.256	142.62
360.483	133.62
360.709	125.62
360.936	149.62
361.163	145.62
361.39	154.62
361.616	131.62
361.843	134.62
362.07	140.62
362.296	135.62
362.523	126.62
362.749	139.62
362.976	120.62
363.203	133.62
363.429	135.62
363.656	121.62
363.882	116.62
364.109	135.62
364.335	134.62
364.562	137.62
364.788	125.62
365.015	133.62
365.241	119.62
365.468	147.62
365.694	135.62
365.92	148.62
366.147	144.62
366.373	139.62
366.599	137.62
366.826	135.62
367.052	127.62
367.278	148.62
367.505	138.62
367.731	147.62
367.957	130.62
368.184	143.62
368.41	153.62
368.636	148.62
368.862	143.62
369.089	147.62
369.315	131.62
369.541	153.62
369.767	169.62
369.993	167.62
370.219	156.62
370.445	149.62
370.672	147.62
370.898	154.62
371.124	151.62
371.35	149.62
371.576	156.62
371.802	148.62
372.028	152.62
372.254	135.62
372.48	158.62
372.706	168.62
372.932	159.62
373.158	175.62
373.384	170.62
373.61	134.62
373.835	148.62
374.061	149.62
374.287	165.62
374.513	143.62
374.739	159.62
374.965	155.62
375.191	173.62
375.416	165.62
375.642	168.62
375.868	164.62
376.094	158.62
376.319	159.62
376.545	156.62
376.771	159.62
376.997	166.62
377.222	169.62
377.448	155.62
377.674	160.62
377.899	164.62
378.125	170.62
378.35	168.62
378.576	161.62
378.802	155.62
379.027	168.62
379.253	163.62
379.478	168.62
379.704	146.62
379.929	178.62
380.155	167.62
380.38	181.62
380.606	171.62
380.831	178.62
381.057	177.62
381.282	183.62
381.507	175.62
381.733	172.62
381.958	165.62
382.184	154.62
382.409	172.62
382.634	193.62
382.86	182.62
383.085	175.62
383.31	175.62
383.535	184.62
383.761	187.62
383.986	181.62
384.211	180.62
384.436	192.62
384.662	173.62
384.887	190.62
385.112	178.62
385.337	174.62
385.562	182.62
385.787	194.62
386.013	204.62
386.238	192.62
386.463	178.62
386.688	232.62
386.913	179.62
387.138	189.62
387.363	190.62
387.588	213.62
387.813	207.62
388.038	185.62
388.263	191.62
388.488	194.62
388.713	195.62
388.938	173.62
389.163	205.62
389.387	205.62
389.612	182.62
389.837	193.62
390.062	205.62
390.287	189.62
390.512	195.62
390.736	203.62
390.961	201.62
391.186	212.62
391.411	209.62
391.636	211.62
391.86	222.62
392.085	214.62
392.31	205.62
392.534	211.62
392.759	222.62
392.984	203.62
393.208	217.62
393.433	203.62
393.658	219.62
393.882	191.62
394.107	209.62
394.331	211.62
394.556	203.62
394.78	209.62
395.005	225.62
395.229	215.62
395.454	207.62
395.678	211.62
395.903	229.62
396.127	231.62
396.352	217.62
396.576	229.62
396.801	213.62
397.025	214.62
397.249	243.62
397.474	233.62
397.698	221.62
397.922	221.62
398.147	205.62
398.371	225.62
398.595	236.62
398.82	238.62
399.044	245.62
399.268	248.62
399.492	294.62
399.717	299.62
399.941	296.62
400.165	274.62
400.389	249.62
400.613	249.62
400.837	246.62
401.062	237.62
401.286	243.62
401.51	229.62
401.734	257.62
401.958	252.62
402.182	242.62
402.406	240.62
402.63	231.62
402.854	257.62
403.078	253.62
403.302	266.62
403.526	279.62
403.75	293.62
403.974	262.62
404.198	258.62
404.422	265.62
404.645	254.62
404.869	271.62
405.093	267.62
405.317	289.62
405.541	274.62
405.765	260.62
405.988	263.62
406.212	273.62
406.436	272.62
406.66	281.62
406.883	286.62
407.107	279.62
407.331	290.62
407.555	297.62
407.778	285.62
408.002	289.62
408.226	289.62
408.449	288.62
408.673	258.62
408.896	279.62
409.12	269.62
409.344	283.62
409.567	273.62
409.791	266.62
410.014	255.62
410.238	263.62
410.461	282.62
410.685	275.62
410.908	264.62
411.132	279.62
411.355	267.62
411.578	272.62
411.802	265.62
412.025	277.62
412.249	266.62
412.472	266.62
412.695	266.62
412.919	265.62
413.142	264.62
413.365	262.62
413.589	295.62
413.812	261.62
414.035	254.62
414.258	262.62
414.482	258.62
414.705	281.62
414.928	269.62
415.151	272.62
415.374	265.62
415.597	247.62
415.821	259.62
416.044	258.62
416.267	270.62
416.49	281.62
416.713	273.62
416.936	275.62
417.159	254.62
417.382	261.62
417.605	280.62
417.828	289.62
418.051	285.62
418.274	282.62
418.497	299.62
418.72	291.62
418.943	288.62
419.166	304.62
419.389	300.62
419.611	276.62
419.834	296.62
420.057	293.62
420.28	298.62
420.503	283.62
420.726	260.62
420.948	283.62
421.171	283.62
421.394	298.62
421.617	280.62
421.839	292.62
422.062	292.62
422.285	287.62
422.507	296.62
422.73	283.62
422.953	269.62
423.175	273.62
423.398	264.62
423.621	283.62
423.843	281.62
424.066	293.62
424.288	308.62
424.511	309.62
424.733	306.62
424.956	315.62
425.178	288.62
425.401	297.62
425.623	292.62
425.846	279.62
426.068	276.62
426.291	274.62
426.513	273.62
426.735	282.62
426.958	275.62
427.18	254.62
427.402	268.62
427.625	265.62
427.847	258.62
428.069	255.62
428.292	265.62
428.514	283.62
428.736	265.62
428.958	261.62
429.181	253.62
429.403	256.62
429.625	267.62
429.847	248.62
430.069	263.62
430.292	279.62
430.514	274.62
430.736	262.62
430.958	267.62
431.18	251.62
431.402	256.62
431.624	229.62
431.846	197.62
432.068	194.62
432.29	204.62
432.512	213.62
432.734	252.62
432.956	265.62
433.178	274.62
433.4	265.62
433.622	280.62
433.844	264.62
434.066	258.62
434.287	212.62
434.509	199.62
434.731	209.62
434.953	237.62
435.175	263.62
435.397	263.62
435.618	251.62
435.84	230.62
436.062	235.62
436.284	264.62
436.505	286.62
436.727	282.62
436.949	270.62
437.17	266.62
437.392	235.62
437.614	226.62
437.835	203.62
438.057	217.62
438.278	231.62
438.5	249.62
438.721	266.62
438.943	278.62
439.165	276.62
439.386	285.62
439.608	295.62
439.829	290.62
440.05	303.62
440.272	310.62
440.493	290.62
440.715	301.62
440.936	296.62
441.158	315.62
441.379	308.62
441.6	309.62
441.822	300.62
442.043	292.62
442.264	308.62
442.486	286.62
442.707	291.62
442.928	279.62
443.149	295.62
443.371	296.62
443.592	300.62
443.813	309.62
444.034	307.62
444.255	335.62
444.476	315.62
444.698	311.62
444.919	346.62
445.14	576.62
445.361	433.62
445.582	320.62
445.803	311.62
446.024	311.62
446.245	325.62
446.466	310.62
446.687	303.62
446.908	333.62
447.129	322.62
447.35	295.62
447.571	307.62
447.792	302.62
448.013	280.62
448.234	312.62
448.455	295.62
448.675	282.62
448.896	296.62
449.117	272.62
449.338	272.62
449.559	286.62
449.779	285.62
450	275.62
450.221	275.62
450.442	275.62
450.662	276.62
450.883	253.62
451.104	283.62
451.324	276.62
451.545	269.62
451.766	257.62
451.986	239.62
452.207	251.62
452.428	243.62
452.648	233.62
452.869	226.62
453.089	203.62
453.31	213.62
453.53	203.62
453.751	202.62
453.971	209.62
454.192	198.62
454.412	198.62
454.633	214.62
454.853	242.62
455.073	234.62
455.294	231.62
455.514	237.62
455.734	209.62
455.955	221.62
456.175	218.62
456.395	187.62
456.616	183.62
456.836	206.62
457.056	202.62
457.276	207.62
457.497	196.62
457.717	217.62
457.937	190.62
458.157	193.62
458.377	198.62
458.598	182.62
458.818	178.62
459.038	168.62
459.258	179.62
459.478	179.62
459.698	173.62
459.918	209.62
460.138	235.62
460.358	243.62
460.578	240.62
460.798	241.62
461.018	240.62
461.238	237.62
461.458	236.62
461.678	238.62
461.898	248.62
462.118	241.62
462.338	237.62
462.558	254.62
462.777	248.62
462.997	245.62
463.217	290.62
463.437	264.62
463.657	238.62
463.876	253.62
464.096	255.62
464.316	252.62
464.536	258.62
464.755	262.62
464.975	264.62
465.195	246.62
465.414	249.62
465.634	231.62
465.854	238.62
466.073	263.62
466.293	250.62
466.512	258.62
466.732	268.62
466.951	256.62
467.171	250.62
467.391	262.62
467.61	281.62
467.829	257.62
468.049	261.62
468.268	259.62
468.488	254.62
468.707	261.62
468.927	267.62
469.146	241.62
469.365	279.62
469.585	281.62
469.804	297.62
470.023	290.62
470.243	318.62
470.462	290.62
470.681	287.62
470.901	278.62
471.12	289.62
471.339	297.62
471.558	277.62
471.777	277.62
471.997	254.62
472.216	258.62
472.435	233.62
472.654	204.62
472.873	215.62
473.092	235.62
473.311	238.62
473.53	249.62
473.749	254.62
473.968	249.62
474.187	235.62
474.406	213.62
474.625	236.62
474.844	262.62
475.063	241.62
475.282	237.62
475.501	220.62
475.72	230.62
475.939	243.62
476.158	256.62
476.377	239.62
476.596	229.62
476.814	211.62
477.033	201.62
477.252	234.62
477.471	252.62
477.69	246.62
477.908	268.62
478.127	285.62
478.346	270.62
478.564	277.62
478.783	287.62
479.002	282.62
479.22	278.62
479.439	290.62
479.658	239.62
479.876	227.62
480.095	221.62
480.313	265.62
480.532	262.62
480.751	221.62
480.969	204.62
481.188	187.62
481.406	190.62
481.624	182.62
481.843	195.62
482.061	192.62
482.28	229.62
482.498	229.62
482.717	214.62
482.935	237.62
483.153	297.62
483.372	309.62
483.59	294.62
483.808	262.62
484.027	257.62
484.245	265.62
484.463	282.62
484.681	291.62
484.9	250.62
485.118	270.62
485.336	243.62
485.554	215.62
485.772	213.62
485.99	210.62
486.209	234.62
486.427	223.62
486.645	254.62
486.863	270.62
487.081	287.62
487.299	252.62
487.517	297.62
487.735	343.62
487.953	375.62
488.171	362.62
488.389	319.62
488.607	290.62
488.825	255.62
489.043	263.62
489.261	265.62
489.479	267.62
489.696	290.62
489.914	287.62
490.132	285.62
490.35	312.62
490.568	321.62
490.786	360.62
491.003	359.62
491.221	362.62
491.439	385.62
491.657	404.62
491.874	438.62
492.092	473.62
492.31	494.62
492.527	479.62
492.745	417.62
492.963	378.62
493.18	392.62
493.398	396.62
493.615	388.62
493.833	382.62
494.05	371.62
494.268	367.62
494.485	372.62
494.703	383.62
494.92	385.62
495.138	366.62
495.355	375.62
495.573	377.62
495.79	354.62
496.008	355.62
496.225	364.62
496.442	354.62
496.66	345.62
496.877	327.62
497.094	363.62
497.312	349.62
497.529	345.62
497.746	315.62
497.963	286.62
498.181	278.62
498.398	285.62
498.615	288.62
498.832	285.62
499.049	310.62
499.267	337.62
499.484	337.62
499.701	387.62
499.918	426.62
500.135	479.62
500.352	510.62
500.569	515.62
500.786	533.62
501.003	478.62
501.22	438.62
501.437	398.62
501.654	372.62
501.871	366.62
502.088	329.62
502.305	324.62
502.522	316.62
502.739	316.62
502.956	310.62
503.172	285.62
503.389	263.62
503.606	258.62
503.823	277.62
504.04	275.62
504.256	261.62
504.473	279.62
