Data from SampD_HRD10591_00040.txt Node
Date: Mon Jan 19 11:47:51 EST 2026
User: Yrep
Spectrometer: HR+D1059
Trigger mode: 0
Integration Time (sec): 3.443000E-1
Scans to average: 1
Electric dark correction enabled: true
Nonlinearity correction enabled: false
Boxcar width: 0
XAxis mode: Wavelengths
Number of Pixels in Spectrum: 2048
>>>>>Begin Spectral Data<<<<<
223.165	-19.12
223.4	-19.12
223.635	-19.12
223.869	-25.12
224.104	-30.12
224.338	-6.12
224.573	-18.12
224.808	-13.12
225.042	-2.12
225.277	-2.12
225.511	-9.12
225.746	3.88
225.98	2.88
226.215	19.88
226.449	17.88
226.683	17.88
226.918	29.88
227.152	32.88
227.387	26.88
227.621	28.88
227.856	36.88
228.09	47.88
228.324	52.88
228.559	81.88
228.793	66.88
229.027	64.88
229.262	69.88
229.496	84.88
229.73	76.88
229.964	89.88
230.199	74.88
230.433	74.88
230.667	91.88
230.901	72.88
231.136	89.88
231.37	81.88
231.604	78.88
231.838	87.88
232.072	91.88
232.306	79.88
232.541	82.88
232.775	65.88
233.009	89.88
233.243	85.88
233.477	104.88
233.711	89.88
233.945	84.88
234.179	87.88
234.413	89.88
234.647	83.88
234.881	75.88
235.115	95.88
235.349	99.88
235.583	87.88
235.817	79.88
236.051	99.88
236.285	90.88
236.519	91.88
236.753	83.88
236.987	86.88
237.221	81.88
237.455	80.88
237.689	90.88
237.922	96.88
238.156	70.88
238.39	66.88
238.624	80.88
238.858	79.88
239.091	100.88
239.325	83.88
239.559	79.88
239.793	89.88
240.027	89.88
240.26	87.88
240.494	85.88
240.728	84.88
240.961	95.88
241.195	87.88
241.429	99.88
241.662	81.88
241.896	89.88
242.13	70.88
242.363	95.88
242.597	76.88
242.83	91.88
243.064	90.88
243.298	83.88
243.531	101.88
243.765	77.88
243.998	98.88
244.232	107.88
244.465	81.88
244.699	87.88
244.932	90.88
245.166	81.88
245.399	81.88
245.633	108.88
245.866	100.88
246.099	91.88
246.333	90.88
246.566	92.88
246.8	91.88
247.033	95.88
247.266	95.88
247.5	90.88
247.733	105.88
247.966	95.88
248.2	76.88
248.433	90.88
248.666	95.88
248.899	85.88
249.133	88.88
249.366	107.88
249.599	96.88
249.832	76.88
250.066	102.88
250.299	106.88
250.532	87.88
250.765	93.88
250.998	77.88
251.231	87.88
251.465	106.88
251.698	85.88
251.931	95.88
252.164	97.88
252.397	95.88
252.63	88.88
252.863	84.88
253.096	105.88
253.329	89.88
253.562	93.88
253.795	91.88
254.028	117.88
254.261	89.88
254.494	95.88
254.727	97.88
254.96	98.88
255.193	98.88
255.426	96.88
255.659	93.88
255.892	93.88
256.124	95.88
256.357	86.88
256.59	100.88
256.823	88.88
257.056	99.88
257.289	87.88
257.521	94.88
257.754	94.88
257.987	94.88
258.22	104.88
258.452	109.88
258.685	95.88
258.918	81.88
259.151	102.88
259.383	90.88
259.616	103.88
259.849	93.88
260.081	81.88
260.314	98.88
260.547	104.88
260.779	85.88
261.012	100.88
261.244	108.88
261.477	108.88
261.71	95.88
261.942	82.88
262.175	107.88
262.407	99.88
262.64	100.88
262.872	105.88
263.105	109.88
263.337	102.88
263.57	108.88
263.802	102.88
264.035	96.88
264.267	109.88
264.499	108.88
264.732	109.88
264.964	110.88
265.197	103.88
265.429	107.88
265.661	111.88
265.894	101.88
266.126	109.88
266.358	115.88
266.591	97.88
266.823	103.88
267.055	92.88
267.287	97.88
267.52	92.88
267.752	101.88
267.984	102.88
268.216	111.88
268.448	114.88
268.681	119.88
268.913	106.88
269.145	105.88
269.377	105.88
269.609	91.88
269.841	111.88
270.073	97.88
270.306	103.88
270.538	104.88
270.77	92.88
271.002	100.88
271.234	96.88
271.466	109.88
271.698	109.88
271.93	119.88
272.162	109.88
272.394	124.88
272.626	117.88
272.858	108.88
273.09	103.88
273.322	103.88
273.553	96.88
273.785	109.88
274.017	104.88
274.249	113.88
274.481	101.88
274.713	112.88
274.945	105.88
275.176	111.88
275.408	131.88
275.64	115.88
275.872	102.88
276.104	116.88
276.335	112.88
276.567	94.88
276.799	107.88
277.031	103.88
277.262	116.88
277.494	105.88
277.726	85.88
277.957	86.88
278.189	102.88
278.421	117.88
278.652	114.88
278.884	120.88
279.115	116.88
279.347	115.88
279.579	104.88
279.81	122.88
280.042	117.88
280.273	117.88
280.505	108.88
280.736	112.88
280.968	113.88
281.199	108.88
281.431	108.88
281.662	119.88
281.894	128.88
282.125	110.88
282.356	112.88
282.588	112.88
282.819	121.88
283.051	122.88
283.282	112.88
283.513	115.88
283.745	120.88
283.976	94.88
284.207	120.88
284.439	126.88
284.67	119.88
284.901	109.88
285.132	122.88
285.364	104.88
285.595	105.88
285.826	106.88
286.057	107.88
286.288	116.88
286.52	121.88
286.751	113.88
286.982	128.88
287.213	123.88
287.444	117.88
287.675	107.88
287.906	110.88
288.138	106.88
288.369	108.88
288.6	124.88
288.831	128.88
289.062	118.88
289.293	113.88
289.524	118.88
289.755	121.88
289.986	122.88
290.217	116.88
290.448	123.88
290.679	118.88
290.91	121.88
291.141	115.88
291.371	127.88
291.602	109.88
291.833	110.88
292.064	127.88
292.295	99.88
292.526	127.88
292.757	106.88
292.987	119.88
293.218	115.88
293.449	119.88
293.68	121.88
293.91	109.88
294.141	126.88
294.372	127.88
294.603	123.88
294.833	127.88
295.064	105.88
295.295	123.88
295.525	130.88
295.756	118.88
295.987	107.88
296.217	125.88
296.448	115.88
296.679	122.88
296.909	135.88
297.14	121.88
297.37	122.88
297.601	109.88
297.831	116.88
298.062	124.88
298.292	120.88
298.523	121.88
298.753	126.88
298.984	110.88
299.214	125.88
299.445	116.88
299.675	143.88
299.905	121.88
300.136	136.88
300.366	109.88
300.597	116.88
300.827	128.88
301.057	125.88
301.288	131.88
301.518	137.88
301.748	130.88
301.979	167.88
302.209	122.88
302.439	116.88
302.669	127.88
302.9	138.88
303.13	132.88
303.36	131.88
303.59	130.88
303.82	139.88
304.051	136.88
304.281	116.88
304.511	132.88
304.741	127.88
304.971	128.88
305.201	127.88
305.431	121.88
305.661	128.88
305.891	125.88
306.121	128.88
306.352	121.88
306.582	123.88
306.812	131.88
307.042	117.88
307.272	124.88
307.502	111.88
307.731	127.88
307.961	142.88
308.191	122.88
308.421	128.88
308.651	123.88
308.881	129.88
309.111	124.88
309.341	117.88
309.571	126.88
309.8	128.88
310.03	149.88
310.26	132.88
310.49	121.88
310.72	127.88
310.949	130.88
311.179	123.88
311.409	117.88
311.639	125.88
311.868	126.88
312.098	128.88
312.328	122.88
312.557	124.88
312.787	134.88
313.017	119.88
313.246	129.88
313.476	126.88
313.706	138.88
313.935	114.88
314.165	113.88
314.394	132.88
314.624	109.88
314.853	120.88
315.083	137.88
315.312	138.88
315.542	122.88
315.771	120.88
316.001	130.88
316.23	139.88
316.46	135.88
316.689	125.88
316.919	119.88
317.148	115.88
317.377	141.88
317.607	121.88
317.836	116.88
318.065	130.88
318.295	117.88
318.524	124.88
318.753	130.88
318.983	125.88
319.212	147.88
319.441	129.88
319.67	127.88
319.9	134.88
320.129	123.88
320.358	130.88
320.587	127.88
320.816	115.88
321.046	130.88
321.275	137.88
321.504	132.88
321.733	117.88
321.962	141.88
322.191	127.88
322.42	132.88
322.649	122.88
322.878	125.88
323.108	115.88
323.337	147.88
323.566	125.88
323.795	145.88
324.024	127.88
324.253	143.88
324.482	139.88
324.71	137.88
324.939	131.88
325.168	128.88
325.397	141.88
325.626	129.88
325.855	135.88
326.084	122.88
326.313	141.88
326.542	127.88
326.77	140.88
326.999	135.88
327.228	143.88
327.457	135.88
327.686	145.88
327.914	118.88
328.143	148.88
328.372	155.88
328.6	125.88
328.829	118.88
329.058	126.88
329.287	133.88
329.515	134.88
329.744	138.88
329.972	141.88
330.201	136.88
330.43	144.88
330.658	121.88
330.887	131.88
331.115	130.88
331.344	121.88
331.572	153.88
331.801	130.88
332.03	133.88
332.258	145.88
332.486	135.88
332.715	140.88
332.943	139.88
333.172	142.88
333.4	147.88
333.629	144.88
333.857	169.88
334.085	149.88
334.314	133.88
334.542	151.88
334.771	149.88
334.999	156.88
335.227	156.88
335.455	151.88
335.684	164.88
335.912	138.88
336.14	163.88
336.369	144.88
336.597	149.88
336.825	150.88
337.053	143.88
337.281	144.88
337.51	144.88
337.738	143.88
337.966	150.88
338.194	131.88
338.422	142.88
338.65	138.88
338.878	153.88
339.106	145.88
339.334	140.88
339.562	133.88
339.79	134.88
340.018	136.88
340.246	136.88
340.474	142.88
340.702	143.88
340.93	117.88
341.158	135.88
341.386	143.88
341.614	130.88
341.842	123.88
342.07	137.88
342.298	144.88
342.526	130.88
342.754	136.88
342.981	142.88
343.209	133.88
343.437	165.88
343.665	156.88
343.893	153.88
344.12	155.88
344.348	146.88
344.576	147.88
344.804	155.88
345.031	128.88
345.259	130.88
345.487	152.88
345.714	135.88
345.942	145.88
346.17	135.88
346.397	128.88
346.625	130.88
346.853	135.88
347.08	124.88
347.308	132.88
347.535	123.88
347.763	138.88
347.99	134.88
348.218	129.88
348.445	121.88
348.673	127.88
348.9	148.88
349.128	129.88
349.355	131.88
349.583	133.88
349.81	132.88
350.037	132.88
350.265	137.88
350.492	136.88
350.72	124.88
350.947	143.88
351.174	130.88
351.402	128.88
351.629	133.88
351.856	133.88
352.083	140.88
352.311	128.88
352.538	116.88
352.765	142.88
352.992	149.88
353.22	141.88
353.447	135.88
353.674	131.88
353.901	132.88
354.128	126.88
354.355	123.88
354.583	119.88
354.81	144.88
355.037	138.88
355.264	143.88
355.491	123.88
355.718	132.88
355.945	144.88
356.172	118.88
356.399	136.88
356.626	148.88
356.853	141.88
357.08	123.88
357.307	139.88
357.534	137.88
357.761	152.88
357.988	155.88
358.215	147.88
358.441	132.88
358.668	148.88
358.895	127.88
359.122	142.88
359.349	130.88
359.576	118.88
359.802	136.88
360.029	135.88
360.256	147.88
360.483	148.88
360.709	135.88
360.936	140.88
361.163	145.88
361.39	126.88
361.616	127.88
361.843	133.88
362.07	148.88
362.296	135.88
362.523	131.88
362.749	118.88
362.976	113.88
363.203	123.88
363.429	130.88
363.656	127.88
363.882	121.88
364.109	137.88
364.335	138.88
364.562	125.88
364.788	133.88
365.015	128.88
365.241	142.88
365.468	147.88
365.694	133.88
365.92	136.88
366.147	134.88
366.373	131.88
366.599	142.88
366.826	129.88
367.052	139.88
367.278	147.88
367.505	118.88
367.731	156.88
367.957	147.88
368.184	121.88
368.41	126.88
368.636	133.88
368.862	138.88
369.089	145.88
369.315	144.88
369.541	172.88
369.767	167.88
369.993	139.88
370.219	149.88
370.445	141.88
370.672	151.88
370.898	168.88
371.124	151.88
371.35	152.88
371.576	159.88
371.802	143.88
372.028	145.88
372.254	162.88
372.48	166.88
372.706	148.88
372.932	163.88
373.158	149.88
373.384	166.88
373.61	156.88
373.835	137.88
374.061	142.88
374.287	163.88
374.513	152.88
374.739	150.88
374.965	178.88
375.191	153.88
375.416	158.88
375.642	157.88
375.868	170.88
376.094	140.88
376.319	156.88
376.545	147.88
376.771	144.88
376.997	156.88
377.222	147.88
377.448	170.88
377.674	168.88
377.899	167.88
378.125	164.88
378.35	145.88
378.576	160.88
378.802	160.88
379.027	155.88
379.253	168.88
379.478	161.88
379.704	173.88
379.929	167.88
380.155	147.88
380.38	161.88
380.606	165.88
380.831	158.88
381.057	185.88
381.282	164.88
381.507	157.88
381.733	184.88
381.958	183.88
382.184	171.88
382.409	171.88
382.634	188.88
382.86	163.88
383.085	166.88
383.31	167.88
383.535	179.88
383.761	163.88
383.986	179.88
384.211	182.88
384.436	193.88
384.662	190.88
384.887	169.88
385.112	199.88
385.337	171.88
385.562	183.88
385.787	193.88
386.013	195.88
386.238	187.88
386.463	201.88
386.688	220.88
386.913	188.88
387.138	182.88
387.363	188.88
387.588	197.88
387.813	194.88
388.038	199.88
388.263	202.88
388.488	184.88
388.713	186.88
388.938	189.88
389.163	191.88
389.387	181.88
389.612	191.88
389.837	195.88
390.062	195.88
390.287	178.88
390.512	200.88
390.736	200.88
390.961	191.88
391.186	200.88
391.411	193.88
391.636	201.88
391.86	211.88
392.085	196.88
392.31	204.88
392.534	209.88
392.759	212.88
392.984	211.88
393.208	195.88
393.433	207.88
393.658	199.88
393.882	207.88
394.107	219.88
394.331	212.88
394.556	207.88
394.78	217.88
395.005	196.88
395.229	201.88
395.454	211.88
395.678	227.88
395.903	223.88
396.127	211.88
396.352	205.88
396.576	201.88
396.801	198.88
397.025	187.88
397.249	212.88
397.474	236.88
397.698	201.88
397.922	212.88
398.147	209.88
398.371	228.88
398.595	240.88
398.82	222.88
399.044	256.88
399.268	256.88
399.492	273.88
399.717	297.88
399.941	295.88
400.165	282.88
400.389	264.88
400.613	232.88
400.837	238.88
401.062	240.88
401.286	243.88
401.51	249.88
401.734	225.88
401.958	243.88
402.182	239.88
402.406	231.88
402.63	246.88
402.854	254.88
403.078	255.88
403.302	257.88
403.526	263.88
403.75	262.88
403.974	260.88
404.198	272.88
404.422	269.88
404.645	262.88
404.869	266.88
405.093	266.88
405.317	254.88
405.541	264.88
405.765	269.88
405.988	254.88
406.212	287.88
406.436	279.88
406.66	273.88
406.883	272.88
407.107	268.88
407.331	276.88
407.555	276.88
407.778	280.88
408.002	272.88
408.226	276.88
408.449	264.88
408.673	265.88
408.896	278.88
409.12	266.88
409.344	278.88
409.567	251.88
409.791	293.88
410.014	271.88
410.238	268.88
410.461	275.88
410.685	272.88
410.908	266.88
411.132	277.88
411.355	257.88
411.578	263.88
411.802	273.88
412.025	285.88
412.249	262.88
412.472	264.88
412.695	260.88
412.919	256.88
413.142	257.88
413.365	259.88
413.589	268.88
413.812	249.88
414.035	268.88
414.258	268.88
414.482	272.88
414.705	251.88
414.928	271.88
415.151	282.88
415.374	256.88
415.597	263.88
415.821	267.88
416.044	274.88
416.267	275.88
416.49	265.88
416.713	267.88
416.936	280.88
417.159	268.88
417.382	279.88
417.605	274.88
417.828	263.88
418.051	261.88
418.274	287.88
418.497	297.88
418.72	281.88
418.943	269.88
419.166	305.88
419.389	307.88
419.611	311.88
419.834	296.88
420.057	289.88
420.28	262.88
420.503	275.88
420.726	265.88
420.948	266.88
421.171	296.88
421.394	288.88
421.617	302.88
421.839	297.88
422.062	283.88
422.285	275.88
422.507	266.88
422.73	276.88
422.953	267.88
423.175	283.88
423.398	271.88
423.621	297.88
423.843	301.88
424.066	295.88
424.288	316.88
424.511	300.88
424.733	291.88
424.956	261.88
425.178	293.88
425.401	285.88
425.623	286.88
425.846	264.88
426.068	271.88
426.291	276.88
426.513	274.88
426.735	265.88
426.958	269.88
427.18	275.88
427.402	283.88
427.625	282.88
427.847	246.88
428.069	265.88
428.292	269.88
428.514	267.88
428.736	256.88
428.958	271.88
429.181	259.88
429.403	271.88
429.625	258.88
429.847	259.88
430.069	268.88
430.292	252.88
430.514	245.88
430.736	255.88
430.958	266.88
431.18	246.88
431.402	250.88
431.624	238.88
431.846	217.88
432.068	179.88
432.29	216.88
432.512	236.88
432.734	236.88
432.956	275.88
433.178	287.88
433.4	286.88
433.622	278.88
433.844	285.88
434.066	241.88
434.287	227.88
434.509	210.88
434.731	204.88
434.953	246.88
435.175	256.88
435.397	250.88
435.618	230.88
435.84	235.88
436.062	235.88
436.284	249.88
436.505	280.88
436.727	261.88
436.949	267.88
437.17	277.88
437.392	252.88
437.614	227.88
437.835	228.88
438.057	208.88
438.278	209.88
438.5	263.88
438.721	267.88
438.943	274.88
439.165	283.88
439.386	292.88
439.608	298.88
439.829	299.88
440.05	314.88
440.272	279.88
440.493	284.88
440.715	296.88
440.936	301.88
441.158	307.88
441.379	305.88
441.6	307.88
441.822	314.88
442.043	329.88
442.264	299.88
442.486	287.88
442.707	287.88
442.928	301.88
443.149	301.88
443.371	305.88
443.592	292.88
443.813	296.88
444.034	288.88
444.255	320.88
444.476	320.88
444.698	331.88
444.919	336.88
445.14	577.88
445.361	440.88
445.582	322.88
445.803	297.88
446.024	312.88
446.245	294.88
446.466	321.88
446.687	307.88
446.908	313.88
447.129	304.88
447.35	305.88
447.571	301.88
447.792	298.88
448.013	301.88
448.234	286.88
448.455	275.88
448.675	279.88
448.896	294.88
449.117	282.88
449.338	300.88
449.559	271.88
449.779	268.88
450	279.88
450.221	280.88
450.442	276.88
450.662	274.88
450.883	274.88
451.104	266.88
451.324	277.88
451.545	259.88
451.766	266.88
451.986	254.88
452.207	249.88
452.428	254.88
452.648	245.88
452.869	209.88
453.089	218.88
453.31	201.88
453.53	202.88
453.751	193.88
453.971	189.88
454.192	188.88
454.412	196.88
454.633	209.88
454.853	229.88
455.073	217.88
455.294	226.88
455.514	231.88
455.734	229.88
455.955	227.88
456.175	200.88
456.395	194.88
456.616	208.88
456.836	210.88
457.056	201.88
457.276	186.88
457.497	197.88
457.717	190.88
457.937	200.88
458.157	186.88
458.377	198.88
458.598	183.88
458.818	184.88
459.038	166.88
459.258	175.88
459.478	173.88
459.698	189.88
459.918	213.88
460.138	227.88
460.358	240.88
460.578	240.88
460.798	237.88
461.018	236.88
461.238	241.88
461.458	232.88
461.678	240.88
461.898	258.88
462.118	240.88
462.338	251.88
462.558	260.88
462.777	263.88
462.997	264.88
463.217	264.88
463.437	263.88
463.657	241.88
463.876	251.88
464.096	236.88
464.316	252.88
464.536	255.88
464.755	261.88
464.975	238.88
465.195	252.88
465.414	234.88
465.634	230.88
465.854	225.88
466.073	229.88
466.293	245.88
466.512	252.88
466.732	272.88
466.951	271.88
467.171	251.88
467.391	243.88
467.61	241.88
467.829	258.88
468.049	251.88
468.268	271.88
468.488	256.88
468.707	256.88
468.927	260.88
469.146	259.88
469.365	282.88
469.585	283.88
469.804	280.88
470.023	254.88
470.243	271.88
470.462	279.88
470.681	293.88
470.901	273.88
471.12	280.88
471.339	295.88
471.558	260.88
471.777	264.88
471.997	258.88
472.216	231.88
472.435	211.88
472.654	204.88
472.873	211.88
473.092	218.88
473.311	238.88
473.53	233.88
473.749	247.88
473.968	244.88
474.187	221.88
474.406	236.88
474.625	254.88
474.844	251.88
475.063	243.88
475.282	249.88
475.501	222.88
475.72	235.88
475.939	234.88
476.158	249.88
476.377	244.88
476.596	237.88
476.814	229.88
477.033	199.88
477.252	226.88
477.471	249.88
477.69	259.88
477.908	284.88
478.127	286.88
478.346	262.88
478.564	272.88
478.783	268.88
479.002	287.88
479.22	283.88
479.439	282.88
479.658	247.88
479.876	226.88
480.095	221.88
480.313	250.88
480.532	253.88
480.751	224.88
480.969	188.88
481.188	183.88
481.406	179.88
481.624	182.88
481.843	173.88
482.061	207.88
482.28	212.88
482.498	213.88
482.717	201.88
482.935	236.88
483.153	277.88
483.372	293.88
483.59	296.88
483.808	263.88
484.027	250.88
484.245	256.88
484.463	255.88
484.681	291.88
484.9	243.88
485.118	277.88
485.336	259.88
485.554	224.88
485.772	205.88
485.99	209.88
486.209	209.88
486.427	231.88
486.645	233.88
486.863	264.88
487.081	264.88
487.299	245.88
487.517	276.88
487.735	330.88
487.953	374.88
488.171	357.88
488.389	332.88
488.607	304.88
488.825	264.88
489.043	246.88
489.261	244.88
489.479	277.88
489.696	278.88
489.914	285.88
490.132	292.88
490.35	327.88
490.568	328.88
490.786	363.88
491.003	376.88
491.221	380.88
491.439	372.88
491.657	409.88
491.874	437.88
492.092	456.88
492.31	484.88
492.527	446.88
492.745	418.88
492.963	404.88
493.18	392.88
493.398	379.88
493.615	390.88
493.833	390.88
494.05	362.88
494.268	369.88
494.485	368.88
494.703	373.88
494.92	375.88
495.138	369.88
495.355	367.88
495.573	380.88
495.79	362.88
496.008	371.88
496.225	347.88
496.442	338.88
496.66	369.88
496.877	355.88
497.094	367.88
497.312	335.88
497.529	337.88
497.746	332.88
497.963	292.88
498.181	291.88
498.398	280.88
498.615	271.88
498.832	287.88
499.049	295.88
499.267	337.88
499.484	363.88
499.701	405.88
499.918	423.88
500.135	469.88
500.352	506.88
500.569	506.88
500.786	527.88
501.003	489.88
501.22	447.88
501.437	402.88
501.654	399.88
501.871	339.88
502.088	328.88
502.305	321.88
502.522	308.88
502.739	327.88
502.956	297.88
503.172	275.88
503.389	266.88
503.606	248.88
503.823	249.88
504.04	240.88
504.256	280.88
504.473	249.88
504.69	276.88
