Data from SampD_HRD10591_00096.txt Node
Date: Mon Jan 19 11:48:11 EST 2026
User: Yrep
Spectrometer: HR+D1059
Trigger mode: 0
Integration Time (sec): 3.443000E-1
Scans to average: 1
Electric dark correction enabled: true
Nonlinearity correction enabled: false
Boxcar width: 0
XAxis mode: Wavelengths
Number of Pixels in Spectrum: 2048
>>>>>Begin Spectral Data<<<<<
223.165	-18.06
223.4	-18.06
223.635	-18.06
223.869	-29.06
224.104	-16.06
224.338	-24.06
224.573	-17.06
224.808	-20.06
225.042	-15.06
225.277	0.94
225.511	-5.06
225.746	22.94
225.98	12.94
226.215	14.94
226.449	8.94
226.683	26.94
226.918	25.94
227.152	30.94
227.387	41.94
227.621	46.94
227.856	49.94
228.09	46.94
228.324	50.94
228.559	51.94
228.793	67.94
229.027	66.94
229.262	79.94
229.496	74.94
229.73	66.94
229.964	77.94
230.199	83.94
230.433	69.94
230.667	79.94
230.901	93.94
231.136	85.94
231.37	73.94
231.604	80.94
231.838	96.94
232.072	77.94
232.306	86.94
232.541	88.94
232.775	74.94
233.009	77.94
233.243	72.94
233.477	77.94
233.711	93.94
233.945	87.94
234.179	81.94
234.413	85.94
234.647	78.94
234.881	86.94
235.115	69.94
235.349	103.94
235.583	82.94
235.817	79.94
236.051	78.94
236.285	87.94
236.519	96.94
236.753	86.94
236.987	83.94
237.221	91.94
237.455	73.94
237.689	77.94
237.922	79.94
238.156	100.94
238.39	84.94
238.624	84.94
238.858	75.94
239.091	85.94
239.325	81.94
239.559	82.94
239.793	93.94
240.027	85.94
240.26	90.94
240.494	77.94
240.728	77.94
240.961	76.94
241.195	84.94
241.429	89.94
241.662	85.94
241.896	89.94
242.13	74.94
242.363	87.94
242.597	83.94
242.83	74.94
243.064	79.94
243.298	72.94
243.531	78.94
243.765	79.94
243.998	81.94
244.232	102.94
244.465	81.94
244.699	85.94
244.932	90.94
245.166	89.94
245.399	71.94
245.633	88.94
245.866	93.94
246.099	96.94
246.333	91.94
246.566	69.94
246.8	82.94
247.033	90.94
247.266	79.94
247.5	83.94
247.733	104.94
247.966	94.94
248.2	84.94
248.433	93.94
248.666	75.94
248.899	89.94
249.133	90.94
249.366	97.94
249.599	85.94
249.832	86.94
250.066	93.94
250.299	96.94
250.532	89.94
250.765	82.94
250.998	90.94
251.231	73.94
251.465	102.94
251.698	85.94
251.931	95.94
252.164	84.94
252.397	97.94
252.63	81.94
252.863	93.94
253.096	99.94
253.329	81.94
253.562	86.94
253.795	101.94
254.028	98.94
254.261	96.94
254.494	87.94
254.727	101.94
254.96	102.94
255.193	80.94
255.426	83.94
255.659	97.94
255.892	84.94
256.124	95.94
256.357	113.94
256.59	89.94
256.823	93.94
257.056	89.94
257.289	88.94
257.521	93.94
257.754	89.94
257.987	99.94
258.22	87.94
258.452	96.94
258.685	94.94
258.918	91.94
259.151	105.94
259.383	101.94
259.616	92.94
259.849	102.94
260.081	96.94
260.314	87.94
260.547	99.94
260.779	99.94
261.012	97.94
261.244	86.94
261.477	109.94
261.71	101.94
261.942	104.94
262.175	87.94
262.407	104.94
262.64	103.94
262.872	99.94
263.105	96.94
263.337	107.94
263.57	90.94
263.802	91.94
264.035	106.94
264.267	92.94
264.499	93.94
264.732	103.94
264.964	104.94
265.197	98.94
265.429	99.94
265.661	88.94
265.894	96.94
266.126	112.94
266.358	104.94
266.591	97.94
266.823	104.94
267.055	93.94
267.287	106.94
267.52	106.94
267.752	101.94
267.984	93.94
268.216	101.94
268.448	107.94
268.681	102.94
268.913	101.94
269.145	102.94
269.377	111.94
269.609	108.94
269.841	114.94
270.073	99.94
270.306	98.94
270.538	101.94
270.77	89.94
271.002	113.94
271.234	115.94
271.466	104.94
271.698	92.94
271.93	88.94
272.162	100.94
272.394	110.94
272.626	116.94
272.858	112.94
273.09	114.94
273.322	115.94
273.553	85.94
273.785	110.94
274.017	93.94
274.249	106.94
274.481	106.94
274.713	109.94
274.945	102.94
275.176	99.94
275.408	105.94
275.64	99.94
275.872	110.94
276.104	105.94
276.335	114.94
276.567	107.94
276.799	106.94
277.031	103.94
277.262	106.94
277.494	123.94
277.726	110.94
277.957	112.94
278.189	113.94
278.421	107.94
278.652	105.94
278.884	107.94
279.115	111.94
279.347	109.94
279.579	115.94
279.81	107.94
280.042	100.94
280.273	115.94
280.505	110.94
280.736	114.94
280.968	112.94
281.199	119.94
281.431	116.94
281.662	122.94
281.894	101.94
282.125	106.94
282.356	98.94
282.588	110.94
282.819	113.94
283.051	115.94
283.282	110.94
283.513	112.94
283.745	111.94
283.976	115.94
284.207	121.94
284.439	106.94
284.67	103.94
284.901	121.94
285.132	105.94
285.364	105.94
285.595	111.94
285.826	115.94
286.057	122.94
286.288	118.94
286.52	116.94
286.751	104.94
286.982	124.94
287.213	114.94
287.444	115.94
287.675	114.94
287.906	129.94
288.138	115.94
288.369	108.94
288.6	116.94
288.831	107.94
289.062	132.94
289.293	106.94
289.524	127.94
289.755	124.94
289.986	117.94
290.217	113.94
290.448	102.94
290.679	108.94
290.91	100.94
291.141	106.94
291.371	122.94
291.602	119.94
291.833	116.94
292.064	118.94
292.295	119.94
292.526	100.94
292.757	93.94
292.987	118.94
293.218	93.94
293.449	114.94
293.68	125.94
293.91	115.94
294.141	131.94
294.372	114.94
294.603	120.94
294.833	124.94
295.064	121.94
295.295	122.94
295.525	118.94
295.756	121.94
295.987	114.94
296.217	111.94
296.448	113.94
296.679	115.94
296.909	127.94
297.14	127.94
297.37	115.94
297.601	117.94
297.831	113.94
298.062	126.94
298.292	130.94
298.523	125.94
298.753	126.94
298.984	117.94
299.214	135.94
299.445	105.94
299.675	111.94
299.905	113.94
300.136	124.94
300.366	120.94
300.597	126.94
300.827	132.94
301.057	112.94
301.288	111.94
301.518	130.94
301.748	130.94
301.979	162.94
302.209	131.94
302.439	119.94
302.669	121.94
302.9	122.94
303.13	113.94
303.36	120.94
303.59	111.94
303.82	131.94
304.051	123.94
304.281	125.94
304.511	114.94
304.741	131.94
304.971	110.94
305.201	117.94
305.431	142.94
305.661	130.94
305.891	111.94
306.121	126.94
306.352	130.94
306.582	122.94
306.812	117.94
307.042	118.94
307.272	123.94
307.502	121.94
307.731	116.94
307.961	128.94
308.191	123.94
308.421	112.94
308.651	116.94
308.881	126.94
309.111	125.94
309.341	112.94
309.571	115.94
309.8	116.94
310.03	121.94
310.26	123.94
310.49	130.94
310.72	112.94
310.949	127.94
311.179	113.94
311.409	138.94
311.639	121.94
311.868	117.94
312.098	118.94
312.328	129.94
312.557	131.94
312.787	134.94
313.017	125.94
313.246	141.94
313.476	116.94
313.706	127.94
313.935	125.94
314.165	105.94
314.394	122.94
314.624	119.94
314.853	124.94
315.083	121.94
315.312	118.94
315.542	133.94
315.771	127.94
316.001	125.94
316.23	126.94
316.46	124.94
316.689	112.94
316.919	111.94
317.148	132.94
317.377	144.94
317.607	117.94
317.836	113.94
318.065	122.94
318.295	104.94
318.524	124.94
318.753	131.94
318.983	121.94
319.212	125.94
319.441	115.94
319.67	131.94
319.9	131.94
320.129	133.94
320.358	114.94
320.587	123.94
320.816	138.94
321.046	126.94
321.275	126.94
321.504	152.94
321.733	121.94
321.962	117.94
322.191	130.94
322.42	100.94
322.649	122.94
322.878	123.94
323.108	119.94
323.337	134.94
323.566	120.94
323.795	129.94
324.024	129.94
324.253	111.94
324.482	135.94
324.71	125.94
324.939	123.94
325.168	128.94
325.397	123.94
325.626	118.94
325.855	130.94
326.084	153.94
326.313	130.94
326.542	116.94
326.77	121.94
326.999	139.94
327.228	118.94
327.457	131.94
327.686	157.94
327.914	141.94
328.143	145.94
328.372	145.94
328.6	142.94
328.829	125.94
329.058	128.94
329.287	134.94
329.515	133.94
329.744	131.94
329.972	129.94
330.201	131.94
330.43	133.94
330.658	118.94
330.887	124.94
331.115	128.94
331.344	143.94
331.572	153.94
331.801	129.94
332.03	136.94
332.258	146.94
332.486	151.94
332.715	146.94
332.943	154.94
333.172	157.94
333.4	139.94
333.629	133.94
333.857	153.94
334.085	155.94
334.314	147.94
334.542	129.94
334.771	138.94
334.999	131.94
335.227	150.94
335.455	145.94
335.684	128.94
335.912	155.94
336.14	134.94
336.369	138.94
336.597	143.94
336.825	147.94
337.053	142.94
337.281	143.94
337.51	130.94
337.738	141.94
337.966	125.94
338.194	144.94
338.422	155.94
338.65	141.94
338.878	156.94
339.106	127.94
339.334	145.94
339.562	138.94
339.79	127.94
340.018	120.94
340.246	117.94
340.474	128.94
340.702	146.94
340.93	125.94
341.158	135.94
341.386	132.94
341.614	132.94
341.842	128.94
342.07	130.94
342.298	131.94
342.526	138.94
342.754	131.94
342.981	141.94
343.209	141.94
343.437	158.94
343.665	141.94
343.893	151.94
344.12	161.94
344.348	147.94
344.576	142.94
344.804	141.94
345.031	139.94
345.259	139.94
345.487	125.94
345.714	123.94
345.942	149.94
346.17	115.94
346.397	128.94
346.625	119.94
346.853	130.94
347.08	129.94
347.308	149.94
347.535	141.94
347.763	126.94
347.99	125.94
348.218	125.94
348.445	145.94
348.673	142.94
348.9	139.94
349.128	143.94
349.355	122.94
349.583	137.94
349.81	144.94
350.037	126.94
350.265	118.94
350.492	122.94
350.72	126.94
350.947	125.94
351.174	139.94
351.402	128.94
351.629	128.94
351.856	128.94
352.083	116.94
352.311	136.94
352.538	132.94
352.765	133.94
352.992	149.94
353.22	123.94
353.447	101.94
353.674	128.94
353.901	131.94
354.128	121.94
354.355	128.94
354.583	134.94
354.81	126.94
355.037	130.94
355.264	137.94
355.491	133.94
355.718	128.94
355.945	137.94
356.172	121.94
356.399	129.94
356.626	134.94
356.853	126.94
357.08	131.94
357.307	145.94
357.534	146.94
357.761	136.94
357.988	138.94
358.215	143.94
358.441	126.94
358.668	134.94
358.895	143.94
359.122	143.94
359.349	126.94
359.576	135.94
359.802	141.94
360.029	131.94
360.256	132.94
360.483	133.94
360.709	127.94
360.936	157.94
361.163	125.94
361.39	128.94
361.616	124.94
361.843	141.94
362.07	137.94
362.296	129.94
362.523	125.94
362.749	109.94
362.976	141.94
363.203	146.94
363.429	136.94
363.656	131.94
363.882	138.94
364.109	143.94
364.335	151.94
364.562	135.94
364.788	131.94
365.015	139.94
365.241	125.94
365.468	144.94
365.694	133.94
365.92	143.94
366.147	121.94
366.373	137.94
366.599	122.94
366.826	132.94
367.052	133.94
367.278	140.94
367.505	138.94
367.731	143.94
367.957	143.94
368.184	145.94
368.41	143.94
368.636	127.94
368.862	146.94
369.089	160.94
369.315	146.94
369.541	137.94
369.767	142.94
369.993	154.94
370.219	147.94
370.445	145.94
370.672	142.94
370.898	136.94
371.124	137.94
371.35	135.94
371.576	150.94
371.802	153.94
372.028	153.94
372.254	164.94
372.48	154.94
372.706	159.94
372.932	146.94
373.158	153.94
373.384	161.94
373.61	159.94
373.835	156.94
374.061	162.94
374.287	161.94
374.513	166.94
374.739	167.94
374.965	161.94
375.191	178.94
375.416	159.94
375.642	155.94
375.868	169.94
376.094	141.94
376.319	157.94
376.545	160.94
376.771	147.94
376.997	154.94
377.222	161.94
377.448	146.94
377.674	169.94
377.899	160.94
378.125	150.94
378.35	155.94
378.576	167.94
378.802	151.94
379.027	170.94
379.253	163.94
379.478	173.94
379.704	162.94
379.929	152.94
380.155	160.94
380.38	131.94
380.606	183.94
380.831	169.94
381.057	162.94
381.282	152.94
381.507	171.94
381.733	159.94
381.958	181.94
382.184	174.94
382.409	155.94
382.634	171.94
382.86	158.94
383.085	168.94
383.31	178.94
383.535	175.94
383.761	187.94
383.986	187.94
384.211	179.94
384.436	186.94
384.662	191.94
384.887	184.94
385.112	177.94
385.337	183.94
385.562	171.94
385.787	184.94
386.013	189.94
386.238	176.94
386.463	197.94
386.688	220.94
386.913	189.94
387.138	191.94
387.363	192.94
387.588	187.94
387.813	181.94
388.038	173.94
388.263	200.94
388.488	212.94
388.713	181.94
388.938	183.94
389.163	192.94
389.387	198.94
389.612	195.94
389.837	190.94
390.062	206.94
390.287	193.94
390.512	201.94
390.736	195.94
390.961	191.94
391.186	189.94
391.411	207.94
391.636	213.94
391.86	210.94
392.085	216.94
392.31	189.94
392.534	199.94
392.759	233.94
392.984	209.94
393.208	209.94
393.433	209.94
393.658	226.94
393.882	195.94
394.107	210.94
394.331	202.94
394.556	215.94
394.78	229.94
395.005	205.94
395.229	193.94
395.454	218.94
395.678	206.94
395.903	226.94
396.127	218.94
396.352	222.94
396.576	206.94
396.801	209.94
397.025	201.94
397.249	218.94
397.474	239.94
397.698	201.94
397.922	223.94
398.147	220.94
398.371	228.94
398.595	226.94
398.82	229.94
399.044	249.94
399.268	273.94
399.492	274.94
399.717	292.94
399.941	287.94
400.165	279.94
400.389	246.94
400.613	244.94
400.837	248.94
401.062	239.94
401.286	224.94
401.51	241.94
401.734	252.94
401.958	247.94
402.182	237.94
402.406	245.94
402.63	241.94
402.854	243.94
403.078	249.94
403.302	251.94
403.526	278.94
403.75	271.94
403.974	261.94
404.198	271.94
404.422	265.94
404.645	271.94
404.869	269.94
405.093	272.94
405.317	270.94
405.541	258.94
405.765	251.94
405.988	257.94
406.212	262.94
406.436	252.94
406.66	281.94
406.883	271.94
407.107	290.94
407.331	278.94
407.555	293.94
407.778	290.94
408.002	290.94
408.226	273.94
408.449	275.94
408.673	252.94
408.896	261.94
409.12	261.94
409.344	288.94
409.567	264.94
409.791	276.94
410.014	277.94
410.238	272.94
410.461	263.94
410.685	271.94
410.908	261.94
411.132	267.94
411.355	258.94
411.578	248.94
411.802	261.94
412.025	277.94
412.249	246.94
412.472	277.94
412.695	258.94
412.919	248.94
413.142	272.94
413.365	257.94
413.589	271.94
413.812	249.94
414.035	285.94
414.258	279.94
414.482	279.94
414.705	255.94
414.928	275.94
415.151	271.94
415.374	255.94
415.597	255.94
415.821	271.94
416.044	248.94
416.267	267.94
416.49	251.94
416.713	266.94
416.936	262.94
417.159	264.94
417.382	253.94
417.605	263.94
417.828	266.94
418.051	274.94
418.274	271.94
418.497	295.94
418.72	290.94
418.943	291.94
419.166	287.94
419.389	292.94
419.611	290.94
419.834	290.94
420.057	292.94
420.28	280.94
420.503	282.94
420.726	273.94
420.948	257.94
421.171	269.94
421.394	291.94
421.617	287.94
421.839	305.94
422.062	277.94
422.285	283.94
422.507	272.94
422.73	268.94
422.953	270.94
423.175	277.94
423.398	266.94
423.621	290.94
423.843	290.94
424.066	302.94
424.288	284.94
424.511	299.94
424.733	284.94
424.956	283.94
425.178	278.94
425.401	289.94
425.623	279.94
425.846	285.94
426.068	275.94
426.291	265.94
426.513	278.94
426.735	266.94
426.958	276.94
427.18	279.94
427.402	277.94
427.625	252.94
427.847	248.94
428.069	251.94
428.292	257.94
428.514	250.94
428.736	271.94
428.958	258.94
429.181	264.94
429.403	251.94
429.625	262.94
429.847	249.94
430.069	257.94
430.292	279.94
430.514	258.94
430.736	260.94
430.958	253.94
431.18	258.94
431.402	260.94
431.624	242.94
431.846	206.94
432.068	164.94
432.29	187.94
432.512	217.94
432.734	249.94
432.956	249.94
433.178	276.94
433.4	266.94
433.622	277.94
433.844	277.94
434.066	232.94
434.287	195.94
434.509	202.94
434.731	199.94
434.953	236.94
435.175	273.94
435.397	269.94
435.618	242.94
435.84	228.94
436.062	233.94
436.284	247.94
436.505	258.94
436.727	258.94
436.949	277.94
437.17	263.94
437.392	249.94
437.614	245.94
437.835	215.94
438.057	235.94
438.278	229.94
438.5	243.94
438.721	263.94
438.943	265.94
439.165	275.94
439.386	281.94
439.608	278.94
439.829	285.94
440.05	295.94
440.272	296.94
440.493	291.94
440.715	287.94
440.936	289.94
441.158	298.94
441.379	315.94
441.6	320.94
441.822	304.94
442.043	307.94
442.264	306.94
442.486	271.94
442.707	293.94
442.928	296.94
443.149	289.94
443.371	300.94
443.592	307.94
443.813	289.94
444.034	293.94
444.255	326.94
444.476	326.94
444.698	292.94
444.919	313.94
445.14	563.94
445.361	447.94
445.582	315.94
445.803	311.94
446.024	298.94
446.245	326.94
446.466	332.94
446.687	320.94
446.908	317.94
447.129	319.94
447.35	304.94
447.571	305.94
447.792	267.94
448.013	297.94
448.234	303.94
448.455	287.94
448.675	286.94
448.896	265.94
449.117	261.94
449.338	277.94
449.559	275.94
449.779	266.94
450	251.94
450.221	264.94
450.442	264.94
450.662	263.94
450.883	258.94
451.104	268.94
451.324	260.94
451.545	262.94
451.766	253.94
451.986	257.94
452.207	240.94
452.428	231.94
452.648	231.94
452.869	223.94
453.089	224.94
453.31	206.94
453.53	194.94
453.751	189.94
453.971	193.94
454.192	185.94
454.412	193.94
454.633	220.94
454.853	234.94
455.073	231.94
455.294	234.94
455.514	253.94
455.734	221.94
455.955	221.94
456.175	232.94
456.395	194.94
456.616	197.94
456.836	194.94
457.056	206.94
457.276	193.94
457.497	198.94
457.717	199.94
457.937	206.94
458.157	195.94
458.377	180.94
458.598	182.94
458.818	168.94
459.038	166.94
459.258	171.94
459.478	186.94
459.698	161.94
459.918	215.94
460.138	203.94
460.358	217.94
460.578	234.94
460.798	238.94
461.018	237.94
461.238	246.94
461.458	234.94
461.678	224.94
461.898	248.94
462.118	224.94
462.338	263.94
462.558	254.94
462.777	245.94
462.997	269.94
463.217	274.94
463.437	263.94
463.657	262.94
463.876	259.94
464.096	232.94
464.316	253.94
464.536	275.94
464.755	261.94
464.975	241.94
465.195	239.94
465.414	251.94
465.634	227.94
465.854	234.94
466.073	238.94
466.293	251.94
466.512	245.94
466.732	250.94
466.951	262.94
467.171	247.94
467.391	262.94
467.61	258.94
467.829	251.94
468.049	258.94
468.268	239.94
468.488	247.94
468.707	245.94
468.927	257.94
469.146	270.94
469.365	279.94
469.585	293.94
469.804	283.94
470.023	275.94
470.243	296.94
470.462	287.94
470.681	271.94
470.901	280.94
471.12	275.94
471.339	273.94
471.558	277.94
471.777	276.94
471.997	247.94
472.216	252.94
472.435	206.94
472.654	178.94
472.873	211.94
473.092	234.94
473.311	238.94
473.53	245.94
473.749	243.94
473.968	237.94
474.187	216.94
474.406	206.94
474.625	242.94
474.844	250.94
475.063	246.94
475.282	229.94
475.501	221.94
475.72	243.94
475.939	222.94
476.158	239.94
476.377	231.94
476.596	240.94
476.814	207.94
477.033	190.94
477.252	219.94
477.471	222.94
477.69	266.94
477.908	290.94
478.127	277.94
478.346	273.94
478.564	273.94
478.783	278.94
479.002	281.94
479.22	267.94
479.439	271.94
479.658	244.94
479.876	230.94
480.095	231.94
480.313	248.94
480.532	254.94
480.751	233.94
480.969	185.94
481.188	194.94
481.406	191.94
481.624	169.94
481.843	172.94
482.061	203.94
482.28	216.94
482.498	217.94
482.717	219.94
482.935	243.94
483.153	288.94
483.372	279.94
483.59	290.94
483.808	280.94
484.027	253.94
484.245	261.94
484.463	287.94
484.681	294.94
484.9	269.94
485.118	277.94
485.336	247.94
485.554	221.94
485.772	211.94
485.99	212.94
486.209	214.94
486.427	217.94
486.645	223.94
486.863	265.94
487.081	271.94
487.299	253.94
487.517	279.94
487.735	333.94
487.953	369.94
488.171	369.94
488.389	343.94
488.607	288.94
488.825	286.94
489.043	262.94
489.261	251.94
489.479	260.94
489.696	280.94
489.914	276.94
490.132	292.94
490.35	303.94
490.568	337.94
490.786	339.94
491.003	360.94
491.221	363.94
491.439	375.94
491.657	381.94
491.874	425.94
492.092	465.94
492.31	469.94
492.527	447.94
492.745	425.94
492.963	411.94
493.18	391.94
493.398	410.94
493.615	378.94
493.833	376.94
494.05	360.94
494.268	364.94
494.485	366.94
494.703	363.94
494.92	365.94
495.138	358.94
495.355	358.94
495.573	342.94
495.79	369.94
496.008	371.94
496.225	346.94
496.442	367.94
496.66	359.94
496.877	339.94
497.094	361.94
497.312	355.94
497.529	323.94
497.746	332.94
497.963	319.94
498.181	283.94
498.398	274.94
498.615	270.94
498.832	279.94
499.049	315.94
499.267	321.94
499.484	348.94
499.701	373.94
499.918	423.94
500.135	455.94
500.352	505.94
500.569	514.94
500.786	480.94
501.003	473.94
501.22	423.94
501.437	408.94
501.654	377.94
501.871	333.94
502.088	314.94
502.305	326.94
502.522	311.94
502.739	291.94
502.956	302.94
503.172	285.94
503.389	266.94
503.606	271.94
503.823	266.94
504.04	258.94
504.256	277.94
504.473	269.94
504.69	256.94
504.907	275.94
