Data from SampD_HRD10591_00072.txt Node
Date: Mon Jan 19 11:48:02 EST 2026
User: Yrep
Spectrometer: HR+D1059
Trigger mode: 0
Integration Time (sec): 3.443000E-1
Scans to average: 1
Electric dark correction enabled: true
Nonlinearity correction enabled: false
Boxcar width: 0
XAxis mode: Wavelengths
Number of Pixels in Spectrum: 2048
>>>>>Begin Spectral Data<<<<<
223.165	-14.56
223.4	-14.56
223.635	-14.56
223.869	-28.56
224.104	-24.56
224.338	-9.56
224.573	-16.56
224.808	-12.56
225.042	-9.56
225.277	8.44
225.511	-6.56
225.746	4.44
225.98	9.44
226.215	20.44
226.449	4.44
226.683	23.44
226.918	23.44
227.152	28.44
227.387	33.44
227.621	30.44
227.856	33.44
228.09	39.44
228.324	41.44
228.559	55.44
228.793	68.44
229.027	66.44
229.262	68.44
229.496	71.44
229.73	78.44
229.964	76.44
230.199	63.44
230.433	79.44
230.667	96.44
230.901	79.44
231.136	91.44
231.37	83.44
231.604	75.44
231.838	81.44
232.072	85.44
232.306	90.44
232.541	70.44
232.775	91.44
233.009	89.44
233.243	94.44
233.477	92.44
233.711	95.44
233.945	91.44
234.179	95.44
234.413	80.44
234.647	95.44
234.881	73.44
235.115	102.44
235.349	77.44
235.583	93.44
235.817	86.44
236.051	82.44
236.285	80.44
236.519	87.44
236.753	90.44
236.987	83.44
237.221	83.44
237.455	82.44
237.689	82.44
237.922	93.44
238.156	89.44
238.39	96.44
238.624	81.44
238.858	92.44
239.091	70.44
239.325	92.44
239.559	80.44
239.793	83.44
240.027	87.44
240.26	97.44
240.494	75.44
240.728	86.44
240.961	77.44
241.195	84.44
241.429	90.44
241.662	96.44
241.896	69.44
242.13	79.44
242.363	73.44
242.597	95.44
242.83	92.44
243.064	87.44
243.298	72.44
243.531	92.44
243.765	80.44
243.998	101.44
244.232	80.44
244.465	85.44
244.699	81.44
244.932	81.44
245.166	91.44
245.399	83.44
245.633	93.44
245.866	75.44
246.099	72.44
246.333	75.44
246.566	95.44
246.8	88.44
247.033	88.44
247.266	82.44
247.5	78.44
247.733	87.44
247.966	89.44
248.2	68.44
248.433	76.44
248.666	63.44
248.899	91.44
249.133	97.44
249.366	103.44
249.599	84.44
249.832	85.44
250.066	101.44
250.299	97.44
250.532	98.44
250.765	89.44
250.998	83.44
251.231	90.44
251.465	86.44
251.698	89.44
251.931	91.44
252.164	90.44
252.397	87.44
252.63	104.44
252.863	87.44
253.096	78.44
253.329	89.44
253.562	84.44
253.795	96.44
254.028	98.44
254.261	82.44
254.494	95.44
254.727	101.44
254.96	77.44
255.193	99.44
255.426	106.44
255.659	95.44
255.892	90.44
256.124	83.44
256.357	92.44
256.59	85.44
256.823	84.44
257.056	105.44
257.289	91.44
257.521	86.44
257.754	94.44
257.987	86.44
258.22	106.44
258.452	102.44
258.685	99.44
258.918	93.44
259.151	95.44
259.383	100.44
259.616	88.44
259.849	87.44
260.081	110.44
260.314	94.44
260.547	99.44
260.779	97.44
261.012	95.44
261.244	89.44
261.477	104.44
261.71	105.44
261.942	99.44
262.175	94.44
262.407	93.44
262.64	88.44
262.872	95.44
263.105	98.44
263.337	101.44
263.57	81.44
263.802	87.44
264.035	100.44
264.267	115.44
264.499	93.44
264.732	109.44
264.964	100.44
265.197	98.44
265.429	94.44
265.661	107.44
265.894	96.44
266.126	104.44
266.358	103.44
266.591	106.44
266.823	97.44
267.055	88.44
267.287	110.44
267.52	96.44
267.752	100.44
267.984	99.44
268.216	99.44
268.448	128.44
268.681	118.44
268.913	118.44
269.145	100.44
269.377	115.44
269.609	104.44
269.841	106.44
270.073	110.44
270.306	99.44
270.538	106.44
270.77	97.44
271.002	99.44
271.234	105.44
271.466	99.44
271.698	110.44
271.93	102.44
272.162	111.44
272.394	111.44
272.626	110.44
272.858	109.44
273.09	113.44
273.322	107.44
273.553	97.44
273.785	123.44
274.017	107.44
274.249	113.44
274.481	90.44
274.713	101.44
274.945	110.44
275.176	105.44
275.408	103.44
275.64	90.44
275.872	96.44
276.104	115.44
276.335	91.44
276.567	110.44
276.799	113.44
277.031	106.44
277.262	104.44
277.494	114.44
277.726	101.44
277.957	114.44
278.189	109.44
278.421	104.44
278.652	109.44
278.884	109.44
279.115	122.44
279.347	113.44
279.579	121.44
279.81	121.44
280.042	106.44
280.273	110.44
280.505	109.44
280.736	106.44
280.968	114.44
281.199	117.44
281.431	123.44
281.662	108.44
281.894	113.44
282.125	106.44
282.356	117.44
282.588	99.44
282.819	88.44
283.051	120.44
283.282	104.44
283.513	108.44
283.745	120.44
283.976	118.44
284.207	107.44
284.439	129.44
284.67	105.44
284.901	111.44
285.132	119.44
285.364	123.44
285.595	111.44
285.826	110.44
286.057	127.44
286.288	99.44
286.52	117.44
286.751	124.44
286.982	116.44
287.213	118.44
287.444	122.44
287.675	119.44
287.906	116.44
288.138	116.44
288.369	106.44
288.6	109.44
288.831	95.44
289.062	124.44
289.293	109.44
289.524	121.44
289.755	113.44
289.986	104.44
290.217	113.44
290.448	112.44
290.679	124.44
290.91	117.44
291.141	110.44
291.371	113.44
291.602	110.44
291.833	117.44
292.064	113.44
292.295	123.44
292.526	102.44
292.757	125.44
292.987	117.44
293.218	121.44
293.449	122.44
293.68	120.44
293.91	111.44
294.141	125.44
294.372	118.44
294.603	114.44
294.833	122.44
295.064	113.44
295.295	128.44
295.525	117.44
295.756	112.44
295.987	128.44
296.217	117.44
296.448	120.44
296.679	107.44
296.909	114.44
297.14	120.44
297.37	143.44
297.601	109.44
297.831	125.44
298.062	121.44
298.292	134.44
298.523	112.44
298.753	117.44
298.984	137.44
299.214	120.44
299.445	110.44
299.675	121.44
299.905	121.44
300.136	111.44
300.366	125.44
300.597	131.44
300.827	114.44
301.057	117.44
301.288	131.44
301.518	127.44
301.748	125.44
301.979	138.44
302.209	120.44
302.439	113.44
302.669	108.44
302.9	127.44
303.13	131.44
303.36	126.44
303.59	120.44
303.82	125.44
304.051	126.44
304.281	125.44
304.511	129.44
304.741	122.44
304.971	114.44
305.201	124.44
305.431	103.44
305.661	113.44
305.891	104.44
306.121	95.44
306.352	110.44
306.582	119.44
306.812	111.44
307.042	122.44
307.272	111.44
307.502	119.44
307.731	125.44
307.961	126.44
308.191	129.44
308.421	121.44
308.651	138.44
308.881	130.44
309.111	118.44
309.341	126.44
309.571	127.44
309.8	122.44
310.03	115.44
310.26	120.44
310.49	125.44
310.72	123.44
310.949	130.44
311.179	119.44
311.409	117.44
311.639	110.44
311.868	114.44
312.098	124.44
312.328	123.44
312.557	114.44
312.787	131.44
313.017	118.44
313.246	137.44
313.476	120.44
313.706	143.44
313.935	115.44
314.165	117.44
314.394	127.44
314.624	128.44
314.853	125.44
315.083	128.44
315.312	133.44
315.542	109.44
315.771	128.44
316.001	109.44
316.23	118.44
316.46	104.44
316.689	120.44
316.919	121.44
317.148	123.44
317.377	139.44
317.607	127.44
317.836	137.44
318.065	127.44
318.295	128.44
318.524	140.44
318.753	114.44
318.983	127.44
319.212	123.44
319.441	125.44
319.67	121.44
319.9	132.44
320.129	129.44
320.358	128.44
320.587	138.44
320.816	129.44
321.046	131.44
321.275	122.44
321.504	120.44
321.733	125.44
321.962	134.44
322.191	117.44
322.42	113.44
322.649	118.44
322.878	127.44
323.108	125.44
323.337	129.44
323.566	131.44
323.795	120.44
324.024	119.44
324.253	114.44
324.482	122.44
324.71	129.44
324.939	146.44
325.168	119.44
325.397	137.44
325.626	133.44
325.855	116.44
326.084	128.44
326.313	121.44
326.542	130.44
326.77	137.44
326.999	116.44
327.228	132.44
327.457	117.44
327.686	126.44
327.914	128.44
328.143	138.44
328.372	134.44
328.6	127.44
328.829	131.44
329.058	120.44
329.287	121.44
329.515	128.44
329.744	126.44
329.972	138.44
330.201	129.44
330.43	141.44
330.658	119.44
330.887	138.44
331.115	132.44
331.344	141.44
331.572	147.44
331.801	130.44
332.03	137.44
332.258	142.44
332.486	133.44
332.715	142.44
332.943	139.44
333.172	144.44
333.4	139.44
333.629	157.44
333.857	152.44
334.085	165.44
334.314	147.44
334.542	143.44
334.771	156.44
334.999	145.44
335.227	130.44
335.455	135.44
335.684	137.44
335.912	127.44
336.14	126.44
336.369	138.44
336.597	142.44
336.825	137.44
337.053	128.44
337.281	122.44
337.51	132.44
337.738	158.44
337.966	133.44
338.194	130.44
338.422	115.44
338.65	134.44
338.878	129.44
339.106	144.44
339.334	141.44
339.562	135.44
339.79	129.44
340.018	147.44
340.246	137.44
340.474	137.44
340.702	118.44
340.93	135.44
341.158	124.44
341.386	138.44
341.614	144.44
341.842	125.44
342.07	133.44
342.298	133.44
342.526	138.44
342.754	122.44
342.981	133.44
343.209	129.44
343.437	172.44
343.665	157.44
343.893	160.44
344.12	168.44
344.348	141.44
344.576	147.44
344.804	134.44
345.031	120.44
345.259	139.44
345.487	133.44
345.714	154.44
345.942	125.44
346.17	138.44
346.397	136.44
346.625	135.44
346.853	118.44
347.08	136.44
347.308	138.44
347.535	119.44
347.763	118.44
347.99	133.44
348.218	139.44
348.445	126.44
348.673	130.44
348.9	134.44
349.128	132.44
349.355	132.44
349.583	136.44
349.81	131.44
350.037	132.44
350.265	126.44
350.492	133.44
350.72	117.44
350.947	133.44
351.174	125.44
351.402	121.44
351.629	130.44
351.856	132.44
352.083	132.44
352.311	125.44
352.538	122.44
352.765	153.44
352.992	151.44
353.22	127.44
353.447	129.44
353.674	135.44
353.901	139.44
354.128	122.44
354.355	113.44
354.583	142.44
354.81	140.44
355.037	146.44
355.264	144.44
355.491	130.44
355.718	128.44
355.945	121.44
356.172	119.44
356.399	121.44
356.626	126.44
356.853	122.44
357.08	145.44
357.307	130.44
357.534	141.44
357.761	135.44
357.988	133.44
358.215	124.44
358.441	139.44
358.668	137.44
358.895	117.44
359.122	117.44
359.349	127.44
359.576	130.44
359.802	126.44
360.029	126.44
360.256	127.44
360.483	122.44
360.709	120.44
360.936	144.44
361.163	135.44
361.39	132.44
361.616	121.44
361.843	130.44
362.07	123.44
362.296	125.44
362.523	124.44
362.749	128.44
362.976	115.44
363.203	136.44
363.429	126.44
363.656	129.44
363.882	143.44
364.109	147.44
364.335	122.44
364.562	133.44
364.788	122.44
365.015	122.44
365.241	134.44
365.468	128.44
365.694	128.44
365.92	129.44
366.147	149.44
366.373	130.44
366.599	133.44
366.826	132.44
367.052	131.44
367.278	150.44
367.505	148.44
367.731	154.44
367.957	117.44
368.184	123.44
368.41	136.44
368.636	147.44
368.862	150.44
369.089	115.44
369.315	144.44
369.541	160.44
369.767	150.44
369.993	137.44
370.219	133.44
370.445	151.44
370.672	141.44
370.898	166.44
371.124	133.44
371.35	151.44
371.576	159.44
371.802	151.44
372.028	143.44
372.254	152.44
372.48	154.44
372.706	152.44
372.932	164.44
373.158	143.44
373.384	185.44
373.61	154.44
373.835	144.44
374.061	155.44
374.287	160.44
374.513	138.44
374.739	152.44
374.965	159.44
375.191	149.44
375.416	149.44
375.642	154.44
375.868	171.44
376.094	150.44
376.319	165.44
376.545	144.44
376.771	131.44
376.997	142.44
377.222	138.44
377.448	166.44
377.674	154.44
377.899	163.44
378.125	149.44
378.35	144.44
378.576	166.44
378.802	169.44
379.027	163.44
379.253	176.44
379.478	157.44
379.704	161.44
379.929	171.44
380.155	162.44
380.38	138.44
380.606	152.44
380.831	154.44
381.057	179.44
381.282	164.44
381.507	161.44
381.733	164.44
381.958	170.44
382.184	168.44
382.409	160.44
382.634	166.44
382.86	162.44
383.085	166.44
383.31	180.44
383.535	169.44
383.761	176.44
383.986	183.44
384.211	179.44
384.436	175.44
384.662	176.44
384.887	180.44
385.112	182.44
385.337	186.44
385.562	178.44
385.787	184.44
386.013	186.44
386.238	176.44
386.463	191.44
386.688	232.44
386.913	181.44
387.138	178.44
387.363	198.44
387.588	185.44
387.813	191.44
388.038	192.44
388.263	194.44
388.488	183.44
388.713	189.44
388.938	185.44
389.163	193.44
389.387	195.44
389.612	196.44
389.837	215.44
390.062	190.44
390.287	182.44
390.512	174.44
390.736	180.44
390.961	203.44
391.186	192.44
391.411	207.44
391.636	213.44
391.86	214.44
392.085	215.44
392.31	223.44
392.534	201.44
392.759	218.44
392.984	210.44
393.208	210.44
393.433	209.44
393.658	211.44
393.882	209.44
394.107	211.44
394.331	217.44
394.556	210.44
394.78	222.44
395.005	214.44
395.229	229.44
395.454	219.44
395.678	211.44
395.903	222.44
396.127	219.44
396.352	201.44
396.576	211.44
396.801	222.44
397.025	211.44
397.249	218.44
397.474	223.44
397.698	232.44
397.922	248.44
398.147	218.44
398.371	220.44
398.595	227.44
398.82	247.44
399.044	241.44
399.268	256.44
399.492	293.44
399.717	299.44
399.941	278.44
400.165	275.44
400.389	261.44
400.613	240.44
400.837	237.44
401.062	237.44
401.286	230.44
401.51	227.44
401.734	239.44
401.958	243.44
402.182	250.44
402.406	248.44
402.63	231.44
402.854	254.44
403.078	262.44
403.302	251.44
403.526	257.44
403.75	271.44
403.974	255.44
404.198	259.44
404.422	278.44
404.645	249.44
404.869	253.44
405.093	255.44
405.317	240.44
405.541	266.44
405.765	266.44
405.988	257.44
406.212	273.44
406.436	244.44
406.66	270.44
406.883	260.44
407.107	283.44
407.331	269.44
407.555	291.44
407.778	277.44
408.002	276.44
408.226	272.44
408.449	275.44
408.673	280.44
408.896	264.44
409.12	253.44
409.344	267.44
409.567	262.44
409.791	272.44
410.014	266.44
410.238	275.44
410.461	269.44
410.685	266.44
410.908	262.44
411.132	295.44
411.355	250.44
411.578	269.44
411.802	257.44
412.025	252.44
412.249	251.44
412.472	257.44
412.695	266.44
412.919	262.44
413.142	258.44
413.365	251.44
413.589	273.44
413.812	248.44
414.035	278.44
414.258	249.44
414.482	259.44
414.705	258.44
414.928	253.44
415.151	265.44
415.374	272.44
415.597	265.44
415.821	250.44
416.044	247.44
416.267	249.44
416.49	261.44
416.713	264.44
416.936	261.44
417.159	269.44
417.382	257.44
417.605	250.44
417.828	277.44
418.051	270.44
418.274	286.44
418.497	278.44
418.72	273.44
418.943	277.44
419.166	294.44
419.389	306.44
419.611	305.44
419.834	306.44
420.057	281.44
420.28	283.44
420.503	278.44
420.726	277.44
420.948	277.44
421.171	271.44
421.394	291.44
421.617	298.44
421.839	300.44
422.062	288.44
422.285	280.44
422.507	283.44
422.73	276.44
422.953	267.44
423.175	272.44
423.398	279.44
423.621	289.44
423.843	285.44
424.066	291.44
424.288	302.44
424.511	294.44
424.733	306.44
424.956	309.44
425.178	297.44
425.401	284.44
425.623	280.44
425.846	265.44
426.068	243.44
426.291	248.44
426.513	277.44
426.735	259.44
426.958	266.44
427.18	260.44
427.402	270.44
427.625	259.44
427.847	254.44
428.069	269.44
428.292	237.44
428.514	273.44
428.736	271.44
428.958	264.44
429.181	269.44
429.403	247.44
429.625	245.44
429.847	251.44
430.069	263.44
430.292	263.44
430.514	262.44
430.736	245.44
430.958	257.44
431.18	245.44
431.402	247.44
431.624	243.44
431.846	199.44
432.068	188.44
432.29	200.44
432.512	212.44
432.734	256.44
432.956	269.44
433.178	289.44
433.4	291.44
433.622	286.44
433.844	260.44
434.066	235.44
434.287	213.44
434.509	193.44
434.731	211.44
434.953	243.44
435.175	245.44
435.397	243.44
435.618	223.44
435.84	225.44
436.062	232.44
436.284	246.44
436.505	262.44
436.727	274.44
436.949	245.44
437.17	253.44
437.392	245.44
437.614	238.44
437.835	216.44
438.057	206.44
438.278	231.44
438.5	248.44
438.721	268.44
438.943	266.44
439.165	258.44
439.386	279.44
439.608	303.44
439.829	286.44
440.05	290.44
440.272	289.44
440.493	287.44
440.715	299.44
440.936	305.44
441.158	299.44
441.379	297.44
441.6	308.44
441.822	325.44
442.043	291.44
442.264	282.44
442.486	288.44
442.707	283.44
442.928	300.44
443.149	289.44
443.371	276.44
443.592	291.44
443.813	296.44
444.034	292.44
444.255	311.44
444.476	299.44
444.698	299.44
444.919	340.44
445.14	593.44
445.361	434.44
445.582	323.44
445.803	282.44
446.024	305.44
446.245	313.44
446.466	330.44
446.687	276.44
446.908	297.44
447.129	301.44
447.35	288.44
447.571	309.44
447.792	297.44
448.013	278.44
448.234	281.44
448.455	285.44
448.675	299.44
448.896	259.44
449.117	271.44
449.338	267.44
449.559	281.44
449.779	237.44
450	253.44
450.221	279.44
450.442	277.44
450.662	263.44
450.883	275.44
451.104	274.44
451.324	243.44
451.545	253.44
451.766	259.44
451.986	233.44
452.207	257.44
452.428	243.44
452.648	234.44
452.869	218.44
453.089	223.44
453.31	206.44
453.53	201.44
453.751	207.44
453.971	197.44
454.192	182.44
454.412	200.44
454.633	219.44
454.853	215.44
455.073	214.44
455.294	222.44
455.514	237.44
455.734	232.44
455.955	212.44
456.175	220.44
456.395	200.44
456.616	192.44
456.836	200.44
457.056	199.44
457.276	185.44
457.497	208.44
457.717	169.44
457.937	190.44
458.157	201.44
458.377	196.44
458.598	178.44
458.818	164.44
459.038	166.44
459.258	190.44
459.478	181.44
459.698	193.44
459.918	193.44
460.138	213.44
460.358	233.44
460.578	259.44
460.798	225.44
461.018	240.44
461.238	233.44
461.458	250.44
461.678	232.44
461.898	225.44
462.118	239.44
462.338	237.44
462.558	228.44
462.777	253.44
462.997	235.44
463.217	255.44
463.437	268.44
463.657	247.44
463.876	241.44
464.096	233.44
464.316	242.44
464.536	248.44
464.755	252.44
464.975	245.44
465.195	226.44
465.414	230.44
465.634	215.44
465.854	212.44
466.073	246.44
466.293	258.44
466.512	238.44
466.732	264.44
466.951	254.44
467.171	260.44
467.391	260.44
467.61	264.44
467.829	271.44
468.049	275.44
468.268	259.44
468.488	253.44
468.707	252.44
468.927	250.44
469.146	255.44
469.365	264.44
469.585	252.44
469.804	262.44
470.023	275.44
470.243	288.44
470.462	283.44
470.681	279.44
470.901	282.44
471.12	264.44
471.339	281.44
471.558	283.44
471.777	256.44
471.997	263.44
472.216	227.44
472.435	215.44
472.654	199.44
472.873	210.44
473.092	211.44
473.311	234.44
473.53	236.44
473.749	239.44
473.968	231.44
474.187	223.44
474.406	214.44
474.625	238.44
474.844	246.44
475.063	244.44
475.282	231.44
475.501	227.44
475.72	235.44
475.939	228.44
476.158	242.44
476.377	218.44
476.596	223.44
476.814	211.44
477.033	196.44
477.252	216.44
477.471	233.44
477.69	259.44
477.908	288.44
478.127	267.44
478.346	280.44
478.564	270.44
478.783	263.44
479.002	273.44
479.22	271.44
479.439	259.44
479.658	244.44
479.876	225.44
480.095	208.44
480.313	241.44
480.532	238.44
480.751	225.44
480.969	185.44
481.188	180.44
481.406	185.44
481.624	181.44
481.843	172.44
482.061	182.44
482.28	197.44
482.498	209.44
482.717	224.44
482.935	241.44
483.153	274.44
483.372	277.44
483.59	292.44
483.808	259.44
484.027	243.44
484.245	245.44
484.463	266.44
484.681	303.44
484.9	259.44
485.118	253.44
485.336	223.44
485.554	214.44
485.772	197.44
485.99	209.44
486.209	223.44
486.427	217.44
486.645	221.44
486.863	252.44
487.081	276.44
487.299	258.44
487.517	261.44
487.735	338.44
487.953	377.44
488.171	355.44
488.389	324.44
488.607	291.44
488.825	253.44
489.043	236.44
489.261	253.44
489.479	257.44
489.696	266.44
489.914	274.44
490.132	288.44
490.35	323.44
490.568	335.44
490.786	353.44
491.003	341.44
491.221	357.44
491.439	397.44
491.657	407.44
491.874	440.44
492.092	456.44
492.31	474.44
492.527	447.44
492.745	417.44
492.963	377.44
493.18	401.44
493.398	386.44
493.615	359.44
493.833	362.44
494.05	349.44
494.268	348.44
494.485	348.44
494.703	351.44
494.92	364.44
495.138	362.44
495.355	360.44
495.573	368.44
495.79	377.44
496.008	360.44
496.225	347.44
496.442	338.44
496.66	363.44
496.877	320.44
497.094	347.44
497.312	349.44
497.529	312.44
497.746	328.44
497.963	290.44
498.181	276.44
498.398	268.44
498.615	272.44
498.832	271.44
499.049	299.44
499.267	309.44
499.484	334.44
499.701	376.44
499.918	403.44
500.135	448.44
500.352	515.44
500.569	517.44
500.786	483.44
501.003	459.44
501.22	429.44
501.437	392.44
501.654	367.44
501.871	325.44
502.088	322.44
502.305	324.44
502.522	313.44
502.739	304.44
502.956	287.44
503.172	286.44
503.389	270.44
503.606	270.44
503.823	262.44
504.04	247.44
504.256	267.44
504.473	264.44
504.69	264.44
504.907	264.44
