Data from SampD_HRD10591_00083.txt Node
Date: Mon Jan 19 11:48:06 EST 2026
User: Yrep
Spectrometer: HR+D1059
Trigger mode: 0
Integration Time (sec): 3.443000E-1
Scans to average: 1
Electric dark correction enabled: true
Nonlinearity correction enabled: false
Boxcar width: 0
XAxis mode: Wavelengths
Number of Pixels in Spectrum: 2048
>>>>>Begin Spectral Data<<<<<
223.165	-14.88
223.4	-14.88
223.635	-14.88
223.869	-21.88
224.104	-14.88
224.338	-11.88
224.573	-24.88
224.808	-24.88
225.042	-8.88
225.277	6.12
225.511	-1.88
225.746	10.12
225.98	13.12
226.215	5.12
226.449	8.12
226.683	24.12
226.918	14.12
227.152	43.12
227.387	47.12
227.621	52.12
227.856	58.12
228.09	71.12
228.324	58.12
228.559	72.12
228.793	58.12
229.027	73.12
229.262	76.12
229.496	83.12
229.73	89.12
229.964	79.12
230.199	80.12
230.433	85.12
230.667	86.12
230.901	78.12
231.136	81.12
231.37	95.12
231.604	102.12
231.838	85.12
232.072	99.12
232.306	84.12
232.541	78.12
232.775	89.12
233.009	95.12
233.243	92.12
233.477	100.12
233.711	90.12
233.945	86.12
234.179	107.12
234.413	93.12
234.647	96.12
234.881	96.12
235.115	88.12
235.349	94.12
235.583	85.12
235.817	106.12
236.051	74.12
236.285	89.12
236.519	88.12
236.753	91.12
236.987	91.12
237.221	82.12
237.455	79.12
237.689	88.12
237.922	90.12
238.156	85.12
238.39	97.12
238.624	88.12
238.858	90.12
239.091	88.12
239.325	84.12
239.559	100.12
239.793	91.12
240.027	102.12
240.26	86.12
240.494	83.12
240.728	82.12
240.961	85.12
241.195	99.12
241.429	92.12
241.662	77.12
241.896	93.12
242.13	86.12
242.363	81.12
242.597	81.12
242.83	99.12
243.064	89.12
243.298	91.12
243.531	82.12
243.765	89.12
243.998	95.12
244.232	101.12
244.465	93.12
244.699	90.12
244.932	79.12
245.166	104.12
245.399	87.12
245.633	90.12
245.866	95.12
246.099	93.12
246.333	96.12
246.566	95.12
246.8	100.12
247.033	92.12
247.266	98.12
247.5	79.12
247.733	88.12
247.966	97.12
248.2	86.12
248.433	93.12
248.666	87.12
248.899	97.12
249.133	95.12
249.366	93.12
249.599	102.12
249.832	93.12
250.066	100.12
250.299	104.12
250.532	100.12
250.765	95.12
250.998	102.12
251.231	100.12
251.465	99.12
251.698	99.12
251.931	100.12
252.164	99.12
252.397	98.12
252.63	100.12
252.863	92.12
253.096	91.12
253.329	93.12
253.562	105.12
253.795	101.12
254.028	79.12
254.261	85.12
254.494	89.12
254.727	98.12
254.96	109.12
255.193	83.12
255.426	90.12
255.659	89.12
255.892	95.12
256.124	109.12
256.357	109.12
256.59	100.12
256.823	100.12
257.056	98.12
257.289	101.12
257.521	105.12
257.754	84.12
257.987	91.12
258.22	113.12
258.452	98.12
258.685	99.12
258.918	98.12
259.151	92.12
259.383	96.12
259.616	89.12
259.849	109.12
260.081	105.12
260.314	102.12
260.547	84.12
260.779	101.12
261.012	94.12
261.244	88.12
261.477	112.12
261.71	89.12
261.942	100.12
262.175	101.12
262.407	107.12
262.64	102.12
262.872	116.12
263.105	101.12
263.337	120.12
263.57	98.12
263.802	101.12
264.035	107.12
264.267	103.12
264.499	93.12
264.732	103.12
264.964	107.12
265.197	93.12
265.429	106.12
265.661	122.12
265.894	108.12
266.126	110.12
266.358	103.12
266.591	106.12
266.823	130.12
267.055	105.12
267.287	119.12
267.52	120.12
267.752	119.12
267.984	105.12
268.216	102.12
268.448	117.12
268.681	89.12
268.913	107.12
269.145	109.12
269.377	100.12
269.609	97.12
269.841	96.12
270.073	111.12
270.306	107.12
270.538	106.12
270.77	111.12
271.002	109.12
271.234	109.12
271.466	127.12
271.698	98.12
271.93	98.12
272.162	119.12
272.394	114.12
272.626	112.12
272.858	118.12
273.09	122.12
273.322	112.12
273.553	120.12
273.785	103.12
274.017	116.12
274.249	118.12
274.481	101.12
274.713	93.12
274.945	112.12
275.176	114.12
275.408	122.12
275.64	103.12
275.872	89.12
276.104	104.12
276.335	111.12
276.567	124.12
276.799	113.12
277.031	118.12
277.262	106.12
277.494	107.12
277.726	122.12
277.957	108.12
278.189	118.12
278.421	116.12
278.652	114.12
278.884	116.12
279.115	98.12
279.347	121.12
279.579	110.12
279.81	108.12
280.042	106.12
280.273	119.12
280.505	121.12
280.736	112.12
280.968	120.12
281.199	116.12
281.431	92.12
281.662	114.12
281.894	117.12
282.125	104.12
282.356	111.12
282.588	111.12
282.819	120.12
283.051	124.12
283.282	111.12
283.513	111.12
283.745	115.12
283.976	118.12
284.207	116.12
284.439	118.12
284.67	119.12
284.901	112.12
285.132	110.12
285.364	121.12
285.595	121.12
285.826	108.12
286.057	109.12
286.288	114.12
286.52	131.12
286.751	113.12
286.982	127.12
287.213	108.12
287.444	121.12
287.675	125.12
287.906	132.12
288.138	120.12
288.369	121.12
288.6	126.12
288.831	110.12
289.062	112.12
289.293	110.12
289.524	111.12
289.755	123.12
289.986	114.12
290.217	118.12
290.448	119.12
290.679	134.12
290.91	108.12
291.141	105.12
291.371	114.12
291.602	123.12
291.833	120.12
292.064	124.12
292.295	126.12
292.526	117.12
292.757	114.12
292.987	123.12
293.218	124.12
293.449	115.12
293.68	115.12
293.91	109.12
294.141	118.12
294.372	120.12
294.603	109.12
294.833	117.12
295.064	125.12
295.295	117.12
295.525	118.12
295.756	116.12
295.987	123.12
296.217	115.12
296.448	117.12
296.679	126.12
296.909	128.12
297.14	120.12
297.37	126.12
297.601	135.12
297.831	119.12
298.062	125.12
298.292	111.12
298.523	138.12
298.753	143.12
298.984	132.12
299.214	124.12
299.445	124.12
299.675	128.12
299.905	111.12
300.136	124.12
300.366	122.12
300.597	130.12
300.827	132.12
301.057	119.12
301.288	120.12
301.518	133.12
301.748	120.12
301.979	174.12
302.209	131.12
302.439	131.12
302.669	107.12
302.9	136.12
303.13	139.12
303.36	130.12
303.59	127.12
303.82	127.12
304.051	118.12
304.281	134.12
304.511	133.12
304.741	120.12
304.971	132.12
305.201	126.12
305.431	116.12
305.661	121.12
305.891	109.12
306.121	133.12
306.352	133.12
306.582	121.12
306.812	142.12
307.042	125.12
307.272	110.12
307.502	121.12
307.731	131.12
307.961	117.12
308.191	130.12
308.421	117.12
308.651	116.12
308.881	134.12
309.111	116.12
309.341	118.12
309.571	134.12
309.8	116.12
310.03	127.12
310.26	138.12
310.49	121.12
310.72	129.12
310.949	124.12
311.179	120.12
311.409	130.12
311.639	127.12
311.868	149.12
312.098	124.12
312.328	135.12
312.557	155.12
312.787	126.12
313.017	132.12
313.246	150.12
313.476	129.12
313.706	139.12
313.935	117.12
314.165	130.12
314.394	117.12
314.624	119.12
314.853	126.12
315.083	131.12
315.312	127.12
315.542	139.12
315.771	114.12
316.001	126.12
316.23	125.12
316.46	126.12
316.689	123.12
316.919	132.12
317.148	130.12
317.377	125.12
317.607	136.12
317.836	112.12
318.065	136.12
318.295	131.12
318.524	127.12
318.753	127.12
318.983	126.12
319.212	129.12
319.441	105.12
319.67	113.12
319.9	129.12
320.129	118.12
320.358	130.12
320.587	124.12
320.816	132.12
321.046	123.12
321.275	142.12
321.504	132.12
321.733	135.12
321.962	147.12
322.191	125.12
322.42	119.12
322.649	139.12
322.878	138.12
323.108	129.12
323.337	128.12
323.566	125.12
323.795	136.12
324.024	122.12
324.253	126.12
324.482	120.12
324.71	135.12
324.939	130.12
325.168	129.12
325.397	134.12
325.626	126.12
325.855	126.12
326.084	138.12
326.313	149.12
326.542	135.12
326.77	129.12
326.999	125.12
327.228	136.12
327.457	126.12
327.686	143.12
327.914	136.12
328.143	140.12
328.372	138.12
328.6	139.12
328.829	128.12
329.058	121.12
329.287	135.12
329.515	142.12
329.744	139.12
329.972	137.12
330.201	143.12
330.43	137.12
330.658	127.12
330.887	138.12
331.115	135.12
331.344	127.12
331.572	143.12
331.801	119.12
332.03	134.12
332.258	148.12
332.486	146.12
332.715	153.12
332.943	155.12
333.172	146.12
333.4	150.12
333.629	166.12
333.857	155.12
334.085	168.12
334.314	150.12
334.542	152.12
334.771	146.12
334.999	133.12
335.227	140.12
335.455	135.12
335.684	152.12
335.912	136.12
336.14	142.12
336.369	134.12
336.597	132.12
336.825	143.12
337.053	128.12
337.281	153.12
337.51	137.12
337.738	142.12
337.966	143.12
338.194	138.12
338.422	140.12
338.65	140.12
338.878	137.12
339.106	124.12
339.334	153.12
339.562	148.12
339.79	146.12
340.018	125.12
340.246	126.12
340.474	137.12
340.702	128.12
340.93	125.12
341.158	133.12
341.386	144.12
341.614	124.12
341.842	136.12
342.07	126.12
342.298	121.12
342.526	132.12
342.754	143.12
342.981	130.12
343.209	147.12
343.437	179.12
343.665	153.12
343.893	146.12
344.12	161.12
344.348	138.12
344.576	145.12
344.804	129.12
345.031	143.12
345.259	131.12
345.487	132.12
345.714	143.12
345.942	137.12
346.17	132.12
346.397	146.12
346.625	137.12
346.853	140.12
347.08	131.12
347.308	127.12
347.535	141.12
347.763	143.12
347.99	132.12
348.218	138.12
348.445	132.12
348.673	142.12
348.9	137.12
349.128	128.12
349.355	137.12
349.583	140.12
349.81	125.12
350.037	125.12
350.265	126.12
350.492	132.12
350.72	124.12
350.947	133.12
351.174	143.12
351.402	126.12
351.629	133.12
351.856	126.12
352.083	137.12
352.311	122.12
352.538	133.12
352.765	149.12
352.992	141.12
353.22	138.12
353.447	130.12
353.674	126.12
353.901	149.12
354.128	140.12
354.355	120.12
354.583	127.12
354.81	150.12
355.037	130.12
355.264	137.12
355.491	149.12
355.718	130.12
355.945	125.12
356.172	131.12
356.399	132.12
356.626	142.12
356.853	134.12
357.08	140.12
357.307	141.12
357.534	143.12
357.761	134.12
357.988	117.12
358.215	125.12
358.441	122.12
358.668	131.12
358.895	116.12
359.122	135.12
359.349	123.12
359.576	131.12
359.802	130.12
360.029	138.12
360.256	146.12
360.483	122.12
360.709	118.12
360.936	142.12
361.163	137.12
361.39	135.12
361.616	150.12
361.843	131.12
362.07	122.12
362.296	135.12
362.523	117.12
362.749	140.12
362.976	125.12
363.203	151.12
363.429	132.12
363.656	137.12
363.882	121.12
364.109	140.12
364.335	124.12
364.562	143.12
364.788	126.12
365.015	147.12
365.241	135.12
365.468	141.12
365.694	131.12
365.92	124.12
366.147	128.12
366.373	151.12
366.599	142.12
366.826	146.12
367.052	141.12
367.278	158.12
367.505	138.12
367.731	150.12
367.957	143.12
368.184	130.12
368.41	141.12
368.636	138.12
368.862	138.12
369.089	135.12
369.315	150.12
369.541	164.12
369.767	149.12
369.993	142.12
370.219	150.12
370.445	150.12
370.672	151.12
370.898	146.12
371.124	155.12
371.35	165.12
371.576	140.12
371.802	147.12
372.028	143.12
372.254	140.12
372.48	162.12
372.706	154.12
372.932	162.12
373.158	155.12
373.384	166.12
373.61	153.12
373.835	160.12
374.061	169.12
374.287	164.12
374.513	159.12
374.739	154.12
374.965	168.12
375.191	154.12
375.416	175.12
375.642	164.12
375.868	160.12
376.094	164.12
376.319	156.12
376.545	164.12
376.771	176.12
376.997	157.12
377.222	176.12
377.448	171.12
377.674	161.12
377.899	167.12
378.125	161.12
378.35	157.12
378.576	167.12
378.802	167.12
379.027	168.12
379.253	156.12
379.478	172.12
379.704	154.12
379.929	164.12
380.155	167.12
380.38	167.12
380.606	163.12
380.831	167.12
381.057	168.12
381.282	154.12
381.507	164.12
381.733	170.12
381.958	169.12
382.184	172.12
382.409	166.12
382.634	190.12
382.86	184.12
383.085	184.12
383.31	178.12
383.535	179.12
383.761	192.12
383.986	164.12
384.211	189.12
384.436	174.12
384.662	188.12
384.887	184.12
385.112	177.12
385.337	184.12
385.562	177.12
385.787	174.12
386.013	191.12
386.238	189.12
386.463	183.12
386.688	199.12
386.913	184.12
387.138	190.12
387.363	197.12
387.588	202.12
387.813	189.12
388.038	205.12
388.263	208.12
388.488	198.12
388.713	190.12
388.938	196.12
389.163	200.12
389.387	195.12
389.612	196.12
389.837	197.12
390.062	191.12
390.287	196.12
390.512	210.12
390.736	205.12
390.961	218.12
391.186	199.12
391.411	203.12
391.636	200.12
391.86	211.12
392.085	198.12
392.31	215.12
392.534	208.12
392.759	210.12
392.984	194.12
393.208	224.12
393.433	208.12
393.658	204.12
393.882	215.12
394.107	207.12
394.331	206.12
394.556	203.12
394.78	216.12
395.005	214.12
395.229	214.12
395.454	211.12
395.678	213.12
395.903	212.12
396.127	217.12
396.352	222.12
396.576	215.12
396.801	224.12
397.025	198.12
397.249	236.12
397.474	223.12
397.698	226.12
397.922	212.12
398.147	217.12
398.371	225.12
398.595	228.12
398.82	241.12
399.044	240.12
399.268	268.12
399.492	294.12
399.717	314.12
399.941	293.12
400.165	268.12
400.389	255.12
400.613	235.12
400.837	239.12
401.062	239.12
401.286	236.12
401.51	255.12
401.734	234.12
401.958	248.12
402.182	251.12
402.406	251.12
402.63	252.12
402.854	254.12
403.078	252.12
403.302	244.12
403.526	262.12
403.75	266.12
403.974	249.12
404.198	266.12
404.422	279.12
404.645	268.12
404.869	271.12
405.093	262.12
405.317	256.12
405.541	264.12
405.765	256.12
405.988	250.12
406.212	248.12
406.436	258.12
406.66	265.12
406.883	270.12
407.107	270.12
407.331	309.12
407.555	292.12
407.778	279.12
408.002	261.12
408.226	260.12
408.449	286.12
408.673	269.12
408.896	276.12
409.12	266.12
409.344	286.12
409.567	282.12
409.791	272.12
410.014	271.12
410.238	273.12
410.461	280.12
410.685	274.12
410.908	253.12
411.132	295.12
411.355	277.12
411.578	263.12
411.802	260.12
412.025	280.12
412.249	259.12
412.472	263.12
412.695	255.12
412.919	249.12
413.142	278.12
413.365	282.12
413.589	278.12
413.812	257.12
414.035	264.12
414.258	264.12
414.482	273.12
414.705	276.12
414.928	278.12
415.151	270.12
415.374	272.12
415.597	270.12
415.821	248.12
416.044	250.12
416.267	282.12
416.49	263.12
416.713	271.12
416.936	286.12
417.159	258.12
417.382	259.12
417.605	289.12
417.828	284.12
418.051	282.12
418.274	298.12
418.497	287.12
418.72	290.12
418.943	286.12
419.166	309.12
419.389	316.12
419.611	291.12
419.834	293.12
420.057	295.12
420.28	281.12
420.503	284.12
420.726	276.12
420.948	286.12
421.171	302.12
421.394	285.12
421.617	308.12
421.839	302.12
422.062	301.12
422.285	272.12
422.507	282.12
422.73	282.12
422.953	268.12
423.175	276.12
423.398	266.12
423.621	303.12
423.843	291.12
424.066	291.12
424.288	295.12
424.511	318.12
424.733	307.12
424.956	284.12
425.178	286.12
425.401	281.12
425.623	283.12
425.846	262.12
426.068	269.12
426.291	264.12
426.513	279.12
426.735	282.12
426.958	275.12
427.18	286.12
427.402	286.12
427.625	272.12
427.847	277.12
428.069	268.12
428.292	278.12
428.514	279.12
428.736	282.12
428.958	271.12
429.181	278.12
429.403	258.12
429.625	250.12
429.847	253.12
430.069	246.12
430.292	262.12
430.514	277.12
430.736	249.12
430.958	249.12
431.18	262.12
431.402	245.12
431.624	238.12
431.846	216.12
432.068	207.12
432.29	205.12
432.512	229.12
432.734	257.12
432.956	284.12
433.178	294.12
433.4	294.12
433.622	274.12
433.844	272.12
434.066	256.12
434.287	222.12
434.509	218.12
434.731	218.12
434.953	228.12
435.175	244.12
435.397	275.12
435.618	238.12
435.84	226.12
436.062	230.12
436.284	261.12
436.505	271.12
436.727	255.12
436.949	249.12
437.17	271.12
437.392	251.12
437.614	235.12
437.835	204.12
438.057	228.12
438.278	218.12
438.5	243.12
438.721	270.12
438.943	263.12
439.165	276.12
439.386	278.12
439.608	293.12
439.829	290.12
440.05	294.12
440.272	310.12
440.493	310.12
440.715	315.12
440.936	305.12
441.158	306.12
441.379	299.12
441.6	325.12
441.822	304.12
442.043	292.12
442.264	304.12
442.486	316.12
442.707	302.12
442.928	301.12
443.149	302.12
443.371	275.12
443.592	303.12
443.813	295.12
444.034	300.12
444.255	300.12
444.476	309.12
444.698	318.12
444.919	310.12
445.14	574.12
445.361	429.12
445.582	330.12
445.803	312.12
446.024	325.12
446.245	307.12
446.466	330.12
446.687	317.12
446.908	302.12
447.129	327.12
447.35	309.12
447.571	305.12
447.792	277.12
448.013	296.12
448.234	293.12
448.455	278.12
448.675	282.12
448.896	302.12
449.117	298.12
449.338	280.12
449.559	281.12
449.779	278.12
450	283.12
450.221	268.12
450.442	265.12
450.662	269.12
450.883	270.12
451.104	277.12
451.324	260.12
451.545	265.12
451.766	254.12
451.986	254.12
452.207	252.12
452.428	252.12
452.648	239.12
452.869	227.12
453.089	202.12
453.31	204.12
453.53	205.12
453.751	195.12
453.971	196.12
454.192	207.12
454.412	223.12
454.633	221.12
454.853	217.12
455.073	215.12
455.294	230.12
455.514	246.12
455.734	244.12
455.955	231.12
456.175	206.12
456.395	207.12
456.616	202.12
456.836	210.12
457.056	206.12
457.276	176.12
457.497	194.12
457.717	192.12
457.937	194.12
458.157	198.12
458.377	175.12
458.598	169.12
458.818	186.12
459.038	159.12
459.258	165.12
459.478	189.12
459.698	194.12
459.918	202.12
460.138	228.12
460.358	248.12
460.578	238.12
460.798	238.12
461.018	238.12
461.238	241.12
461.458	246.12
461.678	234.12
461.898	247.12
462.118	230.12
462.338	254.12
462.558	239.12
462.777	247.12
462.997	261.12
463.217	277.12
463.437	278.12
463.657	259.12
463.876	247.12
464.096	254.12
464.316	255.12
464.536	253.12
464.755	240.12
464.975	240.12
465.195	250.12
465.414	254.12
465.634	230.12
465.854	250.12
466.073	228.12
466.293	242.12
466.512	250.12
466.732	254.12
466.951	268.12
467.171	267.12
467.391	263.12
467.61	266.12
467.829	270.12
468.049	263.12
468.268	267.12
468.488	268.12
468.707	252.12
468.927	261.12
469.146	266.12
469.365	258.12
469.585	280.12
469.804	284.12
470.023	275.12
470.243	290.12
470.462	283.12
470.681	282.12
470.901	271.12
471.12	274.12
471.339	290.12
471.558	277.12
471.777	281.12
471.997	261.12
472.216	262.12
472.435	231.12
472.654	193.12
472.873	220.12
473.092	219.12
473.311	240.12
473.53	238.12
473.749	247.12
473.968	247.12
474.187	235.12
474.406	240.12
474.625	240.12
474.844	250.12
475.063	247.12
475.282	233.12
475.501	212.12
475.72	242.12
475.939	262.12
476.158	250.12
476.377	247.12
476.596	236.12
476.814	206.12
477.033	206.12
477.252	222.12
477.471	235.12
477.69	259.12
477.908	285.12
478.127	283.12
478.346	277.12
478.564	261.12
478.783	284.12
479.002	288.12
479.22	282.12
479.439	270.12
479.658	269.12
479.876	240.12
480.095	222.12
480.313	244.12
480.532	246.12
480.751	227.12
480.969	188.12
481.188	192.12
481.406	189.12
481.624	183.12
481.843	168.12
482.061	211.12
482.28	220.12
482.498	219.12
482.717	229.12
482.935	266.12
483.153	268.12
483.372	294.12
483.59	286.12
483.808	259.12
484.027	255.12
484.245	255.12
484.463	282.12
484.681	296.12
484.9	284.12
485.118	286.12
485.336	255.12
485.554	222.12
485.772	207.12
485.99	217.12
486.209	223.12
486.427	204.12
486.645	239.12
486.863	278.12
487.081	282.12
487.299	276.12
487.517	293.12
487.735	344.12
487.953	360.12
488.171	378.12
488.389	328.12
488.607	294.12
488.825	268.12
489.043	264.12
489.261	278.12
489.479	283.12
489.696	281.12
489.914	274.12
490.132	298.12
490.35	299.12
490.568	334.12
490.786	348.12
491.003	373.12
491.221	371.12
491.439	379.12
491.657	392.12
491.874	442.12
492.092	468.12
492.31	500.12
492.527	452.12
492.745	432.12
492.963	391.12
493.18	415.12
493.398	372.12
493.615	383.12
493.833	360.12
494.05	384.12
494.268	363.12
494.485	384.12
494.703	376.12
494.92	360.12
495.138	378.12
495.355	358.12
495.573	372.12
495.79	360.12
496.008	341.12
496.225	357.12
496.442	363.12
496.66	348.12
496.877	343.12
497.094	375.12
497.312	336.12
497.529	350.12
497.746	318.12
497.963	305.12
498.181	276.12
498.398	259.12
498.615	274.12
498.832	280.12
499.049	303.12
499.267	321.12
499.484	384.12
499.701	386.12
499.918	422.12
500.135	464.12
500.352	509.12
500.569	506.12
500.786	490.12
501.003	486.12
501.22	446.12
501.437	396.12
501.654	360.12
501.871	347.12
502.088	332.12
502.305	322.12
502.522	319.12
502.739	308.12
502.956	292.12
503.172	290.12
503.389	281.12
503.606	280.12
503.823	260.12
504.04	281.12
504.256	274.12
504.473	266.12
