Data from SampD_HRD10591_00079.txt Node
Date: Mon Jan 19 11:48:05 EST 2026
User: Yrep
Spectrometer: HR+D1059
Trigger mode: 0
Integration Time (sec): 3.443000E-1
Scans to average: 1
Electric dark correction enabled: true
Nonlinearity correction enabled: false
Boxcar width: 0
XAxis mode: Wavelengths
Number of Pixels in Spectrum: 2048
>>>>>Begin Spectral Data<<<<<
223.165	-1.5
223.4	-1.5
223.635	-1.5
223.869	-29.5
224.104	-15.5
224.338	-21.5
224.573	-24.5
224.808	-3.5
225.042	-7.5
225.277	-21.5
225.511	-3.5
225.746	13.5
225.98	2.5
226.215	16.5
226.449	17.5
226.683	19.5
226.918	19.5
227.152	39.5
227.387	29.5
227.621	32.5
227.856	73.5
228.09	61.5
228.324	58.5
228.559	52.5
228.793	55.5
229.027	51.5
229.262	64.5
229.496	51.5
229.73	85.5
229.964	97.5
230.199	69.5
230.433	66.5
230.667	69.5
230.901	62.5
231.136	93.5
231.37	78.5
231.604	81.5
231.838	80.5
232.072	86.5
232.306	86.5
232.541	91.5
232.775	92.5
233.009	89.5
233.243	80.5
233.477	83.5
233.711	85.5
233.945	92.5
234.179	91.5
234.413	96.5
234.647	76.5
234.881	84.5
235.115	88.5
235.349	77.5
235.583	94.5
235.817	77.5
236.051	73.5
236.285	86.5
236.519	86.5
236.753	83.5
236.987	77.5
237.221	71.5
237.455	78.5
237.689	78.5
237.922	79.5
238.156	77.5
238.39	86.5
238.624	74.5
238.858	79.5
239.091	76.5
239.325	87.5
239.559	90.5
239.793	84.5
240.027	95.5
240.26	78.5
240.494	87.5
240.728	82.5
240.961	79.5
241.195	88.5
241.429	84.5
241.662	73.5
241.896	80.5
242.13	82.5
242.363	77.5
242.597	71.5
242.83	74.5
243.064	72.5
243.298	93.5
243.531	84.5
243.765	81.5
243.998	82.5
244.232	79.5
244.465	85.5
244.699	95.5
244.932	74.5
245.166	72.5
245.399	100.5
245.633	84.5
245.866	73.5
246.099	79.5
246.333	86.5
246.566	101.5
246.8	81.5
247.033	95.5
247.266	96.5
247.5	90.5
247.733	98.5
247.966	88.5
248.2	92.5
248.433	97.5
248.666	78.5
248.899	71.5
249.133	90.5
249.366	82.5
249.599	83.5
249.832	89.5
250.066	103.5
250.299	96.5
250.532	86.5
250.765	84.5
250.998	74.5
251.231	92.5
251.465	78.5
251.698	85.5
251.931	84.5
252.164	88.5
252.397	97.5
252.63	95.5
252.863	86.5
253.096	97.5
253.329	91.5
253.562	87.5
253.795	87.5
254.028	89.5
254.261	91.5
254.494	95.5
254.727	107.5
254.96	97.5
255.193	84.5
255.426	91.5
255.659	78.5
255.892	97.5
256.124	86.5
256.357	92.5
256.59	102.5
256.823	97.5
257.056	92.5
257.289	85.5
257.521	93.5
257.754	95.5
257.987	77.5
258.22	95.5
258.452	85.5
258.685	88.5
258.918	89.5
259.151	88.5
259.383	93.5
259.616	84.5
259.849	92.5
260.081	106.5
260.314	93.5
260.547	99.5
260.779	98.5
261.012	105.5
261.244	104.5
261.477	109.5
261.71	108.5
261.942	105.5
262.175	90.5
262.407	85.5
262.64	101.5
262.872	87.5
263.105	105.5
263.337	110.5
263.57	94.5
263.802	108.5
264.035	104.5
264.267	101.5
264.499	85.5
264.732	106.5
264.964	109.5
265.197	106.5
265.429	84.5
265.661	102.5
265.894	101.5
266.126	111.5
266.358	103.5
266.591	109.5
266.823	104.5
267.055	85.5
267.287	82.5
267.52	90.5
267.752	105.5
267.984	94.5
268.216	103.5
268.448	109.5
268.681	106.5
268.913	117.5
269.145	92.5
269.377	119.5
269.609	102.5
269.841	96.5
270.073	98.5
270.306	97.5
270.538	106.5
270.77	105.5
271.002	104.5
271.234	111.5
271.466	98.5
271.698	107.5
271.93	103.5
272.162	105.5
272.394	109.5
272.626	100.5
272.858	112.5
273.09	102.5
273.322	114.5
273.553	100.5
273.785	113.5
274.017	103.5
274.249	112.5
274.481	93.5
274.713	117.5
274.945	107.5
275.176	107.5
275.408	116.5
275.64	120.5
275.872	102.5
276.104	107.5
276.335	108.5
276.567	103.5
276.799	111.5
277.031	119.5
277.262	109.5
277.494	134.5
277.726	117.5
277.957	115.5
278.189	109.5
278.421	111.5
278.652	105.5
278.884	117.5
279.115	119.5
279.347	115.5
279.579	99.5
279.81	105.5
280.042	105.5
280.273	101.5
280.505	118.5
280.736	106.5
280.968	111.5
281.199	123.5
281.431	121.5
281.662	116.5
281.894	123.5
282.125	117.5
282.356	121.5
282.588	108.5
282.819	115.5
283.051	100.5
283.282	115.5
283.513	133.5
283.745	114.5
283.976	106.5
284.207	111.5
284.439	112.5
284.67	110.5
284.901	112.5
285.132	115.5
285.364	112.5
285.595	114.5
285.826	132.5
286.057	113.5
286.288	111.5
286.52	109.5
286.751	106.5
286.982	114.5
287.213	120.5
287.444	133.5
287.675	115.5
287.906	124.5
288.138	110.5
288.369	121.5
288.6	121.5
288.831	125.5
289.062	130.5
289.293	126.5
289.524	114.5
289.755	108.5
289.986	110.5
290.217	113.5
290.448	119.5
290.679	115.5
290.91	128.5
291.141	123.5
291.371	121.5
291.602	111.5
291.833	121.5
292.064	119.5
292.295	111.5
292.526	97.5
292.757	124.5
292.987	130.5
293.218	108.5
293.449	118.5
293.68	123.5
293.91	114.5
294.141	122.5
294.372	126.5
294.603	130.5
294.833	116.5
295.064	112.5
295.295	119.5
295.525	121.5
295.756	109.5
295.987	112.5
296.217	116.5
296.448	126.5
296.679	129.5
296.909	146.5
297.14	122.5
297.37	130.5
297.601	112.5
297.831	125.5
298.062	134.5
298.292	124.5
298.523	128.5
298.753	129.5
298.984	129.5
299.214	126.5
299.445	111.5
299.675	130.5
299.905	127.5
300.136	117.5
300.366	126.5
300.597	125.5
300.827	125.5
301.057	127.5
301.288	142.5
301.518	136.5
301.748	128.5
301.979	176.5
302.209	122.5
302.439	140.5
302.669	126.5
302.9	131.5
303.13	113.5
303.36	140.5
303.59	129.5
303.82	131.5
304.051	125.5
304.281	134.5
304.511	135.5
304.741	120.5
304.971	121.5
305.201	132.5
305.431	124.5
305.661	122.5
305.891	111.5
306.121	115.5
306.352	126.5
306.582	142.5
306.812	115.5
307.042	112.5
307.272	124.5
307.502	130.5
307.731	140.5
307.961	140.5
308.191	138.5
308.421	128.5
308.651	141.5
308.881	134.5
309.111	114.5
309.341	126.5
309.571	121.5
309.8	110.5
310.03	128.5
310.26	137.5
310.49	140.5
310.72	136.5
310.949	118.5
311.179	122.5
311.409	126.5
311.639	122.5
311.868	133.5
312.098	141.5
312.328	130.5
312.557	135.5
312.787	134.5
313.017	136.5
313.246	124.5
313.476	137.5
313.706	140.5
313.935	121.5
314.165	138.5
314.394	126.5
314.624	135.5
314.853	126.5
315.083	126.5
315.312	126.5
315.542	129.5
315.771	125.5
316.001	121.5
316.23	128.5
316.46	136.5
316.689	126.5
316.919	125.5
317.148	131.5
317.377	128.5
317.607	129.5
317.836	127.5
318.065	132.5
318.295	134.5
318.524	134.5
318.753	140.5
318.983	116.5
319.212	125.5
319.441	127.5
319.67	132.5
319.9	121.5
320.129	120.5
320.358	131.5
320.587	133.5
320.816	118.5
321.046	130.5
321.275	122.5
321.504	124.5
321.733	137.5
321.962	129.5
322.191	131.5
322.42	132.5
322.649	133.5
322.878	154.5
323.108	127.5
323.337	132.5
323.566	143.5
323.795	118.5
324.024	128.5
324.253	120.5
324.482	128.5
324.71	132.5
324.939	157.5
325.168	121.5
325.397	139.5
325.626	128.5
325.855	156.5
326.084	149.5
326.313	136.5
326.542	154.5
326.77	150.5
326.999	127.5
327.228	137.5
327.457	136.5
327.686	136.5
327.914	141.5
328.143	152.5
328.372	140.5
328.6	146.5
328.829	126.5
329.058	148.5
329.287	125.5
329.515	137.5
329.744	138.5
329.972	115.5
330.201	132.5
330.43	134.5
330.658	134.5
330.887	120.5
331.115	125.5
331.344	141.5
331.572	147.5
331.801	124.5
332.03	143.5
332.258	145.5
332.486	152.5
332.715	153.5
332.943	144.5
333.172	159.5
333.4	160.5
333.629	164.5
333.857	154.5
334.085	154.5
334.314	153.5
334.542	152.5
334.771	164.5
334.999	160.5
335.227	134.5
335.455	150.5
335.684	169.5
335.912	145.5
336.14	156.5
336.369	144.5
336.597	140.5
336.825	166.5
337.053	137.5
337.281	140.5
337.51	153.5
337.738	155.5
337.966	140.5
338.194	145.5
338.422	141.5
338.65	151.5
338.878	136.5
339.106	146.5
339.334	148.5
339.562	140.5
339.79	144.5
340.018	143.5
340.246	141.5
340.474	133.5
340.702	152.5
340.93	127.5
341.158	133.5
341.386	130.5
341.614	137.5
341.842	133.5
342.07	135.5
342.298	121.5
342.526	132.5
342.754	141.5
342.981	132.5
343.209	134.5
343.437	166.5
343.665	146.5
343.893	151.5
344.12	148.5
344.348	160.5
344.576	142.5
344.804	153.5
345.031	142.5
345.259	140.5
345.487	155.5
345.714	156.5
345.942	148.5
346.17	140.5
346.397	126.5
346.625	123.5
346.853	133.5
347.08	142.5
347.308	146.5
347.535	152.5
347.763	134.5
347.99	142.5
348.218	141.5
348.445	129.5
348.673	126.5
348.9	123.5
349.128	142.5
349.355	124.5
349.583	146.5
349.81	137.5
350.037	144.5
350.265	134.5
350.492	143.5
350.72	153.5
350.947	137.5
351.174	140.5
351.402	140.5
351.629	129.5
351.856	130.5
352.083	140.5
352.311	143.5
352.538	133.5
352.765	131.5
352.992	150.5
353.22	141.5
353.447	134.5
353.674	141.5
353.901	126.5
354.128	140.5
354.355	132.5
354.583	127.5
354.81	137.5
355.037	113.5
355.264	143.5
355.491	133.5
355.718	156.5
355.945	123.5
356.172	127.5
356.399	137.5
356.626	148.5
356.853	144.5
357.08	125.5
357.307	128.5
357.534	130.5
357.761	136.5
357.988	158.5
358.215	138.5
358.441	130.5
358.668	129.5
358.895	125.5
359.122	124.5
359.349	141.5
359.576	141.5
359.802	128.5
360.029	112.5
360.256	139.5
360.483	132.5
360.709	149.5
360.936	156.5
361.163	130.5
361.39	119.5
361.616	140.5
361.843	124.5
362.07	128.5
362.296	142.5
362.523	130.5
362.749	138.5
362.976	127.5
363.203	134.5
363.429	132.5
363.656	148.5
363.882	142.5
364.109	137.5
364.335	136.5
364.562	132.5
364.788	128.5
365.015	130.5
365.241	128.5
365.468	132.5
365.694	133.5
365.92	134.5
366.147	136.5
366.373	137.5
366.599	120.5
366.826	121.5
367.052	137.5
367.278	141.5
367.505	148.5
367.731	167.5
367.957	152.5
368.184	149.5
368.41	134.5
368.636	148.5
368.862	141.5
369.089	158.5
369.315	148.5
369.541	151.5
369.767	160.5
369.993	131.5
370.219	128.5
370.445	137.5
370.672	159.5
370.898	135.5
371.124	146.5
371.35	163.5
371.576	149.5
371.802	145.5
372.028	135.5
372.254	149.5
372.48	160.5
372.706	173.5
372.932	164.5
373.158	157.5
373.384	144.5
373.61	156.5
373.835	169.5
374.061	157.5
374.287	156.5
374.513	162.5
374.739	149.5
374.965	166.5
375.191	175.5
375.416	174.5
375.642	167.5
375.868	174.5
376.094	166.5
376.319	165.5
376.545	164.5
376.771	171.5
376.997	162.5
377.222	159.5
377.448	160.5
377.674	148.5
377.899	164.5
378.125	159.5
378.35	162.5
378.576	165.5
378.802	166.5
379.027	157.5
379.253	157.5
379.478	159.5
379.704	169.5
379.929	165.5
380.155	166.5
380.38	170.5
380.606	172.5
380.831	169.5
381.057	174.5
381.282	180.5
381.507	171.5
381.733	181.5
381.958	164.5
382.184	171.5
382.409	161.5
382.634	184.5
382.86	160.5
383.085	176.5
383.31	169.5
383.535	196.5
383.761	189.5
383.986	199.5
384.211	184.5
384.436	191.5
384.662	175.5
384.887	170.5
385.112	183.5
385.337	181.5
385.562	181.5
385.787	195.5
386.013	205.5
386.238	190.5
386.463	197.5
386.688	209.5
386.913	199.5
387.138	188.5
387.363	181.5
387.588	212.5
387.813	199.5
388.038	198.5
388.263	213.5
388.488	208.5
388.713	195.5
388.938	191.5
389.163	200.5
389.387	206.5
389.612	195.5
389.837	184.5
390.062	217.5
390.287	204.5
390.512	201.5
390.736	211.5
390.961	223.5
391.186	209.5
391.411	196.5
391.636	220.5
391.86	211.5
392.085	226.5
392.31	224.5
392.534	193.5
392.759	210.5
392.984	232.5
393.208	210.5
393.433	220.5
393.658	216.5
393.882	220.5
394.107	212.5
394.331	233.5
394.556	221.5
394.78	228.5
395.005	224.5
395.229	212.5
395.454	222.5
395.678	212.5
395.903	222.5
396.127	232.5
396.352	224.5
396.576	196.5
396.801	210.5
397.025	219.5
397.249	206.5
397.474	223.5
397.698	228.5
397.922	240.5
398.147	217.5
398.371	246.5
398.595	250.5
398.82	237.5
399.044	256.5
399.268	271.5
399.492	289.5
399.717	298.5
399.941	288.5
400.165	253.5
400.389	275.5
400.613	257.5
400.837	239.5
401.062	240.5
401.286	245.5
401.51	253.5
401.734	238.5
401.958	259.5
402.182	264.5
402.406	249.5
402.63	265.5
402.854	254.5
403.078	250.5
403.302	261.5
403.526	263.5
403.75	288.5
403.974	270.5
404.198	271.5
404.422	292.5
404.645	268.5
404.869	274.5
405.093	271.5
405.317	260.5
405.541	260.5
405.765	272.5
405.988	272.5
406.212	253.5
406.436	272.5
406.66	271.5
406.883	287.5
407.107	289.5
407.331	303.5
407.555	302.5
407.778	298.5
408.002	272.5
408.226	276.5
408.449	260.5
408.673	268.5
408.896	263.5
409.12	280.5
409.344	278.5
409.567	278.5
409.791	277.5
410.014	281.5
410.238	276.5
410.461	278.5
410.685	290.5
410.908	271.5
411.132	272.5
411.355	252.5
411.578	283.5
411.802	274.5
412.025	274.5
412.249	288.5
412.472	268.5
412.695	277.5
412.919	270.5
413.142	257.5
413.365	286.5
413.589	268.5
413.812	256.5
414.035	273.5
414.258	264.5
414.482	253.5
414.705	258.5
414.928	270.5
415.151	266.5
415.374	272.5
415.597	262.5
415.821	269.5
416.044	281.5
416.267	277.5
416.49	278.5
416.713	298.5
416.936	282.5
417.159	275.5
417.382	263.5
417.605	263.5
417.828	274.5
418.051	292.5
418.274	277.5
418.497	289.5
418.72	288.5
418.943	296.5
419.166	295.5
419.389	321.5
419.611	287.5
419.834	307.5
420.057	311.5
420.28	303.5
420.503	271.5
420.726	264.5
420.948	278.5
421.171	286.5
421.394	292.5
421.617	314.5
421.839	296.5
422.062	299.5
422.285	286.5
422.507	283.5
422.73	287.5
422.953	280.5
423.175	285.5
423.398	281.5
423.621	286.5
423.843	314.5
424.066	317.5
424.288	326.5
424.511	310.5
424.733	324.5
424.956	306.5
425.178	294.5
425.401	300.5
425.623	295.5
425.846	276.5
426.068	269.5
426.291	260.5
426.513	272.5
426.735	284.5
426.958	263.5
427.18	268.5
427.402	268.5
427.625	270.5
427.847	265.5
428.069	272.5
428.292	262.5
428.514	267.5
428.736	252.5
428.958	268.5
429.181	260.5
429.403	253.5
429.625	256.5
429.847	264.5
430.069	277.5
430.292	277.5
430.514	272.5
430.736	257.5
430.958	276.5
431.18	266.5
431.402	252.5
431.624	242.5
431.846	207.5
432.068	204.5
432.29	201.5
432.512	249.5
432.734	244.5
432.956	269.5
433.178	264.5
433.4	292.5
433.622	276.5
433.844	277.5
434.066	241.5
434.287	210.5
434.509	205.5
434.731	212.5
434.953	246.5
435.175	261.5
435.397	259.5
435.618	243.5
435.84	216.5
436.062	230.5
436.284	270.5
436.505	260.5
436.727	263.5
436.949	274.5
437.17	265.5
437.392	268.5
437.614	241.5
437.835	206.5
438.057	209.5
438.278	253.5
438.5	256.5
438.721	237.5
438.943	270.5
439.165	279.5
439.386	288.5
439.608	307.5
439.829	287.5
440.05	301.5
440.272	298.5
440.493	301.5
440.715	295.5
440.936	304.5
441.158	275.5
441.379	304.5
441.6	339.5
441.822	315.5
442.043	325.5
442.264	288.5
442.486	308.5
442.707	304.5
442.928	301.5
443.149	295.5
443.371	290.5
443.592	297.5
443.813	314.5
444.034	292.5
444.255	304.5
444.476	310.5
444.698	330.5
444.919	351.5
445.14	602.5
445.361	427.5
445.582	345.5
445.803	298.5
446.024	303.5
446.245	340.5
446.466	316.5
446.687	312.5
446.908	310.5
447.129	314.5
447.35	308.5
447.571	292.5
447.792	292.5
448.013	301.5
448.234	294.5
448.455	295.5
448.675	275.5
448.896	269.5
449.117	273.5
449.338	283.5
449.559	287.5
449.779	257.5
450	293.5
450.221	276.5
450.442	269.5
450.662	265.5
450.883	270.5
451.104	260.5
451.324	258.5
451.545	261.5
451.766	256.5
451.986	264.5
452.207	254.5
452.428	253.5
452.648	242.5
452.869	228.5
453.089	230.5
453.31	204.5
453.53	210.5
453.751	191.5
453.971	207.5
454.192	206.5
454.412	207.5
454.633	212.5
454.853	235.5
455.073	246.5
455.294	225.5
455.514	229.5
455.734	235.5
455.955	222.5
456.175	216.5
456.395	207.5
456.616	200.5
456.836	216.5
457.056	200.5
457.276	181.5
457.497	200.5
457.717	197.5
457.937	209.5
458.157	176.5
458.377	188.5
458.598	147.5
458.818	177.5
459.038	177.5
459.258	173.5
459.478	181.5
459.698	193.5
459.918	199.5
460.138	220.5
460.358	232.5
460.578	248.5
460.798	255.5
461.018	241.5
461.238	241.5
461.458	230.5
461.678	223.5
461.898	236.5
462.118	244.5
462.338	258.5
462.558	240.5
462.777	256.5
462.997	264.5
463.217	281.5
463.437	254.5
463.657	263.5
463.876	259.5
464.096	249.5
464.316	259.5
464.536	278.5
464.755	254.5
464.975	264.5
465.195	270.5
465.414	245.5
465.634	233.5
465.854	247.5
466.073	237.5
466.293	249.5
466.512	253.5
466.732	242.5
466.951	249.5
467.171	259.5
467.391	258.5
467.61	269.5
467.829	276.5
468.049	268.5
468.268	252.5
468.488	266.5
468.707	268.5
468.927	260.5
469.146	269.5
469.365	260.5
469.585	284.5
469.804	276.5
470.023	279.5
470.243	272.5
470.462	278.5
470.681	288.5
470.901	304.5
471.12	271.5
471.339	274.5
471.558	272.5
471.777	265.5
471.997	265.5
472.216	248.5
472.435	230.5
472.654	208.5
472.873	201.5
473.092	210.5
473.311	236.5
473.53	235.5
473.749	242.5
473.968	237.5
474.187	224.5
474.406	230.5
474.625	251.5
474.844	253.5
475.063	242.5
475.282	239.5
475.501	209.5
475.72	240.5
475.939	248.5
476.158	260.5
476.377	248.5
476.596	240.5
476.814	224.5
477.033	205.5
477.252	217.5
477.471	250.5
477.69	277.5
477.908	296.5
478.127	288.5
478.346	297.5
478.564	284.5
478.783	294.5
479.002	287.5
479.22	280.5
479.439	275.5
479.658	250.5
479.876	256.5
480.095	233.5
480.313	260.5
480.532	250.5
480.751	232.5
480.969	180.5
481.188	184.5
481.406	197.5
481.624	192.5
481.843	184.5
482.061	186.5
482.28	223.5
482.498	230.5
482.717	228.5
482.935	236.5
483.153	273.5
483.372	302.5
483.59	286.5
483.808	258.5
484.027	235.5
484.245	245.5
484.463	273.5
484.681	304.5
484.9	278.5
485.118	281.5
485.336	244.5
485.554	219.5
485.772	215.5
485.99	222.5
486.209	222.5
486.427	220.5
486.645	249.5
486.863	277.5
487.081	270.5
487.299	249.5
487.517	268.5
487.735	321.5
487.953	366.5
488.171	344.5
488.389	343.5
488.607	302.5
488.825	270.5
489.043	267.5
489.261	272.5
489.479	281.5
489.696	276.5
489.914	281.5
490.132	283.5
490.35	303.5
490.568	351.5
490.786	341.5
491.003	367.5
491.221	401.5
491.439	396.5
491.657	385.5
491.874	427.5
492.092	449.5
492.31	486.5
492.527	470.5
492.745	410.5
492.963	403.5
493.18	405.5
493.398	391.5
493.615	386.5
493.833	382.5
494.05	359.5
494.268	372.5
494.485	364.5
494.703	382.5
494.92	365.5
495.138	377.5
495.355	362.5
495.573	358.5
495.79	362.5
496.008	365.5
496.225	381.5
496.442	357.5
496.66	361.5
496.877	345.5
497.094	358.5
497.312	345.5
497.529	334.5
497.746	342.5
497.963	296.5
498.181	292.5
498.398	272.5
498.615	293.5
498.832	297.5
499.049	304.5
499.267	328.5
499.484	358.5
499.701	405.5
499.918	439.5
500.135	471.5
500.352	522.5
500.569	545.5
500.786	554.5
501.003	506.5
501.22	458.5
501.437	403.5
501.654	372.5
501.871	370.5
502.088	323.5
502.305	322.5
502.522	310.5
502.739	310.5
502.956	293.5
503.172	303.5
503.389	277.5
503.606	257.5
503.823	256.5
504.04	261.5
504.256	268.5
504.473	259.5
504.69	280.5
504.907	273.5
505.123	264.5
505.34	244.5
505.557	268.5
505.773	260.5
505.99	254.5
506.207	246.5
506.423	237.5
506.64	238.5
506.856	239.5
507.073	230.5
507.289	209.5
507.506	230.5
507.722	241.5
507.939	225.5
508.155	232.5
508.372	231.5
508.588	229.5
508.805	217.5
509.021	210.5
509.238	197.5
509.454	194.5
509.67	190.5
509.887	181.5
510.103	176.5
510.319	172.5
510.536	185.5
510.752	167.5
510.968	168.5
511.184	172.5
511.401	162.5
511.617	161.5
511.833	170.5
512.049	178.5
512.265	184.5
512.481	185.5
512.698	152.5
512.914	170.5
513.13	180.5
513.346	193.5
513.562	176.5
513.778	192.5
513.994	178.5
514.21	180.5
514.426	198.5
514.642	182.5
514.858	184.5
515.074	183.5
515.29	174.5
515.506	185.5
515.721	177.5
515.937	189.5
516.153	182.5
516.369	186.5
516.585	177.5
516.801	183.5
517.016	204.5
517.232	206.5
517.448	218.5
517.664	225.5
517.879	230.5
518.095	237.5
518.311	215.5
518.527	214.5
518.742	194.5
518.958	207.5
519.173	231.5
519.389	223.5
519.605	225.5
519.82	205.5
520.036	208.5
520.251	200.5
520.467	196.5
520.682	190.5
520.898	160.5
521.113	177.5
521.329	176.5
521.544	170.5
521.76	186.5
521.975	190.5
522.19	181.5
522.406	187.5
522.621	192.5
522.836	181.5
