Data from SampD_HRD10591_00045.txt Node
Date: Mon Jan 19 11:47:53 EST 2026
User: Yrep
Spectrometer: HR+D1059
Trigger mode: 0
Integration Time (sec): 3.443000E-1
Scans to average: 1
Electric dark correction enabled: true
Nonlinearity correction enabled: false
Boxcar width: 0
XAxis mode: Wavelengths
Number of Pixels in Spectrum: 2048
>>>>>Begin Spectral Data<<<<<
223.165	-11.75
223.4	-11.75
223.635	-11.75
223.869	-15.75
224.104	-18.75
224.338	-19.75
224.573	-22.75
224.808	-19.75
225.042	-11.75
225.277	-11.75
225.511	0.25
225.746	9.25
225.98	4.25
226.215	20.25
226.449	22.25
226.683	21.25
226.918	27.25
227.152	27.25
227.387	53.25
227.621	34.25
227.856	38.25
228.09	34.25
228.324	75.25
228.559	68.25
228.793	57.25
229.027	70.25
229.262	50.25
229.496	77.25
229.73	73.25
229.964	77.25
230.199	63.25
230.433	75.25
230.667	75.25
230.901	87.25
231.136	83.25
231.37	83.25
231.604	70.25
231.838	82.25
232.072	74.25
232.306	96.25
232.541	81.25
232.775	92.25
233.009	94.25
233.243	75.25
233.477	94.25
233.711	93.25
233.945	83.25
234.179	92.25
234.413	104.25
234.647	91.25
234.881	84.25
235.115	74.25
235.349	80.25
235.583	81.25
235.817	92.25
236.051	81.25
236.285	85.25
236.519	76.25
236.753	88.25
236.987	89.25
237.221	89.25
237.455	74.25
237.689	85.25
237.922	75.25
238.156	80.25
238.39	85.25
238.624	86.25
238.858	69.25
239.091	83.25
239.325	77.25
239.559	68.25
239.793	79.25
240.027	88.25
240.26	70.25
240.494	84.25
240.728	92.25
240.961	81.25
241.195	77.25
241.429	73.25
241.662	67.25
241.896	90.25
242.13	86.25
242.363	90.25
242.597	84.25
242.83	69.25
243.064	76.25
243.298	83.25
243.531	74.25
243.765	80.25
243.998	101.25
244.232	78.25
244.465	81.25
244.699	89.25
244.932	78.25
245.166	77.25
245.399	88.25
245.633	79.25
245.866	88.25
246.099	77.25
246.333	82.25
246.566	94.25
246.8	97.25
247.033	78.25
247.266	64.25
247.5	78.25
247.733	68.25
247.966	80.25
248.2	94.25
248.433	91.25
248.666	69.25
248.899	80.25
249.133	88.25
249.366	83.25
249.599	95.25
249.832	74.25
250.066	94.25
250.299	73.25
250.532	83.25
250.765	87.25
250.998	69.25
251.231	88.25
251.465	77.25
251.698	62.25
251.931	95.25
252.164	76.25
252.397	101.25
252.63	88.25
252.863	80.25
253.096	89.25
253.329	82.25
253.562	76.25
253.795	85.25
254.028	81.25
254.261	82.25
254.494	71.25
254.727	101.25
254.96	101.25
255.193	87.25
255.426	98.25
255.659	74.25
255.892	91.25
256.124	95.25
256.357	88.25
256.59	96.25
256.823	93.25
257.056	74.25
257.289	85.25
257.521	96.25
257.754	96.25
257.987	77.25
258.22	114.25
258.452	82.25
258.685	85.25
258.918	88.25
259.151	76.25
259.383	102.25
259.616	90.25
259.849	82.25
260.081	97.25
260.314	95.25
260.547	88.25
260.779	96.25
261.012	89.25
261.244	84.25
261.477	113.25
261.71	91.25
261.942	84.25
262.175	94.25
262.407	84.25
262.64	93.25
262.872	90.25
263.105	83.25
263.337	106.25
263.57	89.25
263.802	93.25
264.035	99.25
264.267	97.25
264.499	85.25
264.732	77.25
264.964	85.25
265.197	101.25
265.429	93.25
265.661	97.25
265.894	94.25
266.126	90.25
266.358	96.25
266.591	100.25
266.823	96.25
267.055	88.25
267.287	95.25
267.52	97.25
267.752	92.25
267.984	98.25
268.216	100.25
268.448	98.25
268.681	87.25
268.913	86.25
269.145	108.25
269.377	94.25
269.609	82.25
269.841	98.25
270.073	106.25
270.306	98.25
270.538	109.25
270.77	92.25
271.002	117.25
271.234	101.25
271.466	100.25
271.698	82.25
271.93	93.25
272.162	98.25
272.394	109.25
272.626	96.25
272.858	112.25
273.09	100.25
273.322	87.25
273.553	94.25
273.785	91.25
274.017	99.25
274.249	88.25
274.481	84.25
274.713	104.25
274.945	113.25
275.176	89.25
275.408	110.25
275.64	115.25
275.872	116.25
276.104	114.25
276.335	85.25
276.567	110.25
276.799	90.25
277.031	93.25
277.262	89.25
277.494	104.25
277.726	107.25
277.957	88.25
278.189	84.25
278.421	84.25
278.652	96.25
278.884	92.25
279.115	89.25
279.347	98.25
279.579	92.25
279.81	103.25
280.042	104.25
280.273	103.25
280.505	96.25
280.736	111.25
280.968	99.25
281.199	106.25
281.431	99.25
281.662	84.25
281.894	101.25
282.125	99.25
282.356	101.25
282.588	99.25
282.819	97.25
283.051	98.25
283.282	93.25
283.513	108.25
283.745	92.25
283.976	83.25
284.207	98.25
284.439	94.25
284.67	103.25
284.901	96.25
285.132	92.25
285.364	105.25
285.595	110.25
285.826	108.25
286.057	98.25
286.288	87.25
286.52	103.25
286.751	94.25
286.982	103.25
287.213	98.25
287.444	101.25
287.675	109.25
287.906	110.25
288.138	112.25
288.369	97.25
288.6	113.25
288.831	92.25
289.062	100.25
289.293	87.25
289.524	110.25
289.755	108.25
289.986	99.25
290.217	106.25
290.448	109.25
290.679	111.25
290.91	112.25
291.141	93.25
291.371	92.25
291.602	119.25
291.833	103.25
292.064	100.25
292.295	118.25
292.526	110.25
292.757	107.25
292.987	115.25
293.218	108.25
293.449	106.25
293.68	113.25
293.91	96.25
294.141	115.25
294.372	104.25
294.603	99.25
294.833	108.25
295.064	100.25
295.295	88.25
295.525	93.25
295.756	109.25
295.987	90.25
296.217	100.25
296.448	92.25
296.679	96.25
296.909	110.25
297.14	108.25
297.37	108.25
297.601	107.25
297.831	102.25
298.062	104.25
298.292	111.25
298.523	108.25
298.753	110.25
298.984	106.25
299.214	108.25
299.445	111.25
299.675	103.25
299.905	114.25
300.136	113.25
300.366	99.25
300.597	105.25
300.827	109.25
301.057	98.25
301.288	106.25
301.518	122.25
301.748	96.25
301.979	143.25
302.209	114.25
302.439	108.25
302.669	98.25
302.9	97.25
303.13	102.25
303.36	95.25
303.59	118.25
303.82	114.25
304.051	103.25
304.281	104.25
304.511	119.25
304.741	100.25
304.971	98.25
305.201	112.25
305.431	95.25
305.661	113.25
305.891	117.25
306.121	99.25
306.352	104.25
306.582	109.25
306.812	94.25
307.042	103.25
307.272	118.25
307.502	106.25
307.731	94.25
307.961	111.25
308.191	107.25
308.421	115.25
308.651	113.25
308.881	91.25
309.111	96.25
309.341	103.25
309.571	97.25
309.8	94.25
310.03	101.25
310.26	110.25
310.49	91.25
310.72	96.25
310.949	103.25
311.179	106.25
311.409	121.25
311.639	106.25
311.868	115.25
312.098	98.25
312.328	105.25
312.557	108.25
312.787	103.25
313.017	107.25
313.246	98.25
313.476	103.25
313.706	100.25
313.935	104.25
314.165	110.25
314.394	103.25
314.624	100.25
314.853	109.25
315.083	109.25
315.312	113.25
315.542	109.25
315.771	110.25
316.001	100.25
316.23	121.25
316.46	105.25
316.689	103.25
316.919	100.25
317.148	102.25
317.377	120.25
317.607	111.25
317.836	100.25
318.065	104.25
318.295	112.25
318.524	102.25
318.753	100.25
318.983	99.25
319.212	108.25
319.441	109.25
319.67	107.25
319.9	100.25
320.129	111.25
320.358	109.25
320.587	111.25
320.816	110.25
321.046	107.25
321.275	119.25
321.504	116.25
321.733	96.25
321.962	106.25
322.191	109.25
322.42	116.25
322.649	113.25
322.878	107.25
323.108	100.25
323.337	119.25
323.566	105.25
323.795	124.25
324.024	106.25
324.253	116.25
324.482	112.25
324.71	107.25
324.939	120.25
325.168	103.25
325.397	92.25
325.626	108.25
325.855	104.25
326.084	99.25
326.313	109.25
326.542	101.25
326.77	114.25
326.999	102.25
327.228	94.25
327.457	96.25
327.686	116.25
327.914	124.25
328.143	121.25
328.372	116.25
328.6	107.25
328.829	114.25
329.058	104.25
329.287	107.25
329.515	110.25
329.744	121.25
329.972	120.25
330.201	117.25
330.43	113.25
330.658	121.25
330.887	116.25
331.115	114.25
331.344	109.25
331.572	120.25
331.801	115.25
332.03	112.25
332.258	128.25
332.486	120.25
332.715	119.25
332.943	129.25
333.172	117.25
333.4	120.25
333.629	140.25
333.857	114.25
334.085	140.25
334.314	131.25
334.542	131.25
334.771	123.25
334.999	141.25
335.227	101.25
335.455	118.25
335.684	112.25
335.912	124.25
336.14	95.25
336.369	116.25
336.597	121.25
336.825	123.25
337.053	105.25
337.281	113.25
337.51	112.25
337.738	120.25
337.966	118.25
338.194	108.25
338.422	120.25
338.65	108.25
338.878	121.25
339.106	106.25
339.334	116.25
339.562	112.25
339.79	122.25
340.018	103.25
340.246	99.25
340.474	89.25
340.702	100.25
340.93	110.25
341.158	118.25
341.386	107.25
341.614	96.25
341.842	114.25
342.07	109.25
342.298	111.25
342.526	118.25
342.754	107.25
342.981	106.25
343.209	103.25
343.437	119.25
343.665	128.25
343.893	114.25
344.12	114.25
344.348	115.25
344.576	108.25
344.804	118.25
345.031	113.25
345.259	112.25
345.487	134.25
345.714	117.25
345.942	105.25
346.17	122.25
346.397	106.25
346.625	121.25
346.853	110.25
347.08	111.25
347.308	112.25
347.535	116.25
347.763	113.25
347.99	124.25
348.218	114.25
348.445	104.25
348.673	106.25
348.9	110.25
349.128	116.25
349.355	109.25
349.583	100.25
349.81	116.25
350.037	107.25
350.265	124.25
350.492	108.25
350.72	108.25
350.947	114.25
351.174	109.25
351.402	106.25
351.629	111.25
351.856	113.25
352.083	117.25
352.311	122.25
352.538	101.25
352.765	100.25
352.992	127.25
353.22	108.25
353.447	102.25
353.674	109.25
353.901	120.25
354.128	121.25
354.355	110.25
354.583	115.25
354.81	119.25
355.037	104.25
355.264	103.25
355.491	115.25
355.718	110.25
355.945	115.25
356.172	91.25
356.399	110.25
356.626	109.25
356.853	113.25
357.08	115.25
357.307	103.25
357.534	105.25
357.761	105.25
357.988	125.25
358.215	115.25
358.441	106.25
358.668	88.25
358.895	116.25
359.122	115.25
359.349	111.25
359.576	101.25
359.802	85.25
360.029	107.25
360.256	123.25
360.483	117.25
360.709	124.25
360.936	134.25
361.163	106.25
361.39	98.25
361.616	107.25
361.843	107.25
362.07	114.25
362.296	106.25
362.523	101.25
362.749	107.25
362.976	114.25
363.203	105.25
363.429	96.25
363.656	106.25
363.882	102.25
364.109	107.25
364.335	130.25
364.562	125.25
364.788	115.25
365.015	118.25
365.241	91.25
365.468	105.25
365.694	119.25
365.92	128.25
366.147	100.25
366.373	93.25
366.599	89.25
366.826	116.25
367.052	114.25
367.278	122.25
367.505	109.25
367.731	122.25
367.957	112.25
368.184	120.25
368.41	103.25
368.636	111.25
368.862	113.25
369.089	109.25
369.315	106.25
369.541	89.25
369.767	106.25
369.993	123.25
370.219	119.25
370.445	117.25
370.672	117.25
370.898	115.25
371.124	121.25
371.35	119.25
371.576	121.25
371.802	123.25
372.028	130.25
372.254	131.25
372.48	124.25
372.706	140.25
372.932	117.25
373.158	120.25
373.384	124.25
373.61	131.25
373.835	124.25
374.061	108.25
374.287	137.25
374.513	128.25
374.739	109.25
374.965	103.25
375.191	110.25
375.416	139.25
375.642	126.25
375.868	117.25
376.094	127.25
376.319	119.25
376.545	118.25
376.771	127.25
376.997	128.25
377.222	117.25
377.448	121.25
377.674	137.25
377.899	120.25
378.125	110.25
378.35	137.25
378.576	125.25
378.802	114.25
379.027	112.25
379.253	129.25
379.478	137.25
379.704	121.25
379.929	121.25
380.155	130.25
380.38	122.25
380.606	125.25
380.831	116.25
381.057	141.25
381.282	129.25
381.507	117.25
381.733	117.25
381.958	115.25
382.184	138.25
382.409	120.25
382.634	133.25
382.86	141.25
383.085	141.25
383.31	129.25
383.535	138.25
383.761	121.25
383.986	129.25
384.211	144.25
384.436	136.25
384.662	139.25
384.887	122.25
385.112	137.25
385.337	125.25
385.562	134.25
385.787	133.25
386.013	145.25
386.238	122.25
386.463	117.25
386.688	166.25
386.913	138.25
387.138	139.25
387.363	151.25
387.588	156.25
387.813	136.25
388.038	129.25
388.263	145.25
388.488	125.25
388.713	147.25
388.938	152.25
389.163	142.25
389.387	131.25
389.612	136.25
389.837	147.25
390.062	135.25
390.287	134.25
390.512	141.25
390.736	126.25
390.961	125.25
391.186	149.25
391.411	147.25
391.636	142.25
391.86	166.25
392.085	145.25
392.31	148.25
392.534	136.25
392.759	138.25
392.984	140.25
393.208	134.25
393.433	138.25
393.658	140.25
393.882	134.25
394.107	141.25
394.331	139.25
394.556	145.25
394.78	149.25
395.005	145.25
395.229	157.25
395.454	153.25
395.678	153.25
395.903	155.25
396.127	152.25
396.352	159.25
396.576	149.25
396.801	129.25
397.025	144.25
397.249	141.25
397.474	167.25
397.698	160.25
397.922	143.25
398.147	147.25
398.371	151.25
398.595	153.25
398.82	169.25
399.044	170.25
399.268	182.25
399.492	189.25
399.717	196.25
399.941	180.25
400.165	180.25
400.389	177.25
400.613	172.25
400.837	176.25
401.062	164.25
401.286	174.25
401.51	158.25
401.734	147.25
401.958	165.25
402.182	168.25
402.406	172.25
402.63	176.25
402.854	163.25
403.078	170.25
403.302	163.25
403.526	180.25
403.75	180.25
403.974	172.25
404.198	192.25
404.422	168.25
404.645	173.25
404.869	184.25
405.093	152.25
405.317	172.25
405.541	171.25
405.765	185.25
405.988	178.25
406.212	175.25
406.436	175.25
406.66	177.25
406.883	179.25
407.107	184.25
407.331	194.25
407.555	190.25
407.778	166.25
408.002	177.25
408.226	190.25
408.449	178.25
408.673	181.25
408.896	195.25
409.12	171.25
409.344	171.25
409.567	153.25
409.791	171.25
410.014	165.25
410.238	179.25
410.461	174.25
410.685	188.25
410.908	174.25
411.132	188.25
411.355	174.25
411.578	162.25
411.802	169.25
412.025	182.25
412.249	174.25
412.472	168.25
412.695	181.25
412.919	156.25
413.142	164.25
413.365	172.25
413.589	183.25
413.812	168.25
414.035	190.25
414.258	161.25
414.482	167.25
414.705	172.25
414.928	178.25
415.151	178.25
415.374	183.25
415.597	165.25
415.821	172.25
416.044	178.25
416.267	176.25
416.49	177.25
416.713	193.25
416.936	172.25
417.159	166.25
417.382	178.25
417.605	182.25
417.828	185.25
418.051	172.25
418.274	194.25
418.497	187.25
418.72	178.25
418.943	187.25
419.166	193.25
419.389	191.25
419.611	201.25
419.834	186.25
420.057	185.25
420.28	189.25
420.503	188.25
420.726	182.25
420.948	180.25
421.171	184.25
421.394	196.25
421.617	201.25
421.839	199.25
422.062	188.25
422.285	188.25
422.507	168.25
422.73	175.25
422.953	169.25
423.175	170.25
423.398	184.25
423.621	177.25
423.843	190.25
424.066	186.25
424.288	192.25
424.511	212.25
424.733	204.25
424.956	200.25
425.178	194.25
425.401	187.25
425.623	187.25
425.846	170.25
426.068	174.25
426.291	165.25
426.513	168.25
426.735	177.25
426.958	171.25
427.18	181.25
427.402	188.25
427.625	178.25
427.847	162.25
428.069	180.25
428.292	163.25
428.514	193.25
428.736	180.25
428.958	167.25
429.181	175.25
429.403	158.25
429.625	183.25
429.847	186.25
430.069	181.25
430.292	182.25
430.514	163.25
430.736	173.25
430.958	175.25
431.18	172.25
431.402	162.25
431.624	146.25
431.846	127.25
432.068	142.25
432.29	144.25
432.512	170.25
432.734	155.25
432.956	184.25
433.178	186.25
433.4	173.25
433.622	193.25
433.844	189.25
434.066	166.25
434.287	158.25
434.509	131.25
434.731	151.25
434.953	151.25
435.175	147.25
435.397	170.25
435.618	178.25
435.84	165.25
436.062	163.25
436.284	179.25
436.505	166.25
436.727	171.25
436.949	187.25
437.17	179.25
437.392	160.25
437.614	173.25
437.835	149.25
438.057	151.25
438.278	168.25
438.5	164.25
438.721	169.25
438.943	180.25
439.165	191.25
439.386	188.25
439.608	185.25
439.829	180.25
440.05	190.25
440.272	195.25
440.493	176.25
440.715	193.25
440.936	188.25
441.158	187.25
441.379	192.25
441.6	212.25
441.822	196.25
442.043	193.25
442.264	197.25
442.486	194.25
442.707	195.25
442.928	186.25
443.149	184.25
443.371	204.25
443.592	192.25
443.813	189.25
444.034	193.25
444.255	210.25
444.476	208.25
444.698	213.25
444.919	219.25
445.14	458.25
445.361	298.25
445.582	216.25
445.803	174.25
446.024	199.25
446.245	199.25
446.466	194.25
446.687	198.25
446.908	205.25
447.129	197.25
447.35	195.25
447.571	204.25
447.792	180.25
448.013	178.25
448.234	177.25
448.455	193.25
448.675	174.25
448.896	183.25
449.117	169.25
449.338	178.25
449.559	176.25
449.779	178.25
450	177.25
450.221	169.25
450.442	181.25
450.662	149.25
450.883	179.25
451.104	187.25
451.324	172.25
451.545	195.25
451.766	165.25
451.986	170.25
452.207	178.25
452.428	185.25
452.648	167.25
452.869	146.25
453.089	143.25
453.31	146.25
453.53	149.25
453.751	138.25
453.971	135.25
454.192	128.25
454.412	133.25
454.633	138.25
454.853	157.25
455.073	144.25
455.294	149.25
455.514	168.25
455.734	152.25
455.955	147.25
456.175	133.25
456.395	136.25
456.616	147.25
456.836	142.25
457.056	137.25
457.276	144.25
457.497	137.25
457.717	150.25
457.937	133.25
458.157	146.25
458.377	136.25
458.598	118.25
458.818	134.25
459.038	112.25
459.258	135.25
459.478	117.25
459.698	126.25
459.918	150.25
460.138	147.25
460.358	172.25
460.578	149.25
460.798	151.25
461.018	183.25
461.238	166.25
461.458	164.25
461.678	154.25
461.898	153.25
462.118	169.25
462.338	173.25
462.558	169.25
462.777	164.25
462.997	169.25
463.217	169.25
463.437	172.25
463.657	180.25
463.876	162.25
464.096	170.25
464.316	168.25
464.536	160.25
464.755	165.25
464.975	166.25
465.195	162.25
465.414	157.25
465.634	165.25
465.854	151.25
466.073	153.25
466.293	165.25
466.512	159.25
466.732	160.25
466.951	172.25
467.171	170.25
467.391	174.25
467.61	173.25
467.829	158.25
468.049	140.25
468.268	168.25
468.488	176.25
468.707	167.25
468.927	164.25
469.146	164.25
469.365	181.25
469.585	187.25
469.804	177.25
470.023	173.25
470.243	183.25
470.462	187.25
470.681	174.25
470.901	193.25
471.12	166.25
471.339	192.25
471.558	189.25
471.777	186.25
471.997	154.25
472.216	166.25
472.435	141.25
472.654	137.25
472.873	146.25
473.092	145.25
473.311	153.25
473.53	167.25
473.749	163.25
473.968	180.25
474.187	157.25
474.406	133.25
474.625	164.25
474.844	180.25
475.063	146.25
475.282	149.25
475.501	141.25
475.72	156.25
475.939	164.25
476.158	167.25
476.377	164.25
476.596	158.25
476.814	171.25
477.033	148.25
477.252	144.25
477.471	152.25
477.69	169.25
477.908	169.25
478.127	188.25
478.346	180.25
478.564	191.25
478.783	186.25
479.002	200.25
479.22	185.25
479.439	188.25
479.658	160.25
479.876	153.25
480.095	164.25
480.313	157.25
480.532	176.25
480.751	156.25
480.969	145.25
481.188	125.25
481.406	146.25
481.624	121.25
481.843	132.25
482.061	144.25
482.28	147.25
482.498	151.25
482.717	128.25
482.935	171.25
483.153	181.25
483.372	197.25
483.59	181.25
483.808	171.25
484.027	190.25
484.245	177.25
484.463	183.25
484.681	193.25
484.9	188.25
485.118	169.25
485.336	161.25
485.554	153.25
485.772	136.25
485.99	152.25
486.209	145.25
486.427	145.25
486.645	170.25
486.863	180.25
487.081	182.25
487.299	183.25
487.517	186.25
487.735	215.25
487.953	218.25
488.171	209.25
488.389	208.25
488.607	199.25
488.825	174.25
489.043	160.25
489.261	172.25
489.479	190.25
489.696	179.25
489.914	184.25
490.132	185.25
490.35	199.25
490.568	209.25
490.786	220.25
491.003	235.25
491.221	228.25
491.439	227.25
491.657	241.25
491.874	268.25
492.092	264.25
492.31	277.25
492.527	257.25
492.745	264.25
492.963	235.25
493.18	254.25
493.398	242.25
493.615	242.25
493.833	246.25
494.05	225.25
494.268	225.25
494.485	231.25
494.703	237.25
494.92	245.25
495.138	213.25
495.355	217.25
495.573	245.25
495.79	210.25
496.008	230.25
496.225	236.25
496.442	218.25
496.66	212.25
496.877	228.25
497.094	246.25
497.312	217.25
497.529	208.25
497.746	219.25
497.963	202.25
498.181	195.25
498.398	180.25
498.615	182.25
498.832	185.25
499.049	201.25
499.267	182.25
499.484	225.25
499.701	230.25
499.918	269.25
500.135	281.25
500.352	280.25
500.569	282.25
500.786	309.25
501.003	280.25
501.22	253.25
501.437	250.25
501.654	220.25
501.871	218.25
502.088	204.25
502.305	192.25
502.522	195.25
502.739	200.25
502.956	196.25
503.172	194.25
503.389	178.25
503.606	172.25
503.823	181.25
504.04	163.25
504.256	166.25
504.473	175.25
504.69	182.25
504.907	184.25
505.123	167.25
505.34	150.25
505.557	167.25
505.773	182.25
505.99	181.25
506.207	157.25
