Data from SampD_HRD10591_00084.txt Node
Date: Mon Jan 19 11:48:07 EST 2026
User: Yrep
Spectrometer: HR+D1059
Trigger mode: 0
Integration Time (sec): 3.443000E-1
Scans to average: 1
Electric dark correction enabled: true
Nonlinearity correction enabled: false
Boxcar width: 0
XAxis mode: Wavelengths
Number of Pixels in Spectrum: 2048
>>>>>Begin Spectral Data<<<<<
223.165	-26.75
223.4	-26.75
223.635	-26.75
223.869	-13.75
224.104	-3.75
224.338	-22.75
224.573	-22.75
224.808	-12.75
225.042	8.25
225.277	-21.75
225.511	-2.75
225.746	7.25
225.98	5.25
226.215	12.25
226.449	19.25
226.683	8.25
226.918	27.25
227.152	39.25
227.387	22.25
227.621	31.25
227.856	41.25
228.09	31.25
228.324	50.25
228.559	59.25
228.793	68.25
229.027	61.25
229.262	81.25
229.496	88.25
229.73	60.25
229.964	75.25
230.199	70.25
230.433	76.25
230.667	89.25
230.901	75.25
231.136	69.25
231.37	82.25
231.604	77.25
231.838	86.25
232.072	69.25
232.306	76.25
232.541	77.25
232.775	98.25
233.009	88.25
233.243	76.25
233.477	104.25
233.711	85.25
233.945	84.25
234.179	91.25
234.413	84.25
234.647	89.25
234.881	88.25
235.115	86.25
235.349	88.25
235.583	83.25
235.817	89.25
236.051	82.25
236.285	74.25
236.519	69.25
236.753	85.25
236.987	83.25
237.221	85.25
237.455	72.25
237.689	83.25
237.922	95.25
238.156	81.25
238.39	74.25
238.624	85.25
238.858	74.25
239.091	76.25
239.325	74.25
239.559	87.25
239.793	91.25
240.027	102.25
240.26	70.25
240.494	79.25
240.728	79.25
240.961	86.25
241.195	88.25
241.429	90.25
241.662	87.25
241.896	87.25
242.13	68.25
242.363	74.25
242.597	79.25
242.83	83.25
243.064	71.25
243.298	89.25
243.531	75.25
243.765	66.25
243.998	82.25
244.232	93.25
244.465	66.25
244.699	63.25
244.932	68.25
245.166	83.25
245.399	92.25
245.633	93.25
245.866	76.25
246.099	67.25
246.333	105.25
246.566	86.25
246.8	87.25
247.033	71.25
247.266	65.25
247.5	77.25
247.733	84.25
247.966	76.25
248.2	69.25
248.433	72.25
248.666	83.25
248.899	81.25
249.133	73.25
249.366	95.25
249.599	81.25
249.832	79.25
250.066	83.25
250.299	101.25
250.532	84.25
250.765	86.25
250.998	95.25
251.231	77.25
251.465	93.25
251.698	75.25
251.931	78.25
252.164	84.25
252.397	92.25
252.63	86.25
252.863	81.25
253.096	88.25
253.329	86.25
253.562	84.25
253.795	93.25
254.028	80.25
254.261	89.25
254.494	85.25
254.727	92.25
254.96	100.25
255.193	88.25
255.426	93.25
255.659	88.25
255.892	99.25
256.124	71.25
256.357	93.25
256.59	69.25
256.823	93.25
257.056	77.25
257.289	83.25
257.521	86.25
257.754	77.25
257.987	86.25
258.22	99.25
258.452	71.25
258.685	75.25
258.918	81.25
259.151	89.25
259.383	89.25
259.616	75.25
259.849	89.25
260.081	93.25
260.314	93.25
260.547	95.25
260.779	102.25
261.012	93.25
261.244	87.25
261.477	85.25
261.71	87.25
261.942	83.25
262.175	85.25
262.407	103.25
262.64	82.25
262.872	88.25
263.105	98.25
263.337	101.25
263.57	99.25
263.802	92.25
264.035	99.25
264.267	94.25
264.499	81.25
264.732	96.25
264.964	80.25
265.197	83.25
265.429	90.25
265.661	109.25
265.894	100.25
266.126	92.25
266.358	99.25
266.591	83.25
266.823	81.25
267.055	87.25
267.287	95.25
267.52	82.25
267.752	99.25
267.984	99.25
268.216	96.25
268.448	89.25
268.681	93.25
268.913	104.25
269.145	93.25
269.377	99.25
269.609	87.25
269.841	103.25
270.073	87.25
270.306	90.25
270.538	114.25
270.77	85.25
271.002	85.25
271.234	89.25
271.466	97.25
271.698	98.25
271.93	98.25
272.162	107.25
272.394	102.25
272.626	81.25
272.858	89.25
273.09	100.25
273.322	93.25
273.553	92.25
273.785	96.25
274.017	90.25
274.249	81.25
274.481	89.25
274.713	81.25
274.945	103.25
275.176	98.25
275.408	94.25
275.64	98.25
275.872	103.25
276.104	93.25
276.335	99.25
276.567	110.25
276.799	84.25
277.031	99.25
277.262	101.25
277.494	103.25
277.726	104.25
277.957	107.25
278.189	96.25
278.421	90.25
278.652	101.25
278.884	105.25
279.115	100.25
279.347	87.25
279.579	95.25
279.81	84.25
280.042	91.25
280.273	83.25
280.505	89.25
280.736	96.25
280.968	100.25
281.199	100.25
281.431	98.25
281.662	104.25
281.894	113.25
282.125	105.25
282.356	92.25
282.588	100.25
282.819	92.25
283.051	95.25
283.282	95.25
283.513	116.25
283.745	102.25
283.976	94.25
284.207	101.25
284.439	106.25
284.67	92.25
284.901	99.25
285.132	93.25
285.364	103.25
285.595	99.25
285.826	112.25
286.057	114.25
286.288	106.25
286.52	118.25
286.751	92.25
286.982	98.25
287.213	93.25
287.444	87.25
287.675	106.25
287.906	108.25
288.138	104.25
288.369	111.25
288.6	108.25
288.831	102.25
289.062	97.25
289.293	103.25
289.524	94.25
289.755	95.25
289.986	87.25
290.217	106.25
290.448	101.25
290.679	94.25
290.91	113.25
291.141	120.25
291.371	93.25
291.602	109.25
291.833	91.25
292.064	108.25
292.295	83.25
292.526	108.25
292.757	101.25
292.987	102.25
293.218	103.25
293.449	96.25
293.68	100.25
293.91	99.25
294.141	107.25
294.372	96.25
294.603	93.25
294.833	101.25
295.064	101.25
295.295	116.25
295.525	100.25
295.756	112.25
295.987	109.25
296.217	104.25
296.448	105.25
296.679	115.25
296.909	104.25
297.14	99.25
297.37	117.25
297.601	105.25
297.831	104.25
298.062	95.25
298.292	100.25
298.523	125.25
298.753	105.25
298.984	106.25
299.214	116.25
299.445	112.25
299.675	108.25
299.905	113.25
300.136	107.25
300.366	111.25
300.597	108.25
300.827	103.25
301.057	111.25
301.288	98.25
301.518	109.25
301.748	109.25
301.979	116.25
302.209	107.25
302.439	85.25
302.669	109.25
302.9	118.25
303.13	117.25
303.36	98.25
303.59	103.25
303.82	95.25
304.051	112.25
304.281	125.25
304.511	107.25
304.741	108.25
304.971	96.25
305.201	116.25
305.431	109.25
305.661	108.25
305.891	100.25
306.121	106.25
306.352	103.25
306.582	99.25
306.812	104.25
307.042	92.25
307.272	108.25
307.502	114.25
307.731	102.25
307.961	101.25
308.191	96.25
308.421	94.25
308.651	106.25
308.881	108.25
309.111	103.25
309.341	108.25
309.571	109.25
309.8	105.25
310.03	110.25
310.26	110.25
310.49	97.25
310.72	106.25
310.949	98.25
311.179	99.25
311.409	109.25
311.639	121.25
311.868	90.25
312.098	101.25
312.328	113.25
312.557	124.25
312.787	99.25
313.017	113.25
313.246	119.25
313.476	108.25
313.706	122.25
313.935	123.25
314.165	111.25
314.394	100.25
314.624	96.25
314.853	120.25
315.083	122.25
315.312	132.25
315.542	114.25
315.771	109.25
316.001	95.25
316.23	107.25
316.46	105.25
316.689	101.25
316.919	105.25
317.148	118.25
317.377	111.25
317.607	105.25
317.836	121.25
318.065	107.25
318.295	111.25
318.524	119.25
318.753	104.25
318.983	97.25
319.212	104.25
319.441	113.25
319.67	101.25
319.9	101.25
320.129	120.25
320.358	99.25
320.587	105.25
320.816	107.25
321.046	119.25
321.275	117.25
321.504	106.25
321.733	113.25
321.962	107.25
322.191	112.25
322.42	100.25
322.649	116.25
322.878	126.25
323.108	119.25
323.337	107.25
323.566	125.25
323.795	104.25
324.024	126.25
324.253	109.25
324.482	113.25
324.71	100.25
324.939	105.25
325.168	118.25
325.397	114.25
325.626	116.25
325.855	101.25
326.084	117.25
326.313	127.25
326.542	102.25
326.77	107.25
326.999	93.25
327.228	113.25
327.457	129.25
327.686	119.25
327.914	111.25
328.143	113.25
328.372	76.25
328.6	101.25
328.829	106.25
329.058	102.25
329.287	99.25
329.515	103.25
329.744	100.25
329.972	114.25
330.201	121.25
330.43	105.25
330.658	102.25
330.887	110.25
331.115	107.25
331.344	112.25
331.572	122.25
331.801	112.25
332.03	118.25
332.258	120.25
332.486	110.25
332.715	102.25
332.943	96.25
333.172	120.25
333.4	123.25
333.629	124.25
333.857	120.25
334.085	107.25
334.314	111.25
334.542	110.25
334.771	113.25
334.999	114.25
335.227	120.25
335.455	119.25
335.684	121.25
335.912	121.25
336.14	118.25
336.369	131.25
336.597	112.25
336.825	114.25
337.053	120.25
337.281	127.25
337.51	112.25
337.738	108.25
337.966	96.25
338.194	98.25
338.422	96.25
338.65	119.25
338.878	112.25
339.106	98.25
339.334	105.25
339.562	108.25
339.79	113.25
340.018	104.25
340.246	109.25
340.474	113.25
340.702	126.25
340.93	100.25
341.158	101.25
341.386	111.25
341.614	116.25
341.842	116.25
342.07	104.25
342.298	103.25
342.526	118.25
342.754	106.25
342.981	112.25
343.209	104.25
343.437	159.25
343.665	112.25
343.893	121.25
344.12	137.25
344.348	109.25
344.576	117.25
344.804	105.25
345.031	90.25
345.259	115.25
345.487	125.25
345.714	115.25
345.942	95.25
346.17	113.25
346.397	124.25
346.625	97.25
346.853	103.25
347.08	103.25
347.308	109.25
347.535	110.25
347.763	102.25
347.99	108.25
348.218	113.25
348.445	105.25
348.673	101.25
348.9	105.25
349.128	119.25
349.355	112.25
349.583	120.25
349.81	121.25
350.037	114.25
350.265	109.25
350.492	92.25
350.72	91.25
350.947	121.25
351.174	108.25
351.402	124.25
351.629	102.25
351.856	127.25
352.083	109.25
352.311	120.25
352.538	96.25
352.765	111.25
352.992	122.25
353.22	103.25
353.447	118.25
353.674	110.25
353.901	117.25
354.128	116.25
354.355	106.25
354.583	99.25
354.81	120.25
355.037	116.25
355.264	117.25
355.491	115.25
355.718	108.25
355.945	106.25
356.172	109.25
356.399	107.25
356.626	95.25
356.853	101.25
357.08	119.25
357.307	107.25
357.534	104.25
357.761	112.25
357.988	110.25
358.215	115.25
358.441	110.25
358.668	92.25
358.895	109.25
359.122	107.25
359.349	110.25
359.576	117.25
359.802	105.25
360.029	101.25
360.256	112.25
360.483	99.25
360.709	108.25
360.936	128.25
361.163	123.25
361.39	102.25
361.616	114.25
361.843	111.25
362.07	111.25
362.296	100.25
362.523	109.25
362.749	108.25
362.976	106.25
363.203	134.25
363.429	110.25
363.656	106.25
363.882	104.25
364.109	114.25
364.335	102.25
364.562	104.25
364.788	105.25
365.015	115.25
365.241	105.25
365.468	123.25
365.694	97.25
365.92	115.25
366.147	107.25
366.373	100.25
366.599	107.25
366.826	106.25
367.052	116.25
367.278	122.25
367.505	119.25
367.731	135.25
367.957	117.25
368.184	119.25
368.41	109.25
368.636	112.25
368.862	103.25
369.089	107.25
369.315	125.25
369.541	123.25
369.767	109.25
369.993	118.25
370.219	105.25
370.445	117.25
370.672	104.25
370.898	122.25
371.124	127.25
371.35	114.25
371.576	106.25
371.802	119.25
372.028	120.25
372.254	112.25
372.48	110.25
372.706	117.25
372.932	115.25
373.158	117.25
373.384	135.25
373.61	130.25
373.835	134.25
374.061	114.25
374.287	126.25
374.513	129.25
374.739	122.25
374.965	102.25
375.191	112.25
375.416	130.25
375.642	121.25
375.868	131.25
376.094	118.25
376.319	116.25
376.545	114.25
376.771	114.25
376.997	126.25
377.222	120.25
377.448	119.25
377.674	128.25
377.899	112.25
378.125	129.25
378.35	124.25
378.576	108.25
378.802	114.25
379.027	122.25
379.253	133.25
379.478	114.25
379.704	131.25
379.929	126.25
380.155	114.25
380.38	122.25
380.606	115.25
380.831	128.25
381.057	139.25
381.282	127.25
381.507	117.25
381.733	132.25
381.958	123.25
382.184	129.25
382.409	124.25
382.634	129.25
382.86	125.25
383.085	123.25
383.31	127.25
383.535	131.25
383.761	118.25
383.986	135.25
384.211	121.25
384.436	134.25
384.662	131.25
384.887	142.25
385.112	131.25
385.337	118.25
385.562	128.25
385.787	122.25
386.013	145.25
386.238	131.25
386.463	139.25
386.688	171.25
386.913	133.25
387.138	143.25
387.363	125.25
387.588	144.25
387.813	146.25
388.038	134.25
388.263	141.25
388.488	123.25
388.713	137.25
388.938	133.25
389.163	136.25
389.387	140.25
389.612	136.25
389.837	133.25
390.062	141.25
390.287	140.25
390.512	146.25
390.736	143.25
390.961	141.25
391.186	131.25
391.411	137.25
391.636	136.25
391.86	149.25
392.085	147.25
392.31	139.25
392.534	150.25
392.759	151.25
392.984	167.25
393.208	155.25
393.433	151.25
393.658	165.25
393.882	138.25
394.107	149.25
394.331	140.25
394.556	134.25
394.78	152.25
395.005	147.25
395.229	145.25
395.454	155.25
395.678	136.25
395.903	151.25
396.127	146.25
396.352	156.25
396.576	143.25
396.801	157.25
397.025	151.25
397.249	136.25
397.474	154.25
397.698	150.25
397.922	167.25
398.147	156.25
398.371	149.25
398.595	148.25
398.82	148.25
399.044	160.25
399.268	175.25
399.492	185.25
399.717	193.25
399.941	186.25
400.165	183.25
400.389	172.25
400.613	153.25
400.837	171.25
401.062	159.25
401.286	172.25
401.51	149.25
401.734	161.25
401.958	182.25
402.182	168.25
402.406	147.25
402.63	166.25
402.854	175.25
403.078	167.25
403.302	164.25
403.526	179.25
403.75	176.25
403.974	174.25
404.198	181.25
404.422	173.25
404.645	168.25
404.869	174.25
405.093	161.25
405.317	182.25
405.541	179.25
405.765	174.25
405.988	182.25
406.212	160.25
406.436	159.25
406.66	190.25
406.883	173.25
407.107	187.25
407.331	166.25
407.555	181.25
407.778	163.25
408.002	181.25
408.226	169.25
408.449	192.25
408.673	151.25
408.896	175.25
409.12	173.25
409.344	166.25
409.567	171.25
409.791	183.25
410.014	194.25
410.238	167.25
410.461	156.25
410.685	170.25
410.908	176.25
411.132	188.25
411.355	189.25
411.578	178.25
411.802	175.25
412.025	151.25
412.249	180.25
412.472	165.25
412.695	161.25
412.919	169.25
413.142	184.25
413.365	177.25
413.589	167.25
413.812	183.25
414.035	183.25
414.258	181.25
414.482	161.25
414.705	180.25
414.928	175.25
415.151	185.25
415.374	182.25
415.597	184.25
415.821	163.25
416.044	172.25
416.267	165.25
416.49	159.25
416.713	168.25
416.936	173.25
417.159	167.25
417.382	174.25
417.605	183.25
417.828	172.25
418.051	175.25
418.274	181.25
418.497	188.25
418.72	182.25
418.943	186.25
419.166	168.25
419.389	199.25
419.611	199.25
419.834	176.25
420.057	186.25
420.28	200.25
420.503	181.25
420.726	167.25
420.948	177.25
421.171	172.25
421.394	180.25
421.617	199.25
421.839	201.25
422.062	179.25
422.285	182.25
422.507	184.25
422.73	178.25
422.953	193.25
423.175	190.25
423.398	195.25
423.621	184.25
423.843	193.25
424.066	178.25
424.288	190.25
424.511	193.25
424.733	196.25
424.956	180.25
425.178	193.25
425.401	192.25
425.623	192.25
425.846	186.25
426.068	179.25
426.291	157.25
426.513	178.25
426.735	177.25
426.958	177.25
427.18	177.25
427.402	188.25
427.625	177.25
427.847	169.25
428.069	200.25
428.292	177.25
428.514	173.25
428.736	175.25
428.958	178.25
429.181	168.25
429.403	162.25
429.625	178.25
429.847	176.25
430.069	154.25
430.292	175.25
430.514	153.25
430.736	159.25
430.958	180.25
431.18	152.25
431.402	178.25
431.624	157.25
431.846	138.25
432.068	139.25
432.29	143.25
432.512	152.25
432.734	155.25
432.956	179.25
433.178	177.25
433.4	180.25
433.622	172.25
433.844	171.25
434.066	170.25
434.287	153.25
434.509	139.25
434.731	143.25
434.953	172.25
435.175	167.25
435.397	165.25
435.618	155.25
435.84	161.25
436.062	143.25
436.284	174.25
436.505	176.25
436.727	166.25
436.949	189.25
437.17	190.25
437.392	173.25
437.614	154.25
437.835	142.25
438.057	145.25
438.278	153.25
438.5	163.25
438.721	159.25
438.943	183.25
439.165	169.25
439.386	176.25
439.608	186.25
439.829	187.25
440.05	213.25
440.272	186.25
440.493	182.25
440.715	188.25
440.936	199.25
441.158	209.25
441.379	193.25
441.6	195.25
441.822	190.25
442.043	194.25
442.264	189.25
442.486	195.25
442.707	192.25
442.928	178.25
443.149	177.25
443.371	183.25
443.592	181.25
443.813	179.25
444.034	185.25
444.255	209.25
444.476	208.25
444.698	204.25
444.919	205.25
445.14	466.25
445.361	307.25
445.582	191.25
445.803	187.25
446.024	201.25
446.245	193.25
446.466	202.25
446.687	207.25
446.908	191.25
447.129	203.25
447.35	211.25
447.571	189.25
447.792	188.25
448.013	183.25
448.234	187.25
448.455	187.25
448.675	180.25
448.896	168.25
449.117	190.25
449.338	168.25
449.559	175.25
449.779	168.25
450	178.25
450.221	186.25
450.442	192.25
450.662	181.25
450.883	187.25
451.104	184.25
451.324	176.25
451.545	164.25
451.766	173.25
451.986	172.25
452.207	184.25
452.428	163.25
452.648	161.25
452.869	165.25
453.089	149.25
453.31	127.25
453.53	116.25
453.751	157.25
453.971	124.25
454.192	140.25
454.412	157.25
454.633	156.25
454.853	166.25
455.073	145.25
455.294	171.25
455.514	155.25
455.734	166.25
455.955	148.25
456.175	149.25
456.395	145.25
456.616	137.25
456.836	134.25
457.056	143.25
457.276	131.25
457.497	133.25
457.717	136.25
457.937	143.25
458.157	134.25
458.377	130.25
458.598	127.25
458.818	114.25
459.038	125.25
459.258	124.25
459.478	119.25
459.698	120.25
459.918	130.25
460.138	148.25
460.358	176.25
460.578	160.25
460.798	169.25
461.018	152.25
461.238	156.25
461.458	168.25
461.678	159.25
461.898	159.25
462.118	181.25
462.338	169.25
462.558	178.25
462.777	189.25
462.997	171.25
463.217	179.25
463.437	171.25
463.657	166.25
463.876	166.25
464.096	159.25
464.316	163.25
464.536	159.25
464.755	167.25
464.975	164.25
465.195	170.25
465.414	172.25
465.634	151.25
465.854	151.25
466.073	153.25
466.293	156.25
466.512	169.25
466.732	162.25
466.951	169.25
467.171	173.25
467.391	177.25
467.61	164.25
467.829	184.25
468.049	147.25
468.268	156.25
468.488	175.25
468.707	161.25
468.927	184.25
469.146	174.25
469.365	172.25
469.585	189.25
469.804	180.25
470.023	169.25
470.243	204.25
470.462	185.25
470.681	195.25
470.901	181.25
471.12	175.25
471.339	191.25
471.558	173.25
471.777	169.25
471.997	176.25
472.216	154.25
472.435	136.25
472.654	135.25
472.873	148.25
473.092	151.25
473.311	156.25
473.53	140.25
473.749	157.25
473.968	177.25
474.187	137.25
474.406	147.25
474.625	151.25
474.844	159.25
475.063	172.25
475.282	154.25
475.501	148.25
475.72	168.25
475.939	162.25
476.158	175.25
476.377	167.25
476.596	150.25
476.814	125.25
477.033	147.25
477.252	148.25
477.471	169.25
477.69	159.25
477.908	195.25
478.127	187.25
478.346	185.25
478.564	160.25
478.783	182.25
479.002	196.25
479.22	163.25
479.439	194.25
479.658	149.25
479.876	148.25
480.095	145.25
480.313	155.25
480.532	187.25
480.751	159.25
480.969	140.25
481.188	143.25
481.406	123.25
481.624	116.25
481.843	125.25
482.061	145.25
482.28	148.25
482.498	132.25
482.717	137.25
482.935	165.25
483.153	175.25
483.372	179.25
483.59	184.25
483.808	172.25
484.027	150.25
484.245	159.25
484.463	195.25
484.681	186.25
484.9	183.25
485.118	175.25
485.336	151.25
485.554	171.25
485.772	161.25
485.99	135.25
486.209	157.25
486.427	163.25
486.645	159.25
486.863	185.25
487.081	173.25
487.299	190.25
487.517	188.25
487.735	208.25
487.953	235.25
488.171	227.25
488.389	216.25
488.607	193.25
488.825	184.25
489.043	168.25
489.261	190.25
489.479	179.25
489.696	189.25
489.914	195.25
490.132	212.25
490.35	224.25
490.568	193.25
490.786	214.25
491.003	219.25
491.221	220.25
491.439	230.25
491.657	236.25
491.874	244.25
492.092	267.25
492.31	301.25
492.527	250.25
492.745	253.25
492.963	237.25
493.18	224.25
493.398	224.25
493.615	232.25
493.833	229.25
494.05	234.25
494.268	232.25
494.485	223.25
494.703	219.25
494.92	215.25
495.138	211.25
495.355	224.25
495.573	234.25
495.79	203.25
496.008	239.25
496.225	226.25
496.442	223.25
496.66	229.25
496.877	205.25
497.094	220.25
497.312	230.25
497.529	213.25
497.746	203.25
497.963	205.25
498.181	182.25
498.398	172.25
498.615	200.25
498.832	187.25
499.049	181.25
499.267	215.25
499.484	218.25
499.701	236.25
499.918	257.25
500.135	276.25
500.352	287.25
500.569	302.25
500.786	301.25
501.003	283.25
501.22	275.25
501.437	244.25
501.654	241.25
501.871	197.25
502.088	191.25
502.305	200.25
502.522	210.25
502.739	171.25
502.956	184.25
503.172	180.25
503.389	179.25
503.606	187.25
503.823	190.25
504.04	184.25
504.256	170.25
504.473	173.25
504.69	173.25
504.907	174.25
505.123	169.25
505.34	167.25
505.557	161.25
505.773	170.25
505.99	160.25
506.207	169.25
506.423	155.25
