Data from SampD_HRD10591_00012.txt Node
Date: Mon Jan 19 11:47:42 EST 2026
User: Yrep
Spectrometer: HR+D1059
Trigger mode: 0
Integration Time (sec): 3.443000E-1
Scans to average: 1
Electric dark correction enabled: true
Nonlinearity correction enabled: false
Boxcar width: 0
XAxis mode: Wavelengths
Number of Pixels in Spectrum: 2048
>>>>>Begin Spectral Data<<<<<
223.165	-23.12
223.4	-23.12
223.635	-23.12
223.869	-25.12
224.104	-28.12
224.338	-12.12
224.573	-16.12
224.808	-9.12
225.042	-10.12
225.277	-7.12
225.511	-8.12
225.746	1.88
225.98	22.88
226.215	20.88
226.449	13.88
226.683	31.88
226.918	23.88
227.152	23.88
227.387	38.88
227.621	57.88
227.856	42.88
228.09	29.88
228.324	63.88
228.559	54.88
228.793	59.88
229.027	65.88
229.262	58.88
229.496	76.88
229.73	72.88
229.964	68.88
230.199	72.88
230.433	78.88
230.667	64.88
230.901	69.88
231.136	72.88
231.37	80.88
231.604	72.88
231.838	94.88
232.072	79.88
232.306	75.88
232.541	81.88
232.775	82.88
233.009	93.88
233.243	87.88
233.477	79.88
233.711	69.88
233.945	85.88
234.179	90.88
234.413	76.88
234.647	85.88
234.881	82.88
235.115	70.88
235.349	79.88
235.583	69.88
235.817	86.88
236.051	88.88
236.285	75.88
236.519	60.88
236.753	74.88
236.987	82.88
237.221	78.88
237.455	70.88
237.689	84.88
237.922	63.88
238.156	69.88
238.39	79.88
238.624	58.88
238.858	74.88
239.091	75.88
239.325	72.88
239.559	80.88
239.793	75.88
240.027	69.88
240.26	78.88
240.494	74.88
240.728	60.88
240.961	63.88
241.195	79.88
241.429	92.88
241.662	77.88
241.896	78.88
242.13	92.88
242.363	86.88
242.597	84.88
242.83	86.88
243.064	68.88
243.298	89.88
243.531	72.88
243.765	77.88
243.998	81.88
244.232	93.88
244.465	81.88
244.699	77.88
244.932	75.88
245.166	79.88
245.399	81.88
245.633	95.88
245.866	86.88
246.099	77.88
246.333	68.88
246.566	70.88
246.8	78.88
247.033	82.88
247.266	86.88
247.5	81.88
247.733	64.88
247.966	78.88
248.2	80.88
248.433	79.88
248.666	88.88
248.899	89.88
249.133	77.88
249.366	85.88
249.599	74.88
249.832	76.88
250.066	83.88
250.299	78.88
250.532	82.88
250.765	80.88
250.998	75.88
251.231	82.88
251.465	75.88
251.698	83.88
251.931	74.88
252.164	86.88
252.397	79.88
252.63	84.88
252.863	83.88
253.096	70.88
253.329	86.88
253.562	65.88
253.795	98.88
254.028	93.88
254.261	89.88
254.494	79.88
254.727	84.88
254.96	77.88
255.193	74.88
255.426	83.88
255.659	86.88
255.892	81.88
256.124	72.88
256.357	84.88
256.59	90.88
256.823	76.88
257.056	75.88
257.289	94.88
257.521	98.88
257.754	84.88
257.987	96.88
258.22	97.88
258.452	94.88
258.685	86.88
258.918	76.88
259.151	64.88
259.383	88.88
259.616	78.88
259.849	79.88
260.081	91.88
260.314	80.88
260.547	67.88
260.779	91.88
261.012	71.88
261.244	82.88
261.477	84.88
261.71	72.88
261.942	68.88
262.175	87.88
262.407	98.88
262.64	79.88
262.872	71.88
263.105	83.88
263.337	78.88
263.57	85.88
263.802	92.88
264.035	84.88
264.267	109.88
264.499	80.88
264.732	90.88
264.964	98.88
265.197	81.88
265.429	86.88
265.661	77.88
265.894	90.88
266.126	90.88
266.358	82.88
266.591	87.88
266.823	81.88
267.055	87.88
267.287	80.88
267.52	87.88
267.752	83.88
267.984	85.88
268.216	82.88
268.448	95.88
268.681	86.88
268.913	107.88
269.145	90.88
269.377	103.88
269.609	92.88
269.841	86.88
270.073	92.88
270.306	94.88
270.538	94.88
270.77	93.88
271.002	91.88
271.234	106.88
271.466	97.88
271.698	76.88
271.93	89.88
272.162	93.88
272.394	93.88
272.626	91.88
272.858	92.88
273.09	102.88
273.322	85.88
273.553	79.88
273.785	84.88
274.017	95.88
274.249	81.88
274.481	95.88
274.713	86.88
274.945	76.88
275.176	91.88
275.408	90.88
275.64	89.88
275.872	74.88
276.104	94.88
276.335	82.88
276.567	78.88
276.799	94.88
277.031	94.88
277.262	60.88
277.494	98.88
277.726	82.88
277.957	105.88
278.189	94.88
278.421	105.88
278.652	83.88
278.884	88.88
279.115	89.88
279.347	84.88
279.579	97.88
279.81	90.88
280.042	88.88
280.273	100.88
280.505	96.88
280.736	84.88
280.968	95.88
281.199	100.88
281.431	86.88
281.662	95.88
281.894	97.88
282.125	101.88
282.356	98.88
282.588	101.88
282.819	94.88
283.051	92.88
283.282	94.88
283.513	98.88
283.745	90.88
283.976	92.88
284.207	92.88
284.439	100.88
284.67	98.88
284.901	82.88
285.132	86.88
285.364	106.88
285.595	83.88
285.826	92.88
286.057	110.88
286.288	97.88
286.52	112.88
286.751	95.88
286.982	107.88
287.213	101.88
287.444	92.88
287.675	99.88
287.906	109.88
288.138	94.88
288.369	100.88
288.6	94.88
288.831	92.88
289.062	118.88
289.293	92.88
289.524	94.88
289.755	93.88
289.986	101.88
290.217	98.88
290.448	107.88
290.679	89.88
290.91	117.88
291.141	94.88
291.371	103.88
291.602	79.88
291.833	92.88
292.064	106.88
292.295	101.88
292.526	96.88
292.757	103.88
292.987	107.88
293.218	92.88
293.449	106.88
293.68	104.88
293.91	101.88
294.141	102.88
294.372	92.88
294.603	88.88
294.833	98.88
295.064	94.88
295.295	98.88
295.525	96.88
295.756	105.88
295.987	89.88
296.217	103.88
296.448	93.88
296.679	98.88
296.909	108.88
297.14	95.88
297.37	111.88
297.601	86.88
297.831	110.88
298.062	94.88
298.292	103.88
298.523	98.88
298.753	102.88
298.984	109.88
299.214	104.88
299.445	91.88
299.675	93.88
299.905	105.88
300.136	96.88
300.366	95.88
300.597	99.88
300.827	96.88
301.057	102.88
301.288	91.88
301.518	107.88
301.748	92.88
301.979	138.88
302.209	93.88
302.439	96.88
302.669	91.88
302.9	94.88
303.13	103.88
303.36	98.88
303.59	103.88
303.82	108.88
304.051	107.88
304.281	90.88
304.511	114.88
304.741	91.88
304.971	97.88
305.201	93.88
305.431	116.88
305.661	100.88
305.891	95.88
306.121	92.88
306.352	100.88
306.582	107.88
306.812	103.88
307.042	98.88
307.272	103.88
307.502	102.88
307.731	103.88
307.961	88.88
308.191	99.88
308.421	96.88
308.651	101.88
308.881	95.88
309.111	126.88
309.341	102.88
309.571	105.88
309.8	102.88
310.03	96.88
310.26	105.88
310.49	97.88
310.72	97.88
310.949	103.88
311.179	114.88
311.409	97.88
311.639	104.88
311.868	107.88
312.098	97.88
312.328	100.88
312.557	108.88
312.787	91.88
313.017	111.88
313.246	95.88
313.476	110.88
313.706	116.88
313.935	101.88
314.165	103.88
314.394	102.88
314.624	88.88
314.853	101.88
315.083	121.88
315.312	114.88
315.542	100.88
315.771	94.88
316.001	94.88
316.23	96.88
316.46	100.88
316.689	98.88
316.919	106.88
317.148	100.88
317.377	95.88
317.607	103.88
317.836	103.88
318.065	102.88
318.295	98.88
318.524	94.88
318.753	122.88
318.983	104.88
319.212	104.88
319.441	110.88
319.67	92.88
319.9	111.88
320.129	104.88
320.358	106.88
320.587	100.88
320.816	96.88
321.046	82.88
321.275	121.88
321.504	96.88
321.733	104.88
321.962	109.88
322.191	101.88
322.42	94.88
322.649	103.88
322.878	92.88
323.108	105.88
323.337	99.88
323.566	91.88
323.795	107.88
324.024	98.88
324.253	97.88
324.482	115.88
324.71	103.88
324.939	105.88
325.168	123.88
325.397	120.88
325.626	107.88
325.855	117.88
326.084	99.88
326.313	105.88
326.542	87.88
326.77	114.88
326.999	116.88
327.228	107.88
327.457	112.88
327.686	110.88
327.914	107.88
328.143	107.88
328.372	112.88
328.6	110.88
328.829	104.88
329.058	110.88
329.287	118.88
329.515	115.88
329.744	103.88
329.972	98.88
330.201	111.88
330.43	106.88
330.658	111.88
330.887	97.88
331.115	99.88
331.344	121.88
331.572	113.88
331.801	104.88
332.03	110.88
332.258	118.88
332.486	110.88
332.715	86.88
332.943	111.88
333.172	105.88
333.4	114.88
333.629	124.88
333.857	115.88
334.085	110.88
334.314	112.88
334.542	113.88
334.771	108.88
334.999	95.88
335.227	103.88
335.455	100.88
335.684	111.88
335.912	111.88
336.14	113.88
336.369	125.88
336.597	114.88
336.825	102.88
337.053	107.88
337.281	110.88
337.51	106.88
337.738	111.88
337.966	119.88
338.194	110.88
338.422	105.88
338.65	116.88
338.878	106.88
339.106	115.88
339.334	133.88
339.562	102.88
339.79	99.88
340.018	126.88
340.246	99.88
340.474	105.88
340.702	94.88
340.93	104.88
341.158	103.88
341.386	108.88
341.614	115.88
341.842	106.88
342.07	117.88
342.298	117.88
342.526	87.88
342.754	113.88
342.981	122.88
343.209	101.88
343.437	139.88
343.665	120.88
343.893	111.88
344.12	124.88
344.348	110.88
344.576	111.88
344.804	100.88
345.031	89.88
345.259	100.88
345.487	100.88
345.714	105.88
345.942	107.88
346.17	117.88
346.397	98.88
346.625	86.88
346.853	118.88
347.08	99.88
347.308	109.88
347.535	103.88
347.763	80.88
347.99	104.88
348.218	114.88
348.445	108.88
348.673	96.88
348.9	110.88
349.128	120.88
349.355	110.88
349.583	88.88
349.81	111.88
350.037	116.88
350.265	114.88
350.492	104.88
350.72	98.88
350.947	103.88
351.174	108.88
351.402	97.88
351.629	98.88
351.856	106.88
352.083	97.88
352.311	97.88
352.538	114.88
352.765	103.88
352.992	107.88
353.22	111.88
353.447	100.88
353.674	99.88
353.901	119.88
354.128	111.88
354.355	102.88
354.583	122.88
354.81	102.88
355.037	108.88
355.264	108.88
355.491	98.88
355.718	104.88
355.945	111.88
356.172	103.88
356.399	106.88
356.626	110.88
356.853	107.88
357.08	106.88
357.307	130.88
357.534	108.88
357.761	115.88
357.988	106.88
358.215	114.88
358.441	110.88
358.668	103.88
358.895	95.88
359.122	101.88
359.349	89.88
359.576	108.88
359.802	103.88
360.029	107.88
360.256	106.88
360.483	94.88
360.709	99.88
360.936	98.88
361.163	99.88
361.39	104.88
361.616	119.88
361.843	107.88
362.07	107.88
362.296	101.88
362.523	95.88
362.749	103.88
362.976	95.88
363.203	108.88
363.429	108.88
363.656	108.88
363.882	114.88
364.109	117.88
364.335	110.88
364.562	109.88
364.788	110.88
365.015	91.88
365.241	99.88
365.468	109.88
365.694	105.88
365.92	114.88
366.147	101.88
366.373	99.88
366.599	92.88
366.826	117.88
367.052	107.88
367.278	104.88
367.505	118.88
367.731	118.88
367.957	110.88
368.184	120.88
368.41	107.88
368.636	101.88
368.862	114.88
369.089	98.88
369.315	98.88
369.541	114.88
369.767	107.88
369.993	112.88
370.219	116.88
370.445	99.88
370.672	117.88
370.898	128.88
371.124	119.88
371.35	111.88
371.576	112.88
371.802	101.88
372.028	107.88
372.254	130.88
372.48	104.88
372.706	93.88
372.932	117.88
373.158	106.88
373.384	132.88
373.61	131.88
373.835	128.88
374.061	108.88
374.287	106.88
374.513	133.88
374.739	123.88
374.965	126.88
375.191	123.88
375.416	116.88
375.642	114.88
375.868	122.88
376.094	114.88
376.319	111.88
376.545	103.88
376.771	105.88
376.997	123.88
377.222	119.88
377.448	117.88
377.674	104.88
377.899	110.88
378.125	111.88
378.35	124.88
378.576	120.88
378.802	98.88
379.027	115.88
379.253	118.88
379.478	126.88
379.704	123.88
379.929	135.88
380.155	106.88
380.38	119.88
380.606	120.88
380.831	109.88
381.057	132.88
381.282	108.88
381.507	97.88
381.733	109.88
381.958	128.88
382.184	123.88
382.409	120.88
382.634	132.88
382.86	111.88
383.085	124.88
383.31	131.88
383.535	106.88
383.761	126.88
383.986	131.88
384.211	113.88
384.436	126.88
384.662	119.88
384.887	108.88
385.112	122.88
385.337	123.88
385.562	130.88
385.787	143.88
386.013	143.88
386.238	139.88
386.463	127.88
386.688	158.88
386.913	127.88
387.138	130.88
387.363	127.88
387.588	135.88
387.813	138.88
388.038	140.88
388.263	134.88
388.488	136.88
388.713	125.88
388.938	133.88
389.163	115.88
389.387	127.88
389.612	130.88
389.837	135.88
390.062	141.88
390.287	132.88
390.512	133.88
390.736	135.88
390.961	143.88
391.186	140.88
391.411	142.88
391.636	126.88
391.86	124.88
392.085	133.88
392.31	136.88
392.534	143.88
392.759	134.88
392.984	130.88
393.208	132.88
393.433	139.88
393.658	144.88
393.882	145.88
394.107	134.88
394.331	155.88
394.556	140.88
394.78	150.88
395.005	148.88
395.229	130.88
395.454	153.88
395.678	143.88
395.903	144.88
396.127	163.88
396.352	145.88
396.576	139.88
396.801	136.88
397.025	138.88
397.249	136.88
397.474	164.88
397.698	153.88
397.922	151.88
398.147	148.88
398.371	143.88
398.595	150.88
398.82	149.88
399.044	159.88
399.268	162.88
399.492	172.88
399.717	183.88
399.941	192.88
400.165	173.88
400.389	160.88
400.613	143.88
400.837	150.88
401.062	167.88
401.286	149.88
401.51	154.88
401.734	168.88
401.958	166.88
402.182	164.88
402.406	151.88
402.63	154.88
402.854	163.88
403.078	168.88
403.302	156.88
403.526	162.88
403.75	178.88
403.974	162.88
404.198	171.88
404.422	184.88
404.645	147.88
404.869	179.88
405.093	163.88
405.317	176.88
405.541	178.88
405.765	166.88
405.988	170.88
406.212	163.88
406.436	178.88
406.66	177.88
406.883	187.88
407.107	177.88
407.331	181.88
407.555	170.88
407.778	170.88
408.002	190.88
408.226	172.88
408.449	176.88
408.673	156.88
408.896	182.88
409.12	175.88
409.344	172.88
409.567	168.88
409.791	179.88
410.014	171.88
410.238	164.88
410.461	183.88
410.685	166.88
410.908	151.88
411.132	178.88
411.355	161.88
411.578	170.88
411.802	176.88
412.025	174.88
412.249	178.88
412.472	173.88
412.695	174.88
412.919	168.88
413.142	182.88
413.365	175.88
413.589	179.88
413.812	146.88
414.035	165.88
414.258	161.88
414.482	159.88
414.705	167.88
414.928	159.88
415.151	156.88
415.374	171.88
415.597	175.88
415.821	170.88
416.044	172.88
416.267	178.88
416.49	175.88
416.713	166.88
416.936	177.88
417.159	177.88
417.382	175.88
417.605	165.88
417.828	176.88
418.051	175.88
418.274	175.88
418.497	181.88
418.72	171.88
418.943	182.88
419.166	207.88
419.389	189.88
419.611	178.88
419.834	179.88
420.057	172.88
420.28	172.88
420.503	171.88
420.726	160.88
420.948	181.88
421.171	159.88
421.394	160.88
421.617	178.88
421.839	183.88
422.062	191.88
422.285	176.88
422.507	169.88
422.73	174.88
422.953	169.88
423.175	172.88
423.398	163.88
423.621	185.88
423.843	177.88
424.066	181.88
424.288	186.88
424.511	190.88
424.733	185.88
424.956	186.88
425.178	178.88
425.401	167.88
425.623	196.88
425.846	164.88
426.068	162.88
426.291	165.88
426.513	176.88
426.735	172.88
426.958	182.88
427.18	172.88
427.402	169.88
427.625	167.88
427.847	162.88
428.069	179.88
428.292	155.88
428.514	164.88
428.736	162.88
428.958	171.88
429.181	165.88
429.403	168.88
429.625	166.88
429.847	169.88
430.069	166.88
430.292	158.88
430.514	164.88
430.736	177.88
430.958	166.88
431.18	163.88
431.402	158.88
431.624	145.88
431.846	129.88
432.068	138.88
432.29	135.88
432.512	156.88
432.734	160.88
432.956	164.88
433.178	195.88
433.4	166.88
433.622	171.88
433.844	166.88
434.066	174.88
434.287	138.88
434.509	133.88
434.731	154.88
434.953	155.88
435.175	166.88
435.397	166.88
435.618	158.88
435.84	130.88
436.062	132.88
436.284	149.88
436.505	150.88
436.727	166.88
436.949	171.88
437.17	194.88
437.392	154.88
437.614	149.88
437.835	142.88
438.057	137.88
438.278	144.88
438.5	160.88
438.721	169.88
438.943	189.88
439.165	175.88
439.386	194.88
439.608	195.88
439.829	180.88
440.05	181.88
440.272	199.88
440.493	166.88
440.715	181.88
440.936	193.88
441.158	188.88
441.379	183.88
441.6	199.88
441.822	191.88
442.043	196.88
442.264	183.88
442.486	185.88
442.707	172.88
442.928	187.88
443.149	173.88
443.371	190.88
443.592	189.88
443.813	203.88
444.034	174.88
444.255	202.88
444.476	190.88
444.698	186.88
444.919	210.88
445.14	399.88
445.361	282.88
445.582	199.88
445.803	189.88
446.024	187.88
446.245	201.88
446.466	188.88
446.687	186.88
446.908	193.88
447.129	190.88
447.35	180.88
447.571	187.88
447.792	155.88
448.013	177.88
448.234	185.88
448.455	183.88
448.675	176.88
448.896	171.88
449.117	185.88
449.338	175.88
449.559	162.88
449.779	171.88
450	173.88
450.221	172.88
450.442	179.88
450.662	172.88
450.883	181.88
451.104	159.88
451.324	162.88
451.545	154.88
451.766	153.88
451.986	159.88
452.207	156.88
452.428	145.88
452.648	156.88
452.869	148.88
453.089	135.88
453.31	141.88
453.53	117.88
453.751	110.88
453.971	138.88
454.192	124.88
454.412	133.88
454.633	149.88
454.853	134.88
455.073	142.88
455.294	151.88
455.514	154.88
455.734	132.88
455.955	134.88
456.175	143.88
456.395	137.88
456.616	149.88
456.836	156.88
457.056	142.88
457.276	124.88
457.497	132.88
457.717	142.88
457.937	127.88
458.157	139.88
458.377	128.88
458.598	121.88
458.818	117.88
459.038	130.88
459.258	116.88
459.478	133.88
459.698	119.88
459.918	138.88
460.138	142.88
460.358	146.88
460.578	164.88
460.798	148.88
461.018	161.88
461.238	166.88
461.458	158.88
461.678	148.88
461.898	157.88
462.118	161.88
462.338	158.88
462.558	180.88
462.777	160.88
462.997	179.88
463.217	155.88
463.437	172.88
463.657	163.88
463.876	147.88
464.096	159.88
464.316	145.88
464.536	172.88
464.755	182.88
464.975	163.88
465.195	172.88
465.414	162.88
465.634	157.88
465.854	154.88
466.073	144.88
466.293	160.88
466.512	158.88
466.732	171.88
466.951	174.88
467.171	170.88
467.391	159.88
467.61	158.88
467.829	159.88
468.049	166.88
468.268	165.88
468.488	150.88
468.707	170.88
468.927	169.88
469.146	175.88
469.365	177.88
469.585	163.88
469.804	168.88
470.023	174.88
470.243	180.88
470.462	183.88
470.681	186.88
470.901	178.88
471.12	173.88
471.339	173.88
471.558	184.88
471.777	172.88
471.997	170.88
472.216	155.88
472.435	156.88
472.654	132.88
472.873	156.88
473.092	131.88
473.311	148.88
473.53	152.88
473.749	171.88
473.968	162.88
474.187	142.88
474.406	142.88
474.625	153.88
474.844	166.88
475.063	174.88
475.282	159.88
475.501	135.88
475.72	158.88
475.939	147.88
476.158	165.88
476.377	160.88
476.596	148.88
476.814	151.88
477.033	142.88
477.252	157.88
477.471	162.88
477.69	174.88
477.908	186.88
478.127	176.88
478.346	170.88
478.564	168.88
478.783	164.88
479.002	179.88
479.22	181.88
479.439	180.88
479.658	169.88
479.876	142.88
480.095	164.88
480.313	156.88
480.532	170.88
480.751	133.88
480.969	127.88
481.188	133.88
481.406	135.88
481.624	133.88
481.843	132.88
482.061	136.88
482.28	133.88
482.498	142.88
482.717	137.88
482.935	170.88
483.153	176.88
483.372	185.88
483.59	163.88
483.808	165.88
484.027	172.88
484.245	154.88
484.463	182.88
484.681	196.88
484.9	158.88
485.118	178.88
485.336	163.88
485.554	142.88
485.772	127.88
485.99	129.88
486.209	143.88
486.427	128.88
486.645	164.88
486.863	174.88
487.081	173.88
487.299	175.88
487.517	168.88
487.735	192.88
487.953	233.88
488.171	222.88
488.389	198.88
488.607	181.88
488.825	163.88
489.043	163.88
489.261	178.88
489.479	167.88
489.696	175.88
489.914	182.88
490.132	193.88
490.35	189.88
490.568	203.88
490.786	192.88
491.003	210.88
491.221	214.88
491.439	232.88
491.657	252.88
491.874	255.88
492.092	272.88
492.31	291.88
492.527	252.88
492.745	261.88
492.963	235.88
493.18	239.88
493.398	234.88
493.615	236.88
493.833	219.88
494.05	221.88
494.268	222.88
494.485	225.88
494.703	222.88
494.92	221.88
495.138	219.88
495.355	207.88
495.573	225.88
495.79	206.88
496.008	204.88
496.225	205.88
496.442	207.88
496.66	218.88
496.877	204.88
497.094	232.88
497.312	190.88
497.529	195.88
497.746	203.88
497.963	186.88
498.181	176.88
498.398	174.88
498.615	177.88
498.832	168.88
499.049	188.88
499.267	211.88
499.484	210.88
499.701	226.88
499.918	248.88
500.135	282.88
500.352	278.88
500.569	291.88
500.786	297.88
501.003	283.88
501.22	248.88
501.437	222.88
501.654	221.88
501.871	203.88
502.088	191.88
502.305	198.88
502.522	193.88
502.739	194.88
502.956	190.88
503.172	195.88
503.389	175.88
503.606	173.88
503.823	172.88
504.04	167.88
504.256	172.88
504.473	168.88
504.69	172.88
504.907	188.88
505.123	162.88
505.34	164.88
505.557	165.88
505.773	166.88
505.99	168.88
506.207	144.88
506.423	147.88
506.64	168.88
506.856	168.88
507.073	152.88
507.289	155.88
507.506	154.88
