Data from SampD_HRD10591_00052.txt Node
Date: Mon Jan 19 11:47:55 EST 2026
User: Yrep
Spectrometer: HR+D1059
Trigger mode: 0
Integration Time (sec): 3.443000E-1
Scans to average: 1
Electric dark correction enabled: true
Nonlinearity correction enabled: false
Boxcar width: 0
XAxis mode: Wavelengths
Number of Pixels in Spectrum: 2048
>>>>>Begin Spectral Data<<<<<
223.165	-25.81
223.4	-25.81
223.635	-25.81
223.869	-11.81
224.104	-20.81
224.338	-3.81
224.573	-21.81
224.808	-24.81
225.042	-8.81
225.277	-3.81
225.511	-3.81
225.746	9.19
225.98	8.19
226.215	2.19
226.449	27.19
226.683	30.19
226.918	22.19
227.152	26.19
227.387	27.19
227.621	40.19
227.856	53.19
228.09	50.19
228.324	57.19
228.559	58.19
228.793	66.19
229.027	64.19
229.262	60.19
229.496	68.19
229.73	78.19
229.964	72.19
230.199	70.19
230.433	79.19
230.667	86.19
230.901	71.19
231.136	92.19
231.37	71.19
231.604	86.19
231.838	86.19
232.072	83.19
232.306	86.19
232.541	84.19
232.775	69.19
233.009	86.19
233.243	81.19
233.477	78.19
233.711	80.19
233.945	71.19
234.179	79.19
234.413	92.19
234.647	78.19
234.881	88.19
235.115	98.19
235.349	80.19
235.583	69.19
235.817	82.19
236.051	70.19
236.285	73.19
236.519	80.19
236.753	85.19
236.987	91.19
237.221	81.19
237.455	79.19
237.689	84.19
237.922	72.19
238.156	68.19
238.39	80.19
238.624	71.19
238.858	86.19
239.091	89.19
239.325	87.19
239.559	64.19
239.793	75.19
240.027	74.19
240.26	78.19
240.494	68.19
240.728	66.19
240.961	93.19
241.195	78.19
241.429	75.19
241.662	73.19
241.896	73.19
242.13	81.19
242.363	86.19
242.597	72.19
242.83	92.19
243.064	84.19
243.298	73.19
243.531	86.19
243.765	84.19
243.998	90.19
244.232	95.19
244.465	82.19
244.699	82.19
244.932	85.19
245.166	85.19
245.399	75.19
245.633	66.19
245.866	94.19
246.099	88.19
246.333	88.19
246.566	85.19
246.8	85.19
247.033	81.19
247.266	78.19
247.5	66.19
247.733	82.19
247.966	82.19
248.2	86.19
248.433	91.19
248.666	72.19
248.899	80.19
249.133	83.19
249.366	106.19
249.599	89.19
249.832	78.19
250.066	102.19
250.299	87.19
250.532	85.19
250.765	93.19
250.998	79.19
251.231	84.19
251.465	79.19
251.698	82.19
251.931	77.19
252.164	83.19
252.397	92.19
252.63	85.19
252.863	90.19
253.096	89.19
253.329	84.19
253.562	94.19
253.795	83.19
254.028	93.19
254.261	83.19
254.494	86.19
254.727	101.19
254.96	91.19
255.193	84.19
255.426	86.19
255.659	93.19
255.892	106.19
256.124	94.19
256.357	85.19
256.59	89.19
256.823	83.19
257.056	94.19
257.289	87.19
257.521	98.19
257.754	82.19
257.987	84.19
258.22	87.19
258.452	97.19
258.685	92.19
258.918	77.19
259.151	87.19
259.383	94.19
259.616	89.19
259.849	93.19
260.081	98.19
260.314	83.19
260.547	96.19
260.779	83.19
261.012	86.19
261.244	98.19
261.477	108.19
261.71	98.19
261.942	94.19
262.175	85.19
262.407	78.19
262.64	90.19
262.872	111.19
263.105	97.19
263.337	104.19
263.57	102.19
263.802	97.19
264.035	93.19
264.267	81.19
264.499	86.19
264.732	99.19
264.964	84.19
265.197	78.19
265.429	105.19
265.661	84.19
265.894	92.19
266.126	113.19
266.358	106.19
266.591	90.19
266.823	100.19
267.055	95.19
267.287	95.19
267.52	88.19
267.752	95.19
267.984	98.19
268.216	98.19
268.448	109.19
268.681	97.19
268.913	114.19
269.145	90.19
269.377	103.19
269.609	110.19
269.841	101.19
270.073	91.19
270.306	99.19
270.538	93.19
270.77	104.19
271.002	89.19
271.234	92.19
271.466	99.19
271.698	90.19
271.93	110.19
272.162	90.19
272.394	100.19
272.626	95.19
272.858	104.19
273.09	106.19
273.322	88.19
273.553	98.19
273.785	102.19
274.017	95.19
274.249	97.19
274.481	85.19
274.713	88.19
274.945	105.19
275.176	88.19
275.408	92.19
275.64	101.19
275.872	84.19
276.104	98.19
276.335	84.19
276.567	88.19
276.799	88.19
277.031	100.19
277.262	86.19
277.494	108.19
277.726	92.19
277.957	93.19
278.189	98.19
278.421	90.19
278.652	97.19
278.884	103.19
279.115	105.19
279.347	103.19
279.579	96.19
279.81	97.19
280.042	105.19
280.273	101.19
280.505	80.19
280.736	106.19
280.968	97.19
281.199	92.19
281.431	106.19
281.662	99.19
281.894	90.19
282.125	88.19
282.356	94.19
282.588	96.19
282.819	105.19
283.051	98.19
283.282	109.19
283.513	120.19
283.745	108.19
283.976	103.19
284.207	96.19
284.439	96.19
284.67	94.19
284.901	91.19
285.132	96.19
285.364	106.19
285.595	100.19
285.826	112.19
286.057	104.19
286.288	100.19
286.52	95.19
286.751	106.19
286.982	104.19
287.213	97.19
287.444	102.19
287.675	105.19
287.906	106.19
288.138	96.19
288.369	103.19
288.6	108.19
288.831	85.19
289.062	112.19
289.293	106.19
289.524	98.19
289.755	103.19
289.986	101.19
290.217	96.19
290.448	98.19
290.679	102.19
290.91	111.19
291.141	98.19
291.371	103.19
291.602	104.19
291.833	97.19
292.064	106.19
292.295	109.19
292.526	109.19
292.757	112.19
292.987	106.19
293.218	103.19
293.449	104.19
293.68	113.19
293.91	114.19
294.141	116.19
294.372	96.19
294.603	94.19
294.833	104.19
295.064	106.19
295.295	107.19
295.525	104.19
295.756	103.19
295.987	112.19
296.217	100.19
296.448	110.19
296.679	90.19
296.909	108.19
297.14	107.19
297.37	98.19
297.601	104.19
297.831	101.19
298.062	110.19
298.292	114.19
298.523	111.19
298.753	111.19
298.984	105.19
299.214	108.19
299.445	95.19
299.675	115.19
299.905	117.19
300.136	107.19
300.366	91.19
300.597	102.19
300.827	113.19
301.057	119.19
301.288	97.19
301.518	108.19
301.748	119.19
301.979	147.19
302.209	120.19
302.439	113.19
302.669	87.19
302.9	94.19
303.13	116.19
303.36	104.19
303.59	116.19
303.82	115.19
304.051	115.19
304.281	114.19
304.511	124.19
304.741	109.19
304.971	86.19
305.201	101.19
305.431	109.19
305.661	101.19
305.891	113.19
306.121	120.19
306.352	91.19
306.582	121.19
306.812	95.19
307.042	94.19
307.272	89.19
307.502	119.19
307.731	91.19
307.961	99.19
308.191	101.19
308.421	118.19
308.651	119.19
308.881	106.19
309.111	81.19
309.341	88.19
309.571	105.19
309.8	111.19
310.03	106.19
310.26	104.19
310.49	111.19
310.72	106.19
310.949	104.19
311.179	111.19
311.409	123.19
311.639	113.19
311.868	119.19
312.098	126.19
312.328	107.19
312.557	119.19
312.787	107.19
313.017	108.19
313.246	109.19
313.476	103.19
313.706	96.19
313.935	101.19
314.165	113.19
314.394	110.19
314.624	93.19
314.853	108.19
315.083	110.19
315.312	120.19
315.542	107.19
315.771	92.19
316.001	105.19
316.23	115.19
316.46	110.19
316.689	111.19
316.919	97.19
317.148	111.19
317.377	116.19
317.607	113.19
317.836	108.19
318.065	109.19
318.295	104.19
318.524	99.19
318.753	93.19
318.983	111.19
319.212	107.19
319.441	117.19
319.67	120.19
319.9	121.19
320.129	108.19
320.358	118.19
320.587	106.19
320.816	100.19
321.046	111.19
321.275	113.19
321.504	115.19
321.733	119.19
321.962	108.19
322.191	106.19
322.42	109.19
322.649	108.19
322.878	98.19
323.108	106.19
323.337	105.19
323.566	120.19
323.795	109.19
324.024	108.19
324.253	108.19
324.482	98.19
324.71	117.19
324.939	112.19
325.168	103.19
325.397	104.19
325.626	118.19
325.855	110.19
326.084	100.19
326.313	112.19
326.542	104.19
326.77	108.19
326.999	105.19
327.228	102.19
327.457	107.19
327.686	119.19
327.914	104.19
328.143	116.19
328.372	118.19
328.6	108.19
328.829	130.19
329.058	119.19
329.287	103.19
329.515	116.19
329.744	120.19
329.972	106.19
330.201	106.19
330.43	113.19
330.658	108.19
330.887	114.19
331.115	105.19
331.344	115.19
331.572	122.19
331.801	124.19
332.03	121.19
332.258	128.19
332.486	107.19
332.715	108.19
332.943	112.19
333.172	127.19
333.4	121.19
333.629	134.19
333.857	126.19
334.085	124.19
334.314	134.19
334.542	132.19
334.771	121.19
334.999	124.19
335.227	129.19
335.455	120.19
335.684	121.19
335.912	112.19
336.14	111.19
336.369	110.19
336.597	107.19
336.825	102.19
337.053	121.19
337.281	121.19
337.51	113.19
337.738	115.19
337.966	115.19
338.194	112.19
338.422	108.19
338.65	129.19
338.878	112.19
339.106	109.19
339.334	119.19
339.562	97.19
339.79	112.19
340.018	118.19
340.246	124.19
340.474	114.19
340.702	104.19
340.93	106.19
341.158	102.19
341.386	123.19
341.614	107.19
341.842	103.19
342.07	109.19
342.298	106.19
342.526	100.19
342.754	114.19
342.981	114.19
343.209	105.19
343.437	135.19
343.665	123.19
343.893	121.19
344.12	130.19
344.348	104.19
344.576	112.19
344.804	119.19
345.031	115.19
345.259	114.19
345.487	100.19
345.714	106.19
345.942	104.19
346.17	120.19
346.397	108.19
346.625	102.19
346.853	119.19
347.08	109.19
347.308	124.19
347.535	113.19
347.763	112.19
347.99	119.19
348.218	120.19
348.445	108.19
348.673	111.19
348.9	122.19
349.128	106.19
349.355	108.19
349.583	100.19
349.81	99.19
350.037	111.19
350.265	108.19
350.492	114.19
350.72	108.19
350.947	113.19
351.174	106.19
351.402	118.19
351.629	108.19
351.856	100.19
352.083	105.19
352.311	117.19
352.538	91.19
352.765	100.19
352.992	128.19
353.22	116.19
353.447	118.19
353.674	102.19
353.901	129.19
354.128	108.19
354.355	118.19
354.583	107.19
354.81	123.19
355.037	117.19
355.264	112.19
355.491	111.19
355.718	120.19
355.945	115.19
356.172	102.19
356.399	118.19
356.626	108.19
356.853	109.19
357.08	127.19
357.307	110.19
357.534	116.19
357.761	112.19
357.988	111.19
358.215	113.19
358.441	112.19
358.668	108.19
358.895	117.19
359.122	115.19
359.349	111.19
359.576	103.19
359.802	108.19
360.029	117.19
360.256	116.19
360.483	97.19
360.709	98.19
360.936	136.19
361.163	115.19
361.39	113.19
361.616	118.19
361.843	112.19
362.07	114.19
362.296	105.19
362.523	99.19
362.749	120.19
362.976	96.19
363.203	120.19
363.429	103.19
363.656	130.19
363.882	121.19
364.109	118.19
364.335	111.19
364.562	108.19
364.788	110.19
365.015	108.19
365.241	111.19
365.468	119.19
365.694	108.19
365.92	109.19
366.147	111.19
366.373	118.19
366.599	117.19
366.826	115.19
367.052	104.19
367.278	109.19
367.505	106.19
367.731	126.19
367.957	123.19
368.184	112.19
368.41	96.19
368.636	104.19
368.862	101.19
369.089	113.19
369.315	115.19
369.541	121.19
369.767	105.19
369.993	121.19
370.219	101.19
370.445	114.19
370.672	135.19
370.898	118.19
371.124	114.19
371.35	106.19
371.576	126.19
371.802	110.19
372.028	106.19
372.254	126.19
372.48	122.19
372.706	112.19
372.932	135.19
373.158	121.19
373.384	119.19
373.61	141.19
373.835	124.19
374.061	116.19
374.287	118.19
374.513	125.19
374.739	118.19
374.965	117.19
375.191	116.19
375.416	119.19
375.642	134.19
375.868	136.19
376.094	132.19
376.319	127.19
376.545	116.19
376.771	119.19
376.997	111.19
377.222	115.19
377.448	128.19
377.674	134.19
377.899	116.19
378.125	112.19
378.35	114.19
378.576	124.19
378.802	124.19
379.027	122.19
379.253	131.19
379.478	121.19
379.704	123.19
379.929	113.19
380.155	109.19
380.38	107.19
380.606	114.19
380.831	126.19
381.057	145.19
381.282	128.19
381.507	114.19
381.733	137.19
381.958	124.19
382.184	107.19
382.409	124.19
382.634	136.19
382.86	127.19
383.085	134.19
383.31	129.19
383.535	137.19
383.761	121.19
383.986	136.19
384.211	121.19
384.436	126.19
384.662	145.19
384.887	122.19
385.112	139.19
385.337	138.19
385.562	153.19
385.787	133.19
386.013	147.19
386.238	131.19
386.463	145.19
386.688	162.19
386.913	137.19
387.138	125.19
387.363	135.19
387.588	145.19
387.813	135.19
388.038	138.19
388.263	146.19
388.488	148.19
388.713	137.19
388.938	148.19
389.163	135.19
389.387	135.19
389.612	135.19
389.837	137.19
390.062	151.19
390.287	144.19
390.512	136.19
390.736	128.19
390.961	135.19
391.186	139.19
391.411	146.19
391.636	136.19
391.86	137.19
392.085	143.19
392.31	152.19
392.534	134.19
392.759	143.19
392.984	154.19
393.208	149.19
393.433	148.19
393.658	152.19
393.882	142.19
394.107	161.19
394.331	162.19
394.556	138.19
394.78	171.19
395.005	158.19
395.229	145.19
395.454	157.19
395.678	142.19
395.903	152.19
396.127	148.19
396.352	148.19
396.576	143.19
396.801	137.19
397.025	160.19
397.249	157.19
397.474	164.19
397.698	148.19
397.922	149.19
398.147	163.19
398.371	161.19
398.595	170.19
398.82	149.19
399.044	161.19
399.268	176.19
399.492	170.19
399.717	190.19
399.941	190.19
400.165	177.19
400.389	170.19
400.613	180.19
400.837	180.19
401.062	164.19
401.286	171.19
401.51	166.19
401.734	154.19
401.958	147.19
402.182	169.19
402.406	174.19
402.63	162.19
402.854	177.19
403.078	166.19
403.302	172.19
403.526	166.19
403.75	176.19
403.974	176.19
404.198	195.19
404.422	170.19
404.645	184.19
404.869	185.19
405.093	176.19
405.317	166.19
405.541	170.19
405.765	178.19
405.988	163.19
406.212	191.19
406.436	176.19
406.66	180.19
406.883	194.19
407.107	176.19
407.331	188.19
407.555	194.19
407.778	171.19
408.002	188.19
408.226	184.19
408.449	186.19
408.673	178.19
408.896	182.19
409.12	165.19
409.344	181.19
409.567	207.19
409.791	185.19
410.014	172.19
410.238	183.19
410.461	170.19
410.685	194.19
410.908	187.19
411.132	199.19
411.355	176.19
411.578	185.19
411.802	162.19
412.025	182.19
412.249	168.19
412.472	165.19
412.695	158.19
412.919	167.19
413.142	164.19
413.365	182.19
413.589	166.19
413.812	187.19
414.035	188.19
414.258	180.19
414.482	176.19
414.705	159.19
414.928	170.19
415.151	176.19
415.374	193.19
415.597	167.19
415.821	193.19
416.044	173.19
416.267	171.19
416.49	192.19
416.713	182.19
416.936	172.19
417.159	172.19
417.382	162.19
417.605	174.19
417.828	192.19
418.051	178.19
418.274	182.19
418.497	173.19
418.72	180.19
418.943	183.19
419.166	185.19
419.389	177.19
419.611	182.19
419.834	195.19
420.057	200.19
420.28	188.19
420.503	180.19
420.726	184.19
420.948	168.19
421.171	185.19
421.394	169.19
421.617	194.19
421.839	202.19
422.062	175.19
422.285	179.19
422.507	175.19
422.73	199.19
422.953	171.19
423.175	178.19
423.398	193.19
423.621	185.19
423.843	189.19
424.066	187.19
424.288	188.19
424.511	209.19
424.733	185.19
424.956	182.19
425.178	187.19
425.401	198.19
425.623	196.19
425.846	196.19
426.068	164.19
426.291	182.19
426.513	174.19
426.735	187.19
426.958	182.19
427.18	176.19
427.402	172.19
427.625	170.19
427.847	179.19
428.069	167.19
428.292	179.19
428.514	185.19
428.736	168.19
428.958	166.19
429.181	178.19
429.403	180.19
429.625	172.19
429.847	181.19
430.069	168.19
430.292	177.19
430.514	168.19
430.736	175.19
430.958	169.19
431.18	175.19
431.402	176.19
431.624	161.19
431.846	155.19
432.068	127.19
432.29	148.19
432.512	162.19
432.734	164.19
432.956	186.19
433.178	194.19
433.4	180.19
433.622	173.19
433.844	189.19
434.066	169.19
434.287	142.19
434.509	144.19
434.731	139.19
434.953	168.19
435.175	162.19
435.397	162.19
435.618	162.19
435.84	156.19
436.062	161.19
436.284	175.19
436.505	168.19
436.727	170.19
436.949	177.19
437.17	169.19
437.392	172.19
437.614	147.19
437.835	138.19
438.057	158.19
438.278	156.19
438.5	171.19
438.721	176.19
438.943	198.19
439.165	182.19
439.386	192.19
439.608	197.19
439.829	184.19
440.05	184.19
440.272	191.19
440.493	206.19
440.715	191.19
440.936	201.19
441.158	190.19
441.379	203.19
441.6	212.19
441.822	201.19
442.043	198.19
442.264	192.19
442.486	170.19
442.707	180.19
442.928	194.19
443.149	195.19
443.371	200.19
443.592	198.19
443.813	186.19
444.034	201.19
444.255	201.19
444.476	197.19
444.698	203.19
444.919	195.19
445.14	481.19
445.361	323.19
445.582	218.19
445.803	197.19
446.024	201.19
446.245	227.19
446.466	200.19
446.687	190.19
446.908	183.19
447.129	211.19
447.35	191.19
447.571	220.19
447.792	198.19
448.013	182.19
448.234	192.19
448.455	170.19
448.675	183.19
448.896	168.19
449.117	172.19
449.338	184.19
449.559	200.19
449.779	172.19
450	172.19
450.221	164.19
450.442	186.19
450.662	179.19
450.883	160.19
451.104	191.19
451.324	178.19
451.545	178.19
451.766	177.19
451.986	175.19
452.207	163.19
452.428	158.19
452.648	171.19
452.869	166.19
453.089	139.19
453.31	147.19
453.53	142.19
453.751	127.19
453.971	142.19
454.192	154.19
454.412	159.19
454.633	147.19
454.853	145.19
455.073	164.19
455.294	166.19
455.514	172.19
455.734	152.19
455.955	143.19
456.175	150.19
456.395	131.19
456.616	129.19
456.836	142.19
457.056	142.19
457.276	130.19
457.497	130.19
457.717	139.19
457.937	137.19
458.157	147.19
458.377	138.19
458.598	144.19
458.818	129.19
459.038	122.19
459.258	145.19
459.478	128.19
459.698	130.19
459.918	149.19
460.138	141.19
460.358	169.19
460.578	163.19
460.798	164.19
461.018	154.19
461.238	165.19
461.458	166.19
461.678	154.19
461.898	172.19
462.118	185.19
462.338	169.19
462.558	162.19
462.777	166.19
462.997	182.19
463.217	166.19
463.437	169.19
463.657	149.19
463.876	182.19
464.096	158.19
464.316	150.19
464.536	180.19
464.755	176.19
464.975	161.19
465.195	164.19
465.414	163.19
465.634	150.19
465.854	163.19
466.073	151.19
466.293	166.19
466.512	174.19
466.732	164.19
466.951	170.19
467.171	166.19
467.391	167.19
467.61	182.19
467.829	178.19
468.049	164.19
468.268	173.19
468.488	166.19
468.707	177.19
468.927	190.19
469.146	171.19
469.365	186.19
469.585	180.19
469.804	198.19
470.023	193.19
470.243	174.19
470.462	188.19
470.681	191.19
470.901	193.19
471.12	177.19
471.339	192.19
471.558	173.19
471.777	171.19
471.997	169.19
472.216	172.19
472.435	145.19
472.654	137.19
472.873	158.19
473.092	160.19
473.311	167.19
473.53	162.19
473.749	164.19
473.968	170.19
474.187	156.19
474.406	152.19
474.625	167.19
474.844	164.19
475.063	178.19
475.282	155.19
475.501	144.19
475.72	170.19
475.939	160.19
476.158	151.19
476.377	161.19
476.596	150.19
476.814	148.19
477.033	152.19
477.252	148.19
477.471	154.19
477.69	182.19
477.908	171.19
478.127	190.19
478.346	180.19
478.564	172.19
478.783	176.19
479.002	185.19
479.22	195.19
479.439	181.19
479.658	158.19
479.876	154.19
480.095	143.19
480.313	183.19
480.532	176.19
480.751	170.19
480.969	130.19
481.188	138.19
481.406	136.19
481.624	142.19
481.843	129.19
482.061	144.19
482.28	160.19
482.498	141.19
482.717	143.19
482.935	173.19
483.153	179.19
483.372	203.19
483.59	204.19
483.808	181.19
484.027	188.19
484.245	173.19
484.463	170.19
484.681	196.19
484.9	178.19
485.118	181.19
485.336	174.19
485.554	157.19
485.772	137.19
485.99	136.19
486.209	158.19
486.427	158.19
486.645	177.19
486.863	172.19
487.081	174.19
487.299	161.19
487.517	182.19
487.735	214.19
487.953	231.19
488.171	235.19
488.389	231.19
488.607	188.19
488.825	155.19
489.043	173.19
489.261	174.19
489.479	178.19
489.696	187.19
489.914	171.19
490.132	179.19
490.35	200.19
490.568	196.19
490.786	208.19
491.003	218.19
491.221	228.19
491.439	224.19
491.657	236.19
491.874	270.19
492.092	276.19
492.31	292.19
492.527	283.19
492.745	258.19
492.963	239.19
493.18	228.19
493.398	239.19
493.615	242.19
493.833	243.19
494.05	216.19
494.268	229.19
494.485	218.19
494.703	221.19
494.92	232.19
495.138	232.19
495.355	234.19
495.573	238.19
495.79	228.19
496.008	234.19
496.225	228.19
496.442	227.19
496.66	226.19
496.877	230.19
497.094	223.19
497.312	222.19
497.529	210.19
497.746	214.19
497.963	195.19
498.181	190.19
498.398	186.19
498.615	172.19
498.832	199.19
499.049	218.19
499.267	215.19
499.484	212.19
499.701	237.19
499.918	266.19
500.135	274.19
500.352	296.19
500.569	319.19
500.786	323.19
501.003	283.19
501.22	275.19
501.437	261.19
501.654	219.19
501.871	206.19
502.088	201.19
502.305	202.19
502.522	211.19
502.739	202.19
502.956	191.19
503.172	198.19
503.389	180.19
503.606	174.19
503.823	174.19
504.04	180.19
504.256	183.19
504.473	183.19
504.69	190.19
504.907	192.19
505.123	178.19
505.34	178.19
505.557	161.19
505.773	170.19
505.99	182.19
506.207	154.19
