Data from SampD_HRD10591_00054.txt Node
Date: Mon Jan 19 11:47:56 EST 2026
User: Yrep
Spectrometer: HR+D1059
Trigger mode: 0
Integration Time (sec): 3.443000E-1
Scans to average: 1
Electric dark correction enabled: true
Nonlinearity correction enabled: false
Boxcar width: 0
XAxis mode: Wavelengths
Number of Pixels in Spectrum: 2048
>>>>>Begin Spectral Data<<<<<
223.165	-5.31
223.4	-5.31
223.635	-5.31
223.869	-19.31
224.104	-25.31
224.338	-11.31
224.573	-24.31
224.808	-27.31
225.042	-4.31
225.277	-6.31
225.511	5.69
225.746	4.69
225.98	5.69
226.215	14.69
226.449	20.69
226.683	3.69
226.918	33.69
227.152	34.69
227.387	41.69
227.621	31.69
227.856	46.69
228.09	47.69
228.324	48.69
228.559	44.69
228.793	69.69
229.027	59.69
229.262	74.69
229.496	65.69
229.73	71.69
229.964	70.69
230.199	71.69
230.433	83.69
230.667	85.69
230.901	80.69
231.136	79.69
231.37	68.69
231.604	82.69
231.838	92.69
232.072	76.69
232.306	70.69
232.541	84.69
232.775	66.69
233.009	61.69
233.243	89.69
233.477	78.69
233.711	88.69
233.945	87.69
234.179	86.69
234.413	81.69
234.647	77.69
234.881	94.69
235.115	85.69
235.349	80.69
235.583	87.69
235.817	70.69
236.051	86.69
236.285	80.69
236.519	74.69
236.753	77.69
236.987	88.69
237.221	81.69
237.455	76.69
237.689	76.69
237.922	72.69
238.156	74.69
238.39	54.69
238.624	79.69
238.858	78.69
239.091	80.69
239.325	84.69
239.559	71.69
239.793	79.69
240.027	83.69
240.26	67.69
240.494	74.69
240.728	83.69
240.961	76.69
241.195	90.69
241.429	83.69
241.662	91.69
241.896	82.69
242.13	65.69
242.363	81.69
242.597	82.69
242.83	70.69
243.064	71.69
243.298	64.69
243.531	65.69
243.765	78.69
243.998	91.69
244.232	67.69
244.465	86.69
244.699	80.69
244.932	91.69
245.166	83.69
245.399	76.69
245.633	89.69
245.866	90.69
246.099	80.69
246.333	96.69
246.566	86.69
246.8	88.69
247.033	89.69
247.266	78.69
247.5	81.69
247.733	81.69
247.966	91.69
248.2	74.69
248.433	99.69
248.666	91.69
248.899	94.69
249.133	83.69
249.366	101.69
249.599	77.69
249.832	90.69
250.066	92.69
250.299	87.69
250.532	86.69
250.765	84.69
250.998	87.69
251.231	97.69
251.465	89.69
251.698	76.69
251.931	90.69
252.164	85.69
252.397	101.69
252.63	82.69
252.863	94.69
253.096	67.69
253.329	92.69
253.562	105.69
253.795	89.69
254.028	100.69
254.261	87.69
254.494	108.69
254.727	108.69
254.96	88.69
255.193	99.69
255.426	84.69
255.659	85.69
255.892	90.69
256.124	96.69
256.357	96.69
256.59	100.69
256.823	97.69
257.056	98.69
257.289	87.69
257.521	88.69
257.754	94.69
257.987	75.69
258.22	100.69
258.452	94.69
258.685	95.69
258.918	86.69
259.151	96.69
259.383	92.69
259.616	82.69
259.849	79.69
260.081	97.69
260.314	99.69
260.547	85.69
260.779	91.69
261.012	95.69
261.244	96.69
261.477	105.69
261.71	98.69
261.942	99.69
262.175	97.69
262.407	88.69
262.64	102.69
262.872	81.69
263.105	83.69
263.337	112.69
263.57	90.69
263.802	87.69
264.035	90.69
264.267	95.69
264.499	107.69
264.732	107.69
264.964	100.69
265.197	103.69
265.429	103.69
265.661	122.69
265.894	104.69
266.126	107.69
266.358	94.69
266.591	102.69
266.823	113.69
267.055	103.69
267.287	95.69
267.52	101.69
267.752	112.69
267.984	100.69
268.216	100.69
268.448	101.69
268.681	107.69
268.913	112.69
269.145	111.69
269.377	106.69
269.609	95.69
269.841	96.69
270.073	81.69
270.306	115.69
270.538	92.69
270.77	80.69
271.002	100.69
271.234	95.69
271.466	98.69
271.698	87.69
271.93	103.69
272.162	98.69
272.394	87.69
272.626	99.69
272.858	89.69
273.09	114.69
273.322	100.69
273.553	94.69
273.785	105.69
274.017	107.69
274.249	107.69
274.481	110.69
274.713	109.69
274.945	107.69
275.176	107.69
275.408	122.69
275.64	110.69
275.872	87.69
276.104	109.69
276.335	103.69
276.567	101.69
276.799	87.69
277.031	94.69
277.262	107.69
277.494	109.69
277.726	92.69
277.957	96.69
278.189	112.69
278.421	84.69
278.652	87.69
278.884	108.69
279.115	102.69
279.347	111.69
279.579	100.69
279.81	99.69
280.042	101.69
280.273	99.69
280.505	102.69
280.736	107.69
280.968	100.69
281.199	116.69
281.431	111.69
281.662	93.69
281.894	114.69
282.125	123.69
282.356	110.69
282.588	102.69
282.819	100.69
283.051	108.69
283.282	110.69
283.513	128.69
283.745	100.69
283.976	102.69
284.207	104.69
284.439	102.69
284.67	114.69
284.901	111.69
285.132	112.69
285.364	123.69
285.595	98.69
285.826	102.69
286.057	116.69
286.288	110.69
286.52	117.69
286.751	110.69
286.982	99.69
287.213	108.69
287.444	118.69
287.675	115.69
287.906	115.69
288.138	103.69
288.369	115.69
288.6	103.69
288.831	101.69
289.062	110.69
289.293	103.69
289.524	108.69
289.755	119.69
289.986	119.69
290.217	123.69
290.448	127.69
290.679	101.69
290.91	108.69
291.141	104.69
291.371	113.69
291.602	117.69
291.833	117.69
292.064	125.69
292.295	103.69
292.526	100.69
292.757	108.69
292.987	103.69
293.218	99.69
293.449	110.69
293.68	124.69
293.91	104.69
294.141	124.69
294.372	107.69
294.603	127.69
294.833	123.69
295.064	96.69
295.295	100.69
295.525	92.69
295.756	95.69
295.987	120.69
296.217	107.69
296.448	102.69
296.679	120.69
296.909	126.69
297.14	122.69
297.37	115.69
297.601	102.69
297.831	112.69
298.062	109.69
298.292	120.69
298.523	133.69
298.753	110.69
298.984	114.69
299.214	122.69
299.445	116.69
299.675	107.69
299.905	129.69
300.136	96.69
300.366	117.69
300.597	116.69
300.827	113.69
301.057	123.69
301.288	136.69
301.518	114.69
301.748	118.69
301.979	161.69
302.209	131.69
302.439	125.69
302.669	126.69
302.9	112.69
303.13	124.69
303.36	121.69
303.59	120.69
303.82	118.69
304.051	135.69
304.281	122.69
304.511	125.69
304.741	132.69
304.971	116.69
305.201	125.69
305.431	121.69
305.661	113.69
305.891	128.69
306.121	135.69
306.352	107.69
306.582	114.69
306.812	110.69
307.042	109.69
307.272	128.69
307.502	114.69
307.731	121.69
307.961	95.69
308.191	122.69
308.421	111.69
308.651	110.69
308.881	112.69
309.111	103.69
309.341	106.69
309.571	119.69
309.8	126.69
310.03	122.69
310.26	113.69
310.49	121.69
310.72	114.69
310.949	116.69
311.179	112.69
311.409	110.69
311.639	112.69
311.868	119.69
312.098	126.69
312.328	102.69
312.557	105.69
312.787	112.69
313.017	131.69
313.246	143.69
313.476	114.69
313.706	121.69
313.935	115.69
314.165	122.69
314.394	115.69
314.624	124.69
314.853	123.69
315.083	122.69
315.312	124.69
315.542	127.69
315.771	116.69
316.001	99.69
316.23	131.69
316.46	107.69
316.689	112.69
316.919	119.69
317.148	135.69
317.377	124.69
317.607	126.69
317.836	123.69
318.065	120.69
318.295	125.69
318.524	136.69
318.753	132.69
318.983	110.69
319.212	123.69
319.441	121.69
319.67	122.69
319.9	125.69
320.129	119.69
320.358	126.69
320.587	104.69
320.816	123.69
321.046	105.69
321.275	113.69
321.504	119.69
321.733	125.69
321.962	106.69
322.191	114.69
322.42	119.69
322.649	126.69
322.878	133.69
323.108	124.69
323.337	132.69
323.566	123.69
323.795	123.69
324.024	123.69
324.253	133.69
324.482	132.69
324.71	129.69
324.939	136.69
325.168	124.69
325.397	125.69
325.626	131.69
325.855	128.69
326.084	123.69
326.313	133.69
326.542	118.69
326.77	123.69
326.999	131.69
327.228	127.69
327.457	113.69
327.686	130.69
327.914	135.69
328.143	144.69
328.372	127.69
328.6	118.69
328.829	131.69
329.058	127.69
329.287	117.69
329.515	123.69
329.744	144.69
329.972	128.69
330.201	131.69
330.43	127.69
330.658	131.69
330.887	123.69
331.115	128.69
331.344	124.69
331.572	140.69
331.801	132.69
332.03	139.69
332.258	130.69
332.486	126.69
332.715	135.69
332.943	134.69
333.172	153.69
333.4	142.69
333.629	139.69
333.857	142.69
334.085	143.69
334.314	144.69
334.542	146.69
334.771	151.69
334.999	141.69
335.227	138.69
335.455	131.69
335.684	152.69
335.912	164.69
336.14	138.69
336.369	125.69
336.597	133.69
336.825	122.69
337.053	152.69
337.281	145.69
337.51	136.69
337.738	122.69
337.966	135.69
338.194	107.69
338.422	138.69
338.65	152.69
338.878	144.69
339.106	146.69
339.334	128.69
339.562	129.69
339.79	123.69
340.018	132.69
340.246	130.69
340.474	123.69
340.702	130.69
340.93	120.69
341.158	114.69
341.386	135.69
341.614	113.69
341.842	146.69
342.07	141.69
342.298	133.69
342.526	126.69
342.754	115.69
342.981	126.69
343.209	110.69
343.437	168.69
343.665	144.69
343.893	161.69
344.12	152.69
344.348	158.69
344.576	139.69
344.804	130.69
345.031	128.69
345.259	150.69
345.487	122.69
345.714	125.69
345.942	134.69
346.17	128.69
346.397	139.69
346.625	119.69
346.853	132.69
347.08	99.69
347.308	121.69
347.535	119.69
347.763	124.69
347.99	123.69
348.218	129.69
348.445	123.69
348.673	122.69
348.9	147.69
349.128	145.69
349.355	124.69
349.583	127.69
349.81	109.69
350.037	115.69
350.265	132.69
350.492	131.69
350.72	128.69
350.947	131.69
351.174	127.69
351.402	111.69
351.629	134.69
351.856	125.69
352.083	112.69
352.311	139.69
352.538	129.69
352.765	117.69
352.992	137.69
353.22	123.69
353.447	115.69
353.674	125.69
353.901	145.69
354.128	121.69
354.355	124.69
354.583	131.69
354.81	135.69
355.037	117.69
355.264	130.69
355.491	128.69
355.718	130.69
355.945	127.69
356.172	120.69
356.399	128.69
356.626	105.69
356.853	127.69
357.08	144.69
357.307	131.69
357.534	112.69
357.761	125.69
357.988	127.69
358.215	144.69
358.441	123.69
358.668	121.69
358.895	135.69
359.122	129.69
359.349	117.69
359.576	119.69
359.802	124.69
360.029	133.69
360.256	129.69
360.483	124.69
360.709	135.69
360.936	122.69
361.163	135.69
361.39	135.69
361.616	125.69
361.843	122.69
362.07	136.69
362.296	125.69
362.523	126.69
362.749	127.69
362.976	134.69
363.203	166.69
363.429	129.69
363.656	114.69
363.882	152.69
364.109	118.69
364.335	123.69
364.562	141.69
364.788	124.69
365.015	120.69
365.241	127.69
365.468	129.69
365.694	130.69
365.92	133.69
366.147	130.69
366.373	114.69
366.599	125.69
366.826	141.69
367.052	147.69
367.278	127.69
367.505	135.69
367.731	152.69
367.957	141.69
368.184	131.69
368.41	134.69
368.636	151.69
368.862	133.69
369.089	145.69
369.315	123.69
369.541	147.69
369.767	156.69
369.993	138.69
370.219	142.69
370.445	139.69
370.672	151.69
370.898	134.69
371.124	125.69
371.35	138.69
371.576	134.69
371.802	130.69
372.028	155.69
372.254	159.69
372.48	173.69
372.706	157.69
372.932	132.69
373.158	150.69
373.384	158.69
373.61	169.69
373.835	142.69
374.061	157.69
374.287	159.69
374.513	161.69
374.739	150.69
374.965	154.69
375.191	152.69
375.416	158.69
375.642	171.69
375.868	164.69
376.094	161.69
376.319	146.69
376.545	135.69
376.771	149.69
376.997	159.69
377.222	156.69
377.448	156.69
377.674	163.69
377.899	159.69
378.125	144.69
378.35	149.69
378.576	149.69
378.802	161.69
379.027	154.69
379.253	159.69
379.478	158.69
379.704	151.69
379.929	162.69
380.155	147.69
380.38	168.69
380.606	148.69
380.831	148.69
381.057	170.69
381.282	178.69
381.507	145.69
381.733	176.69
381.958	161.69
382.184	150.69
382.409	176.69
382.634	164.69
382.86	161.69
383.085	191.69
383.31	162.69
383.535	174.69
383.761	160.69
383.986	171.69
384.211	181.69
384.436	184.69
384.662	187.69
384.887	169.69
385.112	170.69
385.337	172.69
385.562	165.69
385.787	180.69
386.013	193.69
386.238	187.69
386.463	206.69
386.688	212.69
386.913	184.69
387.138	177.69
387.363	186.69
387.588	177.69
387.813	192.69
388.038	190.69
388.263	181.69
388.488	179.69
388.713	197.69
388.938	189.69
389.163	198.69
389.387	186.69
389.612	174.69
389.837	176.69
390.062	202.69
390.287	194.69
390.512	189.69
390.736	183.69
390.961	188.69
391.186	187.69
391.411	208.69
391.636	203.69
391.86	209.69
392.085	217.69
392.31	194.69
392.534	200.69
392.759	206.69
392.984	190.69
393.208	191.69
393.433	206.69
393.658	195.69
393.882	212.69
394.107	221.69
394.331	212.69
394.556	196.69
394.78	213.69
395.005	211.69
395.229	205.69
395.454	232.69
395.678	204.69
395.903	210.69
396.127	212.69
396.352	203.69
396.576	197.69
396.801	223.69
397.025	191.69
397.249	215.69
397.474	231.69
397.698	214.69
397.922	218.69
398.147	215.69
398.371	228.69
398.595	237.69
398.82	231.69
399.044	226.69
399.268	249.69
399.492	280.69
399.717	283.69
399.941	268.69
400.165	274.69
400.389	237.69
400.613	248.69
400.837	245.69
401.062	235.69
401.286	228.69
401.51	215.69
401.734	231.69
401.958	242.69
402.182	234.69
402.406	240.69
402.63	236.69
402.854	245.69
403.078	240.69
403.302	251.69
403.526	272.69
403.75	268.69
403.974	259.69
404.198	255.69
404.422	271.69
404.645	260.69
404.869	270.69
405.093	272.69
405.317	251.69
405.541	239.69
405.765	266.69
405.988	255.69
406.212	241.69
406.436	251.69
406.66	259.69
406.883	259.69
407.107	270.69
407.331	272.69
407.555	284.69
407.778	260.69
408.002	271.69
408.226	282.69
408.449	258.69
408.673	263.69
408.896	255.69
409.12	272.69
409.344	274.69
409.567	269.69
409.791	262.69
410.014	272.69
410.238	263.69
410.461	250.69
410.685	239.69
410.908	258.69
411.132	264.69
411.355	255.69
411.578	271.69
411.802	268.69
412.025	261.69
412.249	266.69
412.472	262.69
412.695	279.69
412.919	240.69
413.142	239.69
413.365	252.69
413.589	255.69
413.812	237.69
414.035	235.69
414.258	245.69
414.482	249.69
414.705	242.69
414.928	267.69
415.151	268.69
415.374	260.69
415.597	256.69
415.821	277.69
416.044	260.69
416.267	261.69
416.49	254.69
416.713	277.69
416.936	258.69
417.159	261.69
417.382	258.69
417.605	260.69
417.828	282.69
418.051	284.69
418.274	276.69
418.497	272.69
418.72	270.69
418.943	270.69
419.166	279.69
419.389	292.69
419.611	289.69
419.834	295.69
420.057	262.69
420.28	284.69
420.503	296.69
420.726	262.69
420.948	273.69
421.171	268.69
421.394	276.69
421.617	283.69
421.839	299.69
422.062	278.69
422.285	274.69
422.507	257.69
422.73	271.69
422.953	262.69
423.175	291.69
423.398	265.69
423.621	296.69
423.843	274.69
424.066	285.69
424.288	302.69
424.511	319.69
424.733	312.69
424.956	296.69
425.178	306.69
425.401	270.69
425.623	253.69
425.846	256.69
426.068	262.69
426.291	266.69
426.513	275.69
426.735	266.69
426.958	261.69
427.18	259.69
427.402	269.69
427.625	266.69
427.847	260.69
428.069	254.69
428.292	263.69
428.514	254.69
428.736	260.69
428.958	245.69
429.181	263.69
429.403	250.69
429.625	261.69
429.847	242.69
430.069	246.69
430.292	271.69
430.514	264.69
430.736	246.69
430.958	252.69
431.18	261.69
431.402	244.69
431.624	229.69
431.846	188.69
432.068	191.69
432.29	184.69
432.512	218.69
432.734	240.69
432.956	268.69
433.178	275.69
433.4	280.69
433.622	261.69
433.844	232.69
434.066	220.69
434.287	191.69
434.509	192.69
434.731	218.69
434.953	224.69
435.175	253.69
435.397	254.69
435.618	227.69
435.84	218.69
436.062	229.69
436.284	250.69
436.505	276.69
436.727	250.69
436.949	240.69
437.17	263.69
437.392	236.69
437.614	231.69
437.835	203.69
438.057	203.69
438.278	232.69
438.5	244.69
438.721	258.69
438.943	275.69
439.165	271.69
439.386	290.69
439.608	274.69
439.829	284.69
440.05	288.69
440.272	287.69
440.493	291.69
440.715	291.69
440.936	283.69
441.158	296.69
441.379	291.69
441.6	303.69
441.822	309.69
442.043	289.69
442.264	284.69
442.486	278.69
442.707	275.69
442.928	273.69
443.149	297.69
443.371	297.69
443.592	291.69
443.813	287.69
444.034	291.69
444.255	293.69
444.476	325.69
444.698	319.69
444.919	306.69
445.14	572.69
445.361	423.69
445.582	327.69
445.803	291.69
446.024	287.69
446.245	317.69
446.466	312.69
446.687	308.69
446.908	294.69
447.129	310.69
447.35	298.69
447.571	304.69
447.792	287.69
448.013	286.69
448.234	276.69
448.455	291.69
448.675	278.69
448.896	265.69
449.117	273.69
449.338	260.69
449.559	263.69
449.779	266.69
450	268.69
450.221	255.69
450.442	278.69
450.662	262.69
450.883	258.69
451.104	250.69
451.324	259.69
451.545	240.69
451.766	238.69
451.986	251.69
452.207	235.69
452.428	247.69
452.648	235.69
452.869	202.69
453.089	187.69
453.31	188.69
453.53	188.69
453.751	199.69
453.971	188.69
454.192	208.69
454.412	204.69
454.633	206.69
454.853	221.69
455.073	216.69
455.294	219.69
455.514	222.69
455.734	231.69
455.955	230.69
456.175	192.69
456.395	203.69
456.616	188.69
456.836	200.69
457.056	200.69
457.276	188.69
457.497	176.69
457.717	188.69
457.937	213.69
458.157	192.69
458.377	178.69
458.598	172.69
458.818	179.69
459.038	179.69
459.258	153.69
459.478	165.69
459.698	168.69
459.918	196.69
460.138	205.69
460.358	229.69
460.578	222.69
460.798	232.69
461.018	233.69
461.238	234.69
461.458	216.69
461.678	227.69
461.898	234.69
462.118	243.69
462.338	235.69
462.558	245.69
462.777	243.69
462.997	253.69
463.217	263.69
463.437	242.69
463.657	238.69
463.876	243.69
464.096	237.69
464.316	240.69
464.536	241.69
464.755	245.69
464.975	255.69
465.195	227.69
465.414	250.69
465.634	220.69
465.854	229.69
466.073	224.69
466.293	240.69
466.512	251.69
466.732	248.69
466.951	243.69
467.171	264.69
467.391	259.69
467.61	249.69
467.829	255.69
468.049	252.69
468.268	245.69
468.488	249.69
468.707	248.69
468.927	246.69
469.146	267.69
469.365	271.69
469.585	260.69
469.804	276.69
470.023	292.69
470.243	283.69
470.462	287.69
470.681	289.69
470.901	266.69
471.12	268.69
471.339	274.69
471.558	278.69
471.777	261.69
471.997	248.69
472.216	231.69
472.435	211.69
472.654	189.69
472.873	214.69
473.092	196.69
473.311	217.69
473.53	244.69
473.749	230.69
473.968	252.69
474.187	231.69
474.406	210.69
474.625	245.69
474.844	253.69
475.063	226.69
475.282	231.69
475.501	209.69
475.72	237.69
475.939	229.69
476.158	230.69
476.377	247.69
476.596	220.69
476.814	210.69
477.033	202.69
477.252	205.69
477.471	246.69
477.69	254.69
477.908	270.69
478.127	261.69
478.346	276.69
478.564	283.69
478.783	251.69
479.002	274.69
479.22	276.69
479.439	258.69
479.658	251.69
479.876	223.69
480.095	213.69
480.313	242.69
480.532	229.69
480.751	214.69
480.969	191.69
481.188	175.69
481.406	169.69
481.624	166.69
481.843	168.69
482.061	191.69
482.28	211.69
482.498	198.69
482.717	206.69
482.935	229.69
483.153	269.69
483.372	283.69
483.59	289.69
483.808	259.69
484.027	254.69
484.245	226.69
484.463	274.69
484.681	277.69
484.9	255.69
485.118	266.69
485.336	239.69
485.554	202.69
485.772	199.69
485.99	184.69
486.209	217.69
486.427	230.69
486.645	250.69
486.863	269.69
487.081	273.69
487.299	250.69
487.517	270.69
487.735	331.69
487.953	357.69
488.171	335.69
488.389	322.69
488.607	285.69
488.825	270.69
489.043	239.69
489.261	238.69
489.479	264.69
489.696	277.69
489.914	286.69
490.132	275.69
490.35	307.69
490.568	313.69
490.786	334.69
491.003	363.69
491.221	385.69
491.439	382.69
491.657	391.69
491.874	426.69
492.092	438.69
492.31	490.69
492.527	448.69
492.745	402.69
492.963	399.69
493.18	370.69
493.398	365.69
493.615	365.69
493.833	363.69
494.05	343.69
494.268	360.69
494.485	366.69
494.703	343.69
494.92	351.69
495.138	351.69
495.355	355.69
495.573	338.69
495.79	342.69
496.008	353.69
496.225	329.69
496.442	353.69
496.66	353.69
496.877	333.69
497.094	358.69
497.312	323.69
497.529	311.69
497.746	312.69
497.963	299.69
498.181	278.69
498.398	259.69
498.615	261.69
498.832	271.69
499.049	278.69
499.267	332.69
499.484	350.69
499.701	362.69
499.918	420.69
500.135	431.69
500.352	486.69
500.569	496.69
500.786	484.69
501.003	458.69
501.22	418.69
501.437	382.69
501.654	335.69
501.871	338.69
502.088	319.69
502.305	296.69
502.522	302.69
502.739	303.69
502.956	292.69
503.172	282.69
503.389	252.69
503.606	257.69
503.823	253.69
504.04	261.69
504.256	263.69
504.473	246.69
504.69	266.69
504.907	272.69
505.123	248.69
