Data from SampD_HRD10591_00029.txt Node
Date: Mon Jan 19 11:47:48 EST 2026
User: Yrep
Spectrometer: HR+D1059
Trigger mode: 0
Integration Time (sec): 3.443000E-1
Scans to average: 1
Electric dark correction enabled: true
Nonlinearity correction enabled: false
Boxcar width: 0
XAxis mode: Wavelengths
Number of Pixels in Spectrum: 2048
>>>>>Begin Spectral Data<<<<<
223.165	-21.69
223.4	-21.69
223.635	-21.69
223.869	-7.69
224.104	-16.69
224.338	-12.69
224.573	-16.69
224.808	-20.69
225.042	-14.69
225.277	-8.69
225.511	5.31
225.746	10.31
225.98	4.31
226.215	15.31
226.449	20.31
226.683	17.31
226.918	15.31
227.152	31.31
227.387	33.31
227.621	46.31
227.856	57.31
228.09	35.31
228.324	49.31
228.559	57.31
228.793	63.31
229.027	62.31
229.262	55.31
229.496	65.31
229.73	69.31
229.964	84.31
230.199	66.31
230.433	87.31
230.667	83.31
230.901	74.31
231.136	87.31
231.37	77.31
231.604	56.31
231.838	72.31
232.072	100.31
232.306	99.31
232.541	88.31
232.775	97.31
233.009	86.31
233.243	87.31
233.477	82.31
233.711	83.31
233.945	89.31
234.179	84.31
234.413	91.31
234.647	94.31
234.881	93.31
235.115	74.31
235.349	78.31
235.583	102.31
235.817	88.31
236.051	93.31
236.285	78.31
236.519	81.31
236.753	86.31
236.987	87.31
237.221	67.31
237.455	83.31
237.689	72.31
237.922	81.31
238.156	88.31
238.39	77.31
238.624	82.31
238.858	77.31
239.091	65.31
239.325	74.31
239.559	88.31
239.793	82.31
240.027	86.31
240.26	77.31
240.494	77.31
240.728	98.31
240.961	83.31
241.195	93.31
241.429	77.31
241.662	92.31
241.896	67.31
242.13	83.31
242.363	88.31
242.597	77.31
242.83	80.31
243.064	77.31
243.298	90.31
243.531	74.31
243.765	87.31
243.998	87.31
244.232	100.31
244.465	93.31
244.699	77.31
244.932	75.31
245.166	99.31
245.399	94.31
245.633	88.31
245.866	76.31
246.099	91.31
246.333	73.31
246.566	97.31
246.8	93.31
247.033	84.31
247.266	85.31
247.5	68.31
247.733	91.31
247.966	84.31
248.2	91.31
248.433	86.31
248.666	88.31
248.899	74.31
249.133	93.31
249.366	102.31
249.599	89.31
249.832	79.31
250.066	95.31
250.299	87.31
250.532	85.31
250.765	90.31
250.998	107.31
251.231	100.31
251.465	98.31
251.698	98.31
251.931	90.31
252.164	84.31
252.397	84.31
252.63	87.31
252.863	97.31
253.096	90.31
253.329	98.31
253.562	101.31
253.795	101.31
254.028	85.31
254.261	96.31
254.494	100.31
254.727	85.31
254.96	105.31
255.193	100.31
255.426	81.31
255.659	84.31
255.892	97.31
256.124	86.31
256.357	96.31
256.59	106.31
256.823	103.31
257.056	106.31
257.289	107.31
257.521	97.31
257.754	94.31
257.987	89.31
258.22	101.31
258.452	94.31
258.685	93.31
258.918	105.31
259.151	103.31
259.383	97.31
259.616	92.31
259.849	70.31
260.081	99.31
260.314	83.31
260.547	97.31
260.779	91.31
261.012	93.31
261.244	89.31
261.477	110.31
261.71	99.31
261.942	94.31
262.175	89.31
262.407	94.31
262.64	87.31
262.872	104.31
263.105	91.31
263.337	102.31
263.57	82.31
263.802	107.31
264.035	91.31
264.267	82.31
264.499	89.31
264.732	95.31
264.964	95.31
265.197	107.31
265.429	121.31
265.661	103.31
265.894	86.31
266.126	104.31
266.358	103.31
266.591	97.31
266.823	87.31
267.055	93.31
267.287	100.31
267.52	111.31
267.752	91.31
267.984	109.31
268.216	102.31
268.448	101.31
268.681	105.31
268.913	104.31
269.145	107.31
269.377	114.31
269.609	106.31
269.841	103.31
270.073	110.31
270.306	95.31
270.538	104.31
270.77	104.31
271.002	97.31
271.234	89.31
271.466	105.31
271.698	101.31
271.93	99.31
272.162	83.31
272.394	107.31
272.626	99.31
272.858	97.31
273.09	105.31
273.322	117.31
273.553	109.31
273.785	107.31
274.017	109.31
274.249	103.31
274.481	113.31
274.713	93.31
274.945	110.31
275.176	95.31
275.408	99.31
275.64	104.31
275.872	113.31
276.104	109.31
276.335	107.31
276.567	100.31
276.799	114.31
277.031	107.31
277.262	90.31
277.494	111.31
277.726	105.31
277.957	116.31
278.189	88.31
278.421	102.31
278.652	94.31
278.884	111.31
279.115	115.31
279.347	120.31
279.579	93.31
279.81	99.31
280.042	100.31
280.273	101.31
280.505	110.31
280.736	108.31
280.968	111.31
281.199	112.31
281.431	114.31
281.662	119.31
281.894	114.31
282.125	109.31
282.356	107.31
282.588	102.31
282.819	93.31
283.051	113.31
283.282	107.31
283.513	100.31
283.745	107.31
283.976	116.31
284.207	105.31
284.439	116.31
284.67	109.31
284.901	106.31
285.132	104.31
285.364	114.31
285.595	108.31
285.826	121.31
286.057	129.31
286.288	112.31
286.52	116.31
286.751	120.31
286.982	105.31
287.213	118.31
287.444	109.31
287.675	120.31
287.906	107.31
288.138	112.31
288.369	96.31
288.6	107.31
288.831	120.31
289.062	108.31
289.293	117.31
289.524	96.31
289.755	115.31
289.986	123.31
290.217	114.31
290.448	117.31
290.679	118.31
290.91	113.31
291.141	117.31
291.371	124.31
291.602	122.31
291.833	123.31
292.064	106.31
292.295	114.31
292.526	118.31
292.757	110.31
292.987	112.31
293.218	124.31
293.449	100.31
293.68	120.31
293.91	113.31
294.141	132.31
294.372	122.31
294.603	120.31
294.833	104.31
295.064	111.31
295.295	115.31
295.525	130.31
295.756	122.31
295.987	116.31
296.217	111.31
296.448	113.31
296.679	103.31
296.909	126.31
297.14	116.31
297.37	117.31
297.601	125.31
297.831	111.31
298.062	126.31
298.292	116.31
298.523	138.31
298.753	118.31
298.984	123.31
299.214	125.31
299.445	134.31
299.675	129.31
299.905	131.31
300.136	126.31
300.366	111.31
300.597	116.31
300.827	128.31
301.057	122.31
301.288	103.31
301.518	130.31
301.748	133.31
301.979	161.31
302.209	120.31
302.439	133.31
302.669	123.31
302.9	106.31
303.13	125.31
303.36	128.31
303.59	118.31
303.82	126.31
304.051	131.31
304.281	115.31
304.511	132.31
304.741	125.31
304.971	107.31
305.201	131.31
305.431	124.31
305.661	127.31
305.891	119.31
306.121	123.31
306.352	131.31
306.582	112.31
306.812	127.31
307.042	110.31
307.272	118.31
307.502	106.31
307.731	134.31
307.961	136.31
308.191	124.31
308.421	128.31
308.651	132.31
308.881	114.31
309.111	127.31
309.341	106.31
309.571	131.31
309.8	126.31
310.03	123.31
310.26	118.31
310.49	117.31
310.72	125.31
310.949	120.31
311.179	113.31
311.409	131.31
311.639	132.31
311.868	134.31
312.098	137.31
312.328	126.31
312.557	133.31
312.787	134.31
313.017	129.31
313.246	135.31
313.476	124.31
313.706	134.31
313.935	150.31
314.165	131.31
314.394	126.31
314.624	129.31
314.853	141.31
315.083	126.31
315.312	118.31
315.542	114.31
315.771	122.31
316.001	142.31
316.23	116.31
316.46	118.31
316.689	126.31
316.919	136.31
317.148	110.31
317.377	129.31
317.607	123.31
317.836	135.31
318.065	123.31
318.295	130.31
318.524	130.31
318.753	135.31
318.983	129.31
319.212	147.31
319.441	128.31
319.67	129.31
319.9	126.31
320.129	131.31
320.358	98.31
320.587	128.31
320.816	130.31
321.046	135.31
321.275	126.31
321.504	111.31
321.733	117.31
321.962	117.31
322.191	117.31
322.42	118.31
322.649	131.31
322.878	118.31
323.108	130.31
323.337	117.31
323.566	134.31
323.795	121.31
324.024	116.31
324.253	117.31
324.482	128.31
324.71	138.31
324.939	131.31
325.168	108.31
325.397	125.31
325.626	115.31
325.855	124.31
326.084	135.31
326.313	131.31
326.542	131.31
326.77	130.31
326.999	138.31
327.228	135.31
327.457	118.31
327.686	137.31
327.914	127.31
328.143	149.31
328.372	125.31
328.6	124.31
328.829	112.31
329.058	130.31
329.287	127.31
329.515	128.31
329.744	151.31
329.972	129.31
330.201	147.31
330.43	135.31
330.658	135.31
330.887	128.31
331.115	128.31
331.344	144.31
331.572	133.31
331.801	137.31
332.03	141.31
332.258	143.31
332.486	146.31
332.715	153.31
332.943	157.31
333.172	147.31
333.4	159.31
333.629	150.31
333.857	152.31
334.085	150.31
334.314	143.31
334.542	161.31
334.771	149.31
334.999	146.31
335.227	129.31
335.455	143.31
335.684	149.31
335.912	154.31
336.14	145.31
336.369	141.31
336.597	146.31
336.825	145.31
337.053	141.31
337.281	147.31
337.51	138.31
337.738	134.31
337.966	129.31
338.194	144.31
338.422	147.31
338.65	146.31
338.878	142.31
339.106	132.31
339.334	142.31
339.562	134.31
339.79	130.31
340.018	136.31
340.246	121.31
340.474	142.31
340.702	134.31
340.93	148.31
341.158	139.31
341.386	135.31
341.614	123.31
341.842	122.31
342.07	127.31
342.298	124.31
342.526	145.31
342.754	133.31
342.981	139.31
343.209	140.31
343.437	171.31
343.665	147.31
343.893	146.31
344.12	166.31
344.348	172.31
344.576	157.31
344.804	134.31
345.031	139.31
345.259	141.31
345.487	142.31
345.714	130.31
345.942	149.31
346.17	138.31
346.397	144.31
346.625	135.31
346.853	127.31
347.08	123.31
347.308	139.31
347.535	134.31
347.763	127.31
347.99	147.31
348.218	136.31
348.445	130.31
348.673	131.31
348.9	144.31
349.128	151.31
349.355	123.31
349.583	127.31
349.81	148.31
350.037	122.31
350.265	138.31
350.492	137.31
350.72	124.31
350.947	143.31
351.174	131.31
351.402	130.31
351.629	143.31
351.856	115.31
352.083	126.31
352.311	123.31
352.538	124.31
352.765	134.31
352.992	149.31
353.22	129.31
353.447	153.31
353.674	147.31
353.901	139.31
354.128	139.31
354.355	125.31
354.583	135.31
354.81	129.31
355.037	133.31
355.264	125.31
355.491	127.31
355.718	128.31
355.945	123.31
356.172	126.31
356.399	125.31
356.626	131.31
356.853	123.31
357.08	143.31
357.307	146.31
357.534	126.31
357.761	131.31
357.988	135.31
358.215	120.31
358.441	129.31
358.668	131.31
358.895	134.31
359.122	128.31
359.349	132.31
359.576	139.31
359.802	122.31
360.029	127.31
360.256	124.31
360.483	128.31
360.709	138.31
360.936	151.31
361.163	130.31
361.39	108.31
361.616	133.31
361.843	128.31
362.07	145.31
362.296	147.31
362.523	141.31
362.749	143.31
362.976	127.31
363.203	139.31
363.429	126.31
363.656	135.31
363.882	137.31
364.109	141.31
364.335	142.31
364.562	128.31
364.788	117.31
365.015	136.31
365.241	131.31
365.468	137.31
365.694	122.31
365.92	134.31
366.147	124.31
366.373	146.31
366.599	128.31
366.826	130.31
367.052	145.31
367.278	132.31
367.505	139.31
367.731	165.31
367.957	137.31
368.184	143.31
368.41	157.31
368.636	145.31
368.862	160.31
369.089	134.31
369.315	144.31
369.541	157.31
369.767	150.31
369.993	144.31
370.219	143.31
370.445	137.31
370.672	140.31
370.898	149.31
371.124	143.31
371.35	154.31
371.576	150.31
371.802	141.31
372.028	141.31
372.254	156.31
372.48	156.31
372.706	154.31
372.932	150.31
373.158	145.31
373.384	159.31
373.61	143.31
373.835	157.31
374.061	149.31
374.287	152.31
374.513	159.31
374.739	168.31
374.965	161.31
375.191	161.31
375.416	170.31
375.642	159.31
375.868	172.31
376.094	150.31
376.319	159.31
376.545	169.31
376.771	153.31
376.997	160.31
377.222	138.31
377.448	159.31
377.674	159.31
377.899	167.31
378.125	152.31
378.35	159.31
378.576	154.31
378.802	155.31
379.027	150.31
379.253	165.31
379.478	160.31
379.704	163.31
379.929	157.31
380.155	158.31
380.38	149.31
380.606	170.31
380.831	167.31
381.057	179.31
381.282	162.31
381.507	174.31
381.733	157.31
381.958	165.31
382.184	176.31
382.409	173.31
382.634	186.31
382.86	169.31
383.085	177.31
383.31	179.31
383.535	181.31
383.761	170.31
383.986	176.31
384.211	180.31
384.436	184.31
384.662	186.31
384.887	162.31
385.112	183.31
385.337	180.31
385.562	185.31
385.787	201.31
386.013	185.31
386.238	172.31
386.463	184.31
386.688	218.31
386.913	181.31
387.138	175.31
387.363	169.31
387.588	189.31
387.813	189.31
388.038	178.31
388.263	185.31
388.488	178.31
388.713	190.31
388.938	190.31
389.163	198.31
389.387	186.31
389.612	191.31
389.837	201.31
390.062	192.31
390.287	205.31
390.512	183.31
390.736	203.31
390.961	211.31
391.186	210.31
391.411	188.31
391.636	197.31
391.86	200.31
392.085	208.31
392.31	193.31
392.534	195.31
392.759	202.31
392.984	200.31
393.208	208.31
393.433	173.31
393.658	197.31
393.882	220.31
394.107	211.31
394.331	210.31
394.556	208.31
394.78	208.31
395.005	200.31
395.229	214.31
395.454	210.31
395.678	228.31
395.903	229.31
396.127	221.31
396.352	215.31
396.576	217.31
396.801	217.31
397.025	209.31
397.249	216.31
397.474	219.31
397.698	217.31
397.922	226.31
398.147	212.31
398.371	214.31
398.595	222.31
398.82	242.31
399.044	243.31
399.268	260.31
399.492	280.31
399.717	285.31
399.941	286.31
400.165	257.31
400.389	258.31
400.613	254.31
400.837	231.31
401.062	214.31
401.286	245.31
401.51	249.31
401.734	228.31
401.958	221.31
402.182	244.31
402.406	247.31
402.63	246.31
402.854	251.31
403.078	255.31
403.302	244.31
403.526	258.31
403.75	259.31
403.974	254.31
404.198	273.31
404.422	272.31
404.645	267.31
404.869	263.31
405.093	279.31
405.317	277.31
405.541	272.31
405.765	259.31
405.988	266.31
406.212	250.31
406.436	263.31
406.66	260.31
406.883	275.31
407.107	282.31
407.331	290.31
407.555	270.31
407.778	271.31
408.002	258.31
408.226	271.31
408.449	273.31
408.673	282.31
408.896	265.31
409.12	257.31
409.344	283.31
409.567	266.31
409.791	267.31
410.014	278.31
410.238	279.31
410.461	271.31
410.685	271.31
410.908	267.31
411.132	274.31
411.355	257.31
411.578	255.31
411.802	247.31
412.025	265.31
412.249	261.31
412.472	267.31
412.695	277.31
412.919	264.31
413.142	273.31
413.365	269.31
413.589	242.31
413.812	252.31
414.035	270.31
414.258	260.31
414.482	259.31
414.705	269.31
414.928	278.31
415.151	260.31
415.374	274.31
415.597	260.31
415.821	256.31
416.044	255.31
416.267	267.31
416.49	266.31
416.713	280.31
416.936	273.31
417.159	253.31
417.382	243.31
417.605	270.31
417.828	254.31
418.051	285.31
418.274	298.31
418.497	267.31
418.72	275.31
418.943	291.31
419.166	296.31
419.389	298.31
419.611	287.31
419.834	291.31
420.057	291.31
420.28	286.31
420.503	275.31
420.726	292.31
420.948	257.31
421.171	277.31
421.394	275.31
421.617	299.31
421.839	309.31
422.062	293.31
422.285	267.31
422.507	267.31
422.73	278.31
422.953	261.31
423.175	295.31
423.398	279.31
423.621	291.31
423.843	291.31
424.066	290.31
424.288	297.31
424.511	304.31
424.733	303.31
424.956	273.31
425.178	294.31
425.401	279.31
425.623	278.31
425.846	276.31
426.068	270.31
426.291	250.31
426.513	252.31
426.735	277.31
426.958	271.31
427.18	283.31
427.402	279.31
427.625	260.31
427.847	252.31
428.069	269.31
428.292	278.31
428.514	250.31
428.736	273.31
428.958	261.31
429.181	259.31
429.403	277.31
429.625	273.31
429.847	271.31
430.069	255.31
430.292	277.31
430.514	259.31
430.736	270.31
430.958	251.31
431.18	227.31
431.402	257.31
431.624	239.31
431.846	230.31
432.068	191.31
432.29	208.31
432.512	231.31
432.734	237.31
432.956	269.31
433.178	302.31
433.4	266.31
433.622	274.31
433.844	255.31
434.066	240.31
434.287	218.31
434.509	201.31
434.731	221.31
434.953	231.31
435.175	257.31
435.397	281.31
435.618	239.31
435.84	219.31
436.062	229.31
436.284	252.31
436.505	261.31
436.727	255.31
436.949	246.31
437.17	250.31
437.392	252.31
437.614	243.31
437.835	184.31
438.057	199.31
438.278	230.31
438.5	250.31
438.721	255.31
438.943	273.31
439.165	269.31
439.386	285.31
439.608	312.31
439.829	290.31
440.05	283.31
440.272	292.31
440.493	289.31
440.715	289.31
440.936	306.31
441.158	293.31
441.379	307.31
441.6	309.31
441.822	299.31
442.043	299.31
442.264	306.31
442.486	299.31
442.707	296.31
442.928	310.31
443.149	283.31
443.371	293.31
443.592	283.31
443.813	305.31
444.034	289.31
444.255	290.31
444.476	323.31
444.698	320.31
444.919	329.31
445.14	565.31
445.361	417.31
445.582	304.31
445.803	308.31
446.024	303.31
446.245	310.31
446.466	305.31
446.687	299.31
446.908	323.31
447.129	326.31
447.35	306.31
447.571	300.31
447.792	281.31
448.013	284.31
448.234	295.31
448.455	285.31
448.675	278.31
448.896	290.31
449.117	289.31
449.338	277.31
449.559	267.31
449.779	261.31
450	278.31
450.221	269.31
450.442	256.31
450.662	289.31
450.883	265.31
451.104	273.31
451.324	266.31
451.545	258.31
451.766	247.31
451.986	253.31
452.207	259.31
452.428	248.31
452.648	226.31
452.869	224.31
453.089	220.31
453.31	205.31
453.53	208.31
453.751	223.31
453.971	193.31
454.192	203.31
454.412	196.31
454.633	220.31
454.853	221.31
455.073	242.31
455.294	221.31
455.514	213.31
455.734	211.31
455.955	205.31
456.175	229.31
456.395	196.31
456.616	198.31
456.836	195.31
457.056	206.31
457.276	205.31
457.497	187.31
457.717	198.31
457.937	199.31
458.157	206.31
458.377	192.31
458.598	175.31
458.818	173.31
459.038	167.31
459.258	171.31
459.478	181.31
459.698	169.31
459.918	199.31
460.138	219.31
460.358	236.31
460.578	246.31
460.798	234.31
461.018	253.31
461.238	252.31
461.458	225.31
461.678	236.31
461.898	230.31
462.118	255.31
462.338	244.31
462.558	240.31
462.777	243.31
462.997	265.31
463.217	265.31
463.437	269.31
463.657	256.31
463.876	230.31
464.096	242.31
464.316	253.31
464.536	249.31
464.755	241.31
464.975	244.31
465.195	238.31
465.414	256.31
465.634	236.31
465.854	232.31
466.073	247.31
466.293	236.31
466.512	243.31
466.732	260.31
466.951	256.31
467.171	263.31
467.391	256.31
467.61	278.31
467.829	260.31
468.049	276.31
468.268	262.31
468.488	246.31
468.707	259.31
468.927	274.31
469.146	280.31
469.365	268.31
469.585	277.31
469.804	291.31
470.023	279.31
470.243	284.31
470.462	287.31
470.681	281.31
470.901	278.31
471.12	292.31
471.339	271.31
471.558	285.31
471.777	254.31
471.997	261.31
472.216	238.31
472.435	219.31
472.654	205.31
472.873	210.31
473.092	223.31
473.311	233.31
473.53	242.31
473.749	221.31
473.968	249.31
474.187	235.31
474.406	221.31
474.625	248.31
474.844	239.31
475.063	253.31
475.282	243.31
475.501	224.31
475.72	236.31
475.939	232.31
476.158	231.31
476.377	245.31
476.596	224.31
476.814	217.31
477.033	211.31
477.252	234.31
477.471	231.31
477.69	254.31
477.908	274.31
478.127	265.31
478.346	278.31
478.564	271.31
478.783	275.31
479.002	289.31
479.22	283.31
479.439	280.31
479.658	229.31
479.876	221.31
480.095	233.31
480.313	231.31
480.532	262.31
480.751	220.31
480.969	187.31
481.188	175.31
481.406	171.31
481.624	167.31
481.843	172.31
482.061	186.31
482.28	219.31
482.498	228.31
482.717	199.31
482.935	250.31
483.153	271.31
483.372	281.31
483.59	277.31
483.808	235.31
484.027	231.31
484.245	263.31
484.463	280.31
484.681	283.31
484.9	269.31
485.118	250.31
485.336	229.31
485.554	225.31
485.772	208.31
485.99	218.31
486.209	205.31
486.427	229.31
486.645	240.31
486.863	279.31
487.081	279.31
487.299	244.31
487.517	275.31
487.735	325.31
487.953	364.31
488.171	341.31
488.389	322.31
488.607	276.31
488.825	273.31
489.043	254.31
489.261	257.31
489.479	259.31
489.696	260.31
489.914	281.31
490.132	289.31
490.35	322.31
490.568	335.31
490.786	364.31
491.003	365.31
491.221	379.31
491.439	374.31
491.657	391.31
491.874	431.31
492.092	485.31
492.31	474.31
492.527	441.31
492.745	413.31
492.963	407.31
493.18	405.31
493.398	372.31
493.615	374.31
493.833	383.31
494.05	366.31
494.268	360.31
494.485	360.31
494.703	386.31
494.92	362.31
495.138	349.31
495.355	355.31
495.573	353.31
495.79	351.31
496.008	346.31
496.225	361.31
496.442	356.31
496.66	338.31
496.877	351.31
497.094	375.31
497.312	330.31
497.529	325.31
497.746	314.31
497.963	309.31
498.181	281.31
498.398	286.31
498.615	285.31
498.832	294.31
499.049	306.31
499.267	316.31
499.484	342.31
499.701	393.31
499.918	418.31
500.135	461.31
500.352	500.31
500.569	497.31
500.786	482.31
501.003	475.31
501.22	435.31
501.437	393.31
501.654	358.31
501.871	352.31
502.088	337.31
502.305	305.31
502.522	320.31
502.739	309.31
502.956	287.31
503.172	296.31
503.389	259.31
503.606	241.31
503.823	262.31
504.04	250.31
504.256	264.31
504.473	253.31
504.69	262.31
504.907	273.31
