Data from SampD_HRD10591_00038.txt Node
Date: Mon Jan 19 11:47:51 EST 2026
User: Yrep
Spectrometer: HR+D1059
Trigger mode: 0
Integration Time (sec): 3.443000E-1
Scans to average: 1
Electric dark correction enabled: true
Nonlinearity correction enabled: false
Boxcar width: 0
XAxis mode: Wavelengths
Number of Pixels in Spectrum: 2048
>>>>>Begin Spectral Data<<<<<
223.165	-22.19
223.4	-22.19
223.635	-22.19
223.869	-29.19
224.104	-16.19
224.338	-17.19
224.573	-13.19
224.808	-17.19
225.042	6.81
225.277	-0.19
225.511	-2.19
225.746	5.81
225.98	2.81
226.215	9.81
226.449	14.81
226.683	29.81
226.918	16.81
227.152	30.81
227.387	39.81
227.621	49.81
227.856	54.81
228.09	49.81
228.324	66.81
228.559	64.81
228.793	59.81
229.027	86.81
229.262	65.81
229.496	70.81
229.73	71.81
229.964	75.81
230.199	61.81
230.433	74.81
230.667	81.81
230.901	83.81
231.136	91.81
231.37	67.81
231.604	78.81
231.838	70.81
232.072	84.81
232.306	82.81
232.541	86.81
232.775	75.81
233.009	82.81
233.243	78.81
233.477	96.81
233.711	88.81
233.945	87.81
234.179	97.81
234.413	95.81
234.647	95.81
234.881	73.81
235.115	101.81
235.349	73.81
235.583	89.81
235.817	84.81
236.051	70.81
236.285	84.81
236.519	89.81
236.753	80.81
236.987	90.81
237.221	84.81
237.455	86.81
237.689	74.81
237.922	98.81
238.156	71.81
238.39	84.81
238.624	68.81
238.858	72.81
239.091	59.81
239.325	69.81
239.559	82.81
239.793	80.81
240.027	109.81
240.26	82.81
240.494	90.81
240.728	94.81
240.961	80.81
241.195	89.81
241.429	98.81
241.662	85.81
241.896	86.81
242.13	91.81
242.363	75.81
242.597	78.81
242.83	86.81
243.064	79.81
243.298	74.81
243.531	84.81
243.765	85.81
243.998	86.81
244.232	105.81
244.465	92.81
244.699	95.81
244.932	94.81
245.166	79.81
245.399	86.81
245.633	98.81
245.866	89.81
246.099	97.81
246.333	84.81
246.566	87.81
246.8	82.81
247.033	98.81
247.266	84.81
247.5	81.81
247.733	87.81
247.966	92.81
248.2	96.81
248.433	86.81
248.666	82.81
248.899	95.81
249.133	101.81
249.366	96.81
249.599	83.81
249.832	89.81
250.066	88.81
250.299	82.81
250.532	91.81
250.765	98.81
250.998	94.81
251.231	82.81
251.465	88.81
251.698	83.81
251.931	101.81
252.164	96.81
252.397	89.81
252.63	83.81
252.863	94.81
253.096	90.81
253.329	99.81
253.562	91.81
253.795	96.81
254.028	97.81
254.261	75.81
254.494	82.81
254.727	98.81
254.96	94.81
255.193	76.81
255.426	90.81
255.659	96.81
255.892	91.81
256.124	90.81
256.357	104.81
256.59	93.81
256.823	88.81
257.056	91.81
257.289	83.81
257.521	104.81
257.754	94.81
257.987	105.81
258.22	95.81
258.452	102.81
258.685	86.81
258.918	81.81
259.151	97.81
259.383	98.81
259.616	99.81
259.849	86.81
260.081	102.81
260.314	100.81
260.547	98.81
260.779	99.81
261.012	108.81
261.244	83.81
261.477	107.81
261.71	91.81
261.942	90.81
262.175	95.81
262.407	98.81
262.64	98.81
262.872	96.81
263.105	103.81
263.337	121.81
263.57	86.81
263.802	112.81
264.035	112.81
264.267	104.81
264.499	94.81
264.732	106.81
264.964	87.81
265.197	103.81
265.429	100.81
265.661	109.81
265.894	100.81
266.126	106.81
266.358	100.81
266.591	102.81
266.823	101.81
267.055	99.81
267.287	116.81
267.52	106.81
267.752	115.81
267.984	108.81
268.216	110.81
268.448	112.81
268.681	101.81
268.913	108.81
269.145	101.81
269.377	104.81
269.609	107.81
269.841	112.81
270.073	100.81
270.306	104.81
270.538	81.81
270.77	104.81
271.002	95.81
271.234	111.81
271.466	121.81
271.698	110.81
271.93	114.81
272.162	98.81
272.394	110.81
272.626	108.81
272.858	115.81
273.09	109.81
273.322	108.81
273.553	107.81
273.785	109.81
274.017	107.81
274.249	104.81
274.481	97.81
274.713	107.81
274.945	108.81
275.176	112.81
275.408	114.81
275.64	95.81
275.872	91.81
276.104	121.81
276.335	108.81
276.567	102.81
276.799	104.81
277.031	92.81
277.262	106.81
277.494	111.81
277.726	112.81
277.957	103.81
278.189	117.81
278.421	110.81
278.652	111.81
278.884	107.81
279.115	92.81
279.347	104.81
279.579	107.81
279.81	103.81
280.042	98.81
280.273	111.81
280.505	111.81
280.736	113.81
280.968	115.81
281.199	105.81
281.431	116.81
281.662	111.81
281.894	112.81
282.125	118.81
282.356	131.81
282.588	109.81
282.819	106.81
283.051	105.81
283.282	95.81
283.513	124.81
283.745	108.81
283.976	116.81
284.207	112.81
284.439	109.81
284.67	122.81
284.901	111.81
285.132	113.81
285.364	121.81
285.595	111.81
285.826	114.81
286.057	114.81
286.288	105.81
286.52	116.81
286.751	100.81
286.982	100.81
287.213	114.81
287.444	129.81
287.675	113.81
287.906	125.81
288.138	126.81
288.369	106.81
288.6	99.81
288.831	117.81
289.062	111.81
289.293	120.81
289.524	107.81
289.755	116.81
289.986	106.81
290.217	116.81
290.448	107.81
290.679	126.81
290.91	127.81
291.141	115.81
291.371	116.81
291.602	128.81
291.833	113.81
292.064	116.81
292.295	122.81
292.526	120.81
292.757	124.81
292.987	130.81
293.218	115.81
293.449	123.81
293.68	118.81
293.91	110.81
294.141	130.81
294.372	117.81
294.603	123.81
294.833	108.81
295.064	118.81
295.295	121.81
295.525	128.81
295.756	128.81
295.987	121.81
296.217	133.81
296.448	130.81
296.679	94.81
296.909	119.81
297.14	122.81
297.37	133.81
297.601	133.81
297.831	142.81
298.062	118.81
298.292	115.81
298.523	130.81
298.753	105.81
298.984	125.81
299.214	110.81
299.445	126.81
299.675	119.81
299.905	139.81
300.136	123.81
300.366	110.81
300.597	126.81
300.827	117.81
301.057	116.81
301.288	123.81
301.518	137.81
301.748	136.81
301.979	157.81
302.209	127.81
302.439	128.81
302.669	120.81
302.9	117.81
303.13	116.81
303.36	108.81
303.59	112.81
303.82	123.81
304.051	130.81
304.281	130.81
304.511	128.81
304.741	111.81
304.971	112.81
305.201	124.81
305.431	116.81
305.661	129.81
305.891	135.81
306.121	125.81
306.352	130.81
306.582	118.81
306.812	126.81
307.042	120.81
307.272	126.81
307.502	127.81
307.731	137.81
307.961	124.81
308.191	119.81
308.421	135.81
308.651	121.81
308.881	126.81
309.111	109.81
309.341	123.81
309.571	124.81
309.8	117.81
310.03	133.81
310.26	136.81
310.49	117.81
310.72	118.81
310.949	129.81
311.179	113.81
311.409	118.81
311.639	129.81
311.868	110.81
312.098	118.81
312.328	118.81
312.557	115.81
312.787	117.81
313.017	116.81
313.246	118.81
313.476	119.81
313.706	120.81
313.935	123.81
314.165	120.81
314.394	122.81
314.624	114.81
314.853	118.81
315.083	126.81
315.312	127.81
315.542	128.81
315.771	131.81
316.001	122.81
316.23	115.81
316.46	126.81
316.689	121.81
316.919	117.81
317.148	124.81
317.377	136.81
317.607	124.81
317.836	116.81
318.065	135.81
318.295	133.81
318.524	129.81
318.753	108.81
318.983	117.81
319.212	122.81
319.441	127.81
319.67	132.81
319.9	114.81
320.129	129.81
320.358	110.81
320.587	113.81
320.816	116.81
321.046	118.81
321.275	123.81
321.504	140.81
321.733	126.81
321.962	126.81
322.191	125.81
322.42	116.81
322.649	140.81
322.878	138.81
323.108	127.81
323.337	124.81
323.566	119.81
323.795	118.81
324.024	119.81
324.253	124.81
324.482	134.81
324.71	111.81
324.939	123.81
325.168	116.81
325.397	143.81
325.626	122.81
325.855	130.81
326.084	126.81
326.313	126.81
326.542	122.81
326.77	138.81
326.999	127.81
327.228	124.81
327.457	133.81
327.686	121.81
327.914	130.81
328.143	130.81
328.372	128.81
328.6	126.81
328.829	143.81
329.058	120.81
329.287	127.81
329.515	138.81
329.744	131.81
329.972	135.81
330.201	125.81
330.43	123.81
330.658	128.81
330.887	129.81
331.115	140.81
331.344	124.81
331.572	145.81
331.801	135.81
332.03	135.81
332.258	126.81
332.486	136.81
332.715	148.81
332.943	149.81
333.172	154.81
333.4	153.81
333.629	140.81
333.857	153.81
334.085	149.81
334.314	168.81
334.542	142.81
334.771	138.81
334.999	146.81
335.227	146.81
335.455	137.81
335.684	132.81
335.912	130.81
336.14	137.81
336.369	138.81
336.597	148.81
336.825	144.81
337.053	134.81
337.281	132.81
337.51	137.81
337.738	154.81
337.966	135.81
338.194	126.81
338.422	121.81
338.65	135.81
338.878	137.81
339.106	129.81
339.334	154.81
339.562	140.81
339.79	118.81
340.018	140.81
340.246	135.81
340.474	142.81
340.702	146.81
340.93	128.81
341.158	124.81
341.386	139.81
341.614	132.81
341.842	143.81
342.07	127.81
342.298	134.81
342.526	127.81
342.754	137.81
342.981	131.81
343.209	140.81
343.437	180.81
343.665	150.81
343.893	147.81
344.12	145.81
344.348	140.81
344.576	152.81
344.804	128.81
345.031	136.81
345.259	133.81
345.487	126.81
345.714	129.81
345.942	130.81
346.17	138.81
346.397	132.81
346.625	124.81
346.853	127.81
347.08	123.81
347.308	136.81
347.535	143.81
347.763	141.81
347.99	125.81
348.218	134.81
348.445	118.81
348.673	142.81
348.9	154.81
349.128	127.81
349.355	129.81
349.583	127.81
349.81	120.81
350.037	141.81
350.265	127.81
350.492	134.81
350.72	122.81
350.947	137.81
351.174	162.81
351.402	128.81
351.629	131.81
351.856	140.81
352.083	133.81
352.311	131.81
352.538	118.81
352.765	132.81
352.992	151.81
353.22	119.81
353.447	127.81
353.674	136.81
353.901	126.81
354.128	116.81
354.355	127.81
354.583	126.81
354.81	137.81
355.037	127.81
355.264	137.81
355.491	116.81
355.718	123.81
355.945	128.81
356.172	134.81
356.399	135.81
356.626	137.81
356.853	122.81
357.08	134.81
357.307	132.81
357.534	127.81
357.761	137.81
357.988	126.81
358.215	130.81
358.441	127.81
358.668	136.81
358.895	124.81
359.122	115.81
359.349	127.81
359.576	132.81
359.802	125.81
360.029	130.81
360.256	128.81
360.483	117.81
360.709	131.81
360.936	156.81
361.163	134.81
361.39	123.81
361.616	120.81
361.843	129.81
362.07	130.81
362.296	143.81
362.523	138.81
362.749	135.81
362.976	133.81
363.203	149.81
363.429	133.81
363.656	135.81
363.882	146.81
364.109	136.81
364.335	147.81
364.562	139.81
364.788	133.81
365.015	145.81
365.241	136.81
365.468	124.81
365.694	129.81
365.92	126.81
366.147	133.81
366.373	146.81
366.599	135.81
366.826	133.81
367.052	130.81
367.278	144.81
367.505	132.81
367.731	156.81
367.957	129.81
368.184	142.81
368.41	118.81
368.636	136.81
368.862	149.81
369.089	149.81
369.315	145.81
369.541	123.81
369.767	137.81
369.993	151.81
370.219	142.81
370.445	150.81
370.672	168.81
370.898	152.81
371.124	144.81
371.35	137.81
371.576	160.81
371.802	148.81
372.028	128.81
372.254	135.81
372.48	151.81
372.706	151.81
372.932	154.81
373.158	156.81
373.384	162.81
373.61	157.81
373.835	153.81
374.061	154.81
374.287	128.81
374.513	160.81
374.739	146.81
374.965	160.81
375.191	157.81
375.416	145.81
375.642	144.81
375.868	156.81
376.094	154.81
376.319	153.81
376.545	137.81
376.771	144.81
376.997	152.81
377.222	166.81
377.448	166.81
377.674	163.81
377.899	160.81
378.125	164.81
378.35	164.81
378.576	159.81
378.802	151.81
379.027	144.81
379.253	169.81
379.478	132.81
379.704	156.81
379.929	146.81
380.155	159.81
380.38	150.81
380.606	170.81
380.831	166.81
381.057	168.81
381.282	170.81
381.507	159.81
381.733	161.81
381.958	181.81
382.184	164.81
382.409	170.81
382.634	160.81
382.86	166.81
383.085	176.81
383.31	170.81
383.535	177.81
383.761	166.81
383.986	166.81
384.211	177.81
384.436	200.81
384.662	182.81
384.887	176.81
385.112	180.81
385.337	161.81
385.562	186.81
385.787	171.81
386.013	173.81
386.238	182.81
386.463	197.81
386.688	220.81
386.913	191.81
387.138	155.81
387.363	183.81
387.588	177.81
387.813	171.81
388.038	192.81
388.263	178.81
388.488	185.81
388.713	194.81
388.938	185.81
389.163	197.81
389.387	202.81
389.612	180.81
389.837	189.81
390.062	190.81
390.287	186.81
390.512	191.81
390.736	191.81
390.961	187.81
391.186	190.81
391.411	195.81
391.636	203.81
391.86	197.81
392.085	211.81
392.31	207.81
392.534	219.81
392.759	204.81
392.984	192.81
393.208	192.81
393.433	194.81
393.658	195.81
393.882	188.81
394.107	203.81
394.331	221.81
394.556	194.81
394.78	230.81
395.005	222.81
395.229	190.81
395.454	214.81
395.678	212.81
395.903	215.81
396.127	239.81
396.352	194.81
396.576	219.81
396.801	202.81
397.025	204.81
397.249	231.81
397.474	221.81
397.698	209.81
397.922	217.81
398.147	221.81
398.371	211.81
398.595	212.81
398.82	222.81
399.044	256.81
399.268	241.81
399.492	284.81
399.717	299.81
399.941	272.81
400.165	262.81
400.389	238.81
400.613	234.81
400.837	224.81
401.062	242.81
401.286	236.81
401.51	230.81
401.734	225.81
401.958	246.81
402.182	234.81
402.406	227.81
402.63	246.81
402.854	243.81
403.078	247.81
403.302	251.81
403.526	262.81
403.75	260.81
403.974	255.81
404.198	278.81
404.422	262.81
404.645	255.81
404.869	250.81
405.093	260.81
405.317	265.81
405.541	261.81
405.765	259.81
405.988	240.81
406.212	251.81
406.436	248.81
406.66	254.81
406.883	258.81
407.107	267.81
407.331	253.81
407.555	289.81
407.778	275.81
408.002	268.81
408.226	262.81
408.449	268.81
408.673	273.81
408.896	253.81
409.12	245.81
409.344	281.81
409.567	254.81
409.791	270.81
410.014	281.81
410.238	255.81
410.461	256.81
410.685	254.81
410.908	263.81
411.132	276.81
411.355	257.81
411.578	261.81
411.802	245.81
412.025	252.81
412.249	271.81
412.472	260.81
412.695	248.81
412.919	257.81
413.142	252.81
413.365	242.81
413.589	224.81
413.812	246.81
414.035	250.81
414.258	245.81
414.482	254.81
414.705	244.81
414.928	252.81
415.151	273.81
415.374	239.81
415.597	257.81
415.821	272.81
416.044	250.81
416.267	266.81
416.49	267.81
416.713	271.81
416.936	226.81
417.159	246.81
417.382	269.81
417.605	250.81
417.828	263.81
418.051	253.81
418.274	280.81
418.497	269.81
418.72	282.81
418.943	276.81
419.166	280.81
419.389	280.81
419.611	276.81
419.834	283.81
420.057	266.81
420.28	275.81
420.503	280.81
420.726	284.81
420.948	257.81
421.171	252.81
421.394	272.81
421.617	274.81
421.839	271.81
422.062	277.81
422.285	266.81
422.507	294.81
422.73	262.81
422.953	252.81
423.175	277.81
423.398	254.81
423.621	270.81
423.843	260.81
424.066	280.81
424.288	276.81
424.511	277.81
424.733	265.81
424.956	275.81
425.178	290.81
425.401	269.81
425.623	278.81
425.846	277.81
426.068	274.81
426.291	266.81
426.513	254.81
426.735	265.81
426.958	248.81
427.18	262.81
427.402	271.81
427.625	251.81
427.847	246.81
428.069	264.81
428.292	264.81
428.514	251.81
428.736	267.81
428.958	255.81
429.181	262.81
429.403	256.81
429.625	264.81
429.847	246.81
430.069	245.81
430.292	261.81
430.514	262.81
430.736	240.81
430.958	254.81
431.18	247.81
431.402	253.81
431.624	226.81
431.846	216.81
432.068	177.81
432.29	178.81
432.512	223.81
432.734	237.81
432.956	260.81
433.178	251.81
433.4	267.81
433.622	275.81
433.844	282.81
434.066	218.81
434.287	211.81
434.509	212.81
434.731	197.81
434.953	210.81
435.175	244.81
435.397	239.81
435.618	254.81
435.84	224.81
436.062	212.81
436.284	238.81
436.505	255.81
436.727	259.81
436.949	262.81
437.17	253.81
437.392	242.81
437.614	218.81
437.835	225.81
438.057	223.81
438.278	216.81
438.5	232.81
438.721	257.81
438.943	254.81
439.165	276.81
439.386	265.81
439.608	272.81
439.829	282.81
440.05	279.81
440.272	297.81
440.493	293.81
440.715	283.81
440.936	276.81
441.158	278.81
441.379	283.81
441.6	303.81
441.822	282.81
442.043	294.81
442.264	270.81
442.486	275.81
442.707	283.81
442.928	276.81
443.149	275.81
443.371	280.81
443.592	296.81
443.813	289.81
444.034	290.81
444.255	301.81
444.476	307.81
444.698	309.81
444.919	293.81
445.14	547.81
445.361	403.81
445.582	300.81
445.803	294.81
446.024	284.81
446.245	304.81
446.466	289.81
446.687	304.81
446.908	286.81
447.129	306.81
447.35	293.81
447.571	295.81
447.792	275.81
448.013	264.81
448.234	284.81
448.455	274.81
448.675	274.81
448.896	278.81
449.117	276.81
449.338	252.81
449.559	260.81
449.779	251.81
450	262.81
450.221	260.81
450.442	250.81
450.662	263.81
450.883	251.81
451.104	267.81
451.324	255.81
451.545	258.81
451.766	235.81
451.986	236.81
452.207	232.81
452.428	236.81
452.648	234.81
452.869	226.81
453.089	196.81
453.31	194.81
453.53	179.81
453.751	186.81
453.971	192.81
454.192	193.81
454.412	188.81
454.633	214.81
454.853	226.81
455.073	224.81
455.294	238.81
455.514	226.81
455.734	202.81
455.955	212.81
456.175	192.81
456.395	186.81
456.616	217.81
456.836	195.81
457.056	199.81
457.276	198.81
457.497	191.81
457.717	192.81
457.937	197.81
458.157	193.81
458.377	191.81
458.598	187.81
458.818	167.81
459.038	166.81
459.258	164.81
459.478	175.81
459.698	183.81
459.918	200.81
460.138	211.81
460.358	219.81
460.578	226.81
460.798	244.81
461.018	234.81
461.238	227.81
461.458	248.81
461.678	230.81
461.898	218.81
462.118	242.81
462.338	235.81
462.558	265.81
462.777	250.81
462.997	259.81
463.217	246.81
463.437	251.81
463.657	239.81
463.876	253.81
464.096	222.81
464.316	250.81
464.536	255.81
464.755	250.81
464.975	259.81
465.195	245.81
465.414	235.81
465.634	235.81
465.854	234.81
466.073	248.81
466.293	243.81
466.512	230.81
466.732	248.81
466.951	249.81
467.171	246.81
467.391	235.81
467.61	262.81
467.829	234.81
468.049	254.81
468.268	244.81
468.488	254.81
468.707	254.81
468.927	252.81
469.146	264.81
469.365	248.81
469.585	274.81
469.804	278.81
470.023	260.81
470.243	262.81
470.462	261.81
470.681	266.81
470.901	253.81
471.12	260.81
471.339	287.81
471.558	271.81
471.777	262.81
471.997	240.81
472.216	218.81
472.435	199.81
472.654	194.81
472.873	221.81
473.092	190.81
473.311	224.81
473.53	237.81
473.749	240.81
473.968	235.81
474.187	220.81
474.406	210.81
474.625	233.81
474.844	215.81
475.063	245.81
475.282	228.81
475.501	219.81
475.72	236.81
475.939	222.81
476.158	234.81
476.377	230.81
476.596	218.81
476.814	218.81
477.033	209.81
477.252	219.81
477.471	234.81
477.69	253.81
477.908	272.81
478.127	278.81
478.346	250.81
478.564	273.81
478.783	276.81
479.002	272.81
479.22	274.81
479.439	259.81
479.658	244.81
479.876	211.81
480.095	217.81
480.313	230.81
480.532	235.81
480.751	209.81
480.969	201.81
481.188	180.81
481.406	176.81
481.624	179.81
481.843	178.81
482.061	192.81
482.28	206.81
482.498	204.81
482.717	202.81
482.935	258.81
483.153	265.81
483.372	304.81
483.59	280.81
483.808	253.81
484.027	244.81
484.245	236.81
484.463	252.81
484.681	274.81
484.9	247.81
485.118	247.81
485.336	225.81
485.554	212.81
485.772	204.81
485.99	203.81
486.209	204.81
486.427	212.81
486.645	242.81
486.863	273.81
487.081	270.81
487.299	235.81
487.517	276.81
487.735	292.81
487.953	331.81
488.171	327.81
488.389	300.81
488.607	286.81
488.825	239.81
489.043	232.81
489.261	242.81
489.479	252.81
489.696	271.81
489.914	241.81
490.132	270.81
490.35	295.81
490.568	331.81
490.786	332.81
491.003	360.81
491.221	348.81
491.439	351.81
491.657	370.81
491.874	393.81
492.092	423.81
492.31	453.81
492.527	431.81
492.745	385.81
492.963	371.81
493.18	364.81
493.398	364.81
493.615	356.81
493.833	356.81
494.05	361.81
494.268	349.81
494.485	359.81
494.703	351.81
494.92	358.81
495.138	337.81
495.355	358.81
495.573	334.81
495.79	336.81
496.008	339.81
496.225	323.81
496.442	344.81
496.66	342.81
496.877	326.81
497.094	319.81
497.312	305.81
497.529	336.81
497.746	299.81
497.963	292.81
498.181	291.81
498.398	279.81
498.615	283.81
498.832	260.81
499.049	290.81
499.267	304.81
499.484	342.81
499.701	371.81
499.918	409.81
500.135	446.81
500.352	499.81
500.569	502.81
500.786	502.81
501.003	457.81
501.22	437.81
501.437	392.81
501.654	352.81
501.871	324.81
502.088	339.81
502.305	288.81
502.522	296.81
502.739	309.81
502.956	286.81
503.172	267.81
503.389	249.81
503.606	251.81
503.823	277.81
504.04	274.81
504.256	265.81
504.473	251.81
504.69	274.81
