Data from SampD_HRD10591_00030.txt Node
Date: Mon Jan 19 11:47:48 EST 2026
User: Yrep
Spectrometer: HR+D1059
Trigger mode: 0
Integration Time (sec): 3.443000E-1
Scans to average: 1
Electric dark correction enabled: true
Nonlinearity correction enabled: false
Boxcar width: 0
XAxis mode: Wavelengths
Number of Pixels in Spectrum: 2048
>>>>>Begin Spectral Data<<<<<
223.165	-21.06
223.4	-21.06
223.635	-21.06
223.869	-13.06
224.104	-26.06
224.338	0.94
224.573	-26.06
224.808	-18.06
225.042	-11.06
225.277	-7.06
225.511	-1.06
225.746	11.94
225.98	17.94
226.215	21.94
226.449	25.94
226.683	10.94
226.918	12.94
227.152	20.94
227.387	32.94
227.621	31.94
227.856	53.94
228.09	53.94
228.324	55.94
228.559	66.94
228.793	54.94
229.027	67.94
229.262	63.94
229.496	77.94
229.73	82.94
229.964	74.94
230.199	71.94
230.433	73.94
230.667	79.94
230.901	75.94
231.136	66.94
231.37	91.94
231.604	87.94
231.838	70.94
232.072	83.94
232.306	86.94
232.541	80.94
232.775	81.94
233.009	89.94
233.243	70.94
233.477	91.94
233.711	81.94
233.945	96.94
234.179	85.94
234.413	81.94
234.647	75.94
234.881	87.94
235.115	96.94
235.349	86.94
235.583	73.94
235.817	85.94
236.051	79.94
236.285	85.94
236.519	79.94
236.753	72.94
236.987	68.94
237.221	71.94
237.455	67.94
237.689	89.94
237.922	81.94
238.156	79.94
238.39	87.94
238.624	75.94
238.858	103.94
239.091	73.94
239.325	84.94
239.559	87.94
239.793	77.94
240.027	87.94
240.26	63.94
240.494	81.94
240.728	85.94
240.961	69.94
241.195	95.94
241.429	73.94
241.662	91.94
241.896	80.94
242.13	84.94
242.363	84.94
242.597	81.94
242.83	88.94
243.064	89.94
243.298	92.94
243.531	99.94
243.765	81.94
243.998	91.94
244.232	78.94
244.465	76.94
244.699	77.94
244.932	69.94
245.166	77.94
245.399	76.94
245.633	84.94
245.866	89.94
246.099	85.94
246.333	82.94
246.566	83.94
246.8	68.94
247.033	83.94
247.266	69.94
247.5	78.94
247.733	71.94
247.966	82.94
248.2	91.94
248.433	94.94
248.666	89.94
248.899	80.94
249.133	94.94
249.366	104.94
249.599	83.94
249.832	89.94
250.066	92.94
250.299	88.94
250.532	88.94
250.765	84.94
250.998	85.94
251.231	73.94
251.465	91.94
251.698	76.94
251.931	87.94
252.164	82.94
252.397	63.94
252.63	81.94
252.863	74.94
253.096	88.94
253.329	84.94
253.562	77.94
253.795	86.94
254.028	94.94
254.261	83.94
254.494	88.94
254.727	90.94
254.96	90.94
255.193	92.94
255.426	90.94
255.659	87.94
255.892	106.94
256.124	81.94
256.357	90.94
256.59	81.94
256.823	92.94
257.056	77.94
257.289	87.94
257.521	87.94
257.754	90.94
257.987	74.94
258.22	89.94
258.452	95.94
258.685	85.94
258.918	80.94
259.151	95.94
259.383	97.94
259.616	107.94
259.849	95.94
260.081	81.94
260.314	91.94
260.547	80.94
260.779	85.94
261.012	76.94
261.244	88.94
261.477	100.94
261.71	88.94
261.942	100.94
262.175	82.94
262.407	86.94
262.64	99.94
262.872	87.94
263.105	82.94
263.337	95.94
263.57	81.94
263.802	76.94
264.035	89.94
264.267	81.94
264.499	85.94
264.732	85.94
264.964	107.94
265.197	88.94
265.429	83.94
265.661	89.94
265.894	95.94
266.126	105.94
266.358	96.94
266.591	87.94
266.823	95.94
267.055	90.94
267.287	95.94
267.52	91.94
267.752	82.94
267.984	95.94
268.216	93.94
268.448	90.94
268.681	108.94
268.913	99.94
269.145	91.94
269.377	80.94
269.609	85.94
269.841	99.94
270.073	86.94
270.306	93.94
270.538	92.94
270.77	71.94
271.002	79.94
271.234	95.94
271.466	92.94
271.698	92.94
271.93	85.94
272.162	86.94
272.394	100.94
272.626	73.94
272.858	83.94
273.09	100.94
273.322	102.94
273.553	99.94
273.785	84.94
274.017	90.94
274.249	91.94
274.481	97.94
274.713	82.94
274.945	89.94
275.176	101.94
275.408	97.94
275.64	95.94
275.872	105.94
276.104	115.94
276.335	90.94
276.567	92.94
276.799	96.94
277.031	87.94
277.262	90.94
277.494	95.94
277.726	86.94
277.957	76.94
278.189	91.94
278.421	86.94
278.652	88.94
278.884	98.94
279.115	103.94
279.347	117.94
279.579	90.94
279.81	87.94
280.042	93.94
280.273	98.94
280.505	99.94
280.736	102.94
280.968	96.94
281.199	83.94
281.431	94.94
281.662	84.94
281.894	104.94
282.125	95.94
282.356	86.94
282.588	98.94
282.819	87.94
283.051	103.94
283.282	98.94
283.513	93.94
283.745	95.94
283.976	93.94
284.207	85.94
284.439	105.94
284.67	94.94
284.901	102.94
285.132	101.94
285.364	98.94
285.595	97.94
285.826	91.94
286.057	113.94
286.288	99.94
286.52	107.94
286.751	109.94
286.982	88.94
287.213	85.94
287.444	99.94
287.675	91.94
287.906	107.94
288.138	97.94
288.369	99.94
288.6	103.94
288.831	91.94
289.062	83.94
289.293	100.94
289.524	112.94
289.755	100.94
289.986	95.94
290.217	105.94
290.448	102.94
290.679	111.94
290.91	107.94
291.141	82.94
291.371	120.94
291.602	91.94
291.833	93.94
292.064	119.94
292.295	108.94
292.526	100.94
292.757	102.94
292.987	112.94
293.218	92.94
293.449	92.94
293.68	100.94
293.91	87.94
294.141	122.94
294.372	96.94
294.603	97.94
294.833	110.94
295.064	91.94
295.295	101.94
295.525	96.94
295.756	98.94
295.987	112.94
296.217	87.94
296.448	105.94
296.679	99.94
296.909	115.94
297.14	97.94
297.37	122.94
297.601	107.94
297.831	103.94
298.062	95.94
298.292	108.94
298.523	106.94
298.753	101.94
298.984	100.94
299.214	97.94
299.445	86.94
299.675	109.94
299.905	111.94
300.136	92.94
300.366	103.94
300.597	111.94
300.827	97.94
301.057	100.94
301.288	100.94
301.518	91.94
301.748	106.94
301.979	158.94
302.209	114.94
302.439	103.94
302.669	91.94
302.9	101.94
303.13	95.94
303.36	97.94
303.59	99.94
303.82	99.94
304.051	105.94
304.281	95.94
304.511	103.94
304.741	108.94
304.971	102.94
305.201	113.94
305.431	96.94
305.661	96.94
305.891	123.94
306.121	120.94
306.352	106.94
306.582	102.94
306.812	120.94
307.042	99.94
307.272	100.94
307.502	93.94
307.731	104.94
307.961	109.94
308.191	107.94
308.421	112.94
308.651	120.94
308.881	98.94
309.111	91.94
309.341	108.94
309.571	106.94
309.8	104.94
310.03	107.94
310.26	98.94
310.49	109.94
310.72	104.94
310.949	101.94
311.179	103.94
311.409	99.94
311.639	105.94
311.868	97.94
312.098	109.94
312.328	104.94
312.557	124.94
312.787	109.94
313.017	112.94
313.246	101.94
313.476	115.94
313.706	100.94
313.935	103.94
314.165	105.94
314.394	104.94
314.624	100.94
314.853	91.94
315.083	101.94
315.312	99.94
315.542	106.94
315.771	113.94
316.001	97.94
316.23	106.94
316.46	120.94
316.689	109.94
316.919	103.94
317.148	122.94
317.377	121.94
317.607	102.94
317.836	116.94
318.065	95.94
318.295	83.94
318.524	97.94
318.753	113.94
318.983	100.94
319.212	89.94
319.441	117.94
319.67	105.94
319.9	101.94
320.129	114.94
320.358	104.94
320.587	111.94
320.816	96.94
321.046	107.94
321.275	115.94
321.504	107.94
321.733	108.94
321.962	95.94
322.191	105.94
322.42	106.94
322.649	105.94
322.878	109.94
323.108	109.94
323.337	122.94
323.566	96.94
323.795	101.94
324.024	118.94
324.253	120.94
324.482	114.94
324.71	115.94
324.939	112.94
325.168	111.94
325.397	100.94
325.626	103.94
325.855	112.94
326.084	94.94
326.313	122.94
326.542	107.94
326.77	108.94
326.999	105.94
327.228	98.94
327.457	114.94
327.686	99.94
327.914	97.94
328.143	114.94
328.372	111.94
328.6	113.94
328.829	106.94
329.058	105.94
329.287	101.94
329.515	106.94
329.744	103.94
329.972	102.94
330.201	113.94
330.43	111.94
330.658	107.94
330.887	107.94
331.115	130.94
331.344	108.94
331.572	111.94
331.801	101.94
332.03	113.94
332.258	103.94
332.486	113.94
332.715	120.94
332.943	115.94
333.172	116.94
333.4	111.94
333.629	120.94
333.857	122.94
334.085	128.94
334.314	120.94
334.542	118.94
334.771	108.94
334.999	111.94
335.227	117.94
335.455	110.94
335.684	131.94
335.912	106.94
336.14	118.94
336.369	125.94
336.597	110.94
336.825	102.94
337.053	120.94
337.281	105.94
337.51	123.94
337.738	128.94
337.966	107.94
338.194	102.94
338.422	123.94
338.65	104.94
338.878	122.94
339.106	100.94
339.334	107.94
339.562	114.94
339.79	110.94
340.018	115.94
340.246	92.94
340.474	108.94
340.702	99.94
340.93	110.94
341.158	111.94
341.386	104.94
341.614	89.94
341.842	114.94
342.07	114.94
342.298	101.94
342.526	108.94
342.754	106.94
342.981	96.94
343.209	102.94
343.437	148.94
343.665	111.94
343.893	109.94
344.12	109.94
344.348	112.94
344.576	117.94
344.804	101.94
345.031	101.94
345.259	123.94
345.487	119.94
345.714	97.94
345.942	108.94
346.17	110.94
346.397	107.94
346.625	118.94
346.853	125.94
347.08	104.94
347.308	109.94
347.535	103.94
347.763	93.94
347.99	113.94
348.218	95.94
348.445	100.94
348.673	113.94
348.9	91.94
349.128	113.94
349.355	95.94
349.583	108.94
349.81	119.94
350.037	118.94
350.265	97.94
350.492	106.94
350.72	105.94
350.947	113.94
351.174	112.94
351.402	114.94
351.629	109.94
351.856	101.94
352.083	136.94
352.311	114.94
352.538	108.94
352.765	115.94
352.992	128.94
353.22	116.94
353.447	80.94
353.674	114.94
353.901	119.94
354.128	97.94
354.355	104.94
354.583	103.94
354.81	108.94
355.037	121.94
355.264	114.94
355.491	106.94
355.718	100.94
355.945	116.94
356.172	117.94
356.399	103.94
356.626	109.94
356.853	97.94
357.08	104.94
357.307	101.94
357.534	100.94
357.761	107.94
357.988	116.94
358.215	133.94
358.441	92.94
358.668	107.94
358.895	112.94
359.122	108.94
359.349	104.94
359.576	106.94
359.802	111.94
360.029	103.94
360.256	104.94
360.483	89.94
360.709	96.94
360.936	127.94
361.163	123.94
361.39	105.94
361.616	116.94
361.843	113.94
362.07	105.94
362.296	119.94
362.523	113.94
362.749	125.94
362.976	114.94
363.203	121.94
363.429	106.94
363.656	98.94
363.882	103.94
364.109	113.94
364.335	122.94
364.562	117.94
364.788	99.94
365.015	103.94
365.241	83.94
365.468	117.94
365.694	107.94
365.92	126.94
366.147	106.94
366.373	105.94
366.599	122.94
366.826	107.94
367.052	114.94
367.278	121.94
367.505	109.94
367.731	119.94
367.957	104.94
368.184	115.94
368.41	110.94
368.636	98.94
368.862	114.94
369.089	124.94
369.315	113.94
369.541	121.94
369.767	122.94
369.993	112.94
370.219	118.94
370.445	103.94
370.672	105.94
370.898	109.94
371.124	119.94
371.35	110.94
371.576	116.94
371.802	95.94
372.028	113.94
372.254	112.94
372.48	110.94
372.706	121.94
372.932	112.94
373.158	108.94
373.384	119.94
373.61	105.94
373.835	108.94
374.061	110.94
374.287	112.94
374.513	109.94
374.739	110.94
374.965	123.94
375.191	118.94
375.416	120.94
375.642	119.94
375.868	122.94
376.094	116.94
376.319	106.94
376.545	124.94
376.771	123.94
376.997	127.94
377.222	107.94
377.448	116.94
377.674	124.94
377.899	116.94
378.125	120.94
378.35	131.94
378.576	126.94
378.802	118.94
379.027	112.94
379.253	114.94
379.478	115.94
379.704	130.94
379.929	120.94
380.155	121.94
380.38	102.94
380.606	130.94
380.831	116.94
381.057	136.94
381.282	121.94
381.507	116.94
381.733	132.94
381.958	129.94
382.184	118.94
382.409	116.94
382.634	133.94
382.86	122.94
383.085	124.94
383.31	122.94
383.535	132.94
383.761	127.94
383.986	141.94
384.211	127.94
384.436	129.94
384.662	120.94
384.887	129.94
385.112	118.94
385.337	130.94
385.562	128.94
385.787	133.94
386.013	125.94
386.238	119.94
386.463	134.94
386.688	171.94
386.913	145.94
387.138	130.94
387.363	137.94
387.588	147.94
387.813	148.94
388.038	132.94
388.263	130.94
388.488	127.94
388.713	128.94
388.938	141.94
389.163	139.94
389.387	133.94
389.612	125.94
389.837	134.94
390.062	123.94
390.287	134.94
390.512	143.94
390.736	135.94
390.961	131.94
391.186	117.94
391.411	143.94
391.636	144.94
391.86	144.94
392.085	144.94
392.31	152.94
392.534	162.94
392.759	156.94
392.984	139.94
393.208	144.94
393.433	143.94
393.658	138.94
393.882	136.94
394.107	160.94
394.331	160.94
394.556	166.94
394.78	147.94
395.005	148.94
395.229	152.94
395.454	143.94
395.678	122.94
395.903	165.94
396.127	148.94
396.352	144.94
396.576	156.94
396.801	149.94
397.025	146.94
397.249	135.94
397.474	147.94
397.698	145.94
397.922	148.94
398.147	138.94
398.371	148.94
398.595	170.94
398.82	160.94
399.044	146.94
399.268	168.94
399.492	184.94
399.717	184.94
399.941	185.94
400.165	189.94
400.389	152.94
400.613	165.94
400.837	143.94
401.062	151.94
401.286	163.94
401.51	156.94
401.734	145.94
401.958	159.94
402.182	158.94
402.406	150.94
402.63	185.94
402.854	162.94
403.078	165.94
403.302	168.94
403.526	181.94
403.75	173.94
403.974	165.94
404.198	171.94
404.422	179.94
404.645	170.94
404.869	156.94
405.093	177.94
405.317	180.94
405.541	171.94
405.765	163.94
405.988	179.94
406.212	170.94
406.436	176.94
406.66	171.94
406.883	164.94
407.107	169.94
407.331	156.94
407.555	181.94
407.778	175.94
408.002	172.94
408.226	178.94
408.449	161.94
408.673	149.94
408.896	169.94
409.12	187.94
409.344	172.94
409.567	185.94
409.791	178.94
410.014	179.94
410.238	167.94
410.461	172.94
410.685	165.94
410.908	173.94
411.132	172.94
411.355	171.94
411.578	173.94
411.802	146.94
412.025	163.94
412.249	176.94
412.472	173.94
412.695	163.94
412.919	180.94
413.142	168.94
413.365	173.94
413.589	167.94
413.812	153.94
414.035	169.94
414.258	172.94
414.482	177.94
414.705	168.94
414.928	175.94
415.151	164.94
415.374	175.94
415.597	175.94
415.821	159.94
416.044	154.94
416.267	159.94
416.49	174.94
416.713	176.94
416.936	177.94
417.159	170.94
417.382	179.94
417.605	166.94
417.828	183.94
418.051	175.94
418.274	189.94
418.497	183.94
418.72	185.94
418.943	179.94
419.166	180.94
419.389	189.94
419.611	181.94
419.834	201.94
420.057	195.94
420.28	194.94
420.503	196.94
420.726	186.94
420.948	175.94
421.171	175.94
421.394	185.94
421.617	202.94
421.839	187.94
422.062	185.94
422.285	173.94
422.507	186.94
422.73	181.94
422.953	171.94
423.175	173.94
423.398	183.94
423.621	178.94
423.843	187.94
424.066	186.94
424.288	197.94
424.511	204.94
424.733	186.94
424.956	193.94
425.178	185.94
425.401	184.94
425.623	196.94
425.846	189.94
426.068	174.94
426.291	165.94
426.513	179.94
426.735	165.94
426.958	171.94
427.18	169.94
427.402	180.94
427.625	173.94
427.847	164.94
428.069	162.94
428.292	178.94
428.514	173.94
428.736	191.94
428.958	164.94
429.181	177.94
429.403	165.94
429.625	174.94
429.847	159.94
430.069	173.94
430.292	176.94
430.514	169.94
430.736	170.94
430.958	172.94
431.18	168.94
431.402	159.94
431.624	169.94
431.846	157.94
432.068	139.94
432.29	159.94
432.512	157.94
432.734	175.94
432.956	184.94
433.178	187.94
433.4	168.94
433.622	184.94
433.844	168.94
434.066	160.94
434.287	145.94
434.509	134.94
434.731	152.94
434.953	142.94
435.175	163.94
435.397	166.94
435.618	149.94
435.84	153.94
436.062	183.94
436.284	169.94
436.505	185.94
436.727	185.94
436.949	169.94
437.17	161.94
437.392	155.94
437.614	161.94
437.835	148.94
438.057	132.94
438.278	158.94
438.5	153.94
438.721	168.94
438.943	180.94
439.165	194.94
439.386	167.94
439.608	185.94
439.829	173.94
440.05	189.94
440.272	189.94
440.493	193.94
440.715	189.94
440.936	179.94
441.158	179.94
441.379	191.94
441.6	181.94
441.822	191.94
442.043	200.94
442.264	169.94
442.486	193.94
442.707	193.94
442.928	183.94
443.149	189.94
443.371	178.94
443.592	180.94
443.813	197.94
444.034	189.94
444.255	202.94
444.476	184.94
444.698	192.94
444.919	211.94
445.14	469.94
445.361	307.94
445.582	201.94
445.803	207.94
446.024	196.94
446.245	202.94
446.466	183.94
446.687	191.94
446.908	201.94
447.129	202.94
447.35	178.94
447.571	202.94
447.792	187.94
448.013	187.94
448.234	195.94
448.455	170.94
448.675	177.94
448.896	179.94
449.117	181.94
449.338	179.94
449.559	154.94
449.779	178.94
450	170.94
450.221	165.94
450.442	162.94
450.662	178.94
450.883	160.94
451.104	188.94
451.324	165.94
451.545	167.94
451.766	177.94
451.986	194.94
452.207	180.94
452.428	165.94
452.648	159.94
452.869	145.94
453.089	141.94
453.31	131.94
453.53	135.94
453.751	136.94
453.971	140.94
454.192	139.94
454.412	143.94
454.633	142.94
454.853	148.94
455.073	157.94
455.294	160.94
455.514	160.94
455.734	150.94
455.955	169.94
456.175	126.94
456.395	126.94
456.616	124.94
456.836	120.94
457.056	131.94
457.276	135.94
457.497	129.94
457.717	136.94
457.937	148.94
458.157	135.94
458.377	138.94
458.598	135.94
458.818	125.94
459.038	115.94
459.258	124.94
459.478	115.94
459.698	135.94
459.918	142.94
460.138	141.94
460.358	129.94
460.578	155.94
460.798	156.94
461.018	149.94
461.238	148.94
461.458	162.94
461.678	154.94
461.898	164.94
462.118	148.94
462.338	159.94
462.558	170.94
462.777	159.94
462.997	177.94
463.217	181.94
463.437	171.94
463.657	157.94
463.876	170.94
464.096	163.94
464.316	154.94
464.536	163.94
464.755	155.94
464.975	152.94
465.195	160.94
465.414	160.94
465.634	148.94
465.854	152.94
466.073	163.94
466.293	153.94
466.512	154.94
466.732	150.94
466.951	168.94
467.171	174.94
467.391	191.94
467.61	155.94
467.829	195.94
468.049	174.94
468.268	169.94
468.488	179.94
468.707	161.94
468.927	168.94
469.146	173.94
469.365	172.94
469.585	183.94
469.804	177.94
470.023	186.94
470.243	165.94
470.462	173.94
470.681	175.94
470.901	200.94
471.12	176.94
471.339	190.94
471.558	172.94
471.777	169.94
471.997	176.94
472.216	161.94
472.435	141.94
472.654	147.94
472.873	151.94
473.092	147.94
473.311	170.94
473.53	162.94
473.749	150.94
473.968	166.94
474.187	160.94
474.406	152.94
474.625	152.94
474.844	156.94
475.063	148.94
475.282	164.94
475.501	136.94
475.72	169.94
475.939	157.94
476.158	155.94
476.377	157.94
476.596	146.94
476.814	159.94
477.033	151.94
477.252	154.94
477.471	161.94
477.69	182.94
477.908	172.94
478.127	163.94
478.346	175.94
478.564	163.94
478.783	167.94
479.002	167.94
479.22	175.94
479.439	193.94
479.658	165.94
479.876	141.94
480.095	167.94
480.313	184.94
480.532	171.94
480.751	172.94
480.969	148.94
481.188	146.94
481.406	135.94
481.624	118.94
481.843	128.94
482.061	146.94
482.28	155.94
482.498	160.94
482.717	134.94
482.935	159.94
483.153	178.94
483.372	193.94
483.59	169.94
483.808	183.94
484.027	180.94
484.245	174.94
484.463	171.94
484.681	189.94
484.9	185.94
485.118	189.94
485.336	157.94
485.554	150.94
485.772	132.94
485.99	145.94
486.209	162.94
486.427	157.94
486.645	168.94
486.863	171.94
487.081	184.94
487.299	169.94
487.517	184.94
487.735	227.94
487.953	228.94
488.171	214.94
488.389	204.94
488.607	168.94
488.825	178.94
489.043	168.94
489.261	174.94
489.479	191.94
489.696	180.94
489.914	191.94
490.132	171.94
490.35	213.94
490.568	209.94
490.786	208.94
491.003	220.94
491.221	232.94
491.439	226.94
491.657	249.94
491.874	253.94
492.092	281.94
492.31	287.94
492.527	259.94
492.745	241.94
492.963	254.94
493.18	252.94
493.398	238.94
493.615	236.94
493.833	233.94
494.05	226.94
494.268	217.94
494.485	232.94
494.703	212.94
494.92	220.94
495.138	223.94
495.355	209.94
495.573	227.94
495.79	217.94
496.008	223.94
496.225	211.94
496.442	216.94
496.66	224.94
496.877	209.94
497.094	234.94
497.312	210.94
497.529	213.94
497.746	222.94
497.963	185.94
498.181	190.94
498.398	179.94
498.615	178.94
498.832	191.94
499.049	174.94
499.267	205.94
499.484	209.94
499.701	245.94
499.918	252.94
500.135	270.94
500.352	275.94
500.569	280.94
500.786	290.94
501.003	266.94
501.22	235.94
501.437	233.94
501.654	229.94
501.871	210.94
502.088	210.94
502.305	198.94
502.522	196.94
502.739	189.94
502.956	171.94
503.172	193.94
503.389	175.94
503.606	170.94
503.823	189.94
504.04	180.94
504.256	171.94
504.473	167.94
504.69	172.94
504.907	215.94
505.123	167.94
505.34	168.94
505.557	168.94
505.773	174.94
505.99	173.94
506.207	170.94
506.423	163.94
506.64	144.94
506.856	162.94
