Data from SampD_HRD10591_00032.txt Node
Date: Mon Jan 19 11:47:49 EST 2026
User: Yrep
Spectrometer: HR+D1059
Trigger mode: 0
Integration Time (sec): 3.443000E-1
Scans to average: 1
Electric dark correction enabled: true
Nonlinearity correction enabled: false
Boxcar width: 0
XAxis mode: Wavelengths
Number of Pixels in Spectrum: 2048
>>>>>Begin Spectral Data<<<<<
223.165	-14.31
223.4	-14.31
223.635	-14.31
223.869	-27.31
224.104	-29.31
224.338	-10.31
224.573	-13.31
224.808	-3.31
225.042	-4.31
225.277	-2.31
225.511	-17.31
225.746	15.69
225.98	4.69
226.215	9.69
226.449	8.69
226.683	7.69
226.918	32.69
227.152	42.69
227.387	31.69
227.621	23.69
227.856	49.69
228.09	37.69
228.324	42.69
228.559	74.69
228.793	52.69
229.027	65.69
229.262	79.69
229.496	68.69
229.73	81.69
229.964	75.69
230.199	76.69
230.433	69.69
230.667	95.69
230.901	71.69
231.136	83.69
231.37	80.69
231.604	73.69
231.838	85.69
232.072	80.69
232.306	95.69
232.541	93.69
232.775	85.69
233.009	84.69
233.243	73.69
233.477	83.69
233.711	83.69
233.945	83.69
234.179	69.69
234.413	99.69
234.647	84.69
234.881	81.69
235.115	64.69
235.349	72.69
235.583	72.69
235.817	79.69
236.051	73.69
236.285	83.69
236.519	87.69
236.753	73.69
236.987	78.69
237.221	82.69
237.455	76.69
237.689	87.69
237.922	79.69
238.156	67.69
238.39	65.69
238.624	83.69
238.858	83.69
239.091	81.69
239.325	87.69
239.559	91.69
239.793	84.69
240.027	87.69
240.26	96.69
240.494	87.69
240.728	87.69
240.961	78.69
241.195	73.69
241.429	77.69
241.662	67.69
241.896	84.69
242.13	73.69
242.363	86.69
242.597	87.69
242.83	86.69
243.064	78.69
243.298	99.69
243.531	85.69
243.765	92.69
243.998	73.69
244.232	87.69
244.465	91.69
244.699	85.69
244.932	79.69
245.166	69.69
245.399	91.69
245.633	88.69
245.866	81.69
246.099	83.69
246.333	92.69
246.566	88.69
246.8	75.69
247.033	80.69
247.266	85.69
247.5	89.69
247.733	88.69
247.966	79.69
248.2	91.69
248.433	82.69
248.666	83.69
248.899	94.69
249.133	93.69
249.366	108.69
249.599	95.69
249.832	102.69
250.066	104.69
250.299	101.69
250.532	72.69
250.765	78.69
250.998	97.69
251.231	90.69
251.465	86.69
251.698	91.69
251.931	97.69
252.164	84.69
252.397	95.69
252.63	92.69
252.863	97.69
253.096	85.69
253.329	99.69
253.562	77.69
253.795	100.69
254.028	99.69
254.261	90.69
254.494	86.69
254.727	89.69
254.96	82.69
255.193	86.69
255.426	81.69
255.659	93.69
255.892	112.69
256.124	91.69
256.357	94.69
256.59	111.69
256.823	95.69
257.056	87.69
257.289	105.69
257.521	97.69
257.754	72.69
257.987	95.69
258.22	99.69
258.452	92.69
258.685	91.69
258.918	91.69
259.151	82.69
259.383	98.69
259.616	99.69
259.849	84.69
260.081	102.69
260.314	108.69
260.547	86.69
260.779	96.69
261.012	109.69
261.244	94.69
261.477	114.69
261.71	93.69
261.942	75.69
262.175	84.69
262.407	96.69
262.64	101.69
262.872	95.69
263.105	110.69
263.337	111.69
263.57	107.69
263.802	90.69
264.035	101.69
264.267	94.69
264.499	103.69
264.732	96.69
264.964	94.69
265.197	115.69
265.429	86.69
265.661	87.69
265.894	89.69
266.126	96.69
266.358	116.69
266.591	109.69
266.823	93.69
267.055	98.69
267.287	107.69
267.52	99.69
267.752	99.69
267.984	103.69
268.216	95.69
268.448	109.69
268.681	127.69
268.913	101.69
269.145	100.69
269.377	110.69
269.609	95.69
269.841	99.69
270.073	110.69
270.306	104.69
270.538	100.69
270.77	95.69
271.002	113.69
271.234	110.69
271.466	116.69
271.698	95.69
271.93	115.69
272.162	108.69
272.394	91.69
272.626	111.69
272.858	118.69
273.09	110.69
273.322	101.69
273.553	97.69
273.785	103.69
274.017	99.69
274.249	82.69
274.481	106.69
274.713	102.69
274.945	107.69
275.176	86.69
275.408	97.69
275.64	99.69
275.872	100.69
276.104	104.69
276.335	104.69
276.567	112.69
276.799	109.69
277.031	103.69
277.262	105.69
277.494	95.69
277.726	104.69
277.957	108.69
278.189	110.69
278.421	112.69
278.652	95.69
278.884	110.69
279.115	116.69
279.347	93.69
279.579	90.69
279.81	118.69
280.042	115.69
280.273	105.69
280.505	102.69
280.736	119.69
280.968	113.69
281.199	112.69
281.431	109.69
281.662	115.69
281.894	112.69
282.125	95.69
282.356	109.69
282.588	111.69
282.819	102.69
283.051	111.69
283.282	112.69
283.513	130.69
283.745	112.69
283.976	107.69
284.207	104.69
284.439	107.69
284.67	126.69
284.901	104.69
285.132	127.69
285.364	104.69
285.595	117.69
285.826	115.69
286.057	120.69
286.288	101.69
286.52	107.69
286.751	107.69
286.982	106.69
287.213	104.69
287.444	118.69
287.675	116.69
287.906	123.69
288.138	126.69
288.369	121.69
288.6	105.69
288.831	106.69
289.062	133.69
289.293	128.69
289.524	115.69
289.755	95.69
289.986	102.69
290.217	125.69
290.448	124.69
290.679	113.69
290.91	124.69
291.141	133.69
291.371	116.69
291.602	102.69
291.833	100.69
292.064	108.69
292.295	114.69
292.526	98.69
292.757	109.69
292.987	111.69
293.218	112.69
293.449	121.69
293.68	112.69
293.91	111.69
294.141	112.69
294.372	113.69
294.603	107.69
294.833	116.69
295.064	115.69
295.295	121.69
295.525	117.69
295.756	123.69
295.987	110.69
296.217	107.69
296.448	108.69
296.679	126.69
296.909	126.69
297.14	131.69
297.37	117.69
297.601	119.69
297.831	121.69
298.062	118.69
298.292	113.69
298.523	120.69
298.753	110.69
298.984	116.69
299.214	105.69
299.445	116.69
299.675	121.69
299.905	127.69
300.136	117.69
300.366	115.69
300.597	127.69
300.827	143.69
301.057	120.69
301.288	119.69
301.518	124.69
301.748	111.69
301.979	163.69
302.209	127.69
302.439	122.69
302.669	130.69
302.9	133.69
303.13	129.69
303.36	110.69
303.59	127.69
303.82	129.69
304.051	127.69
304.281	140.69
304.511	122.69
304.741	117.69
304.971	108.69
305.201	123.69
305.431	123.69
305.661	126.69
305.891	103.69
306.121	119.69
306.352	121.69
306.582	117.69
306.812	120.69
307.042	110.69
307.272	116.69
307.502	121.69
307.731	126.69
307.961	134.69
308.191	122.69
308.421	132.69
308.651	111.69
308.881	123.69
309.111	107.69
309.341	116.69
309.571	119.69
309.8	117.69
310.03	116.69
310.26	131.69
310.49	113.69
310.72	106.69
310.949	115.69
311.179	122.69
311.409	120.69
311.639	135.69
311.868	133.69
312.098	128.69
312.328	117.69
312.557	120.69
312.787	116.69
313.017	114.69
313.246	123.69
313.476	128.69
313.706	122.69
313.935	128.69
314.165	127.69
314.394	130.69
314.624	113.69
314.853	135.69
315.083	114.69
315.312	115.69
315.542	116.69
315.771	119.69
316.001	123.69
316.23	111.69
316.46	120.69
316.689	111.69
316.919	139.69
317.148	136.69
317.377	127.69
317.607	142.69
317.836	128.69
318.065	130.69
318.295	119.69
318.524	122.69
318.753	120.69
318.983	115.69
319.212	113.69
319.441	126.69
319.67	135.69
319.9	109.69
320.129	120.69
320.358	129.69
320.587	104.69
320.816	123.69
321.046	126.69
321.275	134.69
321.504	110.69
321.733	125.69
321.962	125.69
322.191	119.69
322.42	117.69
322.649	118.69
322.878	129.69
323.108	112.69
323.337	125.69
323.566	118.69
323.795	121.69
324.024	130.69
324.253	128.69
324.482	134.69
324.71	134.69
324.939	116.69
325.168	131.69
325.397	131.69
325.626	124.69
325.855	119.69
326.084	116.69
326.313	119.69
326.542	127.69
326.77	139.69
326.999	132.69
327.228	132.69
327.457	116.69
327.686	129.69
327.914	131.69
328.143	125.69
328.372	129.69
328.6	144.69
328.829	118.69
329.058	139.69
329.287	131.69
329.515	125.69
329.744	134.69
329.972	117.69
330.201	142.69
330.43	133.69
330.658	125.69
330.887	140.69
331.115	139.69
331.344	116.69
331.572	129.69
331.801	137.69
332.03	147.69
332.258	151.69
332.486	151.69
332.715	157.69
332.943	153.69
333.172	132.69
333.4	158.69
333.629	139.69
333.857	146.69
334.085	145.69
334.314	149.69
334.542	138.69
334.771	144.69
334.999	144.69
335.227	141.69
335.455	142.69
335.684	132.69
335.912	149.69
336.14	153.69
336.369	142.69
336.597	154.69
336.825	134.69
337.053	140.69
337.281	155.69
337.51	135.69
337.738	151.69
337.966	128.69
338.194	147.69
338.422	139.69
338.65	136.69
338.878	151.69
339.106	155.69
339.334	142.69
339.562	132.69
339.79	136.69
340.018	120.69
340.246	133.69
340.474	119.69
340.702	128.69
340.93	142.69
341.158	139.69
341.386	135.69
341.614	132.69
341.842	129.69
342.07	142.69
342.298	129.69
342.526	139.69
342.754	122.69
342.981	142.69
343.209	129.69
343.437	157.69
343.665	141.69
343.893	141.69
344.12	160.69
344.348	170.69
344.576	145.69
344.804	143.69
345.031	127.69
345.259	142.69
345.487	127.69
345.714	136.69
345.942	124.69
346.17	136.69
346.397	130.69
346.625	120.69
346.853	128.69
347.08	108.69
347.308	144.69
347.535	129.69
347.763	135.69
347.99	141.69
348.218	136.69
348.445	129.69
348.673	123.69
348.9	131.69
349.128	133.69
349.355	131.69
349.583	120.69
349.81	118.69
350.037	111.69
350.265	131.69
350.492	124.69
350.72	112.69
350.947	134.69
351.174	121.69
351.402	113.69
351.629	129.69
351.856	144.69
352.083	127.69
352.311	136.69
352.538	126.69
352.765	119.69
352.992	147.69
353.22	135.69
353.447	123.69
353.674	133.69
353.901	134.69
354.128	139.69
354.355	117.69
354.583	123.69
354.81	129.69
355.037	138.69
355.264	134.69
355.491	134.69
355.718	143.69
355.945	145.69
356.172	117.69
356.399	116.69
356.626	120.69
356.853	123.69
357.08	137.69
357.307	133.69
357.534	129.69
357.761	134.69
357.988	144.69
358.215	122.69
358.441	127.69
358.668	125.69
358.895	121.69
359.122	128.69
359.349	125.69
359.576	116.69
359.802	120.69
360.029	125.69
360.256	125.69
360.483	119.69
360.709	129.69
360.936	141.69
361.163	132.69
361.39	117.69
361.616	126.69
361.843	107.69
362.07	130.69
362.296	129.69
362.523	116.69
362.749	128.69
362.976	130.69
363.203	137.69
363.429	121.69
363.656	132.69
363.882	106.69
364.109	140.69
364.335	133.69
364.562	109.69
364.788	120.69
365.015	134.69
365.241	115.69
365.468	158.69
365.694	132.69
365.92	143.69
366.147	131.69
366.373	112.69
366.599	133.69
366.826	134.69
367.052	132.69
367.278	133.69
367.505	127.69
367.731	143.69
367.957	127.69
368.184	131.69
368.41	108.69
368.636	147.69
368.862	141.69
369.089	145.69
369.315	137.69
369.541	150.69
369.767	143.69
369.993	130.69
370.219	127.69
370.445	147.69
370.672	162.69
370.898	137.69
371.124	135.69
371.35	158.69
371.576	129.69
371.802	137.69
372.028	139.69
372.254	144.69
372.48	163.69
372.706	150.69
372.932	142.69
373.158	144.69
373.384	144.69
373.61	142.69
373.835	159.69
374.061	146.69
374.287	136.69
374.513	141.69
374.739	151.69
374.965	159.69
375.191	176.69
375.416	159.69
375.642	144.69
375.868	167.69
376.094	151.69
376.319	149.69
376.545	141.69
376.771	157.69
376.997	146.69
377.222	175.69
377.448	153.69
377.674	168.69
377.899	157.69
378.125	153.69
378.35	167.69
378.576	145.69
378.802	137.69
379.027	158.69
379.253	173.69
379.478	144.69
379.704	152.69
379.929	159.69
380.155	157.69
380.38	181.69
380.606	161.69
380.831	171.69
381.057	175.69
381.282	166.69
381.507	160.69
381.733	159.69
381.958	160.69
382.184	169.69
382.409	179.69
382.634	183.69
382.86	155.69
383.085	167.69
383.31	184.69
383.535	167.69
383.761	167.69
383.986	170.69
384.211	172.69
384.436	180.69
384.662	182.69
384.887	179.69
385.112	173.69
385.337	185.69
385.562	182.69
385.787	181.69
386.013	185.69
386.238	194.69
386.463	193.69
386.688	209.69
386.913	194.69
387.138	192.69
387.363	183.69
387.588	187.69
387.813	190.69
388.038	187.69
388.263	191.69
388.488	183.69
388.713	200.69
388.938	189.69
389.163	187.69
389.387	192.69
389.612	180.69
389.837	205.69
390.062	203.69
390.287	194.69
390.512	195.69
390.736	174.69
390.961	221.69
391.186	222.69
391.411	206.69
391.636	205.69
391.86	216.69
392.085	214.69
392.31	206.69
392.534	213.69
392.759	196.69
392.984	207.69
393.208	211.69
393.433	222.69
393.658	213.69
393.882	203.69
394.107	206.69
394.331	199.69
394.556	230.69
394.78	205.69
395.005	225.69
395.229	210.69
395.454	207.69
395.678	213.69
395.903	217.69
396.127	238.69
396.352	216.69
396.576	209.69
396.801	203.69
397.025	204.69
397.249	219.69
397.474	221.69
397.698	229.69
397.922	211.69
398.147	227.69
398.371	215.69
398.595	219.69
398.82	238.69
399.044	241.69
399.268	244.69
399.492	277.69
399.717	303.69
399.941	273.69
400.165	256.69
400.389	247.69
400.613	259.69
400.837	243.69
401.062	254.69
401.286	244.69
401.51	227.69
401.734	246.69
401.958	246.69
402.182	238.69
402.406	233.69
402.63	256.69
402.854	246.69
403.078	268.69
403.302	256.69
403.526	249.69
403.75	256.69
403.974	268.69
404.198	244.69
404.422	261.69
404.645	258.69
404.869	258.69
405.093	243.69
405.317	258.69
405.541	256.69
405.765	253.69
405.988	257.69
406.212	267.69
406.436	269.69
406.66	271.69
406.883	244.69
407.107	273.69
407.331	276.69
407.555	271.69
407.778	277.69
408.002	278.69
408.226	287.69
408.449	257.69
408.673	260.69
408.896	284.69
409.12	268.69
409.344	252.69
409.567	247.69
409.791	255.69
410.014	270.69
410.238	255.69
410.461	262.69
410.685	271.69
410.908	255.69
411.132	261.69
411.355	252.69
411.578	287.69
411.802	269.69
412.025	243.69
412.249	255.69
412.472	242.69
412.695	257.69
412.919	254.69
413.142	256.69
413.365	281.69
413.589	256.69
413.812	258.69
414.035	278.69
414.258	252.69
414.482	264.69
414.705	263.69
414.928	268.69
415.151	270.69
415.374	252.69
415.597	256.69
415.821	270.69
416.044	258.69
416.267	259.69
416.49	274.69
416.713	256.69
416.936	248.69
417.159	253.69
417.382	263.69
417.605	279.69
417.828	253.69
418.051	269.69
418.274	274.69
418.497	267.69
418.72	278.69
418.943	288.69
419.166	288.69
419.389	292.69
419.611	274.69
419.834	276.69
420.057	281.69
420.28	269.69
420.503	266.69
420.726	290.69
420.948	278.69
421.171	290.69
421.394	269.69
421.617	303.69
421.839	291.69
422.062	294.69
422.285	269.69
422.507	271.69
422.73	279.69
422.953	253.69
423.175	277.69
423.398	271.69
423.621	274.69
423.843	303.69
424.066	302.69
424.288	296.69
424.511	297.69
424.733	303.69
424.956	304.69
425.178	292.69
425.401	269.69
425.623	295.69
425.846	273.69
426.068	262.69
426.291	249.69
426.513	256.69
426.735	258.69
426.958	263.69
427.18	266.69
427.402	272.69
427.625	253.69
427.847	275.69
428.069	253.69
428.292	277.69
428.514	246.69
428.736	246.69
428.958	257.69
429.181	256.69
429.403	260.69
429.625	249.69
429.847	247.69
430.069	255.69
430.292	247.69
430.514	270.69
430.736	265.69
430.958	239.69
431.18	243.69
431.402	251.69
431.624	221.69
431.846	198.69
432.068	197.69
432.29	203.69
432.512	230.69
432.734	252.69
432.956	249.69
433.178	278.69
433.4	281.69
433.622	262.69
433.844	262.69
434.066	229.69
434.287	212.69
434.509	195.69
434.731	207.69
434.953	231.69
435.175	258.69
435.397	246.69
435.618	235.69
435.84	213.69
436.062	228.69
436.284	247.69
436.505	253.69
436.727	243.69
436.949	255.69
437.17	255.69
437.392	256.69
437.614	239.69
437.835	220.69
438.057	214.69
438.278	217.69
438.5	257.69
438.721	253.69
438.943	277.69
439.165	263.69
439.386	284.69
439.608	289.69
439.829	284.69
440.05	312.69
440.272	297.69
440.493	284.69
440.715	290.69
440.936	298.69
441.158	303.69
441.379	304.69
441.6	306.69
441.822	295.69
442.043	283.69
442.264	295.69
442.486	285.69
442.707	278.69
442.928	287.69
443.149	300.69
443.371	304.69
443.592	286.69
443.813	283.69
444.034	286.69
444.255	294.69
444.476	301.69
444.698	313.69
444.919	308.69
445.14	565.69
445.361	430.69
445.582	310.69
445.803	305.69
446.024	282.69
446.245	282.69
446.466	309.69
446.687	293.69
446.908	306.69
447.129	309.69
447.35	287.69
447.571	277.69
447.792	269.69
448.013	273.69
448.234	273.69
448.455	273.69
448.675	272.69
448.896	268.69
449.117	271.69
449.338	256.69
449.559	264.69
449.779	265.69
450	285.69
450.221	274.69
450.442	271.69
450.662	270.69
450.883	257.69
451.104	268.69
451.324	263.69
451.545	249.69
451.766	245.69
451.986	255.69
452.207	256.69
452.428	237.69
452.648	239.69
452.869	214.69
453.089	209.69
453.31	200.69
453.53	202.69
453.751	193.69
453.971	177.69
454.192	193.69
454.412	204.69
454.633	232.69
454.853	232.69
455.073	216.69
455.294	224.69
455.514	235.69
455.734	225.69
455.955	214.69
456.175	207.69
456.395	191.69
456.616	200.69
456.836	177.69
457.056	187.69
457.276	210.69
457.497	201.69
457.717	206.69
457.937	182.69
458.157	206.69
458.377	187.69
458.598	166.69
458.818	165.69
459.038	155.69
459.258	156.69
459.478	169.69
459.698	193.69
459.918	192.69
460.138	214.69
460.358	232.69
460.578	237.69
460.798	236.69
461.018	237.69
461.238	237.69
461.458	242.69
461.678	236.69
461.898	242.69
462.118	248.69
462.338	223.69
462.558	260.69
462.777	237.69
462.997	264.69
463.217	260.69
463.437	243.69
463.657	265.69
463.876	239.69
464.096	236.69
464.316	219.69
464.536	255.69
464.755	258.69
464.975	243.69
465.195	244.69
465.414	232.69
465.634	211.69
465.854	224.69
466.073	234.69
466.293	230.69
466.512	244.69
466.732	260.69
466.951	275.69
467.171	246.69
467.391	227.69
467.61	251.69
467.829	262.69
468.049	261.69
468.268	268.69
468.488	250.69
468.707	241.69
468.927	254.69
469.146	240.69
469.365	274.69
469.585	272.69
469.804	271.69
470.023	271.69
470.243	286.69
470.462	277.69
470.681	282.69
470.901	279.69
471.12	289.69
471.339	279.69
471.558	271.69
471.777	256.69
471.997	240.69
472.216	236.69
472.435	213.69
472.654	201.69
472.873	209.69
473.092	208.69
473.311	221.69
473.53	222.69
473.749	223.69
473.968	235.69
474.187	237.69
474.406	213.69
474.625	238.69
474.844	259.69
475.063	236.69
475.282	233.69
475.501	219.69
475.72	231.69
475.939	231.69
476.158	236.69
476.377	227.69
476.596	218.69
476.814	220.69
477.033	196.69
477.252	213.69
477.471	233.69
477.69	263.69
477.908	270.69
478.127	290.69
478.346	279.69
478.564	263.69
478.783	275.69
479.002	281.69
479.22	277.69
479.439	261.69
479.658	237.69
479.876	211.69
480.095	226.69
480.313	244.69
480.532	247.69
480.751	218.69
480.969	203.69
481.188	180.69
481.406	184.69
481.624	182.69
481.843	163.69
482.061	197.69
482.28	195.69
482.498	223.69
482.717	214.69
482.935	235.69
483.153	262.69
483.372	305.69
483.59	270.69
483.808	253.69
484.027	238.69
484.245	252.69
484.463	252.69
484.681	284.69
484.9	267.69
485.118	263.69
485.336	228.69
485.554	215.69
485.772	208.69
485.99	187.69
486.209	220.69
486.427	228.69
486.645	244.69
486.863	274.69
487.081	275.69
487.299	261.69
487.517	281.69
487.735	324.69
487.953	366.69
488.171	359.69
488.389	322.69
488.607	281.69
488.825	277.69
489.043	253.69
489.261	251.69
489.479	262.69
489.696	283.69
489.914	275.69
490.132	279.69
490.35	302.69
490.568	328.69
490.786	361.69
491.003	346.69
491.221	375.69
491.439	391.69
491.657	392.69
491.874	415.69
492.092	451.69
492.31	464.69
492.527	452.69
492.745	431.69
492.963	392.69
493.18	376.69
493.398	379.69
493.615	358.69
493.833	362.69
494.05	363.69
494.268	365.69
494.485	372.69
494.703	345.69
494.92	374.69
495.138	342.69
495.355	353.69
495.573	355.69
495.79	361.69
496.008	336.69
496.225	349.69
496.442	341.69
496.66	338.69
496.877	326.69
497.094	362.69
497.312	325.69
497.529	332.69
497.746	317.69
497.963	281.69
498.181	289.69
498.398	280.69
498.615	285.69
498.832	282.69
499.049	297.69
499.267	335.69
499.484	327.69
499.701	380.69
499.918	422.69
500.135	463.69
500.352	508.69
500.569	508.69
500.786	486.69
501.003	446.69
501.22	443.69
501.437	413.69
501.654	374.69
501.871	357.69
502.088	322.69
502.305	303.69
502.522	307.69
502.739	308.69
502.956	281.69
503.172	286.69
503.389	255.69
503.606	267.69
503.823	273.69
504.04	253.69
504.256	264.69
504.473	278.69
504.69	260.69
504.907	279.69
