Data from SampD_HRD10591_00046.txt Node
Date: Mon Jan 19 11:47:53 EST 2026
User: Yrep
Spectrometer: HR+D1059
Trigger mode: 0
Integration Time (sec): 3.443000E-1
Scans to average: 1
Electric dark correction enabled: true
Nonlinearity correction enabled: false
Boxcar width: 0
XAxis mode: Wavelengths
Number of Pixels in Spectrum: 2048
>>>>>Begin Spectral Data<<<<<
223.165	-18.06
223.4	-18.06
223.635	-18.06
223.869	-14.06
224.104	-28.06
224.338	-11.06
224.573	-24.06
224.808	-13.06
225.042	-4.06
225.277	3.94
225.511	-6.06
225.746	9.94
225.98	-3.06
226.215	18.94
226.449	9.94
226.683	21.94
226.918	20.94
227.152	35.94
227.387	31.94
227.621	44.94
227.856	49.94
228.09	35.94
228.324	63.94
228.559	57.94
228.793	73.94
229.027	83.94
229.262	67.94
229.496	79.94
229.73	86.94
229.964	93.94
230.199	89.94
230.433	89.94
230.667	92.94
230.901	86.94
231.136	64.94
231.37	90.94
231.604	76.94
231.838	100.94
232.072	89.94
232.306	89.94
232.541	92.94
232.775	83.94
233.009	87.94
233.243	83.94
233.477	91.94
233.711	96.94
233.945	87.94
234.179	76.94
234.413	89.94
234.647	92.94
234.881	99.94
235.115	79.94
235.349	74.94
235.583	83.94
235.817	77.94
236.051	82.94
236.285	79.94
236.519	73.94
236.753	79.94
236.987	73.94
237.221	87.94
237.455	72.94
237.689	77.94
237.922	90.94
238.156	83.94
238.39	89.94
238.624	66.94
238.858	75.94
239.091	97.94
239.325	68.94
239.559	88.94
239.793	69.94
240.027	88.94
240.26	81.94
240.494	89.94
240.728	76.94
240.961	78.94
241.195	74.94
241.429	91.94
241.662	92.94
241.896	82.94
242.13	83.94
242.363	86.94
242.597	86.94
242.83	85.94
243.064	92.94
243.298	83.94
243.531	83.94
243.765	79.94
243.998	84.94
244.232	85.94
244.465	95.94
244.699	82.94
244.932	76.94
245.166	92.94
245.399	85.94
245.633	92.94
245.866	88.94
246.099	83.94
246.333	82.94
246.566	89.94
246.8	82.94
247.033	101.94
247.266	87.94
247.5	86.94
247.733	84.94
247.966	83.94
248.2	87.94
248.433	98.94
248.666	92.94
248.899	92.94
249.133	82.94
249.366	91.94
249.599	93.94
249.832	91.94
250.066	99.94
250.299	92.94
250.532	89.94
250.765	89.94
250.998	79.94
251.231	87.94
251.465	106.94
251.698	97.94
251.931	83.94
252.164	76.94
252.397	80.94
252.63	85.94
252.863	95.94
253.096	91.94
253.329	87.94
253.562	90.94
253.795	84.94
254.028	87.94
254.261	86.94
254.494	99.94
254.727	100.94
254.96	97.94
255.193	88.94
255.426	82.94
255.659	87.94
255.892	106.94
256.124	89.94
256.357	96.94
256.59	98.94
256.823	107.94
257.056	86.94
257.289	97.94
257.521	95.94
257.754	86.94
257.987	100.94
258.22	98.94
258.452	100.94
258.685	100.94
258.918	109.94
259.151	100.94
259.383	110.94
259.616	111.94
259.849	109.94
260.081	99.94
260.314	83.94
260.547	91.94
260.779	88.94
261.012	91.94
261.244	85.94
261.477	109.94
261.71	101.94
261.942	93.94
262.175	93.94
262.407	99.94
262.64	89.94
262.872	109.94
263.105	99.94
263.337	106.94
263.57	101.94
263.802	98.94
264.035	93.94
264.267	95.94
264.499	102.94
264.732	104.94
264.964	105.94
265.197	96.94
265.429	87.94
265.661	101.94
265.894	115.94
266.126	101.94
266.358	97.94
266.591	82.94
266.823	92.94
267.055	103.94
267.287	107.94
267.52	86.94
267.752	130.94
267.984	88.94
268.216	99.94
268.448	129.94
268.681	101.94
268.913	87.94
269.145	105.94
269.377	101.94
269.609	109.94
269.841	104.94
270.073	100.94
270.306	97.94
270.538	108.94
270.77	97.94
271.002	85.94
271.234	116.94
271.466	111.94
271.698	100.94
271.93	96.94
272.162	104.94
272.394	116.94
272.626	105.94
272.858	98.94
273.09	108.94
273.322	107.94
273.553	93.94
273.785	117.94
274.017	104.94
274.249	114.94
274.481	93.94
274.713	97.94
274.945	122.94
275.176	115.94
275.408	110.94
275.64	106.94
275.872	107.94
276.104	96.94
276.335	109.94
276.567	103.94
276.799	117.94
277.031	109.94
277.262	108.94
277.494	106.94
277.726	97.94
277.957	113.94
278.189	104.94
278.421	115.94
278.652	100.94
278.884	115.94
279.115	113.94
279.347	101.94
279.579	99.94
279.81	106.94
280.042	108.94
280.273	112.94
280.505	117.94
280.736	120.94
280.968	118.94
281.199	107.94
281.431	99.94
281.662	113.94
281.894	105.94
282.125	107.94
282.356	113.94
282.588	114.94
282.819	90.94
283.051	112.94
283.282	112.94
283.513	127.94
283.745	115.94
283.976	127.94
284.207	106.94
284.439	117.94
284.67	126.94
284.901	125.94
285.132	113.94
285.364	122.94
285.595	115.94
285.826	111.94
286.057	115.94
286.288	117.94
286.52	128.94
286.751	121.94
286.982	118.94
287.213	92.94
287.444	124.94
287.675	122.94
287.906	107.94
288.138	104.94
288.369	120.94
288.6	123.94
288.831	112.94
289.062	126.94
289.293	117.94
289.524	118.94
289.755	129.94
289.986	117.94
290.217	123.94
290.448	112.94
290.679	132.94
290.91	123.94
291.141	111.94
291.371	111.94
291.602	123.94
291.833	106.94
292.064	115.94
292.295	127.94
292.526	128.94
292.757	125.94
292.987	128.94
293.218	125.94
293.449	118.94
293.68	132.94
293.91	121.94
294.141	130.94
294.372	121.94
294.603	122.94
294.833	114.94
295.064	107.94
295.295	120.94
295.525	113.94
295.756	113.94
295.987	109.94
296.217	120.94
296.448	117.94
296.679	127.94
296.909	122.94
297.14	119.94
297.37	111.94
297.601	112.94
297.831	116.94
298.062	120.94
298.292	141.94
298.523	117.94
298.753	121.94
298.984	115.94
299.214	131.94
299.445	120.94
299.675	106.94
299.905	127.94
300.136	124.94
300.366	117.94
300.597	124.94
300.827	123.94
301.057	116.94
301.288	123.94
301.518	113.94
301.748	120.94
301.979	150.94
302.209	137.94
302.439	116.94
302.669	120.94
302.9	122.94
303.13	115.94
303.36	129.94
303.59	117.94
303.82	133.94
304.051	140.94
304.281	124.94
304.511	148.94
304.741	124.94
304.971	131.94
305.201	131.94
305.431	111.94
305.661	126.94
305.891	122.94
306.121	122.94
306.352	120.94
306.582	139.94
306.812	123.94
307.042	122.94
307.272	139.94
307.502	116.94
307.731	126.94
307.961	121.94
308.191	111.94
308.421	117.94
308.651	128.94
308.881	121.94
309.111	106.94
309.341	116.94
309.571	123.94
309.8	123.94
310.03	104.94
310.26	126.94
310.49	132.94
310.72	133.94
310.949	135.94
311.179	136.94
311.409	123.94
311.639	111.94
311.868	122.94
312.098	123.94
312.328	132.94
312.557	116.94
312.787	136.94
313.017	136.94
313.246	120.94
313.476	109.94
313.706	119.94
313.935	126.94
314.165	130.94
314.394	122.94
314.624	127.94
314.853	137.94
315.083	128.94
315.312	113.94
315.542	121.94
315.771	120.94
316.001	128.94
316.23	118.94
316.46	122.94
316.689	122.94
316.919	123.94
317.148	127.94
317.377	144.94
317.607	119.94
317.836	121.94
318.065	132.94
318.295	125.94
318.524	135.94
318.753	133.94
318.983	124.94
319.212	144.94
319.441	114.94
319.67	120.94
319.9	124.94
320.129	125.94
320.358	120.94
320.587	129.94
320.816	143.94
321.046	131.94
321.275	135.94
321.504	125.94
321.733	124.94
321.962	120.94
322.191	128.94
322.42	126.94
322.649	133.94
322.878	137.94
323.108	118.94
323.337	132.94
323.566	146.94
323.795	136.94
324.024	132.94
324.253	128.94
324.482	143.94
324.71	139.94
324.939	141.94
325.168	133.94
325.397	123.94
325.626	144.94
325.855	138.94
326.084	141.94
326.313	121.94
326.542	126.94
326.77	132.94
326.999	146.94
327.228	123.94
327.457	109.94
327.686	132.94
327.914	134.94
328.143	138.94
328.372	120.94
328.6	144.94
328.829	133.94
329.058	141.94
329.287	146.94
329.515	127.94
329.744	137.94
329.972	134.94
330.201	124.94
330.43	137.94
330.658	123.94
330.887	128.94
331.115	138.94
331.344	132.94
331.572	145.94
331.801	141.94
332.03	147.94
332.258	135.94
332.486	138.94
332.715	143.94
332.943	140.94
333.172	145.94
333.4	163.94
333.629	156.94
333.857	166.94
334.085	143.94
334.314	145.94
334.542	155.94
334.771	149.94
334.999	145.94
335.227	136.94
335.455	138.94
335.684	139.94
335.912	152.94
336.14	146.94
336.369	143.94
336.597	143.94
336.825	150.94
337.053	145.94
337.281	153.94
337.51	125.94
337.738	155.94
337.966	149.94
338.194	137.94
338.422	140.94
338.65	143.94
338.878	147.94
339.106	127.94
339.334	143.94
339.562	123.94
339.79	119.94
340.018	129.94
340.246	137.94
340.474	131.94
340.702	142.94
340.93	141.94
341.158	132.94
341.386	129.94
341.614	143.94
341.842	134.94
342.07	126.94
342.298	145.94
342.526	138.94
342.754	129.94
342.981	132.94
343.209	151.94
343.437	159.94
343.665	143.94
343.893	156.94
344.12	152.94
344.348	144.94
344.576	115.94
344.804	145.94
345.031	133.94
345.259	136.94
345.487	131.94
345.714	140.94
345.942	143.94
346.17	127.94
346.397	134.94
346.625	144.94
346.853	123.94
347.08	123.94
347.308	130.94
347.535	139.94
347.763	138.94
347.99	160.94
348.218	141.94
348.445	128.94
348.673	127.94
348.9	144.94
349.128	153.94
349.355	129.94
349.583	146.94
349.81	137.94
350.037	122.94
350.265	143.94
350.492	144.94
350.72	136.94
350.947	137.94
351.174	136.94
351.402	126.94
351.629	140.94
351.856	131.94
352.083	130.94
352.311	136.94
352.538	113.94
352.765	112.94
352.992	148.94
353.22	138.94
353.447	135.94
353.674	128.94
353.901	145.94
354.128	157.94
354.355	134.94
354.583	135.94
354.81	147.94
355.037	133.94
355.264	134.94
355.491	128.94
355.718	123.94
355.945	134.94
356.172	123.94
356.399	133.94
356.626	129.94
356.853	137.94
357.08	132.94
357.307	127.94
357.534	103.94
357.761	127.94
357.988	135.94
358.215	139.94
358.441	129.94
358.668	129.94
358.895	134.94
359.122	144.94
359.349	135.94
359.576	119.94
359.802	117.94
360.029	127.94
360.256	126.94
360.483	121.94
360.709	123.94
360.936	149.94
361.163	126.94
361.39	124.94
361.616	139.94
361.843	127.94
362.07	141.94
362.296	156.94
362.523	138.94
362.749	125.94
362.976	133.94
363.203	152.94
363.429	123.94
363.656	141.94
363.882	132.94
364.109	125.94
364.335	136.94
364.562	121.94
364.788	138.94
365.015	139.94
365.241	130.94
365.468	128.94
365.694	124.94
365.92	139.94
366.147	130.94
366.373	127.94
366.599	149.94
366.826	127.94
367.052	127.94
367.278	145.94
367.505	151.94
367.731	149.94
367.957	144.94
368.184	132.94
368.41	151.94
368.636	148.94
368.862	157.94
369.089	148.94
369.315	149.94
369.541	149.94
369.767	150.94
369.993	144.94
370.219	148.94
370.445	147.94
370.672	138.94
370.898	137.94
371.124	145.94
371.35	135.94
371.576	127.94
371.802	155.94
372.028	147.94
372.254	157.94
372.48	142.94
372.706	138.94
372.932	162.94
373.158	161.94
373.384	157.94
373.61	160.94
373.835	162.94
374.061	143.94
374.287	160.94
374.513	149.94
374.739	156.94
374.965	172.94
375.191	161.94
375.416	172.94
375.642	166.94
375.868	163.94
376.094	165.94
376.319	156.94
376.545	173.94
376.771	167.94
376.997	157.94
377.222	162.94
377.448	165.94
377.674	150.94
377.899	141.94
378.125	171.94
378.35	169.94
378.576	155.94
378.802	148.94
379.027	155.94
379.253	174.94
379.478	167.94
379.704	165.94
379.929	165.94
380.155	163.94
380.38	183.94
380.606	170.94
380.831	172.94
381.057	187.94
381.282	173.94
381.507	146.94
381.733	175.94
381.958	169.94
382.184	179.94
382.409	159.94
382.634	171.94
382.86	180.94
383.085	180.94
383.31	175.94
383.535	186.94
383.761	175.94
383.986	174.94
384.211	183.94
384.436	177.94
384.662	177.94
384.887	167.94
385.112	169.94
385.337	185.94
385.562	163.94
385.787	185.94
386.013	185.94
386.238	184.94
386.463	180.94
386.688	209.94
386.913	188.94
387.138	193.94
387.363	203.94
387.588	194.94
387.813	175.94
388.038	188.94
388.263	185.94
388.488	181.94
388.713	181.94
388.938	191.94
389.163	196.94
389.387	200.94
389.612	199.94
389.837	200.94
390.062	185.94
390.287	188.94
390.512	198.94
390.736	183.94
390.961	219.94
391.186	201.94
391.411	205.94
391.636	220.94
391.86	211.94
392.085	211.94
392.31	202.94
392.534	201.94
392.759	204.94
392.984	215.94
393.208	203.94
393.433	222.94
393.658	230.94
393.882	229.94
394.107	201.94
394.331	208.94
394.556	218.94
394.78	225.94
395.005	211.94
395.229	203.94
395.454	217.94
395.678	213.94
395.903	224.94
396.127	218.94
396.352	229.94
396.576	212.94
396.801	201.94
397.025	212.94
397.249	218.94
397.474	237.94
397.698	231.94
397.922	230.94
398.147	225.94
398.371	217.94
398.595	233.94
398.82	249.94
399.044	246.94
399.268	262.94
399.492	281.94
399.717	275.94
399.941	287.94
400.165	276.94
400.389	259.94
400.613	233.94
400.837	255.94
401.062	230.94
401.286	239.94
401.51	228.94
401.734	236.94
401.958	258.94
402.182	258.94
402.406	240.94
402.63	251.94
402.854	274.94
403.078	249.94
403.302	275.94
403.526	271.94
403.75	273.94
403.974	243.94
404.198	255.94
404.422	260.94
404.645	265.94
404.869	255.94
405.093	265.94
405.317	259.94
405.541	272.94
405.765	276.94
405.988	275.94
406.212	278.94
406.436	273.94
406.66	279.94
406.883	272.94
407.107	271.94
407.331	276.94
407.555	291.94
407.778	285.94
408.002	277.94
408.226	275.94
408.449	260.94
408.673	265.94
408.896	282.94
409.12	274.94
409.344	269.94
409.567	275.94
409.791	281.94
410.014	284.94
410.238	265.94
410.461	279.94
410.685	271.94
410.908	285.94
411.132	289.94
411.355	262.94
411.578	269.94
411.802	263.94
412.025	259.94
412.249	256.94
412.472	277.94
412.695	259.94
412.919	260.94
413.142	266.94
413.365	257.94
413.589	273.94
413.812	265.94
414.035	276.94
414.258	264.94
414.482	268.94
414.705	276.94
414.928	285.94
415.151	281.94
415.374	272.94
415.597	264.94
415.821	258.94
416.044	266.94
416.267	276.94
416.49	281.94
416.713	265.94
416.936	279.94
417.159	275.94
417.382	282.94
417.605	264.94
417.828	287.94
418.051	281.94
418.274	284.94
418.497	284.94
418.72	289.94
418.943	292.94
419.166	287.94
419.389	291.94
419.611	293.94
419.834	289.94
420.057	293.94
420.28	275.94
420.503	291.94
420.726	268.94
420.948	281.94
421.171	290.94
421.394	291.94
421.617	281.94
421.839	306.94
422.062	296.94
422.285	268.94
422.507	283.94
422.73	280.94
422.953	267.94
423.175	263.94
423.398	271.94
423.621	281.94
423.843	289.94
424.066	302.94
424.288	308.94
424.511	319.94
424.733	312.94
424.956	291.94
425.178	302.94
425.401	295.94
425.623	295.94
425.846	286.94
426.068	279.94
426.291	274.94
426.513	267.94
426.735	269.94
426.958	279.94
427.18	270.94
427.402	282.94
427.625	276.94
427.847	263.94
428.069	268.94
428.292	274.94
428.514	273.94
428.736	272.94
428.958	267.94
429.181	279.94
429.403	251.94
429.625	265.94
429.847	265.94
430.069	260.94
430.292	276.94
430.514	259.94
430.736	253.94
430.958	264.94
431.18	240.94
431.402	256.94
431.624	243.94
431.846	216.94
432.068	195.94
432.29	204.94
432.512	232.94
432.734	255.94
432.956	268.94
433.178	272.94
433.4	267.94
433.622	274.94
433.844	267.94
434.066	234.94
434.287	201.94
434.509	194.94
434.731	202.94
434.953	238.94
435.175	248.94
435.397	278.94
435.618	257.94
435.84	214.94
436.062	242.94
436.284	263.94
436.505	260.94
436.727	262.94
436.949	260.94
437.17	265.94
437.392	251.94
437.614	257.94
437.835	205.94
438.057	214.94
438.278	213.94
438.5	266.94
438.721	271.94
438.943	275.94
439.165	278.94
439.386	280.94
439.608	321.94
439.829	312.94
440.05	282.94
440.272	301.94
440.493	285.94
440.715	304.94
440.936	299.94
441.158	312.94
441.379	303.94
441.6	296.94
441.822	302.94
442.043	309.94
442.264	295.94
442.486	285.94
442.707	312.94
442.928	289.94
443.149	297.94
443.371	305.94
443.592	297.94
443.813	288.94
444.034	309.94
444.255	307.94
444.476	309.94
444.698	313.94
444.919	329.94
445.14	582.94
445.361	445.94
445.582	317.94
445.803	294.94
446.024	279.94
446.245	340.94
446.466	316.94
446.687	315.94
446.908	316.94
447.129	312.94
447.35	302.94
447.571	292.94
447.792	285.94
448.013	280.94
448.234	281.94
448.455	281.94
448.675	277.94
448.896	290.94
449.117	273.94
449.338	267.94
449.559	268.94
449.779	271.94
450	263.94
450.221	262.94
450.442	276.94
450.662	279.94
450.883	256.94
451.104	266.94
451.324	268.94
451.545	268.94
451.766	252.94
451.986	251.94
452.207	264.94
452.428	265.94
452.648	241.94
452.869	231.94
453.089	204.94
453.31	191.94
453.53	196.94
453.751	189.94
453.971	213.94
454.192	179.94
454.412	211.94
454.633	213.94
454.853	232.94
455.073	216.94
455.294	224.94
455.514	237.94
455.734	207.94
455.955	212.94
456.175	207.94
456.395	193.94
456.616	201.94
456.836	220.94
457.056	199.94
457.276	192.94
457.497	203.94
457.717	192.94
457.937	209.94
458.157	209.94
458.377	200.94
458.598	190.94
458.818	192.94
459.038	158.94
459.258	164.94
459.478	178.94
459.698	185.94
459.918	185.94
460.138	224.94
460.358	241.94
460.578	228.94
460.798	243.94
461.018	239.94
461.238	256.94
461.458	223.94
461.678	228.94
461.898	231.94
462.118	230.94
462.338	235.94
462.558	261.94
462.777	246.94
462.997	242.94
463.217	271.94
463.437	263.94
463.657	254.94
463.876	250.94
464.096	258.94
464.316	248.94
464.536	243.94
464.755	265.94
464.975	249.94
465.195	246.94
465.414	242.94
465.634	213.94
465.854	215.94
466.073	247.94
466.293	256.94
466.512	244.94
466.732	267.94
466.951	260.94
467.171	251.94
467.391	249.94
467.61	262.94
467.829	264.94
468.049	265.94
468.268	265.94
468.488	247.94
468.707	267.94
468.927	267.94
469.146	265.94
469.365	251.94
469.585	265.94
469.804	279.94
470.023	259.94
470.243	295.94
470.462	301.94
470.681	284.94
470.901	278.94
471.12	259.94
471.339	267.94
471.558	271.94
471.777	273.94
471.997	272.94
472.216	238.94
472.435	214.94
472.654	204.94
472.873	223.94
473.092	222.94
473.311	227.94
473.53	234.94
473.749	244.94
473.968	239.94
474.187	227.94
474.406	218.94
474.625	238.94
474.844	257.94
475.063	258.94
475.282	233.94
475.501	230.94
475.72	237.94
475.939	240.94
476.158	241.94
476.377	242.94
476.596	233.94
476.814	217.94
477.033	207.94
477.252	215.94
477.471	244.94
477.69	249.94
477.908	274.94
478.127	280.94
478.346	279.94
478.564	254.94
478.783	291.94
479.002	262.94
479.22	277.94
479.439	261.94
479.658	243.94
479.876	231.94
480.095	215.94
480.313	251.94
480.532	246.94
480.751	241.94
480.969	184.94
481.188	182.94
481.406	178.94
481.624	176.94
481.843	175.94
482.061	194.94
482.28	219.94
482.498	214.94
482.717	226.94
482.935	257.94
483.153	293.94
483.372	289.94
483.59	302.94
483.808	275.94
484.027	247.94
484.245	240.94
484.463	284.94
484.681	293.94
484.9	264.94
485.118	261.94
485.336	242.94
485.554	203.94
485.772	187.94
485.99	189.94
486.209	207.94
486.427	226.94
486.645	229.94
486.863	275.94
487.081	284.94
487.299	261.94
487.517	277.94
487.735	331.94
487.953	362.94
488.171	375.94
488.389	321.94
488.607	284.94
488.825	267.94
489.043	250.94
489.261	275.94
489.479	277.94
489.696	294.94
489.914	281.94
490.132	298.94
490.35	309.94
490.568	301.94
490.786	341.94
491.003	356.94
491.221	373.94
491.439	370.94
491.657	409.94
491.874	433.94
492.092	471.94
492.31	470.94
492.527	453.94
492.745	416.94
492.963	411.94
493.18	389.94
493.398	378.94
493.615	370.94
493.833	386.94
494.05	358.94
494.268	360.94
494.485	362.94
494.703	364.94
494.92	354.94
495.138	354.94
495.355	366.94
495.573	358.94
495.79	360.94
496.008	372.94
496.225	327.94
496.442	363.94
496.66	357.94
496.877	337.94
497.094	353.94
497.312	314.94
497.529	331.94
497.746	302.94
497.963	295.94
498.181	284.94
498.398	279.94
498.615	260.94
498.832	298.94
499.049	304.94
499.267	337.94
499.484	355.94
499.701	389.94
499.918	412.94
500.135	445.94
500.352	492.94
500.569	509.94
500.786	515.94
501.003	491.94
501.22	440.94
501.437	401.94
501.654	378.94
501.871	346.94
502.088	315.94
502.305	344.94
502.522	314.94
502.739	281.94
502.956	280.94
503.172	290.94
503.389	274.94
503.606	261.94
503.823	274.94
504.04	273.94
504.256	277.94
504.473	273.94
504.69	268.94
504.907	272.94
