Data from SampD_HRD10591_00074.txt Node
Date: Mon Jan 19 11:48:03 EST 2026
User: Yrep
Spectrometer: HR+D1059
Trigger mode: 0
Integration Time (sec): 3.443000E-1
Scans to average: 1
Electric dark correction enabled: true
Nonlinearity correction enabled: false
Boxcar width: 0
XAxis mode: Wavelengths
Number of Pixels in Spectrum: 2048
>>>>>Begin Spectral Data<<<<<
223.165	-45.19
223.4	-45.19
223.635	-45.19
223.869	-25.19
224.104	0.81
224.338	-16.19
224.573	-3.19
224.808	-7.19
225.042	-1.19
225.277	-9.19
225.511	-11.19
225.746	1.81
225.98	9.81
226.215	10.81
226.449	19.81
226.683	16.81
226.918	26.81
227.152	31.81
227.387	37.81
227.621	37.81
227.856	37.81
228.09	37.81
228.324	39.81
228.559	59.81
228.793	74.81
229.027	76.81
229.262	73.81
229.496	71.81
229.73	87.81
229.964	83.81
230.199	74.81
230.433	80.81
230.667	88.81
230.901	82.81
231.136	82.81
231.37	88.81
231.604	76.81
231.838	92.81
232.072	81.81
232.306	89.81
232.541	81.81
232.775	84.81
233.009	82.81
233.243	96.81
233.477	97.81
233.711	93.81
233.945	86.81
234.179	82.81
234.413	88.81
234.647	89.81
234.881	90.81
235.115	83.81
235.349	77.81
235.583	92.81
235.817	80.81
236.051	77.81
236.285	84.81
236.519	77.81
236.753	78.81
236.987	89.81
237.221	72.81
237.455	82.81
237.689	100.81
237.922	90.81
238.156	86.81
238.39	78.81
238.624	84.81
238.858	86.81
239.091	86.81
239.325	96.81
239.559	89.81
239.793	80.81
240.027	98.81
240.26	85.81
240.494	87.81
240.728	94.81
240.961	80.81
241.195	83.81
241.429	89.81
241.662	84.81
241.896	81.81
242.13	81.81
242.363	84.81
242.597	94.81
242.83	92.81
243.064	89.81
243.298	95.81
243.531	73.81
243.765	80.81
243.998	89.81
244.232	79.81
244.465	84.81
244.699	90.81
244.932	87.81
245.166	96.81
245.399	101.81
245.633	87.81
245.866	88.81
246.099	76.81
246.333	77.81
246.566	97.81
246.8	72.81
247.033	82.81
247.266	74.81
247.5	81.81
247.733	71.81
247.966	83.81
248.2	82.81
248.433	89.81
248.666	77.81
248.899	109.81
249.133	94.81
249.366	103.81
249.599	82.81
249.832	76.81
250.066	102.81
250.299	91.81
250.532	90.81
250.765	92.81
250.998	91.81
251.231	97.81
251.465	96.81
251.698	77.81
251.931	80.81
252.164	90.81
252.397	90.81
252.63	88.81
252.863	90.81
253.096	74.81
253.329	103.81
253.562	92.81
253.795	101.81
254.028	113.81
254.261	105.81
254.494	86.81
254.727	100.81
254.96	99.81
255.193	94.81
255.426	79.81
255.659	100.81
255.892	108.81
256.124	110.81
256.357	96.81
256.59	93.81
256.823	101.81
257.056	86.81
257.289	105.81
257.521	101.81
257.754	102.81
257.987	80.81
258.22	95.81
258.452	103.81
258.685	98.81
258.918	98.81
259.151	85.81
259.383	98.81
259.616	88.81
259.849	109.81
260.081	91.81
260.314	91.81
260.547	109.81
260.779	97.81
261.012	113.81
261.244	83.81
261.477	121.81
261.71	102.81
261.942	108.81
262.175	105.81
262.407	102.81
262.64	119.81
262.872	97.81
263.105	87.81
263.337	112.81
263.57	97.81
263.802	114.81
264.035	101.81
264.267	105.81
264.499	103.81
264.732	104.81
264.964	108.81
265.197	102.81
265.429	98.81
265.661	101.81
265.894	99.81
266.126	108.81
266.358	109.81
266.591	93.81
266.823	100.81
267.055	106.81
267.287	116.81
267.52	105.81
267.752	108.81
267.984	93.81
268.216	109.81
268.448	116.81
268.681	106.81
268.913	104.81
269.145	110.81
269.377	93.81
269.609	80.81
269.841	94.81
270.073	112.81
270.306	114.81
270.538	98.81
270.77	94.81
271.002	116.81
271.234	102.81
271.466	107.81
271.698	112.81
271.93	110.81
272.162	111.81
272.394	103.81
272.626	106.81
272.858	108.81
273.09	105.81
273.322	114.81
273.553	102.81
273.785	114.81
274.017	118.81
274.249	108.81
274.481	118.81
274.713	88.81
274.945	104.81
275.176	113.81
275.408	117.81
275.64	105.81
275.872	107.81
276.104	112.81
276.335	115.81
276.567	99.81
276.799	108.81
277.031	99.81
277.262	117.81
277.494	117.81
277.726	101.81
277.957	108.81
278.189	112.81
278.421	110.81
278.652	114.81
278.884	113.81
279.115	118.81
279.347	116.81
279.579	108.81
279.81	100.81
280.042	109.81
280.273	109.81
280.505	121.81
280.736	100.81
280.968	101.81
281.199	133.81
281.431	116.81
281.662	119.81
281.894	119.81
282.125	117.81
282.356	110.81
282.588	112.81
282.819	109.81
283.051	113.81
283.282	101.81
283.513	128.81
283.745	120.81
283.976	107.81
284.207	116.81
284.439	112.81
284.67	128.81
284.901	116.81
285.132	109.81
285.364	122.81
285.595	112.81
285.826	118.81
286.057	131.81
286.288	130.81
286.52	124.81
286.751	100.81
286.982	113.81
287.213	125.81
287.444	115.81
287.675	121.81
287.906	122.81
288.138	113.81
288.369	106.81
288.6	129.81
288.831	127.81
289.062	123.81
289.293	120.81
289.524	132.81
289.755	120.81
289.986	109.81
290.217	116.81
290.448	119.81
290.679	130.81
290.91	122.81
291.141	125.81
291.371	131.81
291.602	121.81
291.833	97.81
292.064	110.81
292.295	124.81
292.526	117.81
292.757	121.81
292.987	116.81
293.218	121.81
293.449	118.81
293.68	124.81
293.91	119.81
294.141	120.81
294.372	117.81
294.603	114.81
294.833	120.81
295.064	119.81
295.295	124.81
295.525	123.81
295.756	144.81
295.987	115.81
296.217	119.81
296.448	123.81
296.679	132.81
296.909	127.81
297.14	125.81
297.37	130.81
297.601	124.81
297.831	121.81
298.062	134.81
298.292	124.81
298.523	129.81
298.753	118.81
298.984	133.81
299.214	128.81
299.445	115.81
299.675	122.81
299.905	137.81
300.136	126.81
300.366	125.81
300.597	116.81
300.827	125.81
301.057	131.81
301.288	122.81
301.518	115.81
301.748	117.81
301.979	169.81
302.209	131.81
302.439	139.81
302.669	133.81
302.9	136.81
303.13	132.81
303.36	126.81
303.59	122.81
303.82	141.81
304.051	130.81
304.281	119.81
304.511	141.81
304.741	121.81
304.971	134.81
305.201	140.81
305.431	147.81
305.661	130.81
305.891	123.81
306.121	119.81
306.352	114.81
306.582	127.81
306.812	136.81
307.042	123.81
307.272	111.81
307.502	120.81
307.731	116.81
307.961	132.81
308.191	130.81
308.421	122.81
308.651	126.81
308.881	131.81
309.111	121.81
309.341	116.81
309.571	132.81
309.8	124.81
310.03	125.81
310.26	121.81
310.49	125.81
310.72	120.81
310.949	124.81
311.179	134.81
311.409	129.81
311.639	132.81
311.868	136.81
312.098	130.81
312.328	142.81
312.557	145.81
312.787	133.81
313.017	133.81
313.246	137.81
313.476	131.81
313.706	145.81
313.935	117.81
314.165	129.81
314.394	136.81
314.624	120.81
314.853	118.81
315.083	139.81
315.312	122.81
315.542	131.81
315.771	115.81
316.001	126.81
316.23	133.81
316.46	139.81
316.689	124.81
316.919	129.81
317.148	142.81
317.377	140.81
317.607	121.81
317.836	137.81
318.065	134.81
318.295	119.81
318.524	121.81
318.753	131.81
318.983	133.81
319.212	122.81
319.441	134.81
319.67	109.81
319.9	136.81
320.129	128.81
320.358	120.81
320.587	131.81
320.816	135.81
321.046	128.81
321.275	143.81
321.504	122.81
321.733	128.81
321.962	109.81
322.191	130.81
322.42	123.81
322.649	129.81
322.878	130.81
323.108	138.81
323.337	124.81
323.566	143.81
323.795	140.81
324.024	120.81
324.253	139.81
324.482	121.81
324.71	133.81
324.939	145.81
325.168	139.81
325.397	133.81
325.626	121.81
325.855	131.81
326.084	142.81
326.313	131.81
326.542	121.81
326.77	141.81
326.999	143.81
327.228	132.81
327.457	141.81
327.686	133.81
327.914	129.81
328.143	144.81
328.372	149.81
328.6	124.81
328.829	146.81
329.058	119.81
329.287	135.81
329.515	128.81
329.744	125.81
329.972	125.81
330.201	144.81
330.43	142.81
330.658	124.81
330.887	129.81
331.115	125.81
331.344	140.81
331.572	138.81
331.801	124.81
332.03	136.81
332.258	141.81
332.486	145.81
332.715	137.81
332.943	156.81
333.172	146.81
333.4	166.81
333.629	146.81
333.857	162.81
334.085	165.81
334.314	146.81
334.542	146.81
334.771	140.81
334.999	150.81
335.227	148.81
335.455	164.81
335.684	146.81
335.912	163.81
336.14	145.81
336.369	149.81
336.597	140.81
336.825	149.81
337.053	156.81
337.281	139.81
337.51	129.81
337.738	155.81
337.966	132.81
338.194	151.81
338.422	135.81
338.65	144.81
338.878	132.81
339.106	140.81
339.334	145.81
339.562	137.81
339.79	147.81
340.018	137.81
340.246	120.81
340.474	141.81
340.702	144.81
340.93	133.81
341.158	146.81
341.386	130.81
341.614	153.81
341.842	139.81
342.07	147.81
342.298	152.81
342.526	119.81
342.754	128.81
342.981	140.81
343.209	135.81
343.437	174.81
343.665	155.81
343.893	165.81
344.12	184.81
344.348	156.81
344.576	146.81
344.804	132.81
345.031	144.81
345.259	137.81
345.487	146.81
345.714	128.81
345.942	152.81
346.17	129.81
346.397	125.81
346.625	139.81
346.853	139.81
347.08	125.81
347.308	153.81
347.535	134.81
347.763	124.81
347.99	133.81
348.218	141.81
348.445	131.81
348.673	133.81
348.9	118.81
349.128	140.81
349.355	144.81
349.583	138.81
349.81	129.81
350.037	128.81
350.265	133.81
350.492	145.81
350.72	128.81
350.947	135.81
351.174	135.81
351.402	137.81
351.629	146.81
351.856	114.81
352.083	126.81
352.311	125.81
352.538	130.81
352.765	117.81
352.992	155.81
353.22	140.81
353.447	132.81
353.674	138.81
353.901	136.81
354.128	133.81
354.355	140.81
354.583	146.81
354.81	144.81
355.037	131.81
355.264	135.81
355.491	141.81
355.718	133.81
355.945	150.81
356.172	138.81
356.399	130.81
356.626	129.81
356.853	137.81
357.08	137.81
357.307	130.81
357.534	140.81
357.761	145.81
357.988	154.81
358.215	126.81
358.441	118.81
358.668	124.81
358.895	141.81
359.122	136.81
359.349	132.81
359.576	136.81
359.802	136.81
360.029	128.81
360.256	141.81
360.483	121.81
360.709	131.81
360.936	147.81
361.163	150.81
361.39	122.81
361.616	130.81
361.843	137.81
362.07	151.81
362.296	137.81
362.523	130.81
362.749	127.81
362.976	128.81
363.203	126.81
363.429	126.81
363.656	153.81
363.882	129.81
364.109	144.81
364.335	164.81
364.562	141.81
364.788	141.81
365.015	135.81
365.241	133.81
365.468	142.81
365.694	137.81
365.92	129.81
366.147	153.81
366.373	120.81
366.599	138.81
366.826	135.81
367.052	134.81
367.278	141.81
367.505	139.81
367.731	160.81
367.957	133.81
368.184	148.81
368.41	152.81
368.636	140.81
368.862	155.81
369.089	147.81
369.315	141.81
369.541	153.81
369.767	149.81
369.993	152.81
370.219	152.81
370.445	149.81
370.672	140.81
370.898	165.81
371.124	155.81
371.35	153.81
371.576	148.81
371.802	149.81
372.028	154.81
372.254	149.81
372.48	160.81
372.706	144.81
372.932	165.81
373.158	164.81
373.384	171.81
373.61	160.81
373.835	149.81
374.061	159.81
374.287	162.81
374.513	152.81
374.739	154.81
374.965	164.81
375.191	193.81
375.416	177.81
375.642	173.81
375.868	176.81
376.094	164.81
376.319	153.81
376.545	158.81
376.771	153.81
376.997	145.81
377.222	162.81
377.448	160.81
377.674	160.81
377.899	147.81
378.125	149.81
378.35	171.81
378.576	160.81
378.802	172.81
379.027	165.81
379.253	169.81
379.478	174.81
379.704	157.81
379.929	168.81
380.155	175.81
380.38	157.81
380.606	170.81
380.831	167.81
381.057	182.81
381.282	180.81
381.507	171.81
381.733	164.81
381.958	169.81
382.184	180.81
382.409	171.81
382.634	180.81
382.86	186.81
383.085	193.81
383.31	165.81
383.535	181.81
383.761	182.81
383.986	199.81
384.211	174.81
384.436	187.81
384.662	163.81
384.887	174.81
385.112	190.81
385.337	198.81
385.562	187.81
385.787	210.81
386.013	198.81
386.238	183.81
386.463	195.81
386.688	210.81
386.913	193.81
387.138	186.81
387.363	174.81
387.588	173.81
387.813	202.81
388.038	170.81
388.263	198.81
388.488	204.81
388.713	197.81
388.938	194.81
389.163	187.81
389.387	196.81
389.612	198.81
389.837	195.81
390.062	189.81
390.287	205.81
390.512	196.81
390.736	216.81
390.961	204.81
391.186	210.81
391.411	186.81
391.636	217.81
391.86	187.81
392.085	219.81
392.31	220.81
392.534	204.81
392.759	210.81
392.984	220.81
393.208	211.81
393.433	210.81
393.658	212.81
393.882	213.81
394.107	221.81
394.331	218.81
394.556	213.81
394.78	230.81
395.005	218.81
395.229	221.81
395.454	218.81
395.678	209.81
395.903	209.81
396.127	224.81
396.352	225.81
396.576	208.81
396.801	205.81
397.025	219.81
397.249	222.81
397.474	232.81
397.698	224.81
397.922	229.81
398.147	215.81
398.371	227.81
398.595	255.81
398.82	254.81
399.044	242.81
399.268	237.81
399.492	311.81
399.717	313.81
399.941	289.81
400.165	264.81
400.389	249.81
400.613	244.81
400.837	265.81
401.062	238.81
401.286	240.81
401.51	229.81
401.734	249.81
401.958	247.81
402.182	260.81
402.406	261.81
402.63	236.81
402.854	257.81
403.078	277.81
403.302	253.81
403.526	248.81
403.75	265.81
403.974	272.81
404.198	260.81
404.422	282.81
404.645	260.81
404.869	264.81
405.093	254.81
405.317	263.81
405.541	274.81
405.765	289.81
405.988	248.81
406.212	260.81
406.436	262.81
406.66	264.81
406.883	283.81
407.107	280.81
407.331	271.81
407.555	301.81
407.778	284.81
408.002	286.81
408.226	288.81
408.449	267.81
408.673	282.81
408.896	258.81
409.12	274.81
409.344	280.81
409.567	275.81
409.791	272.81
410.014	281.81
410.238	282.81
410.461	267.81
410.685	267.81
410.908	264.81
411.132	272.81
411.355	258.81
411.578	260.81
411.802	253.81
412.025	259.81
412.249	249.81
412.472	264.81
412.695	276.81
412.919	252.81
413.142	263.81
413.365	276.81
413.589	244.81
413.812	276.81
414.035	276.81
414.258	273.81
414.482	272.81
414.705	266.81
414.928	273.81
415.151	272.81
415.374	256.81
415.597	262.81
415.821	283.81
416.044	272.81
416.267	253.81
416.49	282.81
416.713	267.81
416.936	252.81
417.159	272.81
417.382	269.81
417.605	278.81
417.828	274.81
418.051	276.81
418.274	297.81
418.497	275.81
418.72	300.81
418.943	300.81
419.166	320.81
419.389	298.81
419.611	292.81
419.834	283.81
420.057	282.81
420.28	274.81
420.503	288.81
420.726	290.81
420.948	292.81
421.171	276.81
421.394	277.81
421.617	290.81
421.839	293.81
422.062	285.81
422.285	293.81
422.507	285.81
422.73	266.81
422.953	284.81
423.175	294.81
423.398	289.81
423.621	282.81
423.843	297.81
424.066	293.81
424.288	314.81
424.511	303.81
424.733	300.81
424.956	308.81
425.178	290.81
425.401	290.81
425.623	289.81
425.846	282.81
426.068	279.81
426.291	274.81
426.513	255.81
426.735	268.81
426.958	259.81
427.18	282.81
427.402	279.81
427.625	265.81
427.847	269.81
428.069	273.81
428.292	261.81
428.514	272.81
428.736	263.81
428.958	262.81
429.181	253.81
429.403	269.81
429.625	239.81
429.847	252.81
430.069	268.81
430.292	259.81
430.514	257.81
430.736	281.81
430.958	260.81
431.18	248.81
431.402	261.81
431.624	246.81
431.846	226.81
432.068	188.81
432.29	193.81
432.512	233.81
432.734	256.81
432.956	288.81
433.178	291.81
433.4	279.81
433.622	300.81
433.844	269.81
434.066	243.81
434.287	207.81
434.509	183.81
434.731	197.81
434.953	240.81
435.175	270.81
435.397	270.81
435.618	229.81
435.84	228.81
436.062	236.81
436.284	253.81
436.505	260.81
436.727	275.81
436.949	278.81
437.17	256.81
437.392	242.81
437.614	241.81
437.835	204.81
438.057	212.81
438.278	234.81
438.5	247.81
438.721	266.81
438.943	261.81
439.165	290.81
439.386	290.81
439.608	302.81
439.829	286.81
440.05	284.81
440.272	311.81
440.493	301.81
440.715	296.81
440.936	312.81
441.158	308.81
441.379	294.81
441.6	319.81
441.822	302.81
442.043	301.81
442.264	302.81
442.486	278.81
442.707	299.81
442.928	284.81
443.149	299.81
443.371	309.81
443.592	310.81
443.813	292.81
444.034	300.81
444.255	310.81
444.476	309.81
444.698	330.81
444.919	320.81
445.14	593.81
445.361	420.81
445.582	342.81
445.803	293.81
446.024	303.81
446.245	315.81
446.466	305.81
446.687	331.81
446.908	318.81
447.129	314.81
447.35	313.81
447.571	307.81
447.792	292.81
448.013	285.81
448.234	294.81
448.455	284.81
448.675	283.81
448.896	282.81
449.117	274.81
449.338	274.81
449.559	280.81
449.779	268.81
450	256.81
450.221	276.81
450.442	262.81
450.662	266.81
450.883	273.81
451.104	266.81
451.324	261.81
451.545	250.81
451.766	254.81
451.986	247.81
452.207	275.81
452.428	239.81
452.648	252.81
452.869	251.81
453.089	233.81
453.31	220.81
453.53	216.81
453.751	203.81
453.971	194.81
454.192	194.81
454.412	199.81
454.633	206.81
454.853	218.81
455.073	237.81
455.294	233.81
455.514	229.81
455.734	214.81
455.955	223.81
456.175	203.81
456.395	189.81
456.616	200.81
456.836	206.81
457.056	201.81
457.276	210.81
457.497	209.81
457.717	190.81
457.937	212.81
458.157	192.81
458.377	182.81
458.598	175.81
458.818	162.81
459.038	167.81
459.258	157.81
459.478	172.81
459.698	173.81
459.918	210.81
460.138	195.81
460.358	238.81
460.578	238.81
460.798	253.81
461.018	240.81
461.238	249.81
461.458	250.81
461.678	240.81
461.898	247.81
462.118	247.81
462.338	245.81
462.558	256.81
462.777	242.81
462.997	278.81
463.217	268.81
463.437	263.81
463.657	247.81
463.876	242.81
464.096	244.81
464.316	254.81
464.536	277.81
464.755	259.81
464.975	244.81
465.195	248.81
465.414	237.81
465.634	250.81
465.854	248.81
466.073	233.81
466.293	253.81
466.512	238.81
466.732	244.81
466.951	265.81
467.171	251.81
467.391	259.81
467.61	256.81
467.829	258.81
468.049	271.81
468.268	255.81
468.488	252.81
468.707	264.81
468.927	261.81
469.146	263.81
469.365	278.81
469.585	268.81
469.804	277.81
470.023	300.81
470.243	296.81
470.462	293.81
470.681	284.81
470.901	285.81
471.12	293.81
471.339	284.81
471.558	286.81
471.777	280.81
471.997	262.81
472.216	246.81
472.435	216.81
472.654	196.81
472.873	215.81
473.092	229.81
473.311	226.81
473.53	222.81
473.749	231.81
473.968	237.81
474.187	229.81
474.406	232.81
474.625	261.81
474.844	252.81
475.063	257.81
475.282	233.81
475.501	239.81
475.72	251.81
475.939	236.81
476.158	261.81
476.377	243.81
476.596	248.81
476.814	232.81
477.033	198.81
477.252	214.81
477.471	242.81
477.69	250.81
477.908	266.81
478.127	273.81
478.346	281.81
478.564	270.81
478.783	272.81
479.002	280.81
479.22	274.81
479.439	282.81
479.658	242.81
479.876	224.81
480.095	231.81
480.313	243.81
480.532	254.81
480.751	245.81
480.969	200.81
481.188	196.81
481.406	168.81
481.624	183.81
481.843	196.81
482.061	189.81
482.28	226.81
482.498	220.81
482.717	216.81
482.935	250.81
483.153	287.81
483.372	290.81
483.59	302.81
483.808	265.81
484.027	257.81
484.245	272.81
484.463	286.81
484.681	286.81
484.9	288.81
485.118	277.81
485.336	252.81
485.554	216.81
485.772	214.81
485.99	217.81
486.209	224.81
486.427	211.81
486.645	251.81
486.863	288.81
487.081	284.81
487.299	261.81
487.517	263.81
487.735	342.81
487.953	380.81
488.171	360.81
488.389	323.81
488.607	306.81
488.825	272.81
489.043	250.81
489.261	259.81
489.479	273.81
489.696	278.81
489.914	281.81
490.132	302.81
490.35	305.81
490.568	330.81
490.786	350.81
491.003	353.81
491.221	393.81
491.439	380.81
491.657	385.81
491.874	423.81
492.092	452.81
492.31	480.81
492.527	438.81
492.745	422.81
492.963	408.81
493.18	387.81
493.398	412.81
493.615	384.81
493.833	396.81
494.05	378.81
494.268	376.81
494.485	347.81
494.703	385.81
494.92	369.81
495.138	360.81
495.355	374.81
495.573	355.81
495.79	349.81
496.008	345.81
496.225	370.81
496.442	370.81
496.66	359.81
496.877	344.81
497.094	354.81
497.312	339.81
497.529	323.81
497.746	330.81
497.963	313.81
498.181	298.81
498.398	290.81
498.615	285.81
498.832	285.81
499.049	301.81
499.267	343.81
499.484	351.81
499.701	394.81
499.918	436.81
500.135	492.81
500.352	502.81
500.569	508.81
500.786	505.81
501.003	490.81
501.22	457.81
501.437	418.81
501.654	368.81
501.871	349.81
502.088	325.81
502.305	342.81
502.522	296.81
502.739	314.81
502.956	281.81
503.172	297.81
503.389	266.81
503.606	252.81
503.823	250.81
504.04	253.81
504.256	264.81
504.473	266.81
504.69	253.81
