Data from SampD_HRD10591_00050.txt Node
Date: Mon Jan 19 11:47:55 EST 2026
User: Yrep
Spectrometer: HR+D1059
Trigger mode: 0
Integration Time (sec): 3.443000E-1
Scans to average: 1
Electric dark correction enabled: true
Nonlinearity correction enabled: false
Boxcar width: 0
XAxis mode: Wavelengths
Number of Pixels in Spectrum: 2048
>>>>>Begin Spectral Data<<<<<
223.165	-24.25
223.4	-24.25
223.635	-24.25
223.869	-27.25
224.104	-32.25
224.338	-3.25
224.573	3.75
224.808	-19.25
225.042	-3.25
225.277	1.75
225.511	-6.25
225.746	12.75
225.98	-2.25
226.215	9.75
226.449	16.75
226.683	9.75
226.918	29.75
227.152	33.75
227.387	26.75
227.621	24.75
227.856	40.75
228.09	64.75
228.324	34.75
228.559	60.75
228.793	51.75
229.027	63.75
229.262	56.75
229.496	80.75
229.73	70.75
229.964	71.75
230.199	73.75
230.433	73.75
230.667	89.75
230.901	83.75
231.136	96.75
231.37	96.75
231.604	96.75
231.838	95.75
232.072	91.75
232.306	87.75
232.541	88.75
232.775	95.75
233.009	73.75
233.243	75.75
233.477	90.75
233.711	84.75
233.945	102.75
234.179	84.75
234.413	89.75
234.647	81.75
234.881	72.75
235.115	84.75
235.349	76.75
235.583	92.75
235.817	91.75
236.051	84.75
236.285	79.75
236.519	81.75
236.753	80.75
236.987	82.75
237.221	82.75
237.455	88.75
237.689	85.75
237.922	81.75
238.156	85.75
238.39	69.75
238.624	81.75
238.858	72.75
239.091	85.75
239.325	91.75
239.559	83.75
239.793	77.75
240.027	98.75
240.26	83.75
240.494	91.75
240.728	84.75
240.961	84.75
241.195	86.75
241.429	85.75
241.662	80.75
241.896	69.75
242.13	85.75
242.363	99.75
242.597	87.75
242.83	91.75
243.064	73.75
243.298	90.75
243.531	81.75
243.765	87.75
243.998	95.75
244.232	103.75
244.465	85.75
244.699	70.75
244.932	80.75
245.166	94.75
245.399	91.75
245.633	93.75
245.866	93.75
246.099	82.75
246.333	78.75
246.566	90.75
246.8	95.75
247.033	89.75
247.266	86.75
247.5	93.75
247.733	86.75
247.966	83.75
248.2	107.75
248.433	100.75
248.666	88.75
248.899	90.75
249.133	101.75
249.366	115.75
249.599	110.75
249.832	87.75
250.066	97.75
250.299	87.75
250.532	93.75
250.765	88.75
250.998	91.75
251.231	80.75
251.465	96.75
251.698	83.75
251.931	90.75
252.164	87.75
252.397	83.75
252.63	100.75
252.863	105.75
253.096	107.75
253.329	98.75
253.562	84.75
253.795	95.75
254.028	83.75
254.261	98.75
254.494	97.75
254.727	101.75
254.96	116.75
255.193	101.75
255.426	88.75
255.659	98.75
255.892	106.75
256.124	87.75
256.357	97.75
256.59	98.75
256.823	87.75
257.056	86.75
257.289	91.75
257.521	114.75
257.754	92.75
257.987	101.75
258.22	96.75
258.452	95.75
258.685	109.75
258.918	91.75
259.151	82.75
259.383	99.75
259.616	85.75
259.849	108.75
260.081	97.75
260.314	91.75
260.547	101.75
260.779	84.75
261.012	105.75
261.244	101.75
261.477	106.75
261.71	87.75
261.942	110.75
262.175	105.75
262.407	101.75
262.64	100.75
262.872	90.75
263.105	97.75
263.337	91.75
263.57	107.75
263.802	104.75
264.035	82.75
264.267	92.75
264.499	105.75
264.732	91.75
264.964	101.75
265.197	97.75
265.429	100.75
265.661	105.75
265.894	105.75
266.126	110.75
266.358	98.75
266.591	96.75
266.823	95.75
267.055	101.75
267.287	94.75
267.52	113.75
267.752	113.75
267.984	96.75
268.216	96.75
268.448	115.75
268.681	112.75
268.913	107.75
269.145	115.75
269.377	117.75
269.609	110.75
269.841	109.75
270.073	118.75
270.306	96.75
270.538	100.75
270.77	95.75
271.002	114.75
271.234	94.75
271.466	105.75
271.698	94.75
271.93	98.75
272.162	111.75
272.394	122.75
272.626	115.75
272.858	101.75
273.09	108.75
273.322	115.75
273.553	108.75
273.785	123.75
274.017	106.75
274.249	97.75
274.481	93.75
274.713	113.75
274.945	123.75
275.176	112.75
275.408	120.75
275.64	106.75
275.872	113.75
276.104	94.75
276.335	115.75
276.567	120.75
276.799	101.75
277.031	109.75
277.262	105.75
277.494	107.75
277.726	120.75
277.957	111.75
278.189	100.75
278.421	101.75
278.652	104.75
278.884	109.75
279.115	102.75
279.347	117.75
279.579	109.75
279.81	106.75
280.042	105.75
280.273	101.75
280.505	111.75
280.736	103.75
280.968	120.75
281.199	104.75
281.431	121.75
281.662	107.75
281.894	103.75
282.125	109.75
282.356	119.75
282.588	116.75
282.819	121.75
283.051	108.75
283.282	116.75
283.513	120.75
283.745	113.75
283.976	111.75
284.207	105.75
284.439	113.75
284.67	112.75
284.901	119.75
285.132	122.75
285.364	109.75
285.595	128.75
285.826	132.75
286.057	126.75
286.288	118.75
286.52	120.75
286.751	92.75
286.982	119.75
287.213	116.75
287.444	114.75
287.675	113.75
287.906	126.75
288.138	122.75
288.369	112.75
288.6	119.75
288.831	127.75
289.062	132.75
289.293	138.75
289.524	136.75
289.755	121.75
289.986	119.75
290.217	128.75
290.448	119.75
290.679	118.75
290.91	132.75
291.141	113.75
291.371	130.75
291.602	116.75
291.833	116.75
292.064	128.75
292.295	112.75
292.526	143.75
292.757	116.75
292.987	128.75
293.218	117.75
293.449	123.75
293.68	115.75
293.91	120.75
294.141	140.75
294.372	111.75
294.603	131.75
294.833	113.75
295.064	120.75
295.295	114.75
295.525	119.75
295.756	112.75
295.987	120.75
296.217	127.75
296.448	118.75
296.679	136.75
296.909	133.75
297.14	118.75
297.37	124.75
297.601	110.75
297.831	121.75
298.062	121.75
298.292	117.75
298.523	120.75
298.753	126.75
298.984	125.75
299.214	146.75
299.445	124.75
299.675	132.75
299.905	129.75
300.136	125.75
300.366	114.75
300.597	134.75
300.827	118.75
301.057	122.75
301.288	120.75
301.518	116.75
301.748	122.75
301.979	147.75
302.209	133.75
302.439	120.75
302.669	128.75
302.9	120.75
303.13	132.75
303.36	121.75
303.59	125.75
303.82	120.75
304.051	136.75
304.281	131.75
304.511	131.75
304.741	132.75
304.971	128.75
305.201	143.75
305.431	124.75
305.661	122.75
305.891	119.75
306.121	132.75
306.352	111.75
306.582	125.75
306.812	122.75
307.042	124.75
307.272	138.75
307.502	116.75
307.731	131.75
307.961	122.75
308.191	138.75
308.421	124.75
308.651	126.75
308.881	131.75
309.111	106.75
309.341	112.75
309.571	142.75
309.8	119.75
310.03	141.75
310.26	123.75
310.49	116.75
310.72	127.75
310.949	114.75
311.179	140.75
311.409	130.75
311.639	142.75
311.868	132.75
312.098	129.75
312.328	130.75
312.557	122.75
312.787	122.75
313.017	120.75
313.246	131.75
313.476	133.75
313.706	131.75
313.935	124.75
314.165	117.75
314.394	127.75
314.624	123.75
314.853	135.75
315.083	128.75
315.312	123.75
315.542	140.75
315.771	122.75
316.001	131.75
316.23	132.75
316.46	132.75
316.689	136.75
316.919	128.75
317.148	129.75
317.377	132.75
317.607	136.75
317.836	138.75
318.065	124.75
318.295	129.75
318.524	121.75
318.753	124.75
318.983	131.75
319.212	138.75
319.441	123.75
319.67	133.75
319.9	125.75
320.129	128.75
320.358	128.75
320.587	129.75
320.816	130.75
321.046	126.75
321.275	135.75
321.504	135.75
321.733	121.75
321.962	128.75
322.191	119.75
322.42	129.75
322.649	121.75
322.878	129.75
323.108	140.75
323.337	120.75
323.566	114.75
323.795	129.75
324.024	122.75
324.253	113.75
324.482	121.75
324.71	148.75
324.939	141.75
325.168	129.75
325.397	126.75
325.626	132.75
325.855	131.75
326.084	130.75
326.313	134.75
326.542	125.75
326.77	137.75
326.999	131.75
327.228	124.75
327.457	123.75
327.686	136.75
327.914	118.75
328.143	147.75
328.372	129.75
328.6	121.75
328.829	144.75
329.058	134.75
329.287	127.75
329.515	143.75
329.744	135.75
329.972	132.75
330.201	129.75
330.43	120.75
330.658	136.75
330.887	145.75
331.115	129.75
331.344	134.75
331.572	137.75
331.801	128.75
332.03	139.75
332.258	148.75
332.486	134.75
332.715	147.75
332.943	148.75
333.172	151.75
333.4	155.75
333.629	149.75
333.857	168.75
334.085	161.75
334.314	144.75
334.542	155.75
334.771	140.75
334.999	144.75
335.227	148.75
335.455	144.75
335.684	163.75
335.912	154.75
336.14	140.75
336.369	148.75
336.597	149.75
336.825	145.75
337.053	136.75
337.281	148.75
337.51	147.75
337.738	156.75
337.966	138.75
338.194	144.75
338.422	134.75
338.65	146.75
338.878	138.75
339.106	145.75
339.334	145.75
339.562	127.75
339.79	138.75
340.018	145.75
340.246	117.75
340.474	116.75
340.702	144.75
340.93	139.75
341.158	133.75
341.386	137.75
341.614	123.75
341.842	145.75
342.07	146.75
342.298	124.75
342.526	140.75
342.754	137.75
342.981	147.75
343.209	139.75
343.437	180.75
343.665	161.75
343.893	147.75
344.12	174.75
344.348	134.75
344.576	138.75
344.804	142.75
345.031	136.75
345.259	133.75
345.487	143.75
345.714	126.75
345.942	130.75
346.17	130.75
346.397	138.75
346.625	140.75
346.853	126.75
347.08	123.75
347.308	142.75
347.535	127.75
347.763	137.75
347.99	137.75
348.218	140.75
348.445	137.75
348.673	138.75
348.9	147.75
349.128	141.75
349.355	126.75
349.583	135.75
349.81	125.75
350.037	130.75
350.265	127.75
350.492	116.75
350.72	120.75
350.947	133.75
351.174	139.75
351.402	133.75
351.629	121.75
351.856	136.75
352.083	140.75
352.311	145.75
352.538	136.75
352.765	143.75
352.992	159.75
353.22	154.75
353.447	132.75
353.674	128.75
353.901	132.75
354.128	142.75
354.355	127.75
354.583	138.75
354.81	143.75
355.037	114.75
355.264	137.75
355.491	124.75
355.718	123.75
355.945	146.75
356.172	138.75
356.399	140.75
356.626	131.75
356.853	121.75
357.08	133.75
357.307	138.75
357.534	139.75
357.761	142.75
357.988	134.75
358.215	136.75
358.441	134.75
358.668	162.75
358.895	131.75
359.122	131.75
359.349	130.75
359.576	144.75
359.802	124.75
360.029	144.75
360.256	145.75
360.483	126.75
360.709	145.75
360.936	170.75
361.163	158.75
361.39	127.75
361.616	139.75
361.843	130.75
362.07	146.75
362.296	143.75
362.523	129.75
362.749	128.75
362.976	117.75
363.203	136.75
363.429	131.75
363.656	129.75
363.882	129.75
364.109	143.75
364.335	129.75
364.562	137.75
364.788	122.75
365.015	120.75
365.241	124.75
365.468	129.75
365.694	127.75
365.92	136.75
366.147	131.75
366.373	127.75
366.599	140.75
366.826	153.75
367.052	128.75
367.278	147.75
367.505	138.75
367.731	143.75
367.957	157.75
368.184	162.75
368.41	144.75
368.636	156.75
368.862	145.75
369.089	136.75
369.315	147.75
369.541	151.75
369.767	136.75
369.993	160.75
370.219	133.75
370.445	152.75
370.672	154.75
370.898	147.75
371.124	160.75
371.35	153.75
371.576	168.75
371.802	159.75
372.028	157.75
372.254	157.75
372.48	147.75
372.706	152.75
372.932	154.75
373.158	158.75
373.384	148.75
373.61	152.75
373.835	150.75
374.061	152.75
374.287	171.75
374.513	147.75
374.739	147.75
374.965	161.75
375.191	144.75
375.416	152.75
375.642	178.75
375.868	174.75
376.094	161.75
376.319	152.75
376.545	157.75
376.771	159.75
376.997	155.75
377.222	148.75
377.448	163.75
377.674	167.75
377.899	150.75
378.125	148.75
378.35	159.75
378.576	161.75
378.802	170.75
379.027	162.75
379.253	168.75
379.478	149.75
379.704	170.75
379.929	167.75
380.155	174.75
380.38	162.75
380.606	147.75
380.831	152.75
381.057	175.75
381.282	170.75
381.507	172.75
381.733	192.75
381.958	185.75
382.184	164.75
382.409	167.75
382.634	168.75
382.86	172.75
383.085	189.75
383.31	170.75
383.535	183.75
383.761	170.75
383.986	185.75
384.211	180.75
384.436	176.75
384.662	193.75
384.887	176.75
385.112	176.75
385.337	202.75
385.562	170.75
385.787	162.75
386.013	189.75
386.238	186.75
386.463	188.75
386.688	215.75
386.913	192.75
387.138	200.75
387.363	197.75
387.588	207.75
387.813	185.75
388.038	204.75
388.263	194.75
388.488	202.75
388.713	194.75
388.938	187.75
389.163	202.75
389.387	186.75
389.612	180.75
389.837	198.75
390.062	207.75
390.287	200.75
390.512	183.75
390.736	211.75
390.961	184.75
391.186	207.75
391.411	202.75
391.636	214.75
391.86	202.75
392.085	219.75
392.31	215.75
392.534	206.75
392.759	214.75
392.984	204.75
393.208	211.75
393.433	216.75
393.658	212.75
393.882	205.75
394.107	212.75
394.331	218.75
394.556	205.75
394.78	223.75
395.005	204.75
395.229	211.75
395.454	228.75
395.678	213.75
395.903	220.75
396.127	214.75
396.352	231.75
396.576	214.75
396.801	209.75
397.025	219.75
397.249	223.75
397.474	247.75
397.698	234.75
397.922	229.75
398.147	213.75
398.371	231.75
398.595	215.75
398.82	241.75
399.044	241.75
399.268	243.75
399.492	280.75
399.717	299.75
399.941	287.75
400.165	273.75
400.389	256.75
400.613	250.75
400.837	247.75
401.062	241.75
401.286	244.75
401.51	247.75
401.734	231.75
401.958	248.75
402.182	247.75
402.406	262.75
402.63	253.75
402.854	254.75
403.078	265.75
403.302	259.75
403.526	272.75
403.75	279.75
403.974	276.75
404.198	263.75
404.422	268.75
404.645	259.75
404.869	271.75
405.093	270.75
405.317	258.75
405.541	248.75
405.765	280.75
405.988	253.75
406.212	256.75
406.436	267.75
406.66	265.75
406.883	273.75
407.107	279.75
407.331	299.75
407.555	289.75
407.778	280.75
408.002	276.75
408.226	282.75
408.449	294.75
408.673	287.75
408.896	274.75
409.12	277.75
409.344	264.75
409.567	283.75
409.791	257.75
410.014	279.75
410.238	268.75
410.461	277.75
410.685	277.75
410.908	265.75
411.132	273.75
411.355	250.75
411.578	262.75
411.802	268.75
412.025	260.75
412.249	263.75
412.472	264.75
412.695	257.75
412.919	257.75
413.142	264.75
413.365	264.75
413.589	263.75
413.812	274.75
414.035	277.75
414.258	268.75
414.482	271.75
414.705	280.75
414.928	279.75
415.151	275.75
415.374	281.75
415.597	283.75
415.821	275.75
416.044	252.75
416.267	272.75
416.49	274.75
416.713	261.75
416.936	283.75
417.159	281.75
417.382	280.75
417.605	271.75
417.828	268.75
418.051	275.75
418.274	249.75
418.497	289.75
418.72	277.75
418.943	296.75
419.166	315.75
419.389	320.75
419.611	298.75
419.834	294.75
420.057	281.75
420.28	293.75
420.503	284.75
420.726	268.75
420.948	271.75
421.171	293.75
421.394	280.75
421.617	282.75
421.839	282.75
422.062	314.75
422.285	290.75
422.507	284.75
422.73	267.75
422.953	271.75
423.175	279.75
423.398	288.75
423.621	305.75
423.843	292.75
424.066	302.75
424.288	294.75
424.511	304.75
424.733	312.75
424.956	304.75
425.178	324.75
425.401	296.75
425.623	282.75
425.846	279.75
426.068	286.75
426.291	282.75
426.513	275.75
426.735	289.75
426.958	289.75
427.18	276.75
427.402	255.75
427.625	277.75
427.847	273.75
428.069	263.75
428.292	272.75
428.514	272.75
428.736	276.75
428.958	242.75
429.181	271.75
429.403	259.75
429.625	269.75
429.847	255.75
430.069	257.75
430.292	263.75
430.514	249.75
430.736	259.75
430.958	249.75
431.18	266.75
431.402	271.75
431.624	243.75
431.846	212.75
432.068	199.75
432.29	201.75
432.512	228.75
432.734	257.75
432.956	273.75
433.178	288.75
433.4	292.75
433.622	285.75
433.844	271.75
434.066	245.75
434.287	213.75
434.509	202.75
434.731	211.75
434.953	245.75
435.175	251.75
435.397	273.75
435.618	242.75
435.84	228.75
436.062	226.75
436.284	246.75
436.505	258.75
436.727	251.75
436.949	279.75
437.17	252.75
437.392	260.75
437.614	224.75
437.835	205.75
438.057	209.75
438.278	219.75
438.5	257.75
438.721	276.75
438.943	280.75
439.165	274.75
439.386	291.75
439.608	325.75
439.829	289.75
440.05	293.75
440.272	288.75
440.493	301.75
440.715	294.75
440.936	282.75
441.158	299.75
441.379	303.75
441.6	329.75
441.822	310.75
442.043	307.75
442.264	283.75
442.486	278.75
442.707	316.75
442.928	299.75
443.149	307.75
443.371	294.75
443.592	307.75
443.813	298.75
444.034	294.75
444.255	295.75
444.476	289.75
444.698	320.75
444.919	315.75
445.14	596.75
445.361	453.75
445.582	329.75
445.803	296.75
446.024	299.75
446.245	327.75
446.466	307.75
446.687	303.75
446.908	317.75
447.129	305.75
447.35	307.75
447.571	301.75
447.792	283.75
448.013	295.75
448.234	273.75
448.455	283.75
448.675	290.75
448.896	270.75
449.117	281.75
449.338	269.75
449.559	279.75
449.779	271.75
450	272.75
450.221	281.75
450.442	268.75
450.662	270.75
450.883	265.75
451.104	275.75
451.324	263.75
451.545	268.75
451.766	251.75
451.986	250.75
452.207	249.75
452.428	241.75
452.648	232.75
452.869	227.75
453.089	229.75
453.31	228.75
453.53	208.75
453.751	201.75
453.971	202.75
454.192	193.75
454.412	211.75
454.633	233.75
454.853	222.75
455.073	222.75
455.294	231.75
455.514	245.75
455.734	227.75
455.955	236.75
456.175	210.75
456.395	199.75
456.616	200.75
456.836	216.75
457.056	215.75
457.276	187.75
457.497	197.75
457.717	200.75
457.937	196.75
458.157	198.75
458.377	201.75
458.598	188.75
458.818	166.75
459.038	152.75
459.258	170.75
459.478	184.75
459.698	175.75
459.918	185.75
460.138	216.75
460.358	236.75
460.578	255.75
460.798	235.75
461.018	247.75
461.238	246.75
461.458	245.75
461.678	240.75
461.898	251.75
462.118	236.75
462.338	264.75
462.558	249.75
462.777	262.75
462.997	250.75
463.217	281.75
463.437	252.75
463.657	276.75
463.876	245.75
464.096	245.75
464.316	241.75
464.536	263.75
464.755	245.75
464.975	244.75
465.195	248.75
465.414	247.75
465.634	231.75
465.854	236.75
466.073	231.75
466.293	263.75
466.512	255.75
466.732	253.75
466.951	255.75
467.171	263.75
467.391	253.75
467.61	256.75
467.829	251.75
468.049	264.75
468.268	266.75
468.488	256.75
468.707	263.75
468.927	268.75
469.146	273.75
469.365	277.75
469.585	283.75
469.804	285.75
470.023	297.75
470.243	293.75
470.462	295.75
470.681	290.75
470.901	280.75
471.12	290.75
471.339	255.75
471.558	260.75
471.777	280.75
471.997	257.75
472.216	251.75
472.435	221.75
472.654	211.75
472.873	208.75
473.092	222.75
473.311	237.75
473.53	240.75
473.749	242.75
473.968	243.75
474.187	242.75
474.406	229.75
474.625	256.75
474.844	249.75
475.063	244.75
475.282	227.75
475.501	227.75
475.72	233.75
475.939	242.75
476.158	255.75
476.377	241.75
476.596	241.75
476.814	215.75
477.033	193.75
477.252	225.75
477.471	221.75
477.69	266.75
477.908	276.75
478.127	298.75
478.346	283.75
478.564	282.75
478.783	261.75
479.002	296.75
479.22	293.75
479.439	287.75
479.658	244.75
479.876	229.75
480.095	227.75
480.313	237.75
480.532	244.75
480.751	231.75
480.969	203.75
481.188	202.75
481.406	174.75
481.624	177.75
481.843	195.75
482.061	196.75
482.28	210.75
482.498	219.75
482.717	216.75
482.935	244.75
483.153	295.75
483.372	311.75
483.59	305.75
483.808	259.75
484.027	264.75
484.245	271.75
484.463	277.75
484.681	281.75
484.9	271.75
485.118	275.75
485.336	243.75
485.554	195.75
485.772	214.75
485.99	224.75
486.209	229.75
486.427	201.75
486.645	260.75
486.863	276.75
487.081	273.75
487.299	253.75
487.517	273.75
487.735	321.75
487.953	365.75
488.171	359.75
488.389	338.75
488.607	287.75
488.825	250.75
489.043	244.75
489.261	249.75
489.479	271.75
489.696	283.75
489.914	285.75
490.132	290.75
490.35	323.75
490.568	339.75
490.786	353.75
491.003	371.75
491.221	364.75
491.439	389.75
491.657	379.75
491.874	421.75
492.092	472.75
492.31	475.75
492.527	445.75
492.745	414.75
492.963	415.75
493.18	386.75
493.398	385.75
493.615	386.75
493.833	368.75
494.05	358.75
494.268	351.75
494.485	368.75
494.703	365.75
494.92	383.75
495.138	353.75
495.355	371.75
495.573	368.75
495.79	353.75
496.008	377.75
496.225	363.75
496.442	349.75
496.66	345.75
496.877	343.75
497.094	346.75
497.312	361.75
497.529	327.75
497.746	309.75
497.963	295.75
498.181	285.75
498.398	284.75
498.615	296.75
498.832	278.75
499.049	311.75
499.267	328.75
499.484	361.75
499.701	393.75
499.918	424.75
500.135	473.75
500.352	496.75
500.569	504.75
500.786	522.75
501.003	491.75
501.22	437.75
501.437	400.75
501.654	392.75
501.871	369.75
502.088	344.75
502.305	304.75
502.522	318.75
502.739	304.75
502.956	298.75
503.172	297.75
503.389	279.75
503.606	274.75
503.823	267.75
504.04	276.75
504.256	279.75
504.473	261.75
504.69	279.75
