Data from SampD_HRD10591_00036.txt Node
Date: Mon Jan 19 11:47:50 EST 2026
User: Yrep
Spectrometer: HR+D1059
Trigger mode: 0
Integration Time (sec): 3.443000E-1
Scans to average: 1
Electric dark correction enabled: true
Nonlinearity correction enabled: false
Boxcar width: 0
XAxis mode: Wavelengths
Number of Pixels in Spectrum: 2048
>>>>>Begin Spectral Data<<<<<
223.165	-28.56
223.4	-28.56
223.635	-28.56
223.869	-30.56
224.104	-27.56
224.338	-4.56
224.573	-17.56
224.808	-14.56
225.042	-6.56
225.277	-4.56
225.511	0.44
225.746	11.44
225.98	18.44
226.215	10.44
226.449	16.44
226.683	17.44
226.918	21.44
227.152	38.44
227.387	25.44
227.621	51.44
227.856	50.44
228.09	52.44
228.324	58.44
228.559	52.44
228.793	51.44
229.027	76.44
229.262	63.44
229.496	74.44
229.73	88.44
229.964	103.44
230.199	87.44
230.433	89.44
230.667	70.44
230.901	82.44
231.136	86.44
231.37	81.44
231.604	85.44
231.838	72.44
232.072	81.44
232.306	82.44
232.541	98.44
232.775	78.44
233.009	92.44
233.243	69.44
233.477	94.44
233.711	70.44
233.945	87.44
234.179	94.44
234.413	81.44
234.647	98.44
234.881	105.44
235.115	74.44
235.349	80.44
235.583	90.44
235.817	79.44
236.051	76.44
236.285	84.44
236.519	87.44
236.753	83.44
236.987	92.44
237.221	70.44
237.455	88.44
237.689	84.44
237.922	88.44
238.156	94.44
238.39	83.44
238.624	77.44
238.858	82.44
239.091	84.44
239.325	98.44
239.559	78.44
239.793	83.44
240.027	95.44
240.26	95.44
240.494	83.44
240.728	88.44
240.961	82.44
241.195	88.44
241.429	94.44
241.662	100.44
241.896	94.44
242.13	70.44
242.363	74.44
242.597	80.44
242.83	94.44
243.064	81.44
243.298	86.44
243.531	83.44
243.765	72.44
243.998	83.44
244.232	84.44
244.465	82.44
244.699	75.44
244.932	80.44
245.166	86.44
245.399	91.44
245.633	88.44
245.866	91.44
246.099	83.44
246.333	82.44
246.566	83.44
246.8	81.44
247.033	102.44
247.266	81.44
247.5	93.44
247.733	84.44
247.966	85.44
248.2	89.44
248.433	90.44
248.666	83.44
248.899	87.44
249.133	85.44
249.366	93.44
249.599	96.44
249.832	88.44
250.066	102.44
250.299	86.44
250.532	89.44
250.765	97.44
250.998	88.44
251.231	84.44
251.465	94.44
251.698	83.44
251.931	73.44
252.164	82.44
252.397	81.44
252.63	98.44
252.863	92.44
253.096	90.44
253.329	95.44
253.562	100.44
253.795	95.44
254.028	95.44
254.261	96.44
254.494	99.44
254.727	86.44
254.96	98.44
255.193	85.44
255.426	103.44
255.659	79.44
255.892	90.44
256.124	97.44
256.357	90.44
256.59	108.44
256.823	104.44
257.056	91.44
257.289	97.44
257.521	102.44
257.754	94.44
257.987	100.44
258.22	113.44
258.452	100.44
258.685	104.44
258.918	98.44
259.151	102.44
259.383	102.44
259.616	102.44
259.849	84.44
260.081	102.44
260.314	99.44
260.547	87.44
260.779	86.44
261.012	95.44
261.244	86.44
261.477	101.44
261.71	96.44
261.942	94.44
262.175	103.44
262.407	104.44
262.64	93.44
262.872	100.44
263.105	101.44
263.337	97.44
263.57	99.44
263.802	104.44
264.035	90.44
264.267	90.44
264.499	104.44
264.732	101.44
264.964	105.44
265.197	104.44
265.429	100.44
265.661	104.44
265.894	105.44
266.126	104.44
266.358	87.44
266.591	116.44
266.823	108.44
267.055	104.44
267.287	121.44
267.52	93.44
267.752	104.44
267.984	108.44
268.216	96.44
268.448	118.44
268.681	110.44
268.913	108.44
269.145	99.44
269.377	102.44
269.609	98.44
269.841	98.44
270.073	106.44
270.306	98.44
270.538	103.44
270.77	106.44
271.002	104.44
271.234	96.44
271.466	102.44
271.698	103.44
271.93	98.44
272.162	107.44
272.394	118.44
272.626	112.44
272.858	106.44
273.09	106.44
273.322	111.44
273.553	105.44
273.785	119.44
274.017	112.44
274.249	121.44
274.481	90.44
274.713	102.44
274.945	106.44
275.176	100.44
275.408	107.44
275.64	108.44
275.872	102.44
276.104	106.44
276.335	105.44
276.567	92.44
276.799	98.44
277.031	99.44
277.262	99.44
277.494	101.44
277.726	127.44
277.957	111.44
278.189	114.44
278.421	100.44
278.652	105.44
278.884	107.44
279.115	115.44
279.347	122.44
279.579	112.44
279.81	111.44
280.042	124.44
280.273	106.44
280.505	107.44
280.736	98.44
280.968	108.44
281.199	100.44
281.431	119.44
281.662	97.44
281.894	111.44
282.125	106.44
282.356	96.44
282.588	122.44
282.819	105.44
283.051	107.44
283.282	114.44
283.513	115.44
283.745	113.44
283.976	114.44
284.207	121.44
284.439	112.44
284.67	117.44
284.901	120.44
285.132	98.44
285.364	126.44
285.595	116.44
285.826	112.44
286.057	116.44
286.288	107.44
286.52	108.44
286.751	121.44
286.982	110.44
287.213	111.44
287.444	116.44
287.675	126.44
287.906	122.44
288.138	128.44
288.369	104.44
288.6	113.44
288.831	130.44
289.062	132.44
289.293	127.44
289.524	115.44
289.755	114.44
289.986	129.44
290.217	133.44
290.448	121.44
290.679	108.44
290.91	120.44
291.141	107.44
291.371	114.44
291.602	122.44
291.833	103.44
292.064	102.44
292.295	113.44
292.526	100.44
292.757	103.44
292.987	108.44
293.218	116.44
293.449	113.44
293.68	121.44
293.91	127.44
294.141	138.44
294.372	110.44
294.603	121.44
294.833	98.44
295.064	107.44
295.295	126.44
295.525	128.44
295.756	124.44
295.987	135.44
296.217	111.44
296.448	123.44
296.679	114.44
296.909	120.44
297.14	115.44
297.37	114.44
297.601	125.44
297.831	116.44
298.062	128.44
298.292	129.44
298.523	142.44
298.753	114.44
298.984	125.44
299.214	125.44
299.445	122.44
299.675	119.44
299.905	130.44
300.136	120.44
300.366	121.44
300.597	112.44
300.827	113.44
301.057	132.44
301.288	140.44
301.518	119.44
301.748	123.44
301.979	158.44
302.209	129.44
302.439	131.44
302.669	126.44
302.9	126.44
303.13	115.44
303.36	120.44
303.59	133.44
303.82	140.44
304.051	136.44
304.281	122.44
304.511	130.44
304.741	127.44
304.971	132.44
305.201	128.44
305.431	126.44
305.661	120.44
305.891	107.44
306.121	120.44
306.352	128.44
306.582	135.44
306.812	131.44
307.042	121.44
307.272	131.44
307.502	112.44
307.731	126.44
307.961	124.44
308.191	117.44
308.421	134.44
308.651	117.44
308.881	116.44
309.111	113.44
309.341	117.44
309.571	105.44
309.8	124.44
310.03	129.44
310.26	120.44
310.49	122.44
310.72	127.44
310.949	116.44
311.179	121.44
311.409	131.44
311.639	127.44
311.868	134.44
312.098	114.44
312.328	132.44
312.557	126.44
312.787	127.44
313.017	137.44
313.246	131.44
313.476	125.44
313.706	115.44
313.935	123.44
314.165	116.44
314.394	119.44
314.624	117.44
314.853	128.44
315.083	119.44
315.312	118.44
315.542	133.44
315.771	130.44
316.001	120.44
316.23	130.44
316.46	133.44
316.689	130.44
316.919	134.44
317.148	131.44
317.377	128.44
317.607	121.44
317.836	124.44
318.065	124.44
318.295	135.44
318.524	122.44
318.753	117.44
318.983	133.44
319.212	132.44
319.441	125.44
319.67	126.44
319.9	118.44
320.129	126.44
320.358	148.44
320.587	110.44
320.816	120.44
321.046	124.44
321.275	149.44
321.504	138.44
321.733	116.44
321.962	133.44
322.191	131.44
322.42	128.44
322.649	134.44
322.878	129.44
323.108	124.44
323.337	128.44
323.566	116.44
323.795	127.44
324.024	128.44
324.253	124.44
324.482	135.44
324.71	130.44
324.939	131.44
325.168	121.44
325.397	122.44
325.626	133.44
325.855	126.44
326.084	139.44
326.313	125.44
326.542	116.44
326.77	137.44
326.999	134.44
327.228	134.44
327.457	124.44
327.686	127.44
327.914	135.44
328.143	144.44
328.372	129.44
328.6	133.44
328.829	124.44
329.058	134.44
329.287	136.44
329.515	129.44
329.744	124.44
329.972	138.44
330.201	128.44
330.43	132.44
330.658	142.44
330.887	122.44
331.115	147.44
331.344	140.44
331.572	145.44
331.801	129.44
332.03	149.44
332.258	138.44
332.486	137.44
332.715	144.44
332.943	159.44
333.172	136.44
333.4	166.44
333.629	162.44
333.857	152.44
334.085	162.44
334.314	156.44
334.542	144.44
334.771	152.44
334.999	147.44
335.227	156.44
335.455	155.44
335.684	134.44
335.912	124.44
336.14	138.44
336.369	139.44
336.597	139.44
336.825	160.44
337.053	144.44
337.281	157.44
337.51	139.44
337.738	143.44
337.966	118.44
338.194	117.44
338.422	131.44
338.65	157.44
338.878	132.44
339.106	139.44
339.334	118.44
339.562	133.44
339.79	135.44
340.018	120.44
340.246	124.44
340.474	132.44
340.702	121.44
340.93	136.44
341.158	127.44
341.386	127.44
341.614	152.44
341.842	118.44
342.07	138.44
342.298	131.44
342.526	120.44
342.754	128.44
342.981	127.44
343.209	141.44
343.437	168.44
343.665	135.44
343.893	152.44
344.12	156.44
344.348	148.44
344.576	152.44
344.804	139.44
345.031	137.44
345.259	133.44
345.487	140.44
345.714	123.44
345.942	130.44
346.17	138.44
346.397	128.44
346.625	121.44
346.853	135.44
347.08	130.44
347.308	128.44
347.535	124.44
347.763	146.44
347.99	139.44
348.218	135.44
348.445	133.44
348.673	134.44
348.9	147.44
349.128	144.44
349.355	118.44
349.583	126.44
349.81	115.44
350.037	132.44
350.265	139.44
350.492	137.44
350.72	129.44
350.947	136.44
351.174	134.44
351.402	129.44
351.629	130.44
351.856	128.44
352.083	134.44
352.311	128.44
352.538	126.44
352.765	131.44
352.992	136.44
353.22	128.44
353.447	115.44
353.674	122.44
353.901	126.44
354.128	128.44
354.355	126.44
354.583	121.44
354.81	123.44
355.037	131.44
355.264	132.44
355.491	144.44
355.718	122.44
355.945	126.44
356.172	134.44
356.399	154.44
356.626	139.44
356.853	124.44
357.08	126.44
357.307	129.44
357.534	144.44
357.761	135.44
357.988	132.44
358.215	137.44
358.441	130.44
358.668	138.44
358.895	133.44
359.122	147.44
359.349	146.44
359.576	137.44
359.802	122.44
360.029	119.44
360.256	154.44
360.483	126.44
360.709	119.44
360.936	149.44
361.163	144.44
361.39	138.44
361.616	130.44
361.843	130.44
362.07	131.44
362.296	149.44
362.523	144.44
362.749	119.44
362.976	137.44
363.203	155.44
363.429	129.44
363.656	127.44
363.882	128.44
364.109	127.44
364.335	144.44
364.562	120.44
364.788	121.44
365.015	132.44
365.241	138.44
365.468	126.44
365.694	135.44
365.92	126.44
366.147	116.44
366.373	129.44
366.599	130.44
366.826	124.44
367.052	126.44
367.278	144.44
367.505	146.44
367.731	149.44
367.957	132.44
368.184	132.44
368.41	138.44
368.636	155.44
368.862	154.44
369.089	141.44
369.315	142.44
369.541	138.44
369.767	144.44
369.993	159.44
370.219	151.44
370.445	138.44
370.672	142.44
370.898	133.44
371.124	146.44
371.35	152.44
371.576	135.44
371.802	142.44
372.028	141.44
372.254	150.44
372.48	150.44
372.706	159.44
372.932	150.44
373.158	151.44
373.384	169.44
373.61	166.44
373.835	147.44
374.061	162.44
374.287	165.44
374.513	163.44
374.739	166.44
374.965	170.44
375.191	170.44
375.416	150.44
375.642	161.44
375.868	173.44
376.094	158.44
376.319	148.44
376.545	157.44
376.771	137.44
376.997	152.44
377.222	150.44
377.448	166.44
377.674	154.44
377.899	152.44
378.125	153.44
378.35	171.44
378.576	160.44
378.802	158.44
379.027	162.44
379.253	160.44
379.478	159.44
379.704	161.44
379.929	144.44
380.155	151.44
380.38	155.44
380.606	156.44
380.831	177.44
381.057	179.44
381.282	163.44
381.507	174.44
381.733	151.44
381.958	166.44
382.184	180.44
382.409	162.44
382.634	166.44
382.86	169.44
383.085	168.44
383.31	159.44
383.535	182.44
383.761	164.44
383.986	180.44
384.211	173.44
384.436	175.44
384.662	188.44
384.887	173.44
385.112	175.44
385.337	181.44
385.562	170.44
385.787	163.44
386.013	179.44
386.238	196.44
386.463	199.44
386.688	227.44
386.913	194.44
387.138	185.44
387.363	183.44
387.588	203.44
387.813	183.44
388.038	203.44
388.263	190.44
388.488	176.44
388.713	187.44
388.938	194.44
389.163	193.44
389.387	187.44
389.612	188.44
389.837	199.44
390.062	186.44
390.287	201.44
390.512	186.44
390.736	190.44
390.961	178.44
391.186	189.44
391.411	208.44
391.636	195.44
391.86	196.44
392.085	203.44
392.31	194.44
392.534	211.44
392.759	212.44
392.984	217.44
393.208	210.44
393.433	215.44
393.658	213.44
393.882	218.44
394.107	210.44
394.331	197.44
394.556	202.44
394.78	216.44
395.005	220.44
395.229	204.44
395.454	231.44
395.678	208.44
395.903	219.44
396.127	202.44
396.352	207.44
396.576	210.44
396.801	200.44
397.025	227.44
397.249	227.44
397.474	218.44
397.698	208.44
397.922	206.44
398.147	217.44
398.371	215.44
398.595	231.44
398.82	252.44
399.044	236.44
399.268	242.44
399.492	293.44
399.717	290.44
399.941	255.44
400.165	284.44
400.389	240.44
400.613	216.44
400.837	249.44
401.062	242.44
401.286	230.44
401.51	251.44
401.734	225.44
401.958	242.44
402.182	252.44
402.406	243.44
402.63	241.44
402.854	251.44
403.078	244.44
403.302	258.44
403.526	257.44
403.75	268.44
403.974	271.44
404.198	265.44
404.422	262.44
404.645	255.44
404.869	257.44
405.093	259.44
405.317	261.44
405.541	270.44
405.765	260.44
405.988	266.44
406.212	272.44
406.436	272.44
406.66	282.44
406.883	279.44
407.107	281.44
407.331	281.44
407.555	262.44
407.778	270.44
408.002	272.44
408.226	288.44
408.449	298.44
408.673	271.44
408.896	258.44
409.12	276.44
409.344	267.44
409.567	274.44
409.791	281.44
410.014	284.44
410.238	281.44
410.461	258.44
410.685	275.44
410.908	250.44
411.132	257.44
411.355	256.44
411.578	249.44
411.802	259.44
412.025	264.44
412.249	275.44
412.472	284.44
412.695	271.44
412.919	257.44
413.142	260.44
413.365	276.44
413.589	257.44
413.812	256.44
414.035	272.44
414.258	260.44
414.482	278.44
414.705	274.44
414.928	274.44
415.151	248.44
415.374	276.44
415.597	251.44
415.821	259.44
416.044	274.44
416.267	270.44
416.49	274.44
416.713	267.44
416.936	269.44
417.159	272.44
417.382	267.44
417.605	270.44
417.828	282.44
418.051	292.44
418.274	283.44
418.497	289.44
418.72	284.44
418.943	276.44
419.166	263.44
419.389	306.44
419.611	284.44
419.834	259.44
420.057	302.44
420.28	262.44
420.503	295.44
420.726	263.44
420.948	262.44
421.171	282.44
421.394	297.44
421.617	272.44
421.839	308.44
422.062	290.44
422.285	272.44
422.507	281.44
422.73	252.44
422.953	280.44
423.175	283.44
423.398	270.44
423.621	279.44
423.843	308.44
424.066	300.44
424.288	304.44
424.511	287.44
424.733	305.44
424.956	286.44
425.178	280.44
425.401	308.44
425.623	288.44
425.846	287.44
426.068	277.44
426.291	259.44
426.513	247.44
426.735	249.44
426.958	270.44
427.18	265.44
427.402	260.44
427.625	273.44
427.847	253.44
428.069	264.44
428.292	262.44
428.514	258.44
428.736	250.44
428.958	265.44
429.181	259.44
429.403	271.44
429.625	276.44
429.847	257.44
430.069	259.44
430.292	273.44
430.514	246.44
430.736	255.44
430.958	273.44
431.18	250.44
431.402	251.44
431.624	231.44
431.846	209.44
432.068	191.44
432.29	210.44
432.512	226.44
432.734	251.44
432.956	276.44
433.178	277.44
433.4	286.44
433.622	268.44
433.844	280.44
434.066	257.44
434.287	201.44
434.509	200.44
434.731	215.44
434.953	244.44
435.175	257.44
435.397	263.44
435.618	254.44
435.84	222.44
436.062	246.44
436.284	259.44
436.505	255.44
436.727	272.44
436.949	270.44
437.17	250.44
437.392	235.44
437.614	239.44
437.835	217.44
438.057	194.44
438.278	225.44
438.5	258.44
438.721	271.44
438.943	272.44
439.165	276.44
439.386	293.44
439.608	287.44
439.829	281.44
440.05	291.44
440.272	295.44
440.493	306.44
440.715	288.44
440.936	288.44
441.158	299.44
441.379	297.44
441.6	306.44
441.822	322.44
442.043	292.44
442.264	313.44
442.486	298.44
442.707	283.44
442.928	294.44
443.149	288.44
443.371	287.44
443.592	283.44
443.813	280.44
444.034	287.44
444.255	301.44
444.476	308.44
444.698	322.44
444.919	335.44
445.14	580.44
445.361	440.44
445.582	307.44
445.803	311.44
446.024	302.44
446.245	318.44
446.466	301.44
446.687	311.44
446.908	320.44
447.129	321.44
447.35	296.44
447.571	304.44
447.792	289.44
448.013	283.44
448.234	283.44
448.455	284.44
448.675	271.44
448.896	267.44
449.117	277.44
449.338	289.44
449.559	280.44
449.779	277.44
450	265.44
450.221	267.44
450.442	255.44
450.662	275.44
450.883	246.44
451.104	258.44
451.324	247.44
451.545	248.44
451.766	258.44
451.986	247.44
452.207	260.44
452.428	237.44
452.648	249.44
452.869	242.44
453.089	225.44
453.31	219.44
453.53	200.44
453.751	185.44
453.971	192.44
454.192	210.44
454.412	193.44
454.633	222.44
454.853	211.44
455.073	234.44
455.294	225.44
455.514	236.44
455.734	227.44
455.955	234.44
456.175	228.44
456.395	215.44
456.616	200.44
456.836	206.44
457.056	210.44
457.276	181.44
457.497	193.44
457.717	205.44
457.937	199.44
458.157	198.44
458.377	190.44
458.598	176.44
458.818	159.44
459.038	165.44
459.258	167.44
459.478	171.44
459.698	185.44
459.918	173.44
460.138	224.44
460.358	231.44
460.578	231.44
460.798	239.44
461.018	237.44
461.238	231.44
461.458	224.44
461.678	232.44
461.898	246.44
462.118	244.44
462.338	236.44
462.558	244.44
462.777	256.44
462.997	258.44
463.217	260.44
463.437	255.44
463.657	231.44
463.876	244.44
464.096	249.44
464.316	236.44
464.536	250.44
464.755	254.44
464.975	247.44
465.195	246.44
465.414	257.44
465.634	235.44
465.854	227.44
466.073	248.44
466.293	236.44
466.512	239.44
466.732	249.44
466.951	264.44
467.171	276.44
467.391	273.44
467.61	278.44
467.829	246.44
468.049	260.44
468.268	252.44
468.488	248.44
468.707	257.44
468.927	265.44
469.146	267.44
469.365	264.44
469.585	258.44
469.804	280.44
470.023	278.44
470.243	288.44
470.462	264.44
470.681	271.44
470.901	266.44
471.12	286.44
471.339	266.44
471.558	266.44
471.777	272.44
471.997	248.44
472.216	230.44
472.435	201.44
472.654	204.44
472.873	204.44
473.092	218.44
473.311	222.44
473.53	234.44
473.749	244.44
473.968	240.44
474.187	225.44
474.406	212.44
474.625	238.44
474.844	262.44
475.063	251.44
475.282	257.44
475.501	227.44
475.72	224.44
475.939	238.44
476.158	244.44
476.377	222.44
476.596	222.44
476.814	210.44
477.033	210.44
477.252	213.44
477.471	248.44
477.69	254.44
477.908	255.44
478.127	283.44
478.346	283.44
478.564	273.44
478.783	264.44
479.002	294.44
479.22	286.44
479.439	262.44
479.658	254.44
479.876	224.44
480.095	212.44
480.313	248.44
480.532	240.44
480.751	238.44
480.969	193.44
481.188	188.44
481.406	191.44
481.624	162.44
481.843	178.44
482.061	193.44
482.28	220.44
482.498	212.44
482.717	195.44
482.935	241.44
483.153	297.44
483.372	297.44
483.59	287.44
483.808	271.44
484.027	249.44
484.245	247.44
484.463	290.44
484.681	288.44
484.9	260.44
485.118	259.44
485.336	231.44
485.554	231.44
485.772	200.44
485.99	200.44
486.209	207.44
486.427	215.44
486.645	263.44
486.863	269.44
487.081	257.44
487.299	262.44
487.517	282.44
487.735	336.44
487.953	376.44
488.171	348.44
488.389	331.44
488.607	294.44
488.825	262.44
489.043	248.44
489.261	256.44
489.479	276.44
489.696	272.44
489.914	273.44
490.132	300.44
490.35	319.44
490.568	320.44
490.786	335.44
491.003	362.44
491.221	376.44
491.439	383.44
491.657	417.44
491.874	427.44
492.092	469.44
492.31	482.44
492.527	459.44
492.745	414.44
492.963	396.44
493.18	401.44
493.398	380.44
493.615	351.44
493.833	352.44
494.05	378.44
494.268	347.44
494.485	364.44
494.703	374.44
494.92	356.44
495.138	351.44
495.355	368.44
495.573	358.44
495.79	348.44
496.008	353.44
496.225	361.44
496.442	348.44
496.66	350.44
496.877	348.44
497.094	360.44
497.312	334.44
497.529	320.44
497.746	324.44
497.963	295.44
498.181	287.44
498.398	275.44
498.615	280.44
498.832	289.44
499.049	297.44
499.267	329.44
499.484	332.44
499.701	369.44
499.918	419.44
500.135	471.44
500.352	507.44
500.569	513.44
500.786	498.44
501.003	483.44
501.22	438.44
501.437	382.44
501.654	358.44
501.871	344.44
502.088	327.44
502.305	306.44
502.522	316.44
502.739	307.44
502.956	294.44
503.172	280.44
503.389	254.44
503.606	259.44
503.823	260.44
504.04	275.44
504.256	254.44
504.473	263.44
504.69	271.44
