Data from SampD_HRD10591_00082.txt Node
Date: Mon Jan 19 11:48:06 EST 2026
User: Yrep
Spectrometer: HR+D1059
Trigger mode: 0
Integration Time (sec): 3.443000E-1
Scans to average: 1
Electric dark correction enabled: true
Nonlinearity correction enabled: false
Boxcar width: 0
XAxis mode: Wavelengths
Number of Pixels in Spectrum: 2048
>>>>>Begin Spectral Data<<<<<
223.165	-21.25
223.4	-21.25
223.635	-21.25
223.869	-20.25
224.104	-19.25
224.338	-11.25
224.573	-21.25
224.808	-11.25
225.042	-8.25
225.277	-4.25
225.511	4.75
225.746	7.75
225.98	-0.25
226.215	6.75
226.449	21.75
226.683	10.75
226.918	23.75
227.152	41.75
227.387	42.75
227.621	31.75
227.856	30.75
228.09	46.75
228.324	53.75
228.559	52.75
228.793	59.75
229.027	64.75
229.262	77.75
229.496	70.75
229.73	69.75
229.964	80.75
230.199	83.75
230.433	74.75
230.667	88.75
230.901	88.75
231.136	80.75
231.37	82.75
231.604	93.75
231.838	79.75
232.072	68.75
232.306	92.75
232.541	84.75
232.775	73.75
233.009	110.75
233.243	93.75
233.477	92.75
233.711	84.75
233.945	87.75
234.179	87.75
234.413	88.75
234.647	92.75
234.881	91.75
235.115	92.75
235.349	93.75
235.583	90.75
235.817	90.75
236.051	89.75
236.285	79.75
236.519	80.75
236.753	80.75
236.987	77.75
237.221	67.75
237.455	91.75
237.689	93.75
237.922	75.75
238.156	82.75
238.39	85.75
238.624	92.75
238.858	96.75
239.091	68.75
239.325	73.75
239.559	75.75
239.793	94.75
240.027	101.75
240.26	74.75
240.494	72.75
240.728	74.75
240.961	74.75
241.195	83.75
241.429	93.75
241.662	88.75
241.896	90.75
242.13	68.75
242.363	75.75
242.597	88.75
242.83	87.75
243.064	85.75
243.298	96.75
243.531	95.75
243.765	81.75
243.998	95.75
244.232	98.75
244.465	93.75
244.699	81.75
244.932	65.75
245.166	79.75
245.399	84.75
245.633	84.75
245.866	98.75
246.099	105.75
246.333	90.75
246.566	102.75
246.8	85.75
247.033	87.75
247.266	87.75
247.5	94.75
247.733	79.75
247.966	89.75
248.2	93.75
248.433	87.75
248.666	90.75
248.899	99.75
249.133	84.75
249.366	89.75
249.599	98.75
249.832	103.75
250.066	86.75
250.299	98.75
250.532	91.75
250.765	82.75
250.998	96.75
251.231	96.75
251.465	97.75
251.698	87.75
251.931	105.75
252.164	107.75
252.397	87.75
252.63	85.75
252.863	94.75
253.096	99.75
253.329	99.75
253.562	82.75
253.795	92.75
254.028	110.75
254.261	87.75
254.494	87.75
254.727	103.75
254.96	86.75
255.193	95.75
255.426	84.75
255.659	97.75
255.892	112.75
256.124	95.75
256.357	103.75
256.59	100.75
256.823	106.75
257.056	99.75
257.289	99.75
257.521	102.75
257.754	99.75
257.987	86.75
258.22	113.75
258.452	92.75
258.685	99.75
258.918	100.75
259.151	103.75
259.383	99.75
259.616	87.75
259.849	107.75
260.081	88.75
260.314	106.75
260.547	112.75
260.779	116.75
261.012	97.75
261.244	105.75
261.477	99.75
261.71	102.75
261.942	98.75
262.175	107.75
262.407	102.75
262.64	92.75
262.872	97.75
263.105	96.75
263.337	90.75
263.57	100.75
263.802	102.75
264.035	112.75
264.267	98.75
264.499	98.75
264.732	105.75
264.964	110.75
265.197	102.75
265.429	106.75
265.661	101.75
265.894	90.75
266.126	103.75
266.358	102.75
266.591	117.75
266.823	97.75
267.055	108.75
267.287	96.75
267.52	108.75
267.752	101.75
267.984	102.75
268.216	96.75
268.448	115.75
268.681	106.75
268.913	97.75
269.145	99.75
269.377	108.75
269.609	85.75
269.841	101.75
270.073	89.75
270.306	104.75
270.538	110.75
270.77	95.75
271.002	102.75
271.234	98.75
271.466	107.75
271.698	100.75
271.93	101.75
272.162	112.75
272.394	117.75
272.626	100.75
272.858	102.75
273.09	99.75
273.322	119.75
273.553	107.75
273.785	111.75
274.017	116.75
274.249	105.75
274.481	108.75
274.713	97.75
274.945	109.75
275.176	104.75
275.408	105.75
275.64	97.75
275.872	109.75
276.104	112.75
276.335	113.75
276.567	103.75
276.799	111.75
277.031	98.75
277.262	120.75
277.494	106.75
277.726	111.75
277.957	107.75
278.189	116.75
278.421	91.75
278.652	107.75
278.884	99.75
279.115	128.75
279.347	107.75
279.579	119.75
279.81	105.75
280.042	106.75
280.273	109.75
280.505	123.75
280.736	120.75
280.968	123.75
281.199	118.75
281.431	122.75
281.662	125.75
281.894	106.75
282.125	108.75
282.356	107.75
282.588	112.75
282.819	116.75
283.051	122.75
283.282	113.75
283.513	136.75
283.745	138.75
283.976	102.75
284.207	100.75
284.439	125.75
284.67	123.75
284.901	127.75
285.132	116.75
285.364	118.75
285.595	104.75
285.826	115.75
286.057	119.75
286.288	93.75
286.52	121.75
286.751	97.75
286.982	108.75
287.213	124.75
287.444	116.75
287.675	111.75
287.906	122.75
288.138	121.75
288.369	117.75
288.6	116.75
288.831	118.75
289.062	117.75
289.293	122.75
289.524	125.75
289.755	128.75
289.986	104.75
290.217	112.75
290.448	120.75
290.679	97.75
290.91	124.75
291.141	119.75
291.371	108.75
291.602	114.75
291.833	121.75
292.064	125.75
292.295	131.75
292.526	126.75
292.757	120.75
292.987	104.75
293.218	127.75
293.449	128.75
293.68	107.75
293.91	108.75
294.141	127.75
294.372	115.75
294.603	114.75
294.833	124.75
295.064	132.75
295.295	119.75
295.525	115.75
295.756	122.75
295.987	124.75
296.217	132.75
296.448	121.75
296.679	115.75
296.909	122.75
297.14	122.75
297.37	128.75
297.601	125.75
297.831	127.75
298.062	125.75
298.292	119.75
298.523	122.75
298.753	128.75
298.984	109.75
299.214	120.75
299.445	124.75
299.675	128.75
299.905	115.75
300.136	128.75
300.366	140.75
300.597	120.75
300.827	131.75
301.057	125.75
301.288	119.75
301.518	136.75
301.748	125.75
301.979	163.75
302.209	115.75
302.439	137.75
302.669	125.75
302.9	119.75
303.13	132.75
303.36	134.75
303.59	120.75
303.82	138.75
304.051	119.75
304.281	135.75
304.511	129.75
304.741	120.75
304.971	121.75
305.201	129.75
305.431	121.75
305.661	143.75
305.891	129.75
306.121	137.75
306.352	123.75
306.582	134.75
306.812	120.75
307.042	109.75
307.272	124.75
307.502	122.75
307.731	126.75
307.961	124.75
308.191	117.75
308.421	143.75
308.651	136.75
308.881	129.75
309.111	135.75
309.341	124.75
309.571	118.75
309.8	119.75
310.03	122.75
310.26	116.75
310.49	124.75
310.72	132.75
310.949	126.75
311.179	120.75
311.409	123.75
311.639	134.75
311.868	118.75
312.098	123.75
312.328	133.75
312.557	137.75
312.787	116.75
313.017	143.75
313.246	130.75
313.476	136.75
313.706	131.75
313.935	138.75
314.165	125.75
314.394	128.75
314.624	128.75
314.853	119.75
315.083	125.75
315.312	132.75
315.542	129.75
315.771	134.75
316.001	135.75
316.23	124.75
316.46	136.75
316.689	122.75
316.919	127.75
317.148	135.75
317.377	128.75
317.607	126.75
317.836	132.75
318.065	135.75
318.295	131.75
318.524	113.75
318.753	127.75
318.983	95.75
319.212	127.75
319.441	119.75
319.67	140.75
319.9	123.75
320.129	133.75
320.358	144.75
320.587	135.75
320.816	118.75
321.046	121.75
321.275	133.75
321.504	136.75
321.733	123.75
321.962	126.75
322.191	124.75
322.42	128.75
322.649	121.75
322.878	137.75
323.108	121.75
323.337	115.75
323.566	123.75
323.795	128.75
324.024	141.75
324.253	127.75
324.482	136.75
324.71	132.75
324.939	137.75
325.168	123.75
325.397	125.75
325.626	146.75
325.855	135.75
326.084	132.75
326.313	144.75
326.542	130.75
326.77	132.75
326.999	133.75
327.228	130.75
327.457	140.75
327.686	131.75
327.914	139.75
328.143	125.75
328.372	128.75
328.6	138.75
328.829	147.75
329.058	130.75
329.287	120.75
329.515	131.75
329.744	136.75
329.972	140.75
330.201	136.75
330.43	144.75
330.658	127.75
330.887	129.75
331.115	152.75
331.344	150.75
331.572	150.75
331.801	122.75
332.03	130.75
332.258	137.75
332.486	135.75
332.715	151.75
332.943	164.75
333.172	149.75
333.4	145.75
333.629	152.75
333.857	157.75
334.085	165.75
334.314	148.75
334.542	161.75
334.771	163.75
334.999	139.75
335.227	148.75
335.455	131.75
335.684	147.75
335.912	156.75
336.14	151.75
336.369	149.75
336.597	148.75
336.825	125.75
337.053	130.75
337.281	145.75
337.51	129.75
337.738	161.75
337.966	132.75
338.194	135.75
338.422	136.75
338.65	151.75
338.878	138.75
339.106	128.75
339.334	135.75
339.562	130.75
339.79	134.75
340.018	134.75
340.246	148.75
340.474	155.75
340.702	135.75
340.93	128.75
341.158	130.75
341.386	130.75
341.614	128.75
341.842	130.75
342.07	131.75
342.298	126.75
342.526	126.75
342.754	144.75
342.981	134.75
343.209	128.75
343.437	169.75
343.665	143.75
343.893	145.75
344.12	166.75
344.348	139.75
344.576	134.75
344.804	129.75
345.031	137.75
345.259	124.75
345.487	135.75
345.714	137.75
345.942	138.75
346.17	134.75
346.397	137.75
346.625	147.75
346.853	128.75
347.08	113.75
347.308	130.75
347.535	126.75
347.763	139.75
347.99	148.75
348.218	148.75
348.445	133.75
348.673	122.75
348.9	133.75
349.128	123.75
349.355	125.75
349.583	124.75
349.81	139.75
350.037	138.75
350.265	133.75
350.492	110.75
350.72	121.75
350.947	129.75
351.174	127.75
351.402	139.75
351.629	139.75
351.856	131.75
352.083	126.75
352.311	136.75
352.538	130.75
352.765	137.75
352.992	144.75
353.22	131.75
353.447	113.75
353.674	114.75
353.901	139.75
354.128	140.75
354.355	129.75
354.583	120.75
354.81	143.75
355.037	127.75
355.264	140.75
355.491	123.75
355.718	124.75
355.945	130.75
356.172	128.75
356.399	143.75
356.626	135.75
356.853	128.75
357.08	121.75
357.307	130.75
357.534	123.75
357.761	139.75
357.988	131.75
358.215	138.75
358.441	119.75
358.668	132.75
358.895	124.75
359.122	132.75
359.349	148.75
359.576	146.75
359.802	126.75
360.029	148.75
360.256	119.75
360.483	135.75
360.709	130.75
360.936	143.75
361.163	144.75
361.39	111.75
361.616	128.75
361.843	128.75
362.07	138.75
362.296	126.75
362.523	128.75
362.749	126.75
362.976	122.75
363.203	138.75
363.429	132.75
363.656	136.75
363.882	132.75
364.109	131.75
364.335	124.75
364.562	133.75
364.788	131.75
365.015	127.75
365.241	132.75
365.468	136.75
365.694	131.75
365.92	133.75
366.147	130.75
366.373	139.75
366.599	131.75
366.826	138.75
367.052	137.75
367.278	143.75
367.505	132.75
367.731	151.75
367.957	135.75
368.184	133.75
368.41	147.75
368.636	141.75
368.862	149.75
369.089	145.75
369.315	150.75
369.541	155.75
369.767	140.75
369.993	151.75
370.219	155.75
370.445	132.75
370.672	152.75
370.898	139.75
371.124	150.75
371.35	130.75
371.576	136.75
371.802	144.75
372.028	155.75
372.254	155.75
372.48	154.75
372.706	140.75
372.932	149.75
373.158	165.75
373.384	164.75
373.61	145.75
373.835	154.75
374.061	150.75
374.287	148.75
374.513	147.75
374.739	149.75
374.965	165.75
375.191	136.75
375.416	159.75
375.642	161.75
375.868	175.75
376.094	168.75
376.319	152.75
376.545	159.75
376.771	154.75
376.997	145.75
377.222	149.75
377.448	159.75
377.674	162.75
377.899	164.75
378.125	154.75
378.35	157.75
378.576	150.75
378.802	163.75
379.027	159.75
379.253	172.75
379.478	161.75
379.704	160.75
379.929	152.75
380.155	147.75
380.38	151.75
380.606	157.75
380.831	158.75
381.057	192.75
381.282	173.75
381.507	163.75
381.733	177.75
381.958	174.75
382.184	170.75
382.409	165.75
382.634	177.75
382.86	156.75
383.085	165.75
383.31	169.75
383.535	176.75
383.761	176.75
383.986	181.75
384.211	167.75
384.436	183.75
384.662	176.75
384.887	185.75
385.112	164.75
385.337	188.75
385.562	196.75
385.787	181.75
386.013	194.75
386.238	193.75
386.463	194.75
386.688	225.75
386.913	183.75
387.138	191.75
387.363	177.75
387.588	192.75
387.813	199.75
388.038	193.75
388.263	186.75
388.488	186.75
388.713	195.75
388.938	187.75
389.163	180.75
389.387	186.75
389.612	196.75
389.837	188.75
390.062	202.75
390.287	193.75
390.512	196.75
390.736	193.75
390.961	196.75
391.186	203.75
391.411	202.75
391.636	204.75
391.86	199.75
392.085	218.75
392.31	216.75
392.534	207.75
392.759	208.75
392.984	197.75
393.208	201.75
393.433	212.75
393.658	213.75
393.882	227.75
394.107	216.75
394.331	222.75
394.556	201.75
394.78	217.75
395.005	210.75
395.229	207.75
395.454	215.75
395.678	224.75
395.903	216.75
396.127	223.75
396.352	225.75
396.576	216.75
396.801	215.75
397.025	209.75
397.249	199.75
397.474	220.75
397.698	207.75
397.922	220.75
398.147	214.75
398.371	219.75
398.595	228.75
398.82	232.75
399.044	240.75
399.268	266.75
399.492	294.75
399.717	289.75
399.941	277.75
400.165	272.75
400.389	261.75
400.613	255.75
400.837	257.75
401.062	239.75
401.286	226.75
401.51	249.75
401.734	230.75
401.958	234.75
402.182	252.75
402.406	251.75
402.63	235.75
402.854	239.75
403.078	251.75
403.302	236.75
403.526	244.75
403.75	273.75
403.974	278.75
404.198	255.75
404.422	289.75
404.645	273.75
404.869	250.75
405.093	261.75
405.317	252.75
405.541	275.75
405.765	253.75
405.988	276.75
406.212	279.75
406.436	244.75
406.66	261.75
406.883	249.75
407.107	282.75
407.331	271.75
407.555	271.75
407.778	290.75
408.002	276.75
408.226	283.75
408.449	261.75
408.673	279.75
408.896	273.75
409.12	267.75
409.344	252.75
409.567	277.75
409.791	272.75
410.014	271.75
410.238	265.75
410.461	276.75
410.685	271.75
410.908	274.75
411.132	279.75
411.355	264.75
411.578	263.75
411.802	275.75
412.025	241.75
412.249	241.75
412.472	257.75
412.695	267.75
412.919	266.75
413.142	258.75
413.365	254.75
413.589	271.75
413.812	245.75
414.035	271.75
414.258	265.75
414.482	256.75
414.705	256.75
414.928	260.75
415.151	261.75
415.374	250.75
415.597	251.75
415.821	273.75
416.044	262.75
416.267	266.75
416.49	287.75
416.713	269.75
416.936	283.75
417.159	273.75
417.382	260.75
417.605	263.75
417.828	273.75
418.051	267.75
418.274	289.75
418.497	288.75
418.72	279.75
418.943	284.75
419.166	319.75
419.389	279.75
419.611	290.75
419.834	297.75
420.057	297.75
420.28	258.75
420.503	269.75
420.726	275.75
420.948	264.75
421.171	277.75
421.394	279.75
421.617	289.75
421.839	295.75
422.062	285.75
422.285	273.75
422.507	284.75
422.73	265.75
422.953	276.75
423.175	268.75
423.398	280.75
423.621	271.75
423.843	285.75
424.066	299.75
424.288	305.75
424.511	317.75
424.733	305.75
424.956	284.75
425.178	288.75
425.401	288.75
425.623	277.75
425.846	277.75
426.068	268.75
426.291	258.75
426.513	273.75
426.735	268.75
426.958	283.75
427.18	266.75
427.402	261.75
427.625	270.75
427.847	265.75
428.069	269.75
428.292	268.75
428.514	258.75
428.736	255.75
428.958	249.75
429.181	264.75
429.403	254.75
429.625	248.75
429.847	280.75
430.069	273.75
430.292	245.75
430.514	261.75
430.736	255.75
430.958	254.75
431.18	266.75
431.402	252.75
431.624	218.75
431.846	211.75
432.068	193.75
432.29	192.75
432.512	237.75
432.734	249.75
432.956	272.75
433.178	289.75
433.4	287.75
433.622	278.75
433.844	284.75
434.066	247.75
434.287	213.75
434.509	212.75
434.731	199.75
434.953	219.75
435.175	258.75
435.397	257.75
435.618	220.75
435.84	222.75
436.062	232.75
436.284	234.75
436.505	251.75
436.727	274.75
436.949	278.75
437.17	256.75
437.392	247.75
437.614	223.75
437.835	199.75
438.057	224.75
438.278	211.75
438.5	249.75
438.721	279.75
438.943	285.75
439.165	265.75
439.386	271.75
439.608	301.75
439.829	304.75
440.05	305.75
440.272	282.75
440.493	307.75
440.715	288.75
440.936	291.75
441.158	313.75
441.379	311.75
441.6	310.75
441.822	299.75
442.043	295.75
442.264	291.75
442.486	303.75
442.707	294.75
442.928	272.75
443.149	290.75
443.371	307.75
443.592	302.75
443.813	307.75
444.034	299.75
444.255	304.75
444.476	315.75
444.698	321.75
444.919	308.75
445.14	578.75
445.361	436.75
445.582	329.75
445.803	310.75
446.024	299.75
446.245	295.75
446.466	300.75
446.687	306.75
446.908	325.75
447.129	323.75
447.35	302.75
447.571	290.75
447.792	286.75
448.013	274.75
448.234	285.75
448.455	262.75
448.675	279.75
448.896	269.75
449.117	279.75
449.338	264.75
449.559	267.75
449.779	263.75
450	268.75
450.221	274.75
450.442	277.75
450.662	267.75
450.883	266.75
451.104	254.75
451.324	236.75
451.545	248.75
451.766	263.75
451.986	260.75
452.207	245.75
452.428	240.75
452.648	229.75
452.869	230.75
453.089	204.75
453.31	200.75
453.53	191.75
453.751	194.75
453.971	196.75
454.192	193.75
454.412	193.75
454.633	226.75
454.853	224.75
455.073	216.75
455.294	230.75
455.514	234.75
455.734	230.75
455.955	221.75
456.175	193.75
456.395	210.75
456.616	198.75
456.836	186.75
457.056	192.75
457.276	199.75
457.497	201.75
457.717	195.75
457.937	188.75
458.157	195.75
458.377	198.75
458.598	165.75
458.818	156.75
459.038	156.75
459.258	191.75
459.478	175.75
459.698	192.75
459.918	208.75
460.138	217.75
460.358	217.75
460.578	236.75
460.798	243.75
461.018	266.75
461.238	238.75
461.458	249.75
461.678	238.75
461.898	238.75
462.118	232.75
462.338	239.75
462.558	244.75
462.777	247.75
462.997	266.75
463.217	260.75
463.437	266.75
463.657	247.75
463.876	258.75
464.096	224.75
464.316	220.75
464.536	258.75
464.755	250.75
464.975	251.75
465.195	248.75
465.414	230.75
465.634	224.75
465.854	225.75
466.073	236.75
466.293	239.75
466.512	253.75
466.732	258.75
466.951	252.75
467.171	272.75
467.391	264.75
467.61	262.75
467.829	260.75
468.049	279.75
468.268	243.75
468.488	238.75
468.707	260.75
468.927	275.75
469.146	271.75
469.365	275.75
469.585	272.75
469.804	273.75
470.023	281.75
470.243	286.75
470.462	277.75
470.681	287.75
470.901	279.75
471.12	288.75
471.339	276.75
471.558	273.75
471.777	265.75
471.997	275.75
472.216	236.75
472.435	219.75
472.654	204.75
472.873	211.75
473.092	221.75
473.311	222.75
473.53	229.75
473.749	239.75
473.968	243.75
474.187	216.75
474.406	217.75
474.625	251.75
474.844	254.75
475.063	237.75
475.282	239.75
475.501	220.75
475.72	237.75
475.939	232.75
476.158	240.75
476.377	227.75
476.596	225.75
476.814	200.75
477.033	197.75
477.252	216.75
477.471	251.75
477.69	268.75
477.908	263.75
478.127	278.75
478.346	264.75
478.564	259.75
478.783	273.75
479.002	287.75
479.22	283.75
479.439	279.75
479.658	227.75
479.876	225.75
480.095	213.75
480.313	235.75
480.532	259.75
480.751	235.75
480.969	201.75
481.188	192.75
481.406	179.75
481.624	171.75
481.843	165.75
482.061	184.75
482.28	230.75
482.498	215.75
482.717	202.75
482.935	252.75
483.153	282.75
483.372	295.75
483.59	285.75
483.808	266.75
484.027	235.75
484.245	236.75
484.463	274.75
484.681	299.75
484.9	272.75
485.118	252.75
485.336	230.75
485.554	196.75
485.772	186.75
485.99	205.75
486.209	222.75
486.427	227.75
486.645	240.75
486.863	280.75
487.081	277.75
487.299	242.75
487.517	301.75
487.735	333.75
487.953	382.75
488.171	351.75
488.389	332.75
488.607	280.75
488.825	267.75
489.043	247.75
489.261	266.75
489.479	260.75
489.696	268.75
489.914	280.75
490.132	290.75
490.35	320.75
490.568	321.75
490.786	331.75
491.003	380.75
491.221	357.75
491.439	377.75
491.657	415.75
491.874	439.75
492.092	460.75
492.31	472.75
492.527	453.75
492.745	407.75
492.963	425.75
493.18	375.75
493.398	363.75
493.615	367.75
493.833	364.75
494.05	377.75
494.268	384.75
494.485	366.75
494.703	359.75
494.92	370.75
495.138	363.75
495.355	359.75
495.573	367.75
495.79	357.75
496.008	366.75
496.225	371.75
496.442	336.75
496.66	357.75
496.877	335.75
497.094	351.75
497.312	331.75
497.529	325.75
497.746	320.75
497.963	289.75
498.181	276.75
498.398	281.75
498.615	276.75
498.832	277.75
499.049	293.75
499.267	320.75
499.484	339.75
499.701	377.75
499.918	409.75
500.135	450.75
500.352	501.75
500.569	509.75
500.786	511.75
501.003	485.75
501.22	443.75
501.437	395.75
501.654	355.75
501.871	341.75
502.088	349.75
502.305	317.75
502.522	313.75
502.739	288.75
502.956	286.75
503.172	280.75
503.389	262.75
503.606	247.75
503.823	260.75
504.04	272.75
504.256	268.75
504.473	267.75
504.69	278.75
