Data from SampD_HRD10591_00070.txt Node
Date: Mon Jan 19 11:48:02 EST 2026
User: Yrep
Spectrometer: HR+D1059
Trigger mode: 0
Integration Time (sec): 3.443000E-1
Scans to average: 1
Electric dark correction enabled: true
Nonlinearity correction enabled: false
Boxcar width: 0
XAxis mode: Wavelengths
Number of Pixels in Spectrum: 2048
>>>>>Begin Spectral Data<<<<<
223.165	-16.69
223.4	-16.69
223.635	-16.69
223.869	-22.69
224.104	-27.69
224.338	-14.69
224.573	-8.69
224.808	-12.69
225.042	-4.69
225.277	-2.69
225.511	-10.69
225.746	12.31
225.98	-3.69
226.215	8.31
226.449	21.31
226.683	19.31
226.918	24.31
227.152	39.31
227.387	31.31
227.621	27.31
227.856	53.31
228.09	32.31
228.324	58.31
228.559	59.31
228.793	69.31
229.027	70.31
229.262	73.31
229.496	67.31
229.73	66.31
229.964	78.31
230.199	60.31
230.433	80.31
230.667	74.31
230.901	85.31
231.136	75.31
231.37	63.31
231.604	82.31
231.838	70.31
232.072	80.31
232.306	80.31
232.541	87.31
232.775	86.31
233.009	83.31
233.243	71.31
233.477	81.31
233.711	83.31
233.945	91.31
234.179	84.31
234.413	87.31
234.647	88.31
234.881	86.31
235.115	75.31
235.349	81.31
235.583	81.31
235.817	95.31
236.051	98.31
236.285	82.31
236.519	67.31
236.753	79.31
236.987	71.31
237.221	86.31
237.455	88.31
237.689	75.31
237.922	75.31
238.156	79.31
238.39	72.31
238.624	79.31
238.858	78.31
239.091	71.31
239.325	67.31
239.559	73.31
239.793	73.31
240.027	83.31
240.26	75.31
240.494	91.31
240.728	101.31
240.961	82.31
241.195	87.31
241.429	73.31
241.662	92.31
241.896	73.31
242.13	70.31
242.363	86.31
242.597	76.31
242.83	84.31
243.064	76.31
243.298	72.31
243.531	87.31
243.765	83.31
243.998	82.31
244.232	91.31
244.465	88.31
244.699	96.31
244.932	85.31
245.166	84.31
245.399	87.31
245.633	79.31
245.866	79.31
246.099	76.31
246.333	78.31
246.566	69.31
246.8	66.31
247.033	82.31
247.266	93.31
247.5	81.31
247.733	84.31
247.966	81.31
248.2	76.31
248.433	102.31
248.666	63.31
248.899	97.31
249.133	76.31
249.366	101.31
249.599	94.31
249.832	83.31
250.066	88.31
250.299	86.31
250.532	84.31
250.765	96.31
250.998	74.31
251.231	72.31
251.465	87.31
251.698	93.31
251.931	84.31
252.164	88.31
252.397	86.31
252.63	87.31
252.863	81.31
253.096	80.31
253.329	103.31
253.562	67.31
253.795	90.31
254.028	73.31
254.261	84.31
254.494	85.31
254.727	91.31
254.96	86.31
255.193	77.31
255.426	89.31
255.659	77.31
255.892	86.31
256.124	85.31
256.357	81.31
256.59	86.31
256.823	83.31
257.056	87.31
257.289	90.31
257.521	99.31
257.754	98.31
257.987	82.31
258.22	98.31
258.452	74.31
258.685	100.31
258.918	90.31
259.151	89.31
259.383	97.31
259.616	74.31
259.849	90.31
260.081	84.31
260.314	90.31
260.547	93.31
260.779	74.31
261.012	95.31
261.244	96.31
261.477	105.31
261.71	81.31
261.942	89.31
262.175	88.31
262.407	95.31
262.64	100.31
262.872	86.31
263.105	107.31
263.337	111.31
263.57	92.31
263.802	84.31
264.035	93.31
264.267	76.31
264.499	88.31
264.732	97.31
264.964	97.31
265.197	89.31
265.429	91.31
265.661	92.31
265.894	90.31
266.126	98.31
266.358	83.31
266.591	97.31
266.823	100.31
267.055	87.31
267.287	87.31
267.52	92.31
267.752	93.31
267.984	101.31
268.216	96.31
268.448	93.31
268.681	103.31
268.913	105.31
269.145	93.31
269.377	100.31
269.609	97.31
269.841	101.31
270.073	89.31
270.306	107.31
270.538	97.31
270.77	81.31
271.002	96.31
271.234	99.31
271.466	97.31
271.698	93.31
271.93	81.31
272.162	100.31
272.394	100.31
272.626	83.31
272.858	87.31
273.09	113.31
273.322	117.31
273.553	85.31
273.785	117.31
274.017	97.31
274.249	96.31
274.481	89.31
274.713	75.31
274.945	98.31
275.176	91.31
275.408	91.31
275.64	96.31
275.872	91.31
276.104	89.31
276.335	89.31
276.567	89.31
276.799	80.31
277.031	92.31
277.262	87.31
277.494	98.31
277.726	99.31
277.957	106.31
278.189	107.31
278.421	80.31
278.652	92.31
278.884	88.31
279.115	101.31
279.347	95.31
279.579	99.31
279.81	95.31
280.042	102.31
280.273	84.31
280.505	97.31
280.736	100.31
280.968	105.31
281.199	108.31
281.431	97.31
281.662	94.31
281.894	100.31
282.125	101.31
282.356	109.31
282.588	96.31
282.819	101.31
283.051	105.31
283.282	103.31
283.513	102.31
283.745	118.31
283.976	96.31
284.207	110.31
284.439	100.31
284.67	95.31
284.901	98.31
285.132	89.31
285.364	90.31
285.595	100.31
285.826	89.31
286.057	105.31
286.288	93.31
286.52	109.31
286.751	106.31
286.982	96.31
287.213	91.31
287.444	109.31
287.675	93.31
287.906	119.31
288.138	109.31
288.369	89.31
288.6	98.31
288.831	97.31
289.062	107.31
289.293	99.31
289.524	110.31
289.755	114.31
289.986	91.31
290.217	105.31
290.448	95.31
290.679	109.31
290.91	101.31
291.141	89.31
291.371	104.31
291.602	101.31
291.833	104.31
292.064	112.31
292.295	96.31
292.526	88.31
292.757	96.31
292.987	103.31
293.218	87.31
293.449	99.31
293.68	99.31
293.91	99.31
294.141	129.31
294.372	105.31
294.603	111.31
294.833	85.31
295.064	102.31
295.295	106.31
295.525	103.31
295.756	107.31
295.987	103.31
296.217	102.31
296.448	108.31
296.679	121.31
296.909	117.31
297.14	102.31
297.37	109.31
297.601	104.31
297.831	95.31
298.062	101.31
298.292	101.31
298.523	111.31
298.753	89.31
298.984	93.31
299.214	93.31
299.445	87.31
299.675	91.31
299.905	103.31
300.136	94.31
300.366	100.31
300.597	104.31
300.827	91.31
301.057	112.31
301.288	91.31
301.518	96.31
301.748	105.31
301.979	140.31
302.209	121.31
302.439	99.31
302.669	105.31
302.9	102.31
303.13	105.31
303.36	106.31
303.59	94.31
303.82	107.31
304.051	107.31
304.281	122.31
304.511	117.31
304.741	110.31
304.971	99.31
305.201	103.31
305.431	112.31
305.661	115.31
305.891	110.31
306.121	106.31
306.352	97.31
306.582	101.31
306.812	103.31
307.042	88.31
307.272	95.31
307.502	77.31
307.731	103.31
307.961	110.31
308.191	108.31
308.421	109.31
308.651	103.31
308.881	114.31
309.111	98.31
309.341	96.31
309.571	103.31
309.8	89.31
310.03	115.31
310.26	117.31
310.49	109.31
310.72	104.31
310.949	90.31
311.179	106.31
311.409	107.31
311.639	103.31
311.868	101.31
312.098	98.31
312.328	114.31
312.557	100.31
312.787	111.31
313.017	98.31
313.246	102.31
313.476	113.31
313.706	112.31
313.935	85.31
314.165	104.31
314.394	111.31
314.624	113.31
314.853	115.31
315.083	117.31
315.312	100.31
315.542	89.31
315.771	87.31
316.001	108.31
316.23	114.31
316.46	122.31
316.689	108.31
316.919	126.31
317.148	121.31
317.377	116.31
317.607	117.31
317.836	93.31
318.065	108.31
318.295	99.31
318.524	99.31
318.753	107.31
318.983	109.31
319.212	113.31
319.441	95.31
319.67	105.31
319.9	95.31
320.129	95.31
320.358	104.31
320.587	109.31
320.816	109.31
321.046	107.31
321.275	108.31
321.504	102.31
321.733	100.31
321.962	98.31
322.191	106.31
322.42	96.31
322.649	129.31
322.878	122.31
323.108	120.31
323.337	112.31
323.566	101.31
323.795	117.31
324.024	106.31
324.253	98.31
324.482	105.31
324.71	115.31
324.939	116.31
325.168	90.31
325.397	109.31
325.626	113.31
325.855	116.31
326.084	114.31
326.313	114.31
326.542	84.31
326.77	101.31
326.999	107.31
327.228	111.31
327.457	100.31
327.686	109.31
327.914	117.31
328.143	117.31
328.372	104.31
328.6	103.31
328.829	114.31
329.058	102.31
329.287	121.31
329.515	98.31
329.744	117.31
329.972	110.31
330.201	108.31
330.43	114.31
330.658	110.31
330.887	91.31
331.115	103.31
331.344	113.31
331.572	119.31
331.801	113.31
332.03	113.31
332.258	127.31
332.486	118.31
332.715	130.31
332.943	129.31
333.172	127.31
333.4	112.31
333.629	114.31
333.857	119.31
334.085	105.31
334.314	105.31
334.542	109.31
334.771	104.31
334.999	117.31
335.227	106.31
335.455	125.31
335.684	117.31
335.912	107.31
336.14	107.31
336.369	128.31
336.597	112.31
336.825	106.31
337.053	101.31
337.281	107.31
337.51	116.31
337.738	119.31
337.966	110.31
338.194	113.31
338.422	107.31
338.65	115.31
338.878	123.31
339.106	122.31
339.334	139.31
339.562	116.31
339.79	117.31
340.018	115.31
340.246	97.31
340.474	106.31
340.702	107.31
340.93	106.31
341.158	108.31
341.386	109.31
341.614	91.31
341.842	109.31
342.07	119.31
342.298	116.31
342.526	114.31
342.754	107.31
342.981	109.31
343.209	116.31
343.437	143.31
343.665	115.31
343.893	114.31
344.12	120.31
344.348	117.31
344.576	104.31
344.804	113.31
345.031	105.31
345.259	105.31
345.487	117.31
345.714	111.31
345.942	100.31
346.17	111.31
346.397	118.31
346.625	109.31
346.853	115.31
347.08	104.31
347.308	111.31
347.535	109.31
347.763	99.31
347.99	117.31
348.218	106.31
348.445	106.31
348.673	100.31
348.9	106.31
349.128	107.31
349.355	89.31
349.583	99.31
349.81	103.31
350.037	97.31
350.265	101.31
350.492	100.31
350.72	113.31
350.947	106.31
351.174	97.31
351.402	111.31
351.629	105.31
351.856	106.31
352.083	87.31
352.311	118.31
352.538	122.31
352.765	123.31
352.992	129.31
353.22	103.31
353.447	114.31
353.674	113.31
353.901	123.31
354.128	104.31
354.355	111.31
354.583	109.31
354.81	114.31
355.037	106.31
355.264	116.31
355.491	112.31
355.718	110.31
355.945	116.31
356.172	115.31
356.399	103.31
356.626	94.31
356.853	116.31
357.08	104.31
357.307	124.31
357.534	107.31
357.761	105.31
357.988	118.31
358.215	108.31
358.441	116.31
358.668	101.31
358.895	109.31
359.122	108.31
359.349	113.31
359.576	107.31
359.802	103.31
360.029	106.31
360.256	123.31
360.483	106.31
360.709	122.31
360.936	128.31
361.163	106.31
361.39	111.31
361.616	111.31
361.843	106.31
362.07	122.31
362.296	99.31
362.523	113.31
362.749	96.31
362.976	90.31
363.203	124.31
363.429	108.31
363.656	108.31
363.882	115.31
364.109	103.31
364.335	121.31
364.562	94.31
364.788	98.31
365.015	113.31
365.241	95.31
365.468	107.31
365.694	97.31
365.92	101.31
366.147	104.31
366.373	111.31
366.599	119.31
366.826	108.31
367.052	109.31
367.278	96.31
367.505	109.31
367.731	125.31
367.957	103.31
368.184	101.31
368.41	113.31
368.636	131.31
368.862	120.31
369.089	98.31
369.315	99.31
369.541	108.31
369.767	109.31
369.993	121.31
370.219	124.31
370.445	112.31
370.672	112.31
370.898	101.31
371.124	136.31
371.35	109.31
371.576	120.31
371.802	109.31
372.028	116.31
372.254	114.31
372.48	113.31
372.706	124.31
372.932	112.31
373.158	120.31
373.384	127.31
373.61	129.31
373.835	108.31
374.061	106.31
374.287	123.31
374.513	106.31
374.739	125.31
374.965	124.31
375.191	132.31
375.416	107.31
375.642	119.31
375.868	125.31
376.094	132.31
376.319	119.31
376.545	126.31
376.771	108.31
376.997	117.31
377.222	125.31
377.448	109.31
377.674	117.31
377.899	110.31
378.125	108.31
378.35	117.31
378.576	113.31
378.802	110.31
379.027	120.31
379.253	135.31
379.478	126.31
379.704	117.31
379.929	112.31
380.155	115.31
380.38	112.31
380.606	117.31
380.831	136.31
381.057	130.31
381.282	118.31
381.507	119.31
381.733	130.31
381.958	128.31
382.184	114.31
382.409	126.31
382.634	125.31
382.86	127.31
383.085	130.31
383.31	143.31
383.535	131.31
383.761	121.31
383.986	134.31
384.211	120.31
384.436	139.31
384.662	136.31
384.887	139.31
385.112	145.31
385.337	123.31
385.562	111.31
385.787	138.31
386.013	133.31
386.238	155.31
386.463	133.31
386.688	155.31
386.913	136.31
387.138	146.31
387.363	152.31
387.588	145.31
387.813	125.31
388.038	140.31
388.263	144.31
388.488	139.31
388.713	131.31
388.938	136.31
389.163	138.31
389.387	127.31
389.612	137.31
389.837	147.31
390.062	144.31
390.287	140.31
390.512	133.31
390.736	124.31
390.961	130.31
391.186	155.31
391.411	135.31
391.636	144.31
391.86	158.31
392.085	155.31
392.31	137.31
392.534	148.31
392.759	161.31
392.984	157.31
393.208	132.31
393.433	153.31
393.658	149.31
393.882	159.31
394.107	140.31
394.331	154.31
394.556	135.31
394.78	139.31
395.005	154.31
395.229	138.31
395.454	150.31
395.678	165.31
395.903	159.31
396.127	167.31
396.352	157.31
396.576	136.31
396.801	136.31
397.025	142.31
397.249	161.31
397.474	181.31
397.698	147.31
397.922	147.31
398.147	140.31
398.371	152.31
398.595	168.31
398.82	153.31
399.044	138.31
399.268	169.31
399.492	179.31
399.717	187.31
399.941	176.31
400.165	182.31
400.389	171.31
400.613	170.31
400.837	163.31
401.062	160.31
401.286	140.31
401.51	165.31
401.734	151.31
401.958	162.31
402.182	144.31
402.406	148.31
402.63	174.31
402.854	173.31
403.078	154.31
403.302	172.31
403.526	177.31
403.75	181.31
403.974	180.31
404.198	162.31
404.422	165.31
404.645	162.31
404.869	193.31
405.093	200.31
405.317	179.31
405.541	165.31
405.765	153.31
405.988	174.31
406.212	170.31
406.436	177.31
406.66	176.31
406.883	175.31
407.107	169.31
407.331	175.31
407.555	180.31
407.778	170.31
408.002	172.31
408.226	180.31
408.449	184.31
408.673	165.31
408.896	194.31
409.12	183.31
409.344	184.31
409.567	164.31
409.791	164.31
410.014	178.31
410.238	181.31
410.461	172.31
410.685	176.31
410.908	174.31
411.132	173.31
411.355	183.31
411.578	188.31
411.802	169.31
412.025	172.31
412.249	179.31
412.472	174.31
412.695	156.31
412.919	184.31
413.142	171.31
413.365	188.31
413.589	160.31
413.812	162.31
414.035	179.31
414.258	182.31
414.482	180.31
414.705	174.31
414.928	191.31
415.151	158.31
415.374	173.31
415.597	169.31
415.821	167.31
416.044	165.31
416.267	194.31
416.49	171.31
416.713	176.31
416.936	191.31
417.159	175.31
417.382	170.31
417.605	163.31
417.828	172.31
418.051	159.31
418.274	178.31
418.497	189.31
418.72	182.31
418.943	197.31
419.166	183.31
419.389	202.31
419.611	189.31
419.834	176.31
420.057	194.31
420.28	157.31
420.503	170.31
420.726	173.31
420.948	179.31
421.171	181.31
421.394	181.31
421.617	198.31
421.839	187.31
422.062	179.31
422.285	186.31
422.507	177.31
422.73	189.31
422.953	167.31
423.175	171.31
423.398	178.31
423.621	184.31
423.843	188.31
424.066	189.31
424.288	186.31
424.511	176.31
424.733	193.31
424.956	193.31
425.178	178.31
425.401	177.31
425.623	174.31
425.846	165.31
426.068	170.31
426.291	168.31
426.513	171.31
426.735	191.31
426.958	175.31
427.18	171.31
427.402	167.31
427.625	172.31
427.847	177.31
428.069	177.31
428.292	180.31
428.514	180.31
428.736	182.31
428.958	167.31
429.181	185.31
429.403	163.31
429.625	192.31
429.847	179.31
430.069	185.31
430.292	181.31
430.514	177.31
430.736	178.31
430.958	160.31
431.18	147.31
431.402	161.31
431.624	139.31
431.846	143.31
432.068	134.31
432.29	139.31
432.512	159.31
432.734	151.31
432.956	181.31
433.178	180.31
433.4	181.31
433.622	192.31
433.844	185.31
434.066	163.31
434.287	138.31
434.509	134.31
434.731	149.31
434.953	157.31
435.175	171.31
435.397	147.31
435.618	161.31
435.84	153.31
436.062	156.31
436.284	156.31
436.505	174.31
436.727	181.31
436.949	174.31
437.17	165.31
437.392	167.31
437.614	152.31
437.835	143.31
438.057	133.31
438.278	152.31
438.5	155.31
438.721	183.31
438.943	176.31
439.165	173.31
439.386	179.31
439.608	175.31
439.829	187.31
440.05	181.31
440.272	185.31
440.493	202.31
440.715	183.31
440.936	186.31
441.158	203.31
441.379	199.31
441.6	180.31
441.822	192.31
442.043	199.31
442.264	184.31
442.486	187.31
442.707	188.31
442.928	191.31
443.149	183.31
443.371	202.31
443.592	182.31
443.813	185.31
444.034	180.31
444.255	206.31
444.476	209.31
444.698	203.31
444.919	209.31
445.14	469.31
445.361	321.31
445.582	204.31
445.803	182.31
446.024	200.31
446.245	212.31
446.466	221.31
446.687	210.31
446.908	204.31
447.129	182.31
447.35	205.31
447.571	199.31
447.792	188.31
448.013	186.31
448.234	178.31
448.455	191.31
448.675	183.31
448.896	175.31
449.117	165.31
449.338	176.31
449.559	162.31
449.779	173.31
450	179.31
450.221	157.31
450.442	169.31
450.662	171.31
450.883	172.31
451.104	180.31
451.324	155.31
451.545	172.31
451.766	158.31
451.986	177.31
452.207	182.31
452.428	164.31
452.648	155.31
452.869	148.31
453.089	163.31
453.31	143.31
453.53	147.31
453.751	135.31
453.971	136.31
454.192	139.31
454.412	137.31
454.633	160.31
454.853	151.31
455.073	167.31
455.294	145.31
455.514	164.31
455.734	145.31
455.955	146.31
456.175	147.31
456.395	146.31
456.616	133.31
456.836	140.31
457.056	129.31
457.276	135.31
457.497	130.31
457.717	136.31
457.937	144.31
458.157	132.31
458.377	147.31
458.598	123.31
458.818	129.31
459.038	127.31
459.258	131.31
459.478	121.31
459.698	118.31
459.918	133.31
460.138	149.31
460.358	157.31
460.578	165.31
460.798	167.31
461.018	167.31
461.238	162.31
461.458	160.31
461.678	159.31
461.898	167.31
462.118	157.31
462.338	152.31
462.558	167.31
462.777	164.31
462.997	162.31
463.217	175.31
463.437	170.31
463.657	166.31
463.876	162.31
464.096	173.31
464.316	159.31
464.536	163.31
464.755	169.31
464.975	149.31
465.195	171.31
465.414	168.31
465.634	165.31
465.854	150.31
466.073	161.31
466.293	169.31
466.512	173.31
466.732	153.31
466.951	158.31
467.171	166.31
467.391	178.31
467.61	171.31
467.829	171.31
468.049	167.31
468.268	155.31
468.488	165.31
468.707	163.31
468.927	173.31
469.146	178.31
469.365	172.31
469.585	172.31
469.804	193.31
470.023	175.31
470.243	177.31
470.462	179.31
470.681	185.31
470.901	193.31
471.12	179.31
471.339	197.31
471.558	186.31
471.777	173.31
471.997	173.31
472.216	160.31
472.435	148.31
472.654	136.31
472.873	151.31
473.092	147.31
473.311	171.31
473.53	183.31
473.749	182.31
473.968	164.31
474.187	147.31
474.406	156.31
474.625	171.31
474.844	178.31
475.063	165.31
475.282	163.31
475.501	143.31
475.72	171.31
475.939	169.31
476.158	166.31
476.377	164.31
476.596	153.31
476.814	152.31
477.033	158.31
477.252	151.31
477.471	152.31
477.69	163.31
477.908	176.31
478.127	174.31
478.346	184.31
478.564	172.31
478.783	172.31
479.002	182.31
479.22	189.31
479.439	183.31
479.658	152.31
479.876	164.31
480.095	134.31
480.313	147.31
480.532	151.31
480.751	147.31
480.969	143.31
481.188	135.31
481.406	136.31
481.624	126.31
481.843	115.31
482.061	115.31
482.28	139.31
482.498	141.31
482.717	152.31
482.935	161.31
483.153	169.31
483.372	183.31
483.59	173.31
483.808	179.31
484.027	155.31
484.245	155.31
484.463	192.31
484.681	197.31
484.9	183.31
485.118	183.31
485.336	160.31
485.554	161.31
485.772	139.31
485.99	135.31
486.209	154.31
486.427	147.31
486.645	164.31
486.863	159.31
487.081	177.31
487.299	160.31
487.517	195.31
487.735	210.31
487.953	226.31
488.171	211.31
488.389	221.31
488.607	199.31
488.825	175.31
489.043	161.31
489.261	185.31
489.479	156.31
489.696	186.31
489.914	173.31
490.132	185.31
490.35	205.31
490.568	214.31
490.786	219.31
491.003	244.31
491.221	237.31
491.439	249.31
491.657	233.31
491.874	260.31
492.092	267.31
492.31	283.31
492.527	265.31
492.745	258.31
492.963	245.31
493.18	236.31
493.398	227.31
493.615	236.31
493.833	226.31
494.05	214.31
494.268	226.31
494.485	241.31
494.703	219.31
494.92	225.31
495.138	219.31
495.355	228.31
495.573	213.31
495.79	218.31
496.008	197.31
496.225	205.31
496.442	219.31
496.66	217.31
496.877	218.31
497.094	227.31
497.312	209.31
497.529	220.31
497.746	189.31
497.963	189.31
498.181	188.31
498.398	171.31
498.615	177.31
498.832	192.31
499.049	187.31
499.267	207.31
499.484	219.31
499.701	245.31
499.918	239.31
500.135	267.31
500.352	287.31
500.569	304.31
500.786	296.31
501.003	274.31
501.22	238.31
501.437	227.31
501.654	221.31
501.871	212.31
502.088	215.31
502.305	207.31
502.522	200.31
502.739	196.31
502.956	194.31
503.172	174.31
503.389	169.31
503.606	188.31
503.823	173.31
504.04	179.31
504.256	157.31
504.473	173.31
504.69	177.31
504.907	195.31
505.123	167.31
505.34	149.31
505.557	167.31
505.773	171.31
505.99	153.31
506.207	164.31
506.423	144.31
506.64	176.31
