Data from SampD_HRD10591_00090.txt Node
Date: Mon Jan 19 11:48:09 EST 2026
User: Yrep
Spectrometer: HR+D1059
Trigger mode: 0
Integration Time (sec): 3.443000E-1
Scans to average: 1
Electric dark correction enabled: true
Nonlinearity correction enabled: false
Boxcar width: 0
XAxis mode: Wavelengths
Number of Pixels in Spectrum: 2048
>>>>>Begin Spectral Data<<<<<
223.165	-7.62
223.4	-7.62
223.635	-7.62
223.869	-22.62
224.104	-5.62
224.338	-14.62
224.573	-22.62
224.808	-25.62
225.042	5.38
225.277	-5.62
225.511	2.38
225.746	1.38
225.98	10.38
226.215	8.38
226.449	-0.62
226.683	21.38
226.918	29.38
227.152	26.38
227.387	32.38
227.621	44.38
227.856	44.38
228.09	44.38
228.324	49.38
228.559	66.38
228.793	51.38
229.027	71.38
229.262	57.38
229.496	80.38
229.73	67.38
229.964	71.38
230.199	69.38
230.433	63.38
230.667	86.38
230.901	77.38
231.136	81.38
231.37	82.38
231.604	92.38
231.838	87.38
232.072	88.38
232.306	91.38
232.541	83.38
232.775	77.38
233.009	73.38
233.243	84.38
233.477	86.38
233.711	81.38
233.945	76.38
234.179	82.38
234.413	95.38
234.647	100.38
234.881	95.38
235.115	74.38
235.349	80.38
235.583	94.38
235.817	89.38
236.051	95.38
236.285	77.38
236.519	87.38
236.753	86.38
236.987	83.38
237.221	89.38
237.455	87.38
237.689	83.38
237.922	90.38
238.156	89.38
238.39	106.38
238.624	88.38
238.858	80.38
239.091	83.38
239.325	73.38
239.559	84.38
239.793	85.38
240.027	115.38
240.26	70.38
240.494	87.38
240.728	83.38
240.961	86.38
241.195	94.38
241.429	88.38
241.662	83.38
241.896	78.38
242.13	93.38
242.363	80.38
242.597	81.38
242.83	87.38
243.064	91.38
243.298	84.38
243.531	80.38
243.765	86.38
243.998	87.38
244.232	92.38
244.465	97.38
244.699	85.38
244.932	79.38
245.166	96.38
245.399	92.38
245.633	87.38
245.866	88.38
246.099	85.38
246.333	84.38
246.566	89.38
246.8	89.38
247.033	97.38
247.266	83.38
247.5	80.38
247.733	93.38
247.966	92.38
248.2	105.38
248.433	90.38
248.666	89.38
248.899	91.38
249.133	104.38
249.366	103.38
249.599	89.38
249.832	94.38
250.066	103.38
250.299	91.38
250.532	88.38
250.765	103.38
250.998	88.38
251.231	101.38
251.465	96.38
251.698	107.38
251.931	99.38
252.164	102.38
252.397	93.38
252.63	99.38
252.863	93.38
253.096	92.38
253.329	104.38
253.562	96.38
253.795	100.38
254.028	98.38
254.261	94.38
254.494	85.38
254.727	84.38
254.96	89.38
255.193	95.38
255.426	95.38
255.659	83.38
255.892	107.38
256.124	85.38
256.357	88.38
256.59	91.38
256.823	95.38
257.056	103.38
257.289	90.38
257.521	99.38
257.754	80.38
257.987	86.38
258.22	105.38
258.452	107.38
258.685	90.38
258.918	101.38
259.151	104.38
259.383	107.38
259.616	85.38
259.849	110.38
260.081	99.38
260.314	100.38
260.547	97.38
260.779	101.38
261.012	96.38
261.244	92.38
261.477	103.38
261.71	87.38
261.942	105.38
262.175	100.38
262.407	103.38
262.64	95.38
262.872	91.38
263.105	98.38
263.337	120.38
263.57	96.38
263.802	113.38
264.035	99.38
264.267	103.38
264.499	93.38
264.732	102.38
264.964	83.38
265.197	107.38
265.429	95.38
265.661	98.38
265.894	90.38
266.126	110.38
266.358	98.38
266.591	113.38
266.823	104.38
267.055	99.38
267.287	98.38
267.52	102.38
267.752	97.38
267.984	92.38
268.216	107.38
268.448	114.38
268.681	91.38
268.913	99.38
269.145	104.38
269.377	113.38
269.609	107.38
269.841	107.38
270.073	110.38
270.306	103.38
270.538	102.38
270.77	106.38
271.002	113.38
271.234	114.38
271.466	93.38
271.698	96.38
271.93	97.38
272.162	94.38
272.394	106.38
272.626	107.38
272.858	107.38
273.09	113.38
273.322	116.38
273.553	109.38
273.785	116.38
274.017	96.38
274.249	98.38
274.481	100.38
274.713	107.38
274.945	115.38
275.176	94.38
275.408	109.38
275.64	112.38
275.872	94.38
276.104	111.38
276.335	110.38
276.567	112.38
276.799	111.38
277.031	86.38
277.262	105.38
277.494	114.38
277.726	115.38
277.957	105.38
278.189	100.38
278.421	112.38
278.652	110.38
278.884	109.38
279.115	122.38
279.347	111.38
279.579	121.38
279.81	107.38
280.042	100.38
280.273	116.38
280.505	103.38
280.736	97.38
280.968	124.38
281.199	123.38
281.431	125.38
281.662	120.38
281.894	112.38
282.125	120.38
282.356	123.38
282.588	110.38
282.819	107.38
283.051	98.38
283.282	116.38
283.513	130.38
283.745	126.38
283.976	121.38
284.207	106.38
284.439	128.38
284.67	114.38
284.901	114.38
285.132	104.38
285.364	118.38
285.595	108.38
285.826	124.38
286.057	109.38
286.288	105.38
286.52	121.38
286.751	117.38
286.982	113.38
287.213	104.38
287.444	122.38
287.675	120.38
287.906	121.38
288.138	113.38
288.369	117.38
288.6	119.38
288.831	127.38
289.062	126.38
289.293	106.38
289.524	116.38
289.755	127.38
289.986	117.38
290.217	129.38
290.448	112.38
290.679	129.38
290.91	107.38
291.141	125.38
291.371	109.38
291.602	110.38
291.833	127.38
292.064	113.38
292.295	117.38
292.526	119.38
292.757	123.38
292.987	118.38
293.218	113.38
293.449	124.38
293.68	108.38
293.91	104.38
294.141	129.38
294.372	120.38
294.603	117.38
294.833	121.38
295.064	130.38
295.295	113.38
295.525	116.38
295.756	137.38
295.987	132.38
296.217	119.38
296.448	122.38
296.679	118.38
296.909	121.38
297.14	118.38
297.37	119.38
297.601	107.38
297.831	123.38
298.062	130.38
298.292	130.38
298.523	135.38
298.753	122.38
298.984	126.38
299.214	135.38
299.445	135.38
299.675	128.38
299.905	127.38
300.136	121.38
300.366	111.38
300.597	114.38
300.827	120.38
301.057	145.38
301.288	125.38
301.518	111.38
301.748	115.38
301.979	169.38
302.209	135.38
302.439	129.38
302.669	126.38
302.9	119.38
303.13	118.38
303.36	130.38
303.59	117.38
303.82	122.38
304.051	129.38
304.281	117.38
304.511	122.38
304.741	127.38
304.971	128.38
305.201	126.38
305.431	135.38
305.661	134.38
305.891	121.38
306.121	123.38
306.352	123.38
306.582	122.38
306.812	112.38
307.042	117.38
307.272	135.38
307.502	130.38
307.731	126.38
307.961	138.38
308.191	130.38
308.421	132.38
308.651	119.38
308.881	135.38
309.111	123.38
309.341	108.38
309.571	129.38
309.8	111.38
310.03	132.38
310.26	133.38
310.49	122.38
310.72	132.38
310.949	124.38
311.179	123.38
311.409	126.38
311.639	131.38
311.868	133.38
312.098	134.38
312.328	127.38
312.557	141.38
312.787	126.38
313.017	131.38
313.246	119.38
313.476	116.38
313.706	124.38
313.935	130.38
314.165	130.38
314.394	124.38
314.624	129.38
314.853	150.38
315.083	140.38
315.312	120.38
315.542	133.38
315.771	124.38
316.001	132.38
316.23	124.38
316.46	127.38
316.689	121.38
316.919	126.38
317.148	120.38
317.377	124.38
317.607	135.38
317.836	122.38
318.065	132.38
318.295	114.38
318.524	126.38
318.753	119.38
318.983	137.38
319.212	138.38
319.441	136.38
319.67	134.38
319.9	144.38
320.129	127.38
320.358	109.38
320.587	127.38
320.816	140.38
321.046	122.38
321.275	109.38
321.504	122.38
321.733	117.38
321.962	118.38
322.191	144.38
322.42	144.38
322.649	140.38
322.878	127.38
323.108	137.38
323.337	131.38
323.566	131.38
323.795	123.38
324.024	136.38
324.253	117.38
324.482	132.38
324.71	129.38
324.939	132.38
325.168	122.38
325.397	120.38
325.626	129.38
325.855	124.38
326.084	122.38
326.313	119.38
326.542	135.38
326.77	129.38
326.999	127.38
327.228	115.38
327.457	132.38
327.686	128.38
327.914	145.38
328.143	143.38
328.372	127.38
328.6	123.38
328.829	132.38
329.058	136.38
329.287	125.38
329.515	137.38
329.744	137.38
329.972	119.38
330.201	143.38
330.43	129.38
330.658	130.38
330.887	118.38
331.115	140.38
331.344	135.38
331.572	146.38
331.801	129.38
332.03	145.38
332.258	149.38
332.486	149.38
332.715	140.38
332.943	148.38
333.172	155.38
333.4	162.38
333.629	164.38
333.857	145.38
334.085	168.38
334.314	144.38
334.542	133.38
334.771	151.38
334.999	161.38
335.227	152.38
335.455	140.38
335.684	165.38
335.912	164.38
336.14	147.38
336.369	139.38
336.597	145.38
336.825	150.38
337.053	154.38
337.281	148.38
337.51	161.38
337.738	129.38
337.966	130.38
338.194	151.38
338.422	122.38
338.65	146.38
338.878	138.38
339.106	134.38
339.334	154.38
339.562	141.38
339.79	132.38
340.018	144.38
340.246	128.38
340.474	126.38
340.702	153.38
340.93	138.38
341.158	127.38
341.386	129.38
341.614	154.38
341.842	125.38
342.07	143.38
342.298	138.38
342.526	147.38
342.754	132.38
342.981	121.38
343.209	125.38
343.437	183.38
343.665	161.38
343.893	147.38
344.12	161.38
344.348	160.38
344.576	152.38
344.804	150.38
345.031	145.38
345.259	128.38
345.487	136.38
345.714	144.38
345.942	137.38
346.17	116.38
346.397	124.38
346.625	128.38
346.853	124.38
347.08	114.38
347.308	147.38
347.535	126.38
347.763	127.38
347.99	149.38
348.218	157.38
348.445	116.38
348.673	139.38
348.9	155.38
349.128	132.38
349.355	118.38
349.583	138.38
349.81	132.38
350.037	120.38
350.265	138.38
350.492	139.38
350.72	120.38
350.947	135.38
351.174	140.38
351.402	123.38
351.629	123.38
351.856	128.38
352.083	123.38
352.311	128.38
352.538	129.38
352.765	129.38
352.992	155.38
353.22	132.38
353.447	133.38
353.674	134.38
353.901	146.38
354.128	133.38
354.355	129.38
354.583	120.38
354.81	136.38
355.037	120.38
355.264	139.38
355.491	127.38
355.718	125.38
355.945	143.38
356.172	136.38
356.399	125.38
356.626	135.38
356.853	144.38
357.08	139.38
357.307	127.38
357.534	121.38
357.761	154.38
357.988	132.38
358.215	125.38
358.441	138.38
358.668	146.38
358.895	125.38
359.122	133.38
359.349	138.38
359.576	129.38
359.802	121.38
360.029	131.38
360.256	132.38
360.483	133.38
360.709	136.38
360.936	147.38
361.163	119.38
361.39	147.38
361.616	135.38
361.843	122.38
362.07	130.38
362.296	128.38
362.523	127.38
362.749	122.38
362.976	136.38
363.203	149.38
363.429	124.38
363.656	141.38
363.882	116.38
364.109	141.38
364.335	135.38
364.562	135.38
364.788	126.38
365.015	133.38
365.241	139.38
365.468	146.38
365.694	121.38
365.92	144.38
366.147	136.38
366.373	140.38
366.599	135.38
366.826	128.38
367.052	137.38
367.278	130.38
367.505	147.38
367.731	143.38
367.957	156.38
368.184	164.38
368.41	155.38
368.636	144.38
368.862	164.38
369.089	151.38
369.315	156.38
369.541	140.38
369.767	139.38
369.993	149.38
370.219	143.38
370.445	148.38
370.672	140.38
370.898	147.38
371.124	148.38
371.35	149.38
371.576	160.38
371.802	152.38
372.028	151.38
372.254	160.38
372.48	169.38
372.706	155.38
372.932	162.38
373.158	168.38
373.384	170.38
373.61	153.38
373.835	159.38
374.061	153.38
374.287	163.38
374.513	140.38
374.739	166.38
374.965	181.38
375.191	163.38
375.416	153.38
375.642	166.38
375.868	159.38
376.094	158.38
376.319	157.38
376.545	170.38
376.771	152.38
376.997	167.38
377.222	147.38
377.448	152.38
377.674	159.38
377.899	167.38
378.125	148.38
378.35	155.38
378.576	147.38
378.802	145.38
379.027	158.38
379.253	160.38
379.478	138.38
379.704	169.38
379.929	158.38
380.155	145.38
380.38	164.38
380.606	170.38
380.831	175.38
381.057	172.38
381.282	157.38
381.507	174.38
381.733	182.38
381.958	171.38
382.184	171.38
382.409	179.38
382.634	182.38
382.86	161.38
383.085	177.38
383.31	171.38
383.535	170.38
383.761	179.38
383.986	188.38
384.211	155.38
384.436	186.38
384.662	193.38
384.887	178.38
385.112	166.38
385.337	200.38
385.562	191.38
385.787	181.38
386.013	204.38
386.238	208.38
386.463	200.38
386.688	211.38
386.913	193.38
387.138	187.38
387.363	180.38
387.588	169.38
387.813	187.38
388.038	182.38
388.263	198.38
388.488	196.38
388.713	198.38
388.938	194.38
389.163	195.38
389.387	182.38
389.612	189.38
389.837	182.38
390.062	202.38
390.287	200.38
390.512	195.38
390.736	200.38
390.961	194.38
391.186	176.38
391.411	200.38
391.636	203.38
391.86	212.38
392.085	213.38
392.31	187.38
392.534	205.38
392.759	223.38
392.984	211.38
393.208	199.38
393.433	222.38
393.658	214.38
393.882	212.38
394.107	205.38
394.331	223.38
394.556	227.38
394.78	215.38
395.005	209.38
395.229	208.38
395.454	215.38
395.678	216.38
395.903	228.38
396.127	218.38
396.352	203.38
396.576	201.38
396.801	204.38
397.025	235.38
397.249	223.38
397.474	221.38
397.698	223.38
397.922	219.38
398.147	224.38
398.371	229.38
398.595	241.38
398.82	237.38
399.044	246.38
399.268	264.38
399.492	273.38
399.717	289.38
399.941	296.38
400.165	283.38
400.389	257.38
400.613	257.38
400.837	255.38
401.062	240.38
401.286	252.38
401.51	231.38
401.734	231.38
401.958	245.38
402.182	230.38
402.406	260.38
402.63	248.38
402.854	265.38
403.078	247.38
403.302	244.38
403.526	265.38
403.75	259.38
403.974	264.38
404.198	253.38
404.422	261.38
404.645	269.38
404.869	260.38
405.093	284.38
405.317	272.38
405.541	278.38
405.765	271.38
405.988	271.38
406.212	276.38
406.436	253.38
406.66	264.38
406.883	275.38
407.107	282.38
407.331	282.38
407.555	294.38
407.778	293.38
408.002	276.38
408.226	289.38
408.449	294.38
408.673	266.38
408.896	265.38
409.12	249.38
409.344	279.38
409.567	272.38
409.791	276.38
410.014	264.38
410.238	285.38
410.461	276.38
410.685	275.38
410.908	280.38
411.132	285.38
411.355	264.38
411.578	262.38
411.802	252.38
412.025	264.38
412.249	243.38
412.472	268.38
412.695	260.38
412.919	251.38
413.142	257.38
413.365	267.38
413.589	260.38
413.812	254.38
414.035	277.38
414.258	257.38
414.482	251.38
414.705	248.38
414.928	280.38
415.151	258.38
415.374	255.38
415.597	262.38
415.821	264.38
416.044	266.38
416.267	277.38
416.49	273.38
416.713	267.38
416.936	277.38
417.159	262.38
417.382	263.38
417.605	273.38
417.828	277.38
418.051	284.38
418.274	290.38
418.497	281.38
418.72	279.38
418.943	272.38
419.166	299.38
419.389	296.38
419.611	288.38
419.834	290.38
420.057	268.38
420.28	277.38
420.503	299.38
420.726	295.38
420.948	280.38
421.171	299.38
421.394	283.38
421.617	312.38
421.839	291.38
422.062	309.38
422.285	287.38
422.507	287.38
422.73	267.38
422.953	266.38
423.175	259.38
423.398	293.38
423.621	292.38
423.843	298.38
424.066	301.38
424.288	297.38
424.511	316.38
424.733	294.38
424.956	287.38
425.178	305.38
425.401	289.38
425.623	287.38
425.846	280.38
426.068	269.38
426.291	270.38
426.513	287.38
426.735	266.38
426.958	263.38
427.18	282.38
427.402	258.38
427.625	282.38
427.847	263.38
428.069	263.38
428.292	271.38
428.514	285.38
428.736	266.38
428.958	261.38
429.181	264.38
429.403	256.38
429.625	257.38
429.847	256.38
430.069	269.38
430.292	271.38
430.514	259.38
430.736	265.38
430.958	239.38
431.18	271.38
431.402	250.38
431.624	239.38
431.846	207.38
432.068	181.38
432.29	200.38
432.512	234.38
432.734	258.38
432.956	284.38
433.178	289.38
433.4	280.38
433.622	281.38
433.844	283.38
434.066	231.38
434.287	219.38
434.509	210.38
434.731	219.38
434.953	248.38
435.175	258.38
435.397	266.38
435.618	230.38
435.84	220.38
436.062	234.38
436.284	258.38
436.505	261.38
436.727	263.38
436.949	278.38
437.17	256.38
437.392	248.38
437.614	249.38
437.835	200.38
438.057	198.38
438.278	219.38
438.5	262.38
438.721	277.38
438.943	267.38
439.165	281.38
439.386	281.38
439.608	292.38
439.829	278.38
440.05	290.38
440.272	299.38
440.493	279.38
440.715	298.38
440.936	294.38
441.158	308.38
441.379	293.38
441.6	304.38
441.822	310.38
442.043	302.38
442.264	308.38
442.486	299.38
442.707	296.38
442.928	274.38
443.149	299.38
443.371	316.38
443.592	307.38
443.813	283.38
444.034	284.38
444.255	306.38
444.476	324.38
444.698	323.38
444.919	332.38
445.14	576.38
445.361	405.38
445.582	315.38
445.803	300.38
446.024	309.38
446.245	317.38
446.466	293.38
446.687	294.38
446.908	306.38
447.129	311.38
447.35	308.38
447.571	301.38
447.792	276.38
448.013	296.38
448.234	294.38
448.455	282.38
448.675	282.38
448.896	276.38
449.117	264.38
449.338	267.38
449.559	273.38
449.779	273.38
450	261.38
450.221	276.38
450.442	281.38
450.662	281.38
450.883	272.38
451.104	248.38
451.324	253.38
451.545	267.38
451.766	259.38
451.986	258.38
452.207	252.38
452.428	252.38
452.648	247.38
452.869	240.38
453.089	198.38
453.31	196.38
453.53	202.38
453.751	199.38
453.971	213.38
454.192	185.38
454.412	215.38
454.633	210.38
454.853	233.38
455.073	228.38
455.294	230.38
455.514	233.38
455.734	220.38
455.955	221.38
456.175	207.38
456.395	212.38
456.616	188.38
456.836	204.38
457.056	196.38
457.276	196.38
457.497	188.38
457.717	191.38
457.937	195.38
458.157	191.38
458.377	183.38
458.598	167.38
458.818	173.38
459.038	173.38
459.258	181.38
459.478	171.38
459.698	195.38
459.918	200.38
460.138	204.38
460.358	241.38
460.578	237.38
460.798	226.38
461.018	243.38
461.238	260.38
461.458	256.38
461.678	229.38
461.898	233.38
462.118	246.38
462.338	248.38
462.558	251.38
462.777	234.38
462.997	244.38
463.217	272.38
463.437	273.38
463.657	261.38
463.876	252.38
464.096	264.38
464.316	250.38
464.536	233.38
464.755	258.38
464.975	248.38
465.195	259.38
465.414	235.38
465.634	221.38
465.854	227.38
466.073	245.38
466.293	259.38
466.512	248.38
466.732	260.38
466.951	271.38
467.171	261.38
467.391	265.38
467.61	274.38
467.829	257.38
468.049	262.38
468.268	248.38
468.488	257.38
468.707	259.38
468.927	266.38
469.146	261.38
469.365	284.38
469.585	271.38
469.804	287.38
470.023	282.38
470.243	295.38
470.462	287.38
470.681	288.38
470.901	289.38
471.12	273.38
471.339	280.38
471.558	287.38
471.777	275.38
471.997	280.38
472.216	267.38
472.435	211.38
472.654	201.38
472.873	213.38
473.092	228.38
473.311	227.38
473.53	232.38
473.749	237.38
473.968	248.38
474.187	221.38
474.406	219.38
474.625	243.38
474.844	233.38
475.063	250.38
475.282	247.38
475.501	214.38
475.72	232.38
475.939	248.38
476.158	253.38
476.377	242.38
476.596	231.38
476.814	207.38
477.033	203.38
477.252	235.38
477.471	235.38
477.69	245.38
477.908	273.38
478.127	271.38
478.346	266.38
478.564	265.38
478.783	274.38
479.002	268.38
479.22	279.38
479.439	275.38
479.658	245.38
479.876	218.38
480.095	225.38
480.313	238.38
480.532	240.38
480.751	227.38
480.969	206.38
481.188	201.38
481.406	177.38
481.624	183.38
481.843	186.38
482.061	199.38
482.28	211.38
482.498	225.38
482.717	204.38
482.935	239.38
483.153	291.38
483.372	301.38
483.59	280.38
483.808	264.38
484.027	238.38
484.245	252.38
484.463	281.38
484.681	273.38
484.9	278.38
485.118	266.38
485.336	249.38
485.554	217.38
485.772	215.38
485.99	213.38
486.209	216.38
486.427	223.38
486.645	233.38
486.863	269.38
487.081	271.38
487.299	282.38
487.517	264.38
487.735	333.38
487.953	371.38
488.171	345.38
488.389	349.38
488.607	299.38
488.825	247.38
489.043	237.38
489.261	260.38
489.479	256.38
489.696	268.38
489.914	277.38
490.132	293.38
490.35	319.38
490.568	346.38
490.786	355.38
491.003	363.38
491.221	384.38
491.439	369.38
491.657	378.38
491.874	413.38
492.092	447.38
492.31	477.38
492.527	450.38
492.745	426.38
492.963	386.38
493.18	384.38
493.398	378.38
493.615	373.38
493.833	364.38
494.05	372.38
494.268	361.38
494.485	340.38
494.703	380.38
494.92	368.38
495.138	373.38
495.355	377.38
495.573	361.38
495.79	354.38
496.008	359.38
496.225	359.38
496.442	344.38
496.66	351.38
496.877	361.38
497.094	340.38
497.312	329.38
497.529	338.38
497.746	315.38
497.963	294.38
498.181	287.38
498.398	276.38
498.615	283.38
498.832	276.38
499.049	292.38
499.267	335.38
499.484	362.38
499.701	383.38
499.918	437.38
500.135	454.38
500.352	517.38
500.569	510.38
500.786	503.38
501.003	467.38
501.22	416.38
501.437	407.38
501.654	363.38
501.871	361.38
502.088	313.38
502.305	316.38
502.522	316.38
502.739	300.38
502.956	287.38
503.172	272.38
503.389	273.38
503.606	271.38
503.823	271.38
504.04	270.38
504.256	277.38
504.473	262.38
504.69	276.38
