Data from SampD_HRD10591_00076.txt Node
Date: Mon Jan 19 11:48:04 EST 2026
User: Yrep
Spectrometer: HR+D1059
Trigger mode: 0
Integration Time (sec): 3.443000E-1
Scans to average: 1
Electric dark correction enabled: true
Nonlinearity correction enabled: false
Boxcar width: 0
XAxis mode: Wavelengths
Number of Pixels in Spectrum: 2048
>>>>>Begin Spectral Data<<<<<
223.165	-21.81
223.4	-21.81
223.635	-21.81
223.869	-29.81
224.104	-27.81
224.338	-10.81
224.573	-17.81
224.808	-5.81
225.042	-5.81
225.277	-20.81
225.511	-0.81
225.746	3.19
225.98	-4.81
226.215	17.19
226.449	30.19
226.683	32.19
226.918	32.19
227.152	31.19
227.387	37.19
227.621	31.19
227.856	41.19
228.09	36.19
228.324	54.19
228.559	52.19
228.793	68.19
229.027	86.19
229.262	58.19
229.496	66.19
229.73	69.19
229.964	79.19
230.199	79.19
230.433	65.19
230.667	79.19
230.901	78.19
231.136	91.19
231.37	84.19
231.604	87.19
231.838	100.19
232.072	72.19
232.306	93.19
232.541	75.19
232.775	80.19
233.009	78.19
233.243	74.19
233.477	78.19
233.711	67.19
233.945	80.19
234.179	78.19
234.413	99.19
234.647	79.19
234.881	71.19
235.115	88.19
235.349	90.19
235.583	61.19
235.817	100.19
236.051	81.19
236.285	88.19
236.519	90.19
236.753	98.19
236.987	72.19
237.221	75.19
237.455	85.19
237.689	94.19
237.922	86.19
238.156	74.19
238.39	64.19
238.624	69.19
238.858	87.19
239.091	79.19
239.325	74.19
239.559	87.19
239.793	79.19
240.027	79.19
240.26	56.19
240.494	82.19
240.728	77.19
240.961	70.19
241.195	89.19
241.429	94.19
241.662	83.19
241.896	71.19
242.13	80.19
242.363	83.19
242.597	80.19
242.83	91.19
243.064	93.19
243.298	75.19
243.531	77.19
243.765	103.19
243.998	82.19
244.232	96.19
244.465	88.19
244.699	72.19
244.932	83.19
245.166	87.19
245.399	89.19
245.633	95.19
245.866	80.19
246.099	79.19
246.333	80.19
246.566	95.19
246.8	87.19
247.033	82.19
247.266	84.19
247.5	72.19
247.733	79.19
247.966	83.19
248.2	101.19
248.433	87.19
248.666	88.19
248.899	88.19
249.133	77.19
249.366	111.19
249.599	79.19
249.832	81.19
250.066	97.19
250.299	86.19
250.532	90.19
250.765	87.19
250.998	85.19
251.231	95.19
251.465	93.19
251.698	82.19
251.931	88.19
252.164	82.19
252.397	87.19
252.63	78.19
252.863	78.19
253.096	79.19
253.329	111.19
253.562	97.19
253.795	87.19
254.028	100.19
254.261	102.19
254.494	96.19
254.727	102.19
254.96	87.19
255.193	95.19
255.426	88.19
255.659	95.19
255.892	98.19
256.124	97.19
256.357	96.19
256.59	121.19
256.823	86.19
257.056	103.19
257.289	94.19
257.521	90.19
257.754	99.19
257.987	88.19
258.22	95.19
258.452	89.19
258.685	87.19
258.918	97.19
259.151	100.19
259.383	108.19
259.616	102.19
259.849	101.19
260.081	91.19
260.314	104.19
260.547	98.19
260.779	111.19
261.012	93.19
261.244	110.19
261.477	101.19
261.71	92.19
261.942	103.19
262.175	96.19
262.407	88.19
262.64	115.19
262.872	100.19
263.105	90.19
263.337	93.19
263.57	98.19
263.802	85.19
264.035	93.19
264.267	106.19
264.499	110.19
264.732	109.19
264.964	112.19
265.197	81.19
265.429	92.19
265.661	105.19
265.894	103.19
266.126	101.19
266.358	97.19
266.591	97.19
266.823	101.19
267.055	97.19
267.287	99.19
267.52	101.19
267.752	112.19
267.984	91.19
268.216	91.19
268.448	94.19
268.681	89.19
268.913	93.19
269.145	107.19
269.377	100.19
269.609	102.19
269.841	99.19
270.073	88.19
270.306	107.19
270.538	87.19
270.77	104.19
271.002	101.19
271.234	101.19
271.466	123.19
271.698	100.19
271.93	102.19
272.162	104.19
272.394	115.19
272.626	102.19
272.858	103.19
273.09	104.19
273.322	113.19
273.553	101.19
273.785	97.19
274.017	108.19
274.249	113.19
274.481	111.19
274.713	98.19
274.945	112.19
275.176	101.19
275.408	114.19
275.64	108.19
275.872	89.19
276.104	118.19
276.335	119.19
276.567	89.19
276.799	95.19
277.031	105.19
277.262	107.19
277.494	119.19
277.726	101.19
277.957	97.19
278.189	109.19
278.421	109.19
278.652	120.19
278.884	111.19
279.115	124.19
279.347	94.19
279.579	109.19
279.81	105.19
280.042	114.19
280.273	120.19
280.505	112.19
280.736	107.19
280.968	111.19
281.199	100.19
281.431	110.19
281.662	101.19
281.894	106.19
282.125	116.19
282.356	88.19
282.588	114.19
282.819	116.19
283.051	109.19
283.282	116.19
283.513	102.19
283.745	116.19
283.976	121.19
284.207	118.19
284.439	100.19
284.67	104.19
284.901	106.19
285.132	119.19
285.364	102.19
285.595	107.19
285.826	116.19
286.057	119.19
286.288	111.19
286.52	107.19
286.751	107.19
286.982	118.19
287.213	124.19
287.444	112.19
287.675	116.19
287.906	146.19
288.138	109.19
288.369	134.19
288.6	118.19
288.831	105.19
289.062	110.19
289.293	120.19
289.524	126.19
289.755	122.19
289.986	116.19
290.217	120.19
290.448	113.19
290.679	104.19
290.91	120.19
291.141	120.19
291.371	123.19
291.602	116.19
291.833	120.19
292.064	126.19
292.295	125.19
292.526	109.19
292.757	109.19
292.987	116.19
293.218	115.19
293.449	116.19
293.68	110.19
293.91	104.19
294.141	132.19
294.372	105.19
294.603	125.19
294.833	117.19
295.064	97.19
295.295	104.19
295.525	106.19
295.756	111.19
295.987	117.19
296.217	127.19
296.448	114.19
296.679	114.19
296.909	126.19
297.14	112.19
297.37	123.19
297.601	120.19
297.831	121.19
298.062	103.19
298.292	116.19
298.523	134.19
298.753	132.19
298.984	125.19
299.214	118.19
299.445	122.19
299.675	133.19
299.905	120.19
300.136	108.19
300.366	113.19
300.597	130.19
300.827	127.19
301.057	121.19
301.288	122.19
301.518	134.19
301.748	124.19
301.979	159.19
302.209	130.19
302.439	131.19
302.669	128.19
302.9	119.19
303.13	133.19
303.36	120.19
303.59	116.19
303.82	123.19
304.051	123.19
304.281	127.19
304.511	129.19
304.741	136.19
304.971	118.19
305.201	126.19
305.431	118.19
305.661	119.19
305.891	103.19
306.121	122.19
306.352	123.19
306.582	124.19
306.812	124.19
307.042	122.19
307.272	134.19
307.502	129.19
307.731	120.19
307.961	128.19
308.191	117.19
308.421	118.19
308.651	113.19
308.881	107.19
309.111	137.19
309.341	119.19
309.571	128.19
309.8	110.19
310.03	111.19
310.26	124.19
310.49	127.19
310.72	122.19
310.949	124.19
311.179	119.19
311.409	125.19
311.639	116.19
311.868	130.19
312.098	132.19
312.328	116.19
312.557	133.19
312.787	120.19
313.017	115.19
313.246	129.19
313.476	124.19
313.706	122.19
313.935	135.19
314.165	121.19
314.394	137.19
314.624	127.19
314.853	132.19
315.083	124.19
315.312	136.19
315.542	114.19
315.771	132.19
316.001	117.19
316.23	117.19
316.46	131.19
316.689	113.19
316.919	124.19
317.148	126.19
317.377	141.19
317.607	123.19
317.836	108.19
318.065	129.19
318.295	131.19
318.524	121.19
318.753	132.19
318.983	153.19
319.212	145.19
319.441	132.19
319.67	122.19
319.9	128.19
320.129	112.19
320.358	116.19
320.587	112.19
320.816	135.19
321.046	126.19
321.275	120.19
321.504	121.19
321.733	113.19
321.962	116.19
322.191	121.19
322.42	115.19
322.649	139.19
322.878	121.19
323.108	122.19
323.337	135.19
323.566	129.19
323.795	127.19
324.024	141.19
324.253	124.19
324.482	127.19
324.71	122.19
324.939	114.19
325.168	136.19
325.397	127.19
325.626	136.19
325.855	119.19
326.084	133.19
326.313	132.19
326.542	124.19
326.77	132.19
326.999	132.19
327.228	137.19
327.457	128.19
327.686	122.19
327.914	129.19
328.143	134.19
328.372	127.19
328.6	133.19
328.829	120.19
329.058	130.19
329.287	119.19
329.515	117.19
329.744	139.19
329.972	124.19
330.201	131.19
330.43	130.19
330.658	122.19
330.887	134.19
331.115	139.19
331.344	119.19
331.572	145.19
331.801	147.19
332.03	111.19
332.258	135.19
332.486	142.19
332.715	143.19
332.943	154.19
333.172	152.19
333.4	140.19
333.629	159.19
333.857	135.19
334.085	146.19
334.314	163.19
334.542	139.19
334.771	138.19
334.999	141.19
335.227	153.19
335.455	141.19
335.684	153.19
335.912	136.19
336.14	137.19
336.369	128.19
336.597	158.19
336.825	156.19
337.053	136.19
337.281	148.19
337.51	149.19
337.738	143.19
337.966	144.19
338.194	113.19
338.422	113.19
338.65	141.19
338.878	153.19
339.106	156.19
339.334	134.19
339.562	136.19
339.79	145.19
340.018	138.19
340.246	124.19
340.474	139.19
340.702	141.19
340.93	140.19
341.158	138.19
341.386	121.19
341.614	124.19
341.842	127.19
342.07	130.19
342.298	135.19
342.526	125.19
342.754	127.19
342.981	124.19
343.209	126.19
343.437	159.19
343.665	144.19
343.893	136.19
344.12	146.19
344.348	125.19
344.576	141.19
344.804	140.19
345.031	129.19
345.259	124.19
345.487	133.19
345.714	149.19
345.942	136.19
346.17	136.19
346.397	135.19
346.625	132.19
346.853	141.19
347.08	127.19
347.308	142.19
347.535	125.19
347.763	114.19
347.99	134.19
348.218	145.19
348.445	129.19
348.673	135.19
348.9	116.19
349.128	126.19
349.355	127.19
349.583	132.19
349.81	136.19
350.037	131.19
350.265	121.19
350.492	123.19
350.72	132.19
350.947	144.19
351.174	136.19
351.402	126.19
351.629	123.19
351.856	114.19
352.083	114.19
352.311	127.19
352.538	121.19
352.765	134.19
352.992	130.19
353.22	139.19
353.447	135.19
353.674	132.19
353.901	127.19
354.128	135.19
354.355	119.19
354.583	131.19
354.81	133.19
355.037	130.19
355.264	140.19
355.491	128.19
355.718	117.19
355.945	135.19
356.172	120.19
356.399	126.19
356.626	119.19
356.853	120.19
357.08	136.19
357.307	139.19
357.534	128.19
357.761	141.19
357.988	138.19
358.215	133.19
358.441	117.19
358.668	128.19
358.895	147.19
359.122	120.19
359.349	132.19
359.576	122.19
359.802	133.19
360.029	125.19
360.256	124.19
360.483	111.19
360.709	112.19
360.936	149.19
361.163	137.19
361.39	120.19
361.616	134.19
361.843	124.19
362.07	126.19
362.296	115.19
362.523	123.19
362.749	131.19
362.976	128.19
363.203	136.19
363.429	126.19
363.656	134.19
363.882	121.19
364.109	149.19
364.335	155.19
364.562	118.19
364.788	128.19
365.015	132.19
365.241	133.19
365.468	131.19
365.694	126.19
365.92	150.19
366.147	151.19
366.373	143.19
366.599	130.19
366.826	127.19
367.052	127.19
367.278	127.19
367.505	145.19
367.731	151.19
367.957	151.19
368.184	144.19
368.41	134.19
368.636	134.19
368.862	147.19
369.089	126.19
369.315	151.19
369.541	155.19
369.767	137.19
369.993	140.19
370.219	141.19
370.445	145.19
370.672	165.19
370.898	153.19
371.124	142.19
371.35	154.19
371.576	158.19
371.802	140.19
372.028	134.19
372.254	155.19
372.48	138.19
372.706	153.19
372.932	148.19
373.158	174.19
373.384	150.19
373.61	148.19
373.835	152.19
374.061	144.19
374.287	158.19
374.513	127.19
374.739	157.19
374.965	142.19
375.191	153.19
375.416	157.19
375.642	158.19
375.868	172.19
376.094	146.19
376.319	152.19
376.545	143.19
376.771	157.19
376.997	159.19
377.222	146.19
377.448	146.19
377.674	152.19
377.899	155.19
378.125	145.19
378.35	159.19
378.576	162.19
378.802	155.19
379.027	150.19
379.253	182.19
379.478	157.19
379.704	159.19
379.929	159.19
380.155	149.19
380.38	165.19
380.606	173.19
380.831	187.19
381.057	188.19
381.282	158.19
381.507	161.19
381.733	166.19
381.958	168.19
382.184	160.19
382.409	161.19
382.634	177.19
382.86	175.19
383.085	170.19
383.31	172.19
383.535	179.19
383.761	189.19
383.986	175.19
384.211	168.19
384.436	177.19
384.662	179.19
384.887	180.19
385.112	174.19
385.337	181.19
385.562	173.19
385.787	175.19
386.013	181.19
386.238	188.19
386.463	169.19
386.688	208.19
386.913	195.19
387.138	193.19
387.363	173.19
387.588	179.19
387.813	190.19
388.038	179.19
388.263	182.19
388.488	193.19
388.713	196.19
388.938	185.19
389.163	196.19
389.387	195.19
389.612	180.19
389.837	184.19
390.062	187.19
390.287	198.19
390.512	198.19
390.736	187.19
390.961	183.19
391.186	201.19
391.411	216.19
391.636	216.19
391.86	193.19
392.085	201.19
392.31	210.19
392.534	208.19
392.759	218.19
392.984	219.19
393.208	207.19
393.433	223.19
393.658	241.19
393.882	209.19
394.107	206.19
394.331	217.19
394.556	213.19
394.78	217.19
395.005	208.19
395.229	208.19
395.454	223.19
395.678	214.19
395.903	213.19
396.127	224.19
396.352	216.19
396.576	244.19
396.801	220.19
397.025	227.19
397.249	226.19
397.474	242.19
397.698	217.19
397.922	228.19
398.147	221.19
398.371	237.19
398.595	209.19
398.82	242.19
399.044	235.19
399.268	271.19
399.492	288.19
399.717	302.19
399.941	292.19
400.165	277.19
400.389	275.19
400.613	239.19
400.837	248.19
401.062	241.19
401.286	225.19
401.51	242.19
401.734	241.19
401.958	253.19
402.182	243.19
402.406	256.19
402.63	248.19
402.854	264.19
403.078	247.19
403.302	245.19
403.526	275.19
403.75	255.19
403.974	267.19
404.198	278.19
404.422	262.19
404.645	262.19
404.869	260.19
405.093	273.19
405.317	257.19
405.541	275.19
405.765	253.19
405.988	250.19
406.212	275.19
406.436	259.19
406.66	265.19
406.883	279.19
407.107	289.19
407.331	278.19
407.555	283.19
407.778	275.19
408.002	290.19
408.226	271.19
408.449	276.19
408.673	268.19
408.896	259.19
409.12	272.19
409.344	277.19
409.567	283.19
409.791	275.19
410.014	284.19
410.238	265.19
410.461	260.19
410.685	275.19
410.908	253.19
411.132	273.19
411.355	266.19
411.578	270.19
411.802	264.19
412.025	256.19
412.249	281.19
412.472	269.19
412.695	253.19
412.919	265.19
413.142	255.19
413.365	279.19
413.589	268.19
413.812	265.19
414.035	276.19
414.258	260.19
414.482	250.19
414.705	263.19
414.928	271.19
415.151	254.19
415.374	271.19
415.597	259.19
415.821	261.19
416.044	263.19
416.267	272.19
416.49	264.19
416.713	275.19
416.936	261.19
417.159	272.19
417.382	259.19
417.605	255.19
417.828	280.19
418.051	279.19
418.274	288.19
418.497	268.19
418.72	277.19
418.943	291.19
419.166	295.19
419.389	317.19
419.611	303.19
419.834	288.19
420.057	285.19
420.28	287.19
420.503	273.19
420.726	263.19
420.948	274.19
421.171	286.19
421.394	296.19
421.617	288.19
421.839	287.19
422.062	297.19
422.285	279.19
422.507	284.19
422.73	273.19
422.953	262.19
423.175	275.19
423.398	266.19
423.621	285.19
423.843	299.19
424.066	304.19
424.288	284.19
424.511	304.19
424.733	315.19
424.956	306.19
425.178	299.19
425.401	286.19
425.623	286.19
425.846	276.19
426.068	259.19
426.291	268.19
426.513	282.19
426.735	272.19
426.958	271.19
427.18	271.19
427.402	269.19
427.625	282.19
427.847	254.19
428.069	270.19
428.292	271.19
428.514	272.19
428.736	251.19
428.958	254.19
429.181	275.19
429.403	255.19
429.625	260.19
429.847	264.19
430.069	258.19
430.292	271.19
430.514	269.19
430.736	266.19
430.958	246.19
431.18	254.19
431.402	251.19
431.624	239.19
431.846	217.19
432.068	191.19
432.29	184.19
432.512	242.19
432.734	268.19
432.956	253.19
433.178	276.19
433.4	262.19
433.622	279.19
433.844	253.19
434.066	242.19
434.287	205.19
434.509	184.19
434.731	203.19
434.953	252.19
435.175	264.19
435.397	237.19
435.618	237.19
435.84	217.19
436.062	223.19
436.284	269.19
436.505	261.19
436.727	273.19
436.949	279.19
437.17	248.19
437.392	255.19
437.614	247.19
437.835	214.19
438.057	207.19
438.278	224.19
438.5	229.19
438.721	268.19
438.943	280.19
439.165	255.19
439.386	291.19
439.608	287.19
439.829	281.19
440.05	313.19
440.272	289.19
440.493	309.19
440.715	317.19
440.936	304.19
441.158	295.19
441.379	297.19
441.6	332.19
441.822	320.19
442.043	293.19
442.264	288.19
442.486	290.19
442.707	315.19
442.928	288.19
443.149	272.19
443.371	300.19
443.592	287.19
443.813	295.19
444.034	280.19
444.255	313.19
444.476	302.19
444.698	337.19
444.919	350.19
445.14	580.19
445.361	461.19
445.582	297.19
445.803	304.19
446.024	319.19
446.245	304.19
446.466	317.19
446.687	285.19
446.908	306.19
447.129	317.19
447.35	301.19
447.571	316.19
447.792	296.19
448.013	295.19
448.234	303.19
448.455	277.19
448.675	272.19
448.896	268.19
449.117	288.19
449.338	281.19
449.559	273.19
449.779	270.19
450	260.19
450.221	281.19
450.442	267.19
450.662	272.19
450.883	273.19
451.104	258.19
451.324	269.19
451.545	239.19
451.766	255.19
451.986	273.19
452.207	251.19
452.428	247.19
452.648	241.19
452.869	225.19
453.089	199.19
453.31	199.19
453.53	200.19
453.751	186.19
453.971	189.19
454.192	182.19
454.412	190.19
454.633	204.19
454.853	234.19
455.073	227.19
455.294	223.19
455.514	207.19
455.734	205.19
455.955	205.19
456.175	202.19
456.395	211.19
456.616	192.19
456.836	176.19
457.056	210.19
457.276	180.19
457.497	198.19
457.717	183.19
457.937	185.19
458.157	186.19
458.377	203.19
458.598	191.19
458.818	186.19
459.038	158.19
459.258	165.19
459.478	178.19
459.698	178.19
459.918	194.19
460.138	213.19
460.358	235.19
460.578	233.19
460.798	230.19
461.018	245.19
461.238	248.19
461.458	231.19
461.678	242.19
461.898	257.19
462.118	253.19
462.338	264.19
462.558	246.19
462.777	251.19
462.997	259.19
463.217	272.19
463.437	272.19
463.657	253.19
463.876	263.19
464.096	240.19
464.316	249.19
464.536	245.19
464.755	258.19
464.975	261.19
465.195	244.19
465.414	229.19
465.634	217.19
465.854	247.19
466.073	251.19
466.293	249.19
466.512	251.19
466.732	245.19
466.951	260.19
467.171	263.19
467.391	274.19
467.61	265.19
467.829	269.19
468.049	269.19
468.268	255.19
468.488	269.19
468.707	267.19
468.927	267.19
469.146	262.19
469.365	260.19
469.585	268.19
469.804	275.19
470.023	281.19
470.243	280.19
470.462	275.19
470.681	280.19
470.901	295.19
471.12	296.19
471.339	279.19
471.558	271.19
471.777	272.19
471.997	260.19
472.216	248.19
472.435	227.19
472.654	214.19
472.873	217.19
473.092	197.19
473.311	217.19
473.53	231.19
473.749	243.19
473.968	246.19
474.187	225.19
474.406	230.19
474.625	252.19
474.844	230.19
475.063	239.19
475.282	228.19
475.501	221.19
475.72	238.19
475.939	246.19
476.158	252.19
476.377	244.19
476.596	233.19
476.814	209.19
477.033	195.19
477.252	217.19
477.471	238.19
477.69	251.19
477.908	273.19
478.127	273.19
478.346	278.19
478.564	289.19
478.783	275.19
479.002	279.19
479.22	273.19
479.439	272.19
479.658	251.19
479.876	233.19
480.095	219.19
480.313	251.19
480.532	249.19
480.751	215.19
480.969	185.19
481.188	194.19
481.406	184.19
481.624	177.19
481.843	184.19
482.061	198.19
482.28	218.19
482.498	203.19
482.717	189.19
482.935	241.19
483.153	280.19
483.372	275.19
483.59	288.19
483.808	253.19
484.027	250.19
484.245	255.19
484.463	253.19
484.681	310.19
484.9	276.19
485.118	275.19
485.336	236.19
485.554	201.19
485.772	197.19
485.99	214.19
486.209	213.19
486.427	215.19
486.645	239.19
486.863	273.19
487.081	282.19
487.299	266.19
487.517	297.19
487.735	356.19
487.953	372.19
488.171	359.19
488.389	347.19
488.607	300.19
488.825	251.19
489.043	241.19
489.261	261.19
489.479	266.19
489.696	269.19
489.914	284.19
490.132	276.19
490.35	313.19
490.568	343.19
490.786	358.19
491.003	367.19
491.221	378.19
491.439	392.19
491.657	407.19
491.874	423.19
492.092	462.19
492.31	484.19
492.527	450.19
492.745	408.19
492.963	388.19
493.18	417.19
493.398	388.19
493.615	367.19
493.833	376.19
494.05	345.19
494.268	365.19
494.485	347.19
494.703	370.19
494.92	369.19
495.138	357.19
495.355	369.19
495.573	363.19
495.79	348.19
496.008	349.19
496.225	365.19
496.442	366.19
496.66	353.19
496.877	322.19
497.094	350.19
497.312	341.19
497.529	360.19
497.746	329.19
497.963	305.19
498.181	276.19
498.398	273.19
498.615	265.19
498.832	277.19
499.049	293.19
499.267	333.19
499.484	347.19
499.701	392.19
499.918	397.19
500.135	455.19
500.352	489.19
500.569	493.19
500.786	503.19
501.003	484.19
501.22	450.19
501.437	397.19
501.654	372.19
501.871	349.19
502.088	333.19
502.305	330.19
502.522	312.19
502.739	280.19
502.956	281.19
503.172	278.19
503.389	273.19
503.606	248.19
503.823	251.19
504.04	244.19
504.256	271.19
504.473	255.19
504.69	262.19
