Data from SampD_HRD10591_00017.txt Node
Date: Mon Jan 19 11:47:43 EST 2026
User: Yrep
Spectrometer: HR+D1059
Trigger mode: 0
Integration Time (sec): 3.443000E-1
Scans to average: 1
Electric dark correction enabled: true
Nonlinearity correction enabled: false
Boxcar width: 0
XAxis mode: Wavelengths
Number of Pixels in Spectrum: 2048
>>>>>Begin Spectral Data<<<<<
223.165	-20.31
223.4	-20.31
223.635	-20.31
223.869	-20.31
224.104	-32.31
224.338	-24.31
224.573	-12.31
224.808	-12.31
225.042	1.69
225.277	-6.31
225.511	-4.31
225.746	10.69
225.98	11.69
226.215	3.69
226.449	8.69
226.683	12.69
226.918	42.69
227.152	40.69
227.387	41.69
227.621	29.69
227.856	65.69
228.09	39.69
228.324	51.69
228.559	60.69
228.793	55.69
229.027	66.69
229.262	62.69
229.496	63.69
229.73	79.69
229.964	75.69
230.199	76.69
230.433	76.69
230.667	93.69
230.901	86.69
231.136	60.69
231.37	85.69
231.604	73.69
231.838	87.69
232.072	88.69
232.306	82.69
232.541	90.69
232.775	79.69
233.009	104.69
233.243	88.69
233.477	80.69
233.711	78.69
233.945	93.69
234.179	94.69
234.413	82.69
234.647	88.69
234.881	81.69
235.115	87.69
235.349	73.69
235.583	93.69
235.817	92.69
236.051	85.69
236.285	67.69
236.519	80.69
236.753	94.69
236.987	83.69
237.221	74.69
237.455	86.69
237.689	82.69
237.922	80.69
238.156	90.69
238.39	85.69
238.624	91.69
238.858	66.69
239.091	77.69
239.325	87.69
239.559	83.69
239.793	78.69
240.027	98.69
240.26	75.69
240.494	83.69
240.728	80.69
240.961	81.69
241.195	101.69
241.429	85.69
241.662	73.69
241.896	75.69
242.13	81.69
242.363	99.69
242.597	90.69
242.83	99.69
243.064	96.69
243.298	86.69
243.531	85.69
243.765	87.69
243.998	93.69
244.232	89.69
244.465	75.69
244.699	73.69
244.932	100.69
245.166	92.69
245.399	95.69
245.633	84.69
245.866	81.69
246.099	104.69
246.333	90.69
246.566	88.69
246.8	93.69
247.033	66.69
247.266	93.69
247.5	71.69
247.733	85.69
247.966	74.69
248.2	76.69
248.433	79.69
248.666	75.69
248.899	85.69
249.133	97.69
249.366	118.69
249.599	102.69
249.832	89.69
250.066	96.69
250.299	80.69
250.532	103.69
250.765	99.69
250.998	83.69
251.231	84.69
251.465	91.69
251.698	85.69
251.931	80.69
252.164	97.69
252.397	85.69
252.63	89.69
252.863	80.69
253.096	84.69
253.329	83.69
253.562	84.69
253.795	90.69
254.028	93.69
254.261	93.69
254.494	108.69
254.727	97.69
254.96	93.69
255.193	104.69
255.426	100.69
255.659	95.69
255.892	100.69
256.124	98.69
256.357	91.69
256.59	90.69
256.823	85.69
257.056	85.69
257.289	96.69
257.521	103.69
257.754	100.69
257.987	101.69
258.22	100.69
258.452	91.69
258.685	94.69
258.918	121.69
259.151	107.69
259.383	83.69
259.616	90.69
259.849	97.69
260.081	91.69
260.314	85.69
260.547	106.69
260.779	95.69
261.012	88.69
261.244	92.69
261.477	111.69
261.71	105.69
261.942	104.69
262.175	105.69
262.407	97.69
262.64	102.69
262.872	90.69
263.105	107.69
263.337	105.69
263.57	91.69
263.802	98.69
264.035	100.69
264.267	86.69
264.499	90.69
264.732	104.69
264.964	95.69
265.197	108.69
265.429	111.69
265.661	113.69
265.894	98.69
266.126	116.69
266.358	116.69
266.591	103.69
266.823	106.69
267.055	109.69
267.287	95.69
267.52	95.69
267.752	104.69
267.984	111.69
268.216	101.69
268.448	117.69
268.681	112.69
268.913	105.69
269.145	109.69
269.377	94.69
269.609	112.69
269.841	101.69
270.073	97.69
270.306	110.69
270.538	97.69
270.77	110.69
271.002	101.69
271.234	113.69
271.466	98.69
271.698	112.69
271.93	112.69
272.162	105.69
272.394	102.69
272.626	113.69
272.858	101.69
273.09	112.69
273.322	113.69
273.553	99.69
273.785	105.69
274.017	105.69
274.249	112.69
274.481	100.69
274.713	116.69
274.945	87.69
275.176	104.69
275.408	105.69
275.64	97.69
275.872	99.69
276.104	109.69
276.335	99.69
276.567	119.69
276.799	109.69
277.031	105.69
277.262	99.69
277.494	118.69
277.726	111.69
277.957	108.69
278.189	114.69
278.421	114.69
278.652	104.69
278.884	108.69
279.115	100.69
279.347	113.69
279.579	100.69
279.81	114.69
280.042	115.69
280.273	112.69
280.505	101.69
280.736	108.69
280.968	110.69
281.199	116.69
281.431	108.69
281.662	111.69
281.894	109.69
282.125	104.69
282.356	113.69
282.588	81.69
282.819	99.69
283.051	100.69
283.282	102.69
283.513	107.69
283.745	128.69
283.976	105.69
284.207	111.69
284.439	97.69
284.67	124.69
284.901	105.69
285.132	97.69
285.364	93.69
285.595	106.69
285.826	114.69
286.057	115.69
286.288	98.69
286.52	125.69
286.751	116.69
286.982	120.69
287.213	104.69
287.444	131.69
287.675	125.69
287.906	117.69
288.138	123.69
288.369	129.69
288.6	120.69
288.831	122.69
289.062	111.69
289.293	125.69
289.524	125.69
289.755	115.69
289.986	114.69
290.217	107.69
290.448	121.69
290.679	107.69
290.91	112.69
291.141	132.69
291.371	122.69
291.602	117.69
291.833	114.69
292.064	121.69
292.295	107.69
292.526	112.69
292.757	121.69
292.987	122.69
293.218	121.69
293.449	119.69
293.68	129.69
293.91	123.69
294.141	110.69
294.372	107.69
294.603	104.69
294.833	122.69
295.064	101.69
295.295	117.69
295.525	123.69
295.756	124.69
295.987	132.69
296.217	129.69
296.448	107.69
296.679	122.69
296.909	126.69
297.14	130.69
297.37	127.69
297.601	139.69
297.831	92.69
298.062	130.69
298.292	131.69
298.523	127.69
298.753	123.69
298.984	112.69
299.214	123.69
299.445	124.69
299.675	114.69
299.905	132.69
300.136	128.69
300.366	123.69
300.597	123.69
300.827	114.69
301.057	130.69
301.288	131.69
301.518	112.69
301.748	127.69
301.979	160.69
302.209	132.69
302.439	140.69
302.669	122.69
302.9	133.69
303.13	124.69
303.36	128.69
303.59	121.69
303.82	134.69
304.051	134.69
304.281	120.69
304.511	117.69
304.741	114.69
304.971	129.69
305.201	129.69
305.431	130.69
305.661	109.69
305.891	107.69
306.121	117.69
306.352	120.69
306.582	107.69
306.812	117.69
307.042	124.69
307.272	113.69
307.502	112.69
307.731	114.69
307.961	124.69
308.191	119.69
308.421	121.69
308.651	132.69
308.881	125.69
309.111	120.69
309.341	110.69
309.571	110.69
309.8	112.69
310.03	121.69
310.26	132.69
310.49	125.69
310.72	130.69
310.949	123.69
311.179	113.69
311.409	119.69
311.639	135.69
311.868	140.69
312.098	135.69
312.328	131.69
312.557	128.69
312.787	115.69
313.017	121.69
313.246	131.69
313.476	117.69
313.706	124.69
313.935	109.69
314.165	120.69
314.394	134.69
314.624	123.69
314.853	129.69
315.083	137.69
315.312	128.69
315.542	128.69
315.771	117.69
316.001	122.69
316.23	118.69
316.46	120.69
316.689	126.69
316.919	125.69
317.148	146.69
317.377	147.69
317.607	140.69
317.836	125.69
318.065	136.69
318.295	129.69
318.524	121.69
318.753	121.69
318.983	125.69
319.212	129.69
319.441	130.69
319.67	123.69
319.9	118.69
320.129	128.69
320.358	115.69
320.587	129.69
320.816	136.69
321.046	131.69
321.275	155.69
321.504	131.69
321.733	121.69
321.962	138.69
322.191	140.69
322.42	126.69
322.649	137.69
322.878	130.69
323.108	129.69
323.337	131.69
323.566	138.69
323.795	140.69
324.024	136.69
324.253	112.69
324.482	127.69
324.71	137.69
324.939	143.69
325.168	130.69
325.397	122.69
325.626	127.69
325.855	136.69
326.084	147.69
326.313	131.69
326.542	136.69
326.77	139.69
326.999	134.69
327.228	118.69
327.457	120.69
327.686	135.69
327.914	132.69
328.143	162.69
328.372	137.69
328.6	136.69
328.829	140.69
329.058	133.69
329.287	124.69
329.515	129.69
329.744	145.69
329.972	111.69
330.201	138.69
330.43	142.69
330.658	137.69
330.887	139.69
331.115	138.69
331.344	129.69
331.572	137.69
331.801	140.69
332.03	145.69
332.258	147.69
332.486	142.69
332.715	159.69
332.943	159.69
333.172	152.69
333.4	163.69
333.629	155.69
333.857	157.69
334.085	140.69
334.314	161.69
334.542	140.69
334.771	143.69
334.999	159.69
335.227	150.69
335.455	140.69
335.684	156.69
335.912	158.69
336.14	140.69
336.369	137.69
336.597	145.69
336.825	155.69
337.053	157.69
337.281	138.69
337.51	140.69
337.738	140.69
337.966	145.69
338.194	148.69
338.422	140.69
338.65	147.69
338.878	141.69
339.106	153.69
339.334	137.69
339.562	152.69
339.79	134.69
340.018	134.69
340.246	136.69
340.474	136.69
340.702	134.69
340.93	129.69
341.158	132.69
341.386	127.69
341.614	131.69
341.842	137.69
342.07	124.69
342.298	134.69
342.526	128.69
342.754	146.69
342.981	135.69
343.209	131.69
343.437	159.69
343.665	138.69
343.893	155.69
344.12	165.69
344.348	144.69
344.576	137.69
344.804	119.69
345.031	149.69
345.259	151.69
345.487	137.69
345.714	136.69
345.942	121.69
346.17	136.69
346.397	136.69
346.625	142.69
346.853	143.69
347.08	137.69
347.308	146.69
347.535	126.69
347.763	129.69
347.99	152.69
348.218	143.69
348.445	139.69
348.673	124.69
348.9	136.69
349.128	136.69
349.355	127.69
349.583	134.69
349.81	137.69
350.037	139.69
350.265	124.69
350.492	109.69
350.72	127.69
350.947	123.69
351.174	146.69
351.402	119.69
351.629	123.69
351.856	128.69
352.083	138.69
352.311	140.69
352.538	145.69
352.765	130.69
352.992	140.69
353.22	147.69
353.447	118.69
353.674	123.69
353.901	127.69
354.128	145.69
354.355	124.69
354.583	129.69
354.81	133.69
355.037	150.69
355.264	160.69
355.491	124.69
355.718	136.69
355.945	139.69
356.172	123.69
356.399	139.69
356.626	128.69
356.853	125.69
357.08	130.69
357.307	131.69
357.534	114.69
357.761	132.69
357.988	137.69
358.215	139.69
358.441	123.69
358.668	134.69
358.895	129.69
359.122	129.69
359.349	130.69
359.576	127.69
359.802	126.69
360.029	142.69
360.256	123.69
360.483	133.69
360.709	133.69
360.936	151.69
361.163	136.69
361.39	127.69
361.616	130.69
361.843	132.69
362.07	129.69
362.296	133.69
362.523	116.69
362.749	139.69
362.976	112.69
363.203	136.69
363.429	139.69
363.656	136.69
363.882	119.69
364.109	137.69
364.335	137.69
364.562	126.69
364.788	123.69
365.015	121.69
365.241	131.69
365.468	164.69
365.694	138.69
365.92	136.69
366.147	124.69
366.373	120.69
366.599	120.69
366.826	133.69
367.052	146.69
367.278	143.69
367.505	143.69
367.731	167.69
367.957	135.69
368.184	141.69
368.41	146.69
368.636	136.69
368.862	155.69
369.089	136.69
369.315	142.69
369.541	158.69
369.767	137.69
369.993	137.69
370.219	132.69
370.445	148.69
370.672	155.69
370.898	141.69
371.124	139.69
371.35	149.69
371.576	138.69
371.802	145.69
372.028	153.69
372.254	148.69
372.48	164.69
372.706	154.69
372.932	146.69
373.158	151.69
373.384	155.69
373.61	169.69
373.835	145.69
374.061	146.69
374.287	159.69
374.513	159.69
374.739	149.69
374.965	163.69
375.191	151.69
375.416	181.69
375.642	161.69
375.868	172.69
376.094	164.69
376.319	153.69
376.545	147.69
376.771	160.69
376.997	138.69
377.222	147.69
377.448	145.69
377.674	165.69
377.899	161.69
378.125	157.69
378.35	151.69
378.576	163.69
378.802	160.69
379.027	181.69
379.253	173.69
379.478	156.69
379.704	159.69
379.929	146.69
380.155	143.69
380.38	161.69
380.606	160.69
380.831	173.69
381.057	162.69
381.282	150.69
381.507	169.69
381.733	173.69
381.958	157.69
382.184	159.69
382.409	184.69
382.634	168.69
382.86	160.69
383.085	185.69
383.31	173.69
383.535	174.69
383.761	185.69
383.986	150.69
384.211	188.69
384.436	178.69
384.662	187.69
384.887	173.69
385.112	177.69
385.337	184.69
385.562	175.69
385.787	168.69
386.013	200.69
386.238	188.69
386.463	188.69
386.688	216.69
386.913	181.69
387.138	186.69
387.363	205.69
387.588	187.69
387.813	207.69
388.038	196.69
388.263	183.69
388.488	176.69
388.713	185.69
388.938	186.69
389.163	198.69
389.387	199.69
389.612	185.69
389.837	178.69
390.062	208.69
390.287	196.69
390.512	188.69
390.736	194.69
390.961	200.69
391.186	217.69
391.411	195.69
391.636	195.69
391.86	216.69
392.085	209.69
392.31	210.69
392.534	207.69
392.759	199.69
392.984	202.69
393.208	218.69
393.433	217.69
393.658	214.69
393.882	200.69
394.107	207.69
394.331	216.69
394.556	227.69
394.78	213.69
395.005	217.69
395.229	219.69
395.454	230.69
395.678	213.69
395.903	220.69
396.127	201.69
396.352	204.69
396.576	227.69
396.801	209.69
397.025	225.69
397.249	227.69
397.474	226.69
397.698	232.69
397.922	230.69
398.147	217.69
398.371	221.69
398.595	225.69
398.82	225.69
399.044	247.69
399.268	245.69
399.492	291.69
399.717	293.69
399.941	279.69
400.165	268.69
400.389	252.69
400.613	243.69
400.837	251.69
401.062	247.69
401.286	246.69
401.51	247.69
401.734	228.69
401.958	230.69
402.182	251.69
402.406	230.69
402.63	254.69
402.854	243.69
403.078	263.69
403.302	243.69
403.526	258.69
403.75	258.69
403.974	265.69
404.198	265.69
404.422	257.69
404.645	253.69
404.869	262.69
405.093	259.69
405.317	266.69
405.541	261.69
405.765	258.69
405.988	249.69
406.212	275.69
406.436	273.69
406.66	280.69
406.883	275.69
407.107	284.69
407.331	277.69
407.555	264.69
407.778	283.69
408.002	261.69
408.226	275.69
408.449	279.69
408.673	275.69
408.896	273.69
409.12	261.69
409.344	279.69
409.567	282.69
409.791	262.69
410.014	263.69
410.238	254.69
410.461	265.69
410.685	262.69
410.908	275.69
411.132	255.69
411.355	264.69
411.578	264.69
411.802	269.69
412.025	279.69
412.249	240.69
412.472	257.69
412.695	255.69
412.919	254.69
413.142	259.69
413.365	249.69
413.589	255.69
413.812	253.69
414.035	241.69
414.258	261.69
414.482	257.69
414.705	261.69
414.928	263.69
415.151	256.69
415.374	255.69
415.597	283.69
415.821	274.69
416.044	260.69
416.267	275.69
416.49	273.69
416.713	260.69
416.936	281.69
417.159	263.69
417.382	259.69
417.605	257.69
417.828	274.69
418.051	247.69
418.274	264.69
418.497	251.69
418.72	284.69
418.943	295.69
419.166	291.69
419.389	291.69
419.611	266.69
419.834	294.69
420.057	296.69
420.28	269.69
420.503	275.69
420.726	273.69
420.948	276.69
421.171	272.69
421.394	286.69
421.617	286.69
421.839	292.69
422.062	288.69
422.285	278.69
422.507	282.69
422.73	271.69
422.953	267.69
423.175	263.69
423.398	273.69
423.621	293.69
423.843	287.69
424.066	310.69
424.288	311.69
424.511	275.69
424.733	288.69
424.956	285.69
425.178	288.69
425.401	282.69
425.623	292.69
425.846	286.69
426.068	268.69
426.291	265.69
426.513	260.69
426.735	258.69
426.958	275.69
427.18	274.69
427.402	263.69
427.625	262.69
427.847	260.69
428.069	255.69
428.292	267.69
428.514	263.69
428.736	263.69
428.958	260.69
429.181	285.69
429.403	258.69
429.625	253.69
429.847	240.69
430.069	244.69
430.292	264.69
430.514	273.69
430.736	262.69
430.958	248.69
431.18	251.69
431.402	252.69
431.624	243.69
431.846	204.69
432.068	197.69
432.29	190.69
432.512	231.69
432.734	233.69
432.956	267.69
433.178	279.69
433.4	265.69
433.622	279.69
433.844	266.69
434.066	219.69
434.287	209.69
434.509	193.69
434.731	211.69
434.953	235.69
435.175	247.69
435.397	253.69
435.618	236.69
435.84	209.69
436.062	229.69
436.284	244.69
436.505	267.69
436.727	256.69
436.949	257.69
437.17	266.69
437.392	226.69
437.614	221.69
437.835	218.69
438.057	210.69
438.278	216.69
438.5	254.69
438.721	268.69
438.943	271.69
439.165	275.69
439.386	286.69
439.608	285.69
439.829	291.69
440.05	287.69
440.272	319.69
440.493	301.69
440.715	305.69
440.936	299.69
441.158	291.69
441.379	290.69
441.6	315.69
441.822	297.69
442.043	294.69
442.264	279.69
442.486	286.69
442.707	302.69
442.928	288.69
443.149	292.69
443.371	295.69
443.592	289.69
443.813	295.69
444.034	304.69
444.255	291.69
444.476	315.69
444.698	325.69
444.919	326.69
445.14	559.69
445.361	423.69
445.582	317.69
445.803	299.69
446.024	297.69
446.245	313.69
446.466	312.69
446.687	318.69
446.908	320.69
447.129	313.69
447.35	317.69
447.571	299.69
447.792	289.69
448.013	280.69
448.234	294.69
448.455	278.69
448.675	287.69
448.896	289.69
449.117	272.69
449.338	270.69
449.559	263.69
449.779	283.69
450	273.69
450.221	264.69
450.442	265.69
450.662	271.69
450.883	257.69
451.104	262.69
451.324	256.69
451.545	244.69
451.766	250.69
451.986	247.69
452.207	258.69
452.428	261.69
452.648	248.69
452.869	228.69
453.089	223.69
453.31	213.69
453.53	202.69
453.751	181.69
453.971	209.69
454.192	199.69
454.412	185.69
454.633	213.69
454.853	222.69
455.073	227.69
455.294	215.69
455.514	233.69
455.734	220.69
455.955	220.69
456.175	209.69
456.395	212.69
456.616	211.69
456.836	202.69
457.056	197.69
457.276	200.69
457.497	199.69
457.717	203.69
457.937	210.69
458.157	207.69
458.377	182.69
458.598	179.69
458.818	176.69
459.038	169.69
459.258	165.69
459.478	179.69
459.698	167.69
459.918	188.69
460.138	209.69
460.358	225.69
460.578	252.69
460.798	249.69
461.018	233.69
461.238	252.69
461.458	234.69
461.678	224.69
461.898	233.69
462.118	241.69
462.338	237.69
462.558	250.69
462.777	250.69
462.997	244.69
463.217	278.69
463.437	249.69
463.657	247.69
463.876	252.69
464.096	259.69
464.316	251.69
464.536	258.69
464.755	252.69
464.975	255.69
465.195	249.69
465.414	219.69
465.634	226.69
465.854	217.69
466.073	236.69
466.293	239.69
466.512	235.69
466.732	264.69
466.951	261.69
467.171	261.69
467.391	276.69
467.61	247.69
467.829	263.69
468.049	268.69
468.268	264.69
468.488	260.69
468.707	262.69
468.927	267.69
469.146	257.69
469.365	258.69
469.585	252.69
469.804	272.69
470.023	266.69
470.243	271.69
470.462	271.69
470.681	291.69
470.901	267.69
471.12	266.69
471.339	274.69
471.558	260.69
471.777	259.69
471.997	271.69
472.216	239.69
472.435	215.69
472.654	198.69
472.873	199.69
473.092	215.69
473.311	213.69
473.53	226.69
473.749	243.69
473.968	238.69
474.187	221.69
474.406	197.69
474.625	234.69
474.844	259.69
475.063	244.69
475.282	227.69
475.501	201.69
475.72	221.69
475.939	247.69
476.158	244.69
476.377	240.69
476.596	215.69
476.814	214.69
477.033	189.69
477.252	234.69
477.471	255.69
477.69	260.69
477.908	288.69
478.127	287.69
478.346	264.69
478.564	258.69
478.783	267.69
479.002	284.69
479.22	269.69
479.439	255.69
479.658	232.69
479.876	235.69
480.095	225.69
480.313	248.69
480.532	241.69
480.751	227.69
480.969	191.69
481.188	184.69
481.406	194.69
481.624	167.69
481.843	202.69
482.061	203.69
482.28	205.69
482.498	211.69
482.717	216.69
482.935	252.69
483.153	277.69
483.372	279.69
483.59	288.69
483.808	274.69
484.027	242.69
484.245	247.69
484.463	262.69
484.681	295.69
484.9	256.69
485.118	276.69
485.336	239.69
485.554	209.69
485.772	201.69
485.99	202.69
486.209	196.69
486.427	210.69
486.645	253.69
486.863	271.69
487.081	269.69
487.299	252.69
487.517	281.69
487.735	331.69
487.953	355.69
488.171	367.69
488.389	333.69
488.607	275.69
488.825	241.69
489.043	244.69
489.261	275.69
489.479	260.69
489.696	287.69
489.914	279.69
490.132	288.69
490.35	319.69
490.568	340.69
490.786	361.69
491.003	339.69
491.221	373.69
491.439	384.69
491.657	393.69
491.874	439.69
492.092	458.69
492.31	487.69
492.527	451.69
492.745	423.69
492.963	401.69
493.18	374.69
493.398	379.69
493.615	368.69
493.833	379.69
494.05	361.69
494.268	368.69
494.485	361.69
494.703	371.69
494.92	378.69
495.138	357.69
495.355	344.69
495.573	359.69
495.79	344.69
496.008	356.69
496.225	348.69
496.442	359.69
496.66	359.69
496.877	346.69
497.094	331.69
497.312	344.69
497.529	324.69
497.746	305.69
497.963	289.69
498.181	276.69
498.398	287.69
498.615	260.69
498.832	279.69
499.049	283.69
499.267	312.69
499.484	340.69
499.701	361.69
499.918	424.69
500.135	463.69
500.352	483.69
500.569	486.69
500.786	485.69
501.003	473.69
501.22	421.69
501.437	409.69
501.654	352.69
501.871	323.69
502.088	315.69
502.305	319.69
502.522	300.69
502.739	311.69
502.956	296.69
503.172	266.69
503.389	258.69
503.606	263.69
503.823	260.69
504.04	273.69
504.256	275.69
504.473	251.69
504.69	255.69
