Data from SampD_HRD10591_00031.txt Node
Date: Mon Jan 19 11:47:48 EST 2026
User: Yrep
Spectrometer: HR+D1059
Trigger mode: 0
Integration Time (sec): 3.443000E-1
Scans to average: 1
Electric dark correction enabled: true
Nonlinearity correction enabled: false
Boxcar width: 0
XAxis mode: Wavelengths
Number of Pixels in Spectrum: 2048
>>>>>Begin Spectral Data<<<<<
223.165	-29.69
223.4	-29.69
223.635	-29.69
223.869	-24.69
224.104	-24.69
224.338	-4.69
224.573	-15.69
224.808	-17.69
225.042	-7.69
225.277	6.31
225.511	2.31
225.746	9.31
225.98	4.31
226.215	8.31
226.449	5.31
226.683	15.31
226.918	35.31
227.152	38.31
227.387	48.31
227.621	53.31
227.856	58.31
228.09	34.31
228.324	62.31
228.559	59.31
228.793	58.31
229.027	67.31
229.262	60.31
229.496	86.31
229.73	63.31
229.964	84.31
230.199	84.31
230.433	69.31
230.667	88.31
230.901	79.31
231.136	70.31
231.37	77.31
231.604	75.31
231.838	87.31
232.072	82.31
232.306	90.31
232.541	93.31
232.775	82.31
233.009	109.31
233.243	84.31
233.477	82.31
233.711	96.31
233.945	106.31
234.179	78.31
234.413	94.31
234.647	89.31
234.881	91.31
235.115	92.31
235.349	86.31
235.583	86.31
235.817	94.31
236.051	93.31
236.285	84.31
236.519	87.31
236.753	90.31
236.987	85.31
237.221	90.31
237.455	87.31
237.689	90.31
237.922	83.31
238.156	74.31
238.39	97.31
238.624	85.31
238.858	85.31
239.091	85.31
239.325	90.31
239.559	84.31
239.793	102.31
240.027	94.31
240.26	101.31
240.494	86.31
240.728	84.31
240.961	85.31
241.195	88.31
241.429	85.31
241.662	88.31
241.896	84.31
242.13	86.31
242.363	87.31
242.597	92.31
242.83	92.31
243.064	90.31
243.298	98.31
243.531	97.31
243.765	84.31
243.998	100.31
244.232	105.31
244.465	77.31
244.699	97.31
244.932	84.31
245.166	90.31
245.399	103.31
245.633	89.31
245.866	75.31
246.099	84.31
246.333	88.31
246.566	83.31
246.8	94.31
247.033	92.31
247.266	89.31
247.5	90.31
247.733	99.31
247.966	100.31
248.2	94.31
248.433	93.31
248.666	98.31
248.899	113.31
249.133	99.31
249.366	92.31
249.599	89.31
249.832	70.31
250.066	108.31
250.299	81.31
250.532	104.31
250.765	101.31
250.998	92.31
251.231	89.31
251.465	112.31
251.698	83.31
251.931	98.31
252.164	83.31
252.397	86.31
252.63	89.31
252.863	88.31
253.096	96.31
253.329	86.31
253.562	110.31
253.795	107.31
254.028	104.31
254.261	98.31
254.494	98.31
254.727	95.31
254.96	83.31
255.193	95.31
255.426	97.31
255.659	88.31
255.892	105.31
256.124	84.31
256.357	106.31
256.59	111.31
256.823	87.31
257.056	94.31
257.289	98.31
257.521	101.31
257.754	82.31
257.987	96.31
258.22	106.31
258.452	109.31
258.685	98.31
258.918	95.31
259.151	96.31
259.383	110.31
259.616	90.31
259.849	108.31
260.081	109.31
260.314	99.31
260.547	114.31
260.779	100.31
261.012	104.31
261.244	104.31
261.477	111.31
261.71	101.31
261.942	108.31
262.175	101.31
262.407	95.31
262.64	95.31
262.872	92.31
263.105	114.31
263.337	130.31
263.57	110.31
263.802	113.31
264.035	94.31
264.267	109.31
264.499	96.31
264.732	105.31
264.964	99.31
265.197	106.31
265.429	103.31
265.661	102.31
265.894	106.31
266.126	120.31
266.358	111.31
266.591	106.31
266.823	104.31
267.055	99.31
267.287	106.31
267.52	120.31
267.752	106.31
267.984	102.31
268.216	112.31
268.448	113.31
268.681	113.31
268.913	104.31
269.145	94.31
269.377	107.31
269.609	111.31
269.841	104.31
270.073	108.31
270.306	107.31
270.538	96.31
270.77	108.31
271.002	103.31
271.234	103.31
271.466	120.31
271.698	101.31
271.93	116.31
272.162	106.31
272.394	133.31
272.626	101.31
272.858	103.31
273.09	108.31
273.322	108.31
273.553	98.31
273.785	114.31
274.017	106.31
274.249	109.31
274.481	106.31
274.713	94.31
274.945	124.31
275.176	116.31
275.408	108.31
275.64	98.31
275.872	109.31
276.104	110.31
276.335	111.31
276.567	112.31
276.799	118.31
277.031	98.31
277.262	119.31
277.494	106.31
277.726	124.31
277.957	112.31
278.189	120.31
278.421	115.31
278.652	102.31
278.884	98.31
279.115	101.31
279.347	114.31
279.579	118.31
279.81	90.31
280.042	114.31
280.273	106.31
280.505	117.31
280.736	115.31
280.968	106.31
281.199	107.31
281.431	110.31
281.662	107.31
281.894	116.31
282.125	116.31
282.356	133.31
282.588	114.31
282.819	124.31
283.051	103.31
283.282	118.31
283.513	106.31
283.745	113.31
283.976	118.31
284.207	112.31
284.439	126.31
284.67	133.31
284.901	118.31
285.132	109.31
285.364	120.31
285.595	118.31
285.826	100.31
286.057	111.31
286.288	116.31
286.52	106.31
286.751	117.31
286.982	114.31
287.213	103.31
287.444	122.31
287.675	119.31
287.906	124.31
288.138	127.31
288.369	115.31
288.6	131.31
288.831	122.31
289.062	118.31
289.293	124.31
289.524	116.31
289.755	122.31
289.986	110.31
290.217	115.31
290.448	118.31
290.679	116.31
290.91	116.31
291.141	118.31
291.371	130.31
291.602	124.31
291.833	116.31
292.064	126.31
292.295	120.31
292.526	109.31
292.757	122.31
292.987	116.31
293.218	110.31
293.449	125.31
293.68	123.31
293.91	109.31
294.141	133.31
294.372	119.31
294.603	137.31
294.833	130.31
295.064	121.31
295.295	131.31
295.525	133.31
295.756	109.31
295.987	116.31
296.217	119.31
296.448	116.31
296.679	111.31
296.909	114.31
297.14	130.31
297.37	133.31
297.601	116.31
297.831	133.31
298.062	133.31
298.292	136.31
298.523	115.31
298.753	131.31
298.984	125.31
299.214	137.31
299.445	132.31
299.675	137.31
299.905	140.31
300.136	133.31
300.366	132.31
300.597	129.31
300.827	127.31
301.057	124.31
301.288	133.31
301.518	131.31
301.748	139.31
301.979	151.31
302.209	134.31
302.439	143.31
302.669	133.31
302.9	137.31
303.13	134.31
303.36	124.31
303.59	122.31
303.82	133.31
304.051	132.31
304.281	127.31
304.511	133.31
304.741	123.31
304.971	134.31
305.201	152.31
305.431	130.31
305.661	128.31
305.891	120.31
306.121	135.31
306.352	129.31
306.582	121.31
306.812	115.31
307.042	118.31
307.272	127.31
307.502	133.31
307.731	129.31
307.961	133.31
308.191	128.31
308.421	128.31
308.651	128.31
308.881	117.31
309.111	120.31
309.341	118.31
309.571	120.31
309.8	113.31
310.03	135.31
310.26	119.31
310.49	127.31
310.72	124.31
310.949	124.31
311.179	141.31
311.409	114.31
311.639	134.31
311.868	130.31
312.098	122.31
312.328	135.31
312.557	140.31
312.787	128.31
313.017	142.31
313.246	130.31
313.476	121.31
313.706	135.31
313.935	124.31
314.165	134.31
314.394	134.31
314.624	132.31
314.853	133.31
315.083	137.31
315.312	123.31
315.542	135.31
315.771	127.31
316.001	146.31
316.23	134.31
316.46	130.31
316.689	126.31
316.919	134.31
317.148	133.31
317.377	132.31
317.607	119.31
317.836	123.31
318.065	131.31
318.295	134.31
318.524	142.31
318.753	139.31
318.983	140.31
319.212	152.31
319.441	125.31
319.67	128.31
319.9	118.31
320.129	119.31
320.358	142.31
320.587	128.31
320.816	131.31
321.046	132.31
321.275	136.31
321.504	112.31
321.733	114.31
321.962	129.31
322.191	139.31
322.42	130.31
322.649	141.31
322.878	127.31
323.108	130.31
323.337	140.31
323.566	140.31
323.795	146.31
324.024	139.31
324.253	133.31
324.482	135.31
324.71	141.31
324.939	142.31
325.168	129.31
325.397	137.31
325.626	140.31
325.855	144.31
326.084	146.31
326.313	138.31
326.542	131.31
326.77	138.31
326.999	132.31
327.228	133.31
327.457	125.31
327.686	136.31
327.914	130.31
328.143	150.31
328.372	146.31
328.6	140.31
328.829	127.31
329.058	142.31
329.287	146.31
329.515	131.31
329.744	138.31
329.972	120.31
330.201	143.31
330.43	133.31
330.658	150.31
330.887	134.31
331.115	148.31
331.344	157.31
331.572	155.31
331.801	154.31
332.03	159.31
332.258	144.31
332.486	135.31
332.715	146.31
332.943	146.31
333.172	160.31
333.4	159.31
333.629	164.31
333.857	141.31
334.085	151.31
334.314	151.31
334.542	151.31
334.771	146.31
334.999	130.31
335.227	153.31
335.455	170.31
335.684	160.31
335.912	152.31
336.14	137.31
336.369	159.31
336.597	151.31
336.825	137.31
337.053	146.31
337.281	154.31
337.51	151.31
337.738	145.31
337.966	126.31
338.194	139.31
338.422	135.31
338.65	148.31
338.878	133.31
339.106	139.31
339.334	156.31
339.562	135.31
339.79	152.31
340.018	134.31
340.246	136.31
340.474	128.31
340.702	141.31
340.93	145.31
341.158	139.31
341.386	142.31
341.614	134.31
341.842	138.31
342.07	137.31
342.298	124.31
342.526	132.31
342.754	124.31
342.981	153.31
343.209	133.31
343.437	170.31
343.665	152.31
343.893	150.31
344.12	158.31
344.348	149.31
344.576	143.31
344.804	141.31
345.031	140.31
345.259	135.31
345.487	142.31
345.714	134.31
345.942	128.31
346.17	129.31
346.397	140.31
346.625	141.31
346.853	130.31
347.08	143.31
347.308	128.31
347.535	141.31
347.763	139.31
347.99	140.31
348.218	139.31
348.445	129.31
348.673	130.31
348.9	137.31
349.128	140.31
349.355	132.31
349.583	141.31
349.81	139.31
350.037	150.31
350.265	147.31
350.492	140.31
350.72	137.31
350.947	156.31
351.174	149.31
351.402	124.31
351.629	130.31
351.856	140.31
352.083	116.31
352.311	135.31
352.538	130.31
352.765	132.31
352.992	165.31
353.22	140.31
353.447	124.31
353.674	140.31
353.901	147.31
354.128	143.31
354.355	141.31
354.583	119.31
354.81	134.31
355.037	148.31
355.264	147.31
355.491	154.31
355.718	140.31
355.945	139.31
356.172	127.31
356.399	129.31
356.626	131.31
356.853	129.31
357.08	149.31
357.307	139.31
357.534	124.31
357.761	154.31
357.988	129.31
358.215	127.31
358.441	140.31
358.668	131.31
358.895	140.31
359.122	123.31
359.349	137.31
359.576	132.31
359.802	125.31
360.029	139.31
360.256	130.31
360.483	142.31
360.709	135.31
360.936	150.31
361.163	142.31
361.39	158.31
361.616	132.31
361.843	148.31
362.07	143.31
362.296	152.31
362.523	131.31
362.749	129.31
362.976	153.31
363.203	134.31
363.429	128.31
363.656	137.31
363.882	122.31
364.109	133.31
364.335	131.31
364.562	131.31
364.788	146.31
365.015	136.31
365.241	122.31
365.468	143.31
365.694	130.31
365.92	125.31
366.147	140.31
366.373	131.31
366.599	130.31
366.826	133.31
367.052	146.31
367.278	153.31
367.505	147.31
367.731	160.31
367.957	143.31
368.184	149.31
368.41	124.31
368.636	149.31
368.862	150.31
369.089	140.31
369.315	148.31
369.541	152.31
369.767	149.31
369.993	154.31
370.219	149.31
370.445	130.31
370.672	139.31
370.898	148.31
371.124	140.31
371.35	165.31
371.576	153.31
371.802	167.31
372.028	149.31
372.254	153.31
372.48	161.31
372.706	151.31
372.932	176.31
373.158	173.31
373.384	176.31
373.61	177.31
373.835	162.31
374.061	153.31
374.287	150.31
374.513	163.31
374.739	180.31
374.965	155.31
375.191	166.31
375.416	165.31
375.642	167.31
375.868	174.31
376.094	156.31
376.319	172.31
376.545	149.31
376.771	174.31
376.997	169.31
377.222	165.31
377.448	152.31
377.674	164.31
377.899	165.31
378.125	158.31
378.35	156.31
378.576	163.31
378.802	164.31
379.027	179.31
379.253	168.31
379.478	166.31
379.704	167.31
379.929	162.31
380.155	159.31
380.38	172.31
380.606	166.31
380.831	166.31
381.057	192.31
381.282	202.31
381.507	170.31
381.733	179.31
381.958	180.31
382.184	171.31
382.409	157.31
382.634	176.31
382.86	180.31
383.085	196.31
383.31	184.31
383.535	168.31
383.761	167.31
383.986	179.31
384.211	172.31
384.436	179.31
384.662	195.31
384.887	189.31
385.112	186.31
385.337	194.31
385.562	197.31
385.787	195.31
386.013	188.31
386.238	194.31
386.463	195.31
386.688	221.31
386.913	198.31
387.138	204.31
387.363	194.31
387.588	210.31
387.813	195.31
388.038	207.31
388.263	227.31
388.488	190.31
388.713	208.31
388.938	215.31
389.163	202.31
389.387	206.31
389.612	191.31
389.837	204.31
390.062	214.31
390.287	203.31
390.512	199.31
390.736	196.31
390.961	206.31
391.186	210.31
391.411	207.31
391.636	204.31
391.86	206.31
392.085	234.31
392.31	222.31
392.534	216.31
392.759	205.31
392.984	218.31
393.208	220.31
393.433	230.31
393.658	210.31
393.882	220.31
394.107	220.31
394.331	203.31
394.556	207.31
394.78	224.31
395.005	230.31
395.229	198.31
395.454	237.31
395.678	222.31
395.903	225.31
396.127	230.31
396.352	219.31
396.576	206.31
396.801	210.31
397.025	226.31
397.249	220.31
397.474	235.31
397.698	236.31
397.922	244.31
398.147	238.31
398.371	214.31
398.595	222.31
398.82	244.31
399.044	251.31
399.268	279.31
399.492	281.31
399.717	288.31
399.941	295.31
400.165	280.31
400.389	239.31
400.613	257.31
400.837	252.31
401.062	250.31
401.286	249.31
401.51	242.31
401.734	253.31
401.958	261.31
402.182	271.31
402.406	264.31
402.63	244.31
402.854	244.31
403.078	276.31
403.302	244.31
403.526	272.31
403.75	280.31
403.974	278.31
404.198	273.31
404.422	285.31
404.645	285.31
404.869	282.31
405.093	263.31
405.317	265.31
405.541	282.31
405.765	258.31
405.988	263.31
406.212	275.31
406.436	263.31
406.66	284.31
406.883	260.31
407.107	271.31
407.331	286.31
407.555	294.31
407.778	287.31
408.002	294.31
408.226	267.31
408.449	269.31
408.673	274.31
408.896	277.31
409.12	275.31
409.344	283.31
409.567	291.31
409.791	287.31
410.014	284.31
410.238	278.31
410.461	284.31
410.685	290.31
410.908	289.31
411.132	278.31
411.355	295.31
411.578	275.31
411.802	275.31
412.025	261.31
412.249	268.31
412.472	271.31
412.695	288.31
412.919	260.31
413.142	266.31
413.365	267.31
413.589	285.31
413.812	266.31
414.035	280.31
414.258	276.31
414.482	264.31
414.705	256.31
414.928	285.31
415.151	290.31
415.374	262.31
415.597	263.31
415.821	263.31
416.044	266.31
416.267	280.31
416.49	282.31
416.713	274.31
416.936	296.31
417.159	276.31
417.382	282.31
417.605	296.31
417.828	286.31
418.051	279.31
418.274	282.31
418.497	298.31
418.72	294.31
418.943	283.31
419.166	308.31
419.389	303.31
419.611	301.31
419.834	299.31
420.057	296.31
420.28	281.31
420.503	286.31
420.726	283.31
420.948	279.31
421.171	282.31
421.394	298.31
421.617	297.31
421.839	292.31
422.062	301.31
422.285	302.31
422.507	291.31
422.73	284.31
422.953	263.31
423.175	259.31
423.398	284.31
423.621	304.31
423.843	291.31
424.066	308.31
424.288	313.31
424.511	299.31
424.733	317.31
424.956	295.31
425.178	305.31
425.401	283.31
425.623	260.31
425.846	304.31
426.068	278.31
426.291	267.31
426.513	264.31
426.735	278.31
426.958	278.31
427.18	259.31
427.402	282.31
427.625	274.31
427.847	280.31
428.069	275.31
428.292	274.31
428.514	270.31
428.736	267.31
428.958	269.31
429.181	269.31
429.403	250.31
429.625	269.31
429.847	267.31
430.069	281.31
430.292	276.31
430.514	286.31
430.736	262.31
430.958	240.31
431.18	256.31
431.402	242.31
431.624	240.31
431.846	220.31
432.068	199.31
432.29	214.31
432.512	238.31
432.734	249.31
432.956	277.31
433.178	284.31
433.4	286.31
433.622	272.31
433.844	249.31
434.066	240.31
434.287	197.31
434.509	186.31
434.731	226.31
434.953	251.31
435.175	257.31
435.397	278.31
435.618	240.31
435.84	219.31
436.062	248.31
436.284	264.31
436.505	264.31
436.727	280.31
436.949	268.31
437.17	268.31
437.392	256.31
437.614	243.31
437.835	220.31
438.057	213.31
438.278	230.31
438.5	256.31
438.721	275.31
438.943	284.31
439.165	288.31
439.386	295.31
439.608	295.31
439.829	289.31
440.05	312.31
440.272	299.31
440.493	298.31
440.715	309.31
440.936	295.31
441.158	300.31
441.379	302.31
441.6	329.31
441.822	316.31
442.043	311.31
442.264	300.31
442.486	302.31
442.707	307.31
442.928	303.31
443.149	314.31
443.371	303.31
443.592	297.31
443.813	300.31
444.034	310.31
444.255	302.31
444.476	336.31
444.698	333.31
444.919	332.31
445.14	578.31
445.361	445.31
445.582	311.31
445.803	300.31
446.024	312.31
446.245	311.31
446.466	329.31
446.687	318.31
446.908	327.31
447.129	319.31
447.35	300.31
447.571	314.31
447.792	303.31
448.013	294.31
448.234	287.31
448.455	300.31
448.675	283.31
448.896	280.31
449.117	283.31
449.338	276.31
449.559	267.31
449.779	282.31
450	280.31
450.221	261.31
450.442	261.31
450.662	265.31
450.883	265.31
451.104	280.31
451.324	266.31
451.545	267.31
451.766	258.31
451.986	273.31
452.207	237.31
452.428	250.31
452.648	234.31
452.869	223.31
453.089	213.31
453.31	208.31
453.53	204.31
453.751	189.31
453.971	208.31
454.192	210.31
454.412	228.31
454.633	216.31
454.853	216.31
455.073	230.31
455.294	220.31
455.514	244.31
455.734	239.31
455.955	220.31
456.175	217.31
456.395	214.31
456.616	207.31
456.836	205.31
457.056	213.31
457.276	218.31
457.497	190.31
457.717	201.31
457.937	196.31
458.157	219.31
458.377	199.31
458.598	201.31
458.818	178.31
459.038	169.31
459.258	175.31
459.478	184.31
459.698	186.31
459.918	197.31
460.138	231.31
460.358	221.31
460.578	255.31
460.798	237.31
461.018	246.31
461.238	250.31
461.458	251.31
461.678	239.31
461.898	249.31
462.118	243.31
462.338	251.31
462.558	271.31
462.777	260.31
462.997	277.31
463.217	268.31
463.437	272.31
463.657	248.31
463.876	240.31
464.096	250.31
464.316	247.31
464.536	254.31
464.755	255.31
464.975	251.31
465.195	233.31
465.414	255.31
465.634	239.31
465.854	245.31
466.073	246.31
466.293	249.31
466.512	260.31
466.732	261.31
466.951	260.31
467.171	259.31
467.391	254.31
467.61	252.31
467.829	265.31
468.049	258.31
468.268	255.31
468.488	263.31
468.707	261.31
468.927	262.31
469.146	275.31
469.365	276.31
469.585	269.31
469.804	294.31
470.023	284.31
470.243	293.31
470.462	297.31
470.681	291.31
470.901	277.31
471.12	275.31
471.339	297.31
471.558	275.31
471.777	279.31
471.997	263.31
472.216	251.31
472.435	228.31
472.654	204.31
472.873	212.31
473.092	240.31
473.311	239.31
473.53	247.31
473.749	246.31
473.968	265.31
474.187	233.31
474.406	231.31
474.625	245.31
474.844	246.31
475.063	260.31
475.282	239.31
475.501	236.31
475.72	233.31
475.939	238.31
476.158	254.31
476.377	261.31
476.596	226.31
476.814	216.31
477.033	208.31
477.252	230.31
477.471	254.31
477.69	259.31
477.908	268.31
478.127	283.31
478.346	269.31
478.564	290.31
478.783	269.31
479.002	288.31
479.22	290.31
479.439	279.31
479.658	251.31
479.876	237.31
480.095	227.31
480.313	241.31
480.532	263.31
480.751	235.31
480.969	195.31
481.188	190.31
481.406	196.31
481.624	173.31
481.843	178.31
482.061	194.31
482.28	234.31
482.498	233.31
482.717	214.31
482.935	254.31
483.153	282.31
483.372	307.31
483.59	284.31
483.808	286.31
484.027	264.31
484.245	273.31
484.463	286.31
484.681	296.31
484.9	266.31
485.118	286.31
485.336	260.31
485.554	211.31
485.772	216.31
485.99	214.31
486.209	212.31
486.427	227.31
486.645	251.31
486.863	281.31
487.081	279.31
487.299	258.31
487.517	298.31
487.735	363.31
487.953	372.31
488.171	344.31
488.389	332.31
488.607	306.31
488.825	263.31
489.043	249.31
489.261	264.31
489.479	284.31
489.696	285.31
489.914	280.31
490.132	300.31
490.35	323.31
490.568	331.31
490.786	359.31
491.003	389.31
491.221	382.31
491.439	390.31
491.657	411.31
491.874	436.31
492.092	459.31
492.31	480.31
492.527	461.31
492.745	431.31
492.963	406.31
493.18	391.31
493.398	400.31
493.615	385.31
493.833	378.31
494.05	381.31
494.268	361.31
494.485	390.31
494.703	387.31
494.92	382.31
495.138	360.31
495.355	362.31
495.573	378.31
495.79	356.31
496.008	357.31
496.225	374.31
496.442	327.31
496.66	352.31
496.877	363.31
497.094	350.31
497.312	348.31
497.529	349.31
497.746	351.31
497.963	306.31
498.181	282.31
498.398	279.31
498.615	265.31
498.832	294.31
499.049	300.31
499.267	332.31
499.484	344.31
499.701	369.31
499.918	422.31
500.135	490.31
500.352	512.31
500.569	518.31
500.786	532.31
501.003	479.31
501.22	466.31
501.437	405.31
501.654	377.31
501.871	372.31
502.088	334.31
502.305	324.31
502.522	322.31
502.739	297.31
502.956	305.31
503.172	290.31
503.389	273.31
503.606	252.31
503.823	260.31
504.04	253.31
504.256	285.31
504.473	266.31
