Data from CBS_3_HRD10591_00028.txt Node
Date: Mon Jan 19 14:05:52 EST 2026
User: Yrep
Spectrometer: HR+D1059
Trigger mode: 1
Integration Time (sec): 1.000000E-1
Scans to average: 1
Electric dark correction enabled: true
Nonlinearity correction enabled: false
Boxcar width: 0
XAxis mode: Wavelengths
Number of Pixels in Spectrum: 2048
>>>>>Begin Spectral Data<<<<<
223.165	-19.31
223.4	-19.31
223.635	-19.31
223.869	-23.31
224.104	-9.31
224.338	-16.31
224.573	-11.31
224.808	-6.31
225.042	-7.31
225.277	-8.31
225.511	-22.31
225.746	8.69
225.98	3.69
226.215	4.69
226.449	28.69
226.683	35.69
226.918	14.69
227.152	27.69
227.387	38.69
227.621	31.69
227.856	38.69
228.09	34.69
228.324	45.69
228.559	54.69
228.793	64.69
229.027	60.69
229.262	67.69
229.496	64.69
229.73	63.69
229.964	64.69
230.199	70.69
230.433	84.69
230.667	76.69
230.901	65.69
231.136	83.69
231.37	86.69
231.604	85.69
231.838	82.69
232.072	74.69
232.306	88.69
232.541	99.69
232.775	83.69
233.009	84.69
233.243	80.69
233.477	83.69
233.711	76.69
233.945	74.69
234.179	81.69
234.413	91.69
234.647	79.69
234.881	90.69
235.115	66.69
235.349	80.69
235.583	74.69
235.817	79.69
236.051	80.69
236.285	74.69
236.519	63.69
236.753	67.69
236.987	74.69
237.221	70.69
237.455	81.69
237.689	78.69
237.922	82.69
238.156	70.69
238.39	82.69
238.624	86.69
238.858	90.69
239.091	86.69
239.325	77.69
239.559	67.69
239.793	90.69
240.027	77.69
240.26	77.69
240.494	76.69
240.728	96.69
240.961	84.69
241.195	85.69
241.429	73.69
241.662	75.69
241.896	77.69
242.13	61.69
242.363	68.69
242.597	84.69
242.83	71.69
243.064	63.69
243.298	79.69
243.531	84.69
243.765	87.69
243.998	80.69
244.232	90.69
244.465	74.69
244.699	81.69
244.932	74.69
245.166	81.69
245.399	64.69
245.633	86.69
245.866	83.69
246.099	81.69
246.333	87.69
246.566	87.69
246.8	78.69
247.033	74.69
247.266	67.69
247.5	87.69
247.733	69.69
247.966	85.69
248.2	72.69
248.433	82.69
248.666	76.69
248.899	91.69
249.133	74.69
249.366	75.69
249.599	84.69
249.832	82.69
250.066	81.69
250.299	79.69
250.532	71.69
250.765	79.69
250.998	67.69
251.231	68.69
251.465	73.69
251.698	73.69
251.931	93.69
252.164	78.69
252.397	79.69
252.63	86.69
252.863	75.69
253.096	85.69
253.329	85.69
253.562	91.69
253.795	79.69
254.028	76.69
254.261	74.69
254.494	90.69
254.727	91.69
254.96	80.69
255.193	91.69
255.426	91.69
255.659	91.69
255.892	80.69
256.124	83.69
256.357	95.69
256.59	95.69
256.823	80.69
257.056	78.69
257.289	91.69
257.521	73.69
257.754	68.69
257.987	79.69
258.22	88.69
258.452	83.69
258.685	80.69
258.918	69.69
259.151	100.69
259.383	68.69
259.616	73.69
259.849	80.69
260.081	60.69
260.314	77.69
260.547	76.69
260.779	90.69
261.012	84.69
261.244	91.69
261.477	86.69
261.71	83.69
261.942	95.69
262.175	82.69
262.407	94.69
262.64	87.69
262.872	89.69
263.105	76.69
263.337	86.69
263.57	89.69
263.802	78.69
264.035	69.69
264.267	78.69
264.499	84.69
264.732	85.69
264.964	89.69
265.197	82.69
265.429	75.69
265.661	76.69
265.894	82.69
266.126	90.69
266.358	88.69
266.591	85.69
266.823	87.69
267.055	83.69
267.287	82.69
267.52	100.69
267.752	84.69
267.984	82.69
268.216	81.69
268.448	78.69
268.681	91.69
268.913	84.69
269.145	91.69
269.377	87.69
269.609	78.69
269.841	89.69
270.073	77.69
270.306	98.69
270.538	96.69
270.77	79.69
271.002	103.69
271.234	81.69
271.466	85.69
271.698	82.69
271.93	80.69
272.162	74.69
272.394	85.69
272.626	70.69
272.858	99.69
273.09	98.69
273.322	68.69
273.553	77.69
273.785	90.69
274.017	88.69
274.249	86.69
274.481	93.69
274.713	73.69
274.945	88.69
275.176	77.69
275.408	89.69
275.64	91.69
275.872	83.69
276.104	79.69
276.335	88.69
276.567	86.69
276.799	70.69
277.031	93.69
277.262	83.69
277.494	84.69
277.726	79.69
277.957	97.69
278.189	83.69
278.421	68.69
278.652	89.69
278.884	86.69
279.115	72.69
279.347	82.69
279.579	63.69
279.81	89.69
280.042	85.69
280.273	98.69
280.505	80.69
280.736	80.69
280.968	72.69
281.199	87.69
281.431	91.69
281.662	80.69
281.894	89.69
282.125	70.69
282.356	103.69
282.588	90.69
282.819	87.69
283.051	78.69
283.282	65.69
283.513	78.69
283.745	82.69
283.976	95.69
284.207	86.69
284.439	80.69
284.67	88.69
284.901	97.69
285.132	96.69
285.364	81.69
285.595	90.69
285.826	80.69
286.057	84.69
286.288	90.69
286.52	97.69
286.751	70.69
286.982	82.69
287.213	82.69
287.444	86.69
287.675	69.69
287.906	92.69
288.138	77.69
288.369	96.69
288.6	90.69
288.831	66.69
289.062	81.69
289.293	78.69
289.524	79.69
289.755	85.69
289.986	77.69
290.217	76.69
290.448	92.69
290.679	87.69
290.91	86.69
291.141	96.69
291.371	90.69
291.602	80.69
291.833	83.69
292.064	89.69
292.295	89.69
292.526	86.69
292.757	104.69
292.987	70.69
293.218	76.69
293.449	76.69
293.68	74.69
293.91	76.69
294.141	90.69
294.372	85.69
294.603	94.69
294.833	93.69
295.064	89.69
295.295	87.69
295.525	84.69
295.756	103.69
295.987	91.69
296.217	80.69
296.448	95.69
296.679	96.69
296.909	98.69
297.14	95.69
297.37	72.69
297.601	75.69
297.831	84.69
298.062	85.69
298.292	75.69
298.523	88.69
298.753	94.69
298.984	80.69
299.214	94.69
299.445	87.69
299.675	71.69
299.905	89.69
300.136	96.69
300.366	94.69
300.597	90.69
300.827	86.69
301.057	71.69
301.288	76.69
301.518	90.69
301.748	74.69
301.979	108.69
302.209	89.69
302.439	103.69
302.669	78.69
302.9	101.69
303.13	89.69
303.36	99.69
303.59	76.69
303.82	84.69
304.051	87.69
304.281	90.69
304.511	83.69
304.741	78.69
304.971	73.69
305.201	86.69
305.431	80.69
305.661	92.69
305.891	69.69
306.121	92.69
306.352	98.69
306.582	81.69
306.812	83.69
307.042	86.69
307.272	87.69
307.502	81.69
307.731	83.69
307.961	84.69
308.191	66.69
308.421	78.69
308.651	77.69
308.881	95.69
309.111	85.69
309.341	105.69
309.571	79.69
309.8	81.69
310.03	93.69
310.26	84.69
310.49	96.69
310.72	92.69
310.949	92.69
311.179	79.69
311.409	82.69
311.639	87.69
311.868	91.69
312.098	70.69
312.328	93.69
312.557	80.69
312.787	82.69
313.017	96.69
313.246	88.69
313.476	80.69
313.706	95.69
313.935	94.69
314.165	82.69
314.394	103.69
314.624	89.69
314.853	80.69
315.083	74.69
315.312	89.69
315.542	92.69
315.771	89.69
316.001	104.69
316.23	107.69
316.46	88.69
316.689	85.69
316.919	80.69
317.148	95.69
317.377	92.69
317.607	107.69
317.836	107.69
318.065	102.69
318.295	111.69
318.524	92.69
318.753	86.69
318.983	75.69
319.212	77.69
319.441	83.69
319.67	86.69
319.9	94.69
320.129	81.69
320.358	74.69
320.587	84.69
320.816	78.69
321.046	90.69
321.275	93.69
321.504	104.69
321.733	90.69
321.962	100.69
322.191	97.69
322.42	94.69
322.649	83.69
322.878	79.69
323.108	94.69
323.337	89.69
323.566	102.69
323.795	95.69
324.024	92.69
324.253	69.69
324.482	85.69
324.71	69.69
324.939	73.69
325.168	96.69
325.397	76.69
325.626	81.69
325.855	76.69
326.084	84.69
326.313	89.69
326.542	94.69
326.77	84.69
326.999	67.69
327.228	96.69
327.457	86.69
327.686	99.69
327.914	94.69
328.143	75.69
328.372	84.69
328.6	93.69
328.829	71.69
329.058	93.69
329.287	90.69
329.515	83.69
329.744	92.69
329.972	68.69
330.201	97.69
330.43	97.69
330.658	89.69
330.887	86.69
331.115	76.69
331.344	92.69
331.572	76.69
331.801	94.69
332.03	84.69
332.258	96.69
332.486	72.69
332.715	85.69
332.943	96.69
333.172	87.69
333.4	75.69
333.629	91.69
333.857	80.69
334.085	86.69
334.314	100.69
334.542	102.69
334.771	83.69
334.999	92.69
335.227	88.69
335.455	111.69
335.684	74.69
335.912	110.69
336.14	95.69
336.369	105.69
336.597	82.69
336.825	97.69
337.053	98.69
337.281	76.69
337.51	90.69
337.738	92.69
337.966	84.69
338.194	97.69
338.422	85.69
338.65	88.69
338.878	92.69
339.106	81.69
339.334	95.69
339.562	82.69
339.79	91.69
340.018	75.69
340.246	73.69
340.474	82.69
340.702	80.69
340.93	86.69
341.158	87.69
341.386	84.69
341.614	80.69
341.842	75.69
342.07	66.69
342.298	103.69
342.526	91.69
342.754	76.69
342.981	84.69
343.209	84.69
343.437	96.69
343.665	78.69
343.893	78.69
344.12	92.69
344.348	82.69
344.576	92.69
344.804	79.69
345.031	85.69
345.259	87.69
345.487	90.69
345.714	86.69
345.942	81.69
346.17	99.69
346.397	95.69
346.625	84.69
346.853	89.69
347.08	87.69
347.308	84.69
347.535	72.69
347.763	102.69
347.99	72.69
348.218	84.69
348.445	89.69
348.673	90.69
348.9	92.69
349.128	102.69
349.355	88.69
349.583	91.69
349.81	91.69
350.037	84.69
350.265	99.69
350.492	83.69
350.72	85.69
350.947	94.69
351.174	100.69
351.402	80.69
351.629	102.69
351.856	88.69
352.083	77.69
352.311	72.69
352.538	87.69
352.765	77.69
352.992	83.69
353.22	79.69
353.447	77.69
353.674	98.69
353.901	86.69
354.128	80.69
354.355	88.69
354.583	86.69
354.81	91.69
355.037	96.69
355.264	78.69
355.491	78.69
355.718	83.69
355.945	89.69
356.172	90.69
356.399	96.69
356.626	96.69
356.853	100.69
357.08	77.69
357.307	83.69
357.534	90.69
357.761	85.69
357.988	79.69
358.215	94.69
358.441	86.69
358.668	83.69
358.895	83.69
359.122	86.69
359.349	79.69
359.576	80.69
359.802	94.69
360.029	100.69
360.256	92.69
360.483	96.69
360.709	105.69
360.936	94.69
361.163	91.69
361.39	77.69
361.616	90.69
361.843	91.69
362.07	89.69
362.296	97.69
362.523	106.69
362.749	101.69
362.976	104.69
363.203	119.69
363.429	94.69
363.656	95.69
363.882	89.69
364.109	102.69
364.335	121.69
364.562	128.69
364.788	109.69
365.015	103.69
365.241	81.69
365.468	98.69
365.694	80.69
365.92	81.69
366.147	84.69
366.373	80.69
366.599	90.69
366.826	81.69
367.052	90.69
367.278	94.69
367.505	70.69
367.731	80.69
367.957	93.69
368.184	92.69
368.41	85.69
368.636	86.69
368.862	99.69
369.089	89.69
369.315	71.69
369.541	68.69
369.767	86.69
369.993	84.69
370.219	94.69
370.445	76.69
370.672	86.69
370.898	85.69
371.124	100.69
371.35	87.69
371.576	89.69
371.802	101.69
372.028	88.69
372.254	97.69
372.48	96.69
372.706	81.69
372.932	85.69
373.158	92.69
373.384	105.69
373.61	105.69
373.835	106.69
374.061	92.69
374.287	77.69
374.513	84.69
374.739	89.69
374.965	77.69
375.191	99.69
375.416	76.69
375.642	91.69
375.868	90.69
376.094	84.69
376.319	93.69
376.545	96.69
376.771	96.69
376.997	96.69
377.222	91.69
377.448	99.69
377.674	76.69
377.899	87.69
378.125	94.69
378.35	76.69
378.576	78.69
378.802	84.69
379.027	88.69
379.253	88.69
379.478	91.69
379.704	90.69
379.929	81.69
380.155	89.69
380.38	99.69
380.606	76.69
380.831	90.69
381.057	91.69
381.282	96.69
381.507	89.69
381.733	85.69
381.958	107.69
382.184	91.69
382.409	105.69
382.634	88.69
382.86	97.69
383.085	96.69
383.31	92.69
383.535	103.69
383.761	100.69
383.986	106.69
384.211	104.69
384.436	91.69
384.662	87.69
384.887	91.69
385.112	88.69
385.337	86.69
385.562	94.69
385.787	97.69
386.013	86.69
386.238	88.69
386.463	92.69
386.688	99.69
386.913	98.69
387.138	87.69
387.363	93.69
387.588	94.69
387.813	97.69
388.038	100.69
388.263	85.69
388.488	84.69
388.713	85.69
388.938	82.69
389.163	96.69
389.387	86.69
389.612	77.69
389.837	90.69
390.062	92.69
390.287	92.69
390.512	89.69
390.736	91.69
390.961	90.69
391.186	87.69
391.411	89.69
391.636	82.69
391.86	95.69
392.085	86.69
392.31	92.69
392.534	115.69
392.759	135.69
392.984	196.69
393.208	343.69
393.433	510.69
393.658	382.69
393.882	176.69
394.107	102.69
394.331	111.69
394.556	105.69
394.78	104.69
395.005	92.69
395.229	95.69
395.454	106.69
395.678	101.69
395.903	116.69
396.127	123.69
396.352	141.69
396.576	212.69
396.801	350.69
397.025	406.69
397.249	196.69
397.474	132.69
397.698	99.69
397.922	88.69
398.147	93.69
398.371	101.69
398.595	85.69
398.82	79.69
399.044	95.69
399.268	83.69
399.492	89.69
399.717	81.69
399.941	99.69
400.165	95.69
400.389	81.69
400.613	84.69
400.837	91.69
401.062	89.69
401.286	71.69
401.51	82.69
401.734	75.69
401.958	74.69
402.182	85.69
402.406	98.69
402.63	99.69
402.854	90.69
403.078	97.69
403.302	94.69
403.526	87.69
403.75	96.69
403.974	82.69
404.198	90.69
404.422	85.69
404.645	95.69
404.869	90.69
405.093	72.69
405.317	82.69
405.541	78.69
405.765	73.69
405.988	89.69
406.212	88.69
406.436	98.69
406.66	95.69
406.883	84.69
407.107	98.69
407.331	75.69
407.555	104.69
407.778	120.69
408.002	108.69
408.226	115.69
408.449	88.69
408.673	88.69
408.896	83.69
409.12	104.69
409.344	91.69
409.567	100.69
409.791	104.69
410.014	95.69
410.238	102.69
410.461	93.69
410.685	84.69
410.908	95.69
411.132	94.69
411.355	63.69
411.578	90.69
411.802	74.69
412.025	69.69
412.249	95.69
412.472	84.69
412.695	87.69
412.919	83.69
413.142	93.69
413.365	87.69
413.589	81.69
413.812	82.69
414.035	86.69
414.258	86.69
414.482	94.69
414.705	72.69
414.928	92.69
415.151	71.69
415.374	73.69
415.597	88.69
415.821	85.69
416.044	81.69
416.267	74.69
416.49	91.69
416.713	81.69
416.936	85.69
417.159	89.69
417.382	81.69
417.605	86.69
417.828	86.69
418.051	90.69
418.274	89.69
418.497	87.69
418.72	76.69
418.943	97.69
419.166	70.69
419.389	94.69
419.611	80.69
419.834	78.69
420.057	95.69
420.28	81.69
420.503	102.69
420.726	93.69
420.948	96.69
421.171	91.69
421.394	111.69
421.617	118.69
421.839	132.69
422.062	124.69
422.285	173.69
422.507	297.69
422.73	483.69
422.953	415.69
423.175	202.69
423.398	126.69
423.621	103.69
423.843	105.69
424.066	106.69
424.288	79.69
424.511	88.69
424.733	94.69
424.956	96.69
425.178	77.69
425.401	91.69
425.623	88.69
425.846	98.69
426.068	86.69
426.291	89.69
426.513	92.69
426.735	71.69
426.958	95.69
427.18	86.69
427.402	86.69
427.625	92.69
427.847	99.69
428.069	95.69
428.292	130.69
428.514	140.69
428.736	120.69
428.958	152.69
429.181	138.69
429.403	97.69
429.625	105.69
429.847	131.69
430.069	183.69
430.292	187.69
430.514	180.69
430.736	131.69
430.958	141.69
431.18	104.69
431.402	84.69
431.624	87.69
431.846	111.69
432.068	140.69
432.29	100.69
432.512	86.69
432.734	86.69
432.956	77.69
433.178	90.69
433.4	94.69
433.622	80.69
433.844	82.69
434.066	84.69
434.287	77.69
434.509	70.69
434.731	104.69
434.953	103.69
435.175	76.69
435.397	87.69
435.618	88.69
435.84	75.69
436.062	67.69
436.284	85.69
436.505	77.69
436.727	86.69
436.949	94.69
437.17	88.69
437.392	104.69
437.614	75.69
437.835	79.69
438.057	80.69
438.278	83.69
438.5	88.69
438.721	86.69
438.943	92.69
439.165	96.69
439.386	82.69
439.608	61.69
439.829	80.69
440.05	71.69
440.272	80.69
440.493	77.69
440.715	90.69
440.936	74.69
441.158	94.69
441.379	85.69
441.6	92.69
441.822	80.69
442.043	85.69
442.264	100.69
442.486	127.69
442.707	187.69
442.928	135.69
443.149	108.69
443.371	152.69
443.592	265.69
443.813	234.69
444.034	108.69
444.255	86.69
444.476	85.69
444.698	91.69
444.919	98.69
445.14	199.69
445.361	214.69
445.582	319.69
445.803	258.69
446.024	122.69
446.245	89.69
446.466	94.69
446.687	104.69
446.908	86.69
447.129	95.69
447.35	81.69
447.571	86.69
447.792	80.69
448.013	88.69
448.234	82.69
448.455	78.69
448.675	94.69
448.896	87.69
449.117	78.69
449.338	83.69
449.559	70.69
449.779	66.69
450	82.69
450.221	87.69
450.442	80.69
450.662	80.69
450.883	90.69
451.104	87.69
451.324	101.69
451.545	91.69
451.766	82.69
451.986	70.69
452.207	84.69
452.428	86.69
452.648	88.69
452.869	86.69
453.089	83.69
453.31	95.69
453.53	91.69
453.751	76.69
453.971	91.69
454.192	85.69
454.412	94.69
454.633	76.69
454.853	94.69
455.073	83.69
455.294	86.69
455.514	99.69
455.734	86.69
455.955	85.69
456.175	95.69
456.395	83.69
456.616	85.69
456.836	91.69
457.056	79.69
457.276	88.69
457.497	76.69
457.717	78.69
457.937	106.69
458.157	131.69
458.377	121.69
458.598	120.69
458.818	121.69
459.038	104.69
459.258	76.69
459.478	85.69
459.698	78.69
459.918	94.69
460.138	89.69
460.358	88.69
460.578	91.69
460.798	110.69
461.018	101.69
461.238	80.69
461.458	100.69
461.678	79.69
461.898	74.69
462.118	84.69
462.338	77.69
462.558	82.69
462.777	101.69
462.997	84.69
463.217	92.69
463.437	91.69
463.657	81.69
463.876	91.69
464.096	76.69
464.316	91.69
464.536	75.69
464.755	91.69
464.975	86.69
465.195	86.69
465.414	98.69
465.634	87.69
465.854	82.69
466.073	76.69
466.293	85.69
466.512	90.69
466.732	81.69
466.951	85.69
467.171	94.69
467.391	79.69
467.61	83.69
467.829	68.69
468.049	64.69
468.268	84.69
468.488	89.69
468.707	76.69
468.927	82.69
469.146	84.69
469.365	87.69
469.585	99.69
469.804	89.69
470.023	64.69
470.243	80.69
470.462	72.69
470.681	85.69
470.901	86.69
471.12	79.69
471.339	88.69
471.558	80.69
471.777	89.69
471.997	84.69
472.216	101.69
472.435	88.69
472.654	82.69
472.873	73.69
473.092	80.69
473.311	85.69
473.53	79.69
473.749	83.69
473.968	61.69
474.187	88.69
474.406	68.69
474.625	82.69
474.844	85.69
475.063	85.69
475.282	71.69
475.501	92.69
475.72	96.69
475.939	82.69
476.158	83.69
476.377	73.69
476.596	76.69
476.814	69.69
477.033	88.69
477.252	85.69
477.471	92.69
477.69	71.69
477.908	80.69
478.127	81.69
478.346	74.69
478.564	77.69
478.783	94.69
479.002	95.69
479.22	75.69
479.439	60.69
479.658	69.69
479.876	85.69
480.095	90.69
480.313	85.69
480.532	85.69
480.751	106.69
480.969	95.69
481.188	76.69
481.406	93.69
481.624	82.69
481.843	92.69
482.061	80.69
482.28	83.69
482.498	86.69
482.717	83.69
482.935	86.69
483.153	92.69
483.372	89.69
483.59	102.69
483.808	87.69
484.027	74.69
484.245	90.69
484.463	82.69
484.681	98.69
484.9	95.69
485.118	101.69
485.336	84.69
485.554	86.69
485.772	66.69
485.99	83.69
486.209	69.69
486.427	86.69
486.645	90.69
486.863	99.69
487.081	83.69
487.299	104.69
487.517	92.69
487.735	107.69
487.953	192.69
488.171	138.69
488.389	91.69
488.607	85.69
488.825	84.69
489.043	84.69
489.261	84.69
489.479	85.69
489.696	78.69
489.914	88.69
490.132	88.69
490.35	84.69
490.568	88.69
490.786	79.69
491.003	72.69
491.221	93.69
491.439	83.69
491.657	87.69
491.874	78.69
492.092	94.69
492.31	85.69
492.527	94.69
492.745	77.69
492.963	91.69
493.18	82.69
493.398	92.69
493.615	91.69
493.833	76.69
494.05	85.69
494.268	106.69
494.485	96.69
494.703	98.69
494.92	79.69
495.138	97.69
495.355	94.69
495.573	75.69
495.79	72.69
496.008	76.69
496.225	90.69
496.442	73.69
496.66	93.69
496.877	89.69
497.094	87.69
497.312	92.69
497.529	89.69
497.746	93.69
497.963	73.69
498.181	84.69
498.398	97.69
498.615	92.69
498.832	84.69
499.049	97.69
499.267	90.69
499.484	84.69
499.701	90.69
499.918	97.69
500.135	91.69
500.352	82.69
500.569	85.69
500.786	96.69
501.003	83.69
501.22	95.69
501.437	76.69
501.654	92.69
501.871	78.69
502.088	87.69
502.305	82.69
502.522	81.69
502.739	92.69
502.956	80.69
503.172	91.69
503.389	86.69
503.606	77.69
503.823	73.69
504.04	116.69
504.256	150.69
504.473	141.69
504.69	91.69
504.907	91.69
505.123	98.69
505.34	95.69
505.557	86.69
505.773	88.69
505.99	82.69
506.207	73.69
506.423	90.69
506.64	80.69
506.856	98.69
507.073	86.69
507.289	100.69
507.506	86.69
507.722	88.69
507.939	87.69
508.155	86.69
508.372	102.69
508.588	79.69
508.805	85.69
509.021	97.69
509.238	90.69
509.454	87.69
509.67	76.69
509.887	101.69
510.103	82.69
510.319	94.69
510.536	77.69
510.752	92.69
510.968	91.69
511.184	96.69
511.401	94.69
511.617	79.69
511.833	88.69
512.049	94.69
512.265	101.69
512.481	92.69
512.698	76.69
512.914	83.69
513.13	97.69
513.346	86.69
513.562	94.69
513.778	94.69
513.994	78.69
514.21	78.69
514.426	96.69
514.642	98.69
514.858	92.69
515.074	91.69
515.29	90.69
515.506	84.69
515.721	97.69
515.937	94.69
516.153	101.69
516.369	100.69
516.585	94.69
516.801	103.69
517.016	86.69
517.232	102.69
517.448	92.69
517.664	100.69
517.879	75.69
518.095	94.69
