Data from CBS_3_HRD10591_00049.txt Node
Date: Mon Jan 19 14:06:03 EST 2026
User: Yrep
Spectrometer: HR+D1059
Trigger mode: 1
Integration Time (sec): 1.000000E-1
Scans to average: 1
Electric dark correction enabled: true
Nonlinearity correction enabled: false
Boxcar width: 0
XAxis mode: Wavelengths
Number of Pixels in Spectrum: 2048
>>>>>Begin Spectral Data<<<<<
223.165	-19.44
223.4	-19.44
223.635	-19.44
223.869	-27.44
224.104	-8.44
224.338	-13.44
224.573	-17.44
224.808	-5.44
225.042	-5.44
225.277	-19.44
225.511	2.56
225.746	2.56
225.98	8.56
226.215	5.56
226.449	11.56
226.683	18.56
226.918	34.56
227.152	32.56
227.387	48.56
227.621	38.56
227.856	42.56
228.09	45.56
228.324	65.56
228.559	67.56
228.793	52.56
229.027	73.56
229.262	71.56
229.496	54.56
229.73	58.56
229.964	70.56
230.199	70.56
230.433	80.56
230.667	77.56
230.901	93.56
231.136	78.56
231.37	75.56
231.604	75.56
231.838	83.56
232.072	95.56
232.306	91.56
232.541	79.56
232.775	81.56
233.009	75.56
233.243	76.56
233.477	92.56
233.711	94.56
233.945	87.56
234.179	84.56
234.413	70.56
234.647	74.56
234.881	85.56
235.115	74.56
235.349	78.56
235.583	72.56
235.817	86.56
236.051	80.56
236.285	90.56
236.519	69.56
236.753	72.56
236.987	84.56
237.221	70.56
237.455	90.56
237.689	79.56
237.922	69.56
238.156	82.56
238.39	70.56
238.624	91.56
238.858	76.56
239.091	81.56
239.325	73.56
239.559	65.56
239.793	74.56
240.027	80.56
240.26	66.56
240.494	90.56
240.728	70.56
240.961	61.56
241.195	84.56
241.429	72.56
241.662	79.56
241.896	61.56
242.13	84.56
242.363	82.56
242.597	81.56
242.83	75.56
243.064	72.56
243.298	62.56
243.531	77.56
243.765	68.56
243.998	84.56
244.232	94.56
244.465	91.56
244.699	91.56
244.932	65.56
245.166	77.56
245.399	61.56
245.633	84.56
245.866	75.56
246.099	84.56
246.333	92.56
246.566	72.56
246.8	85.56
247.033	77.56
247.266	78.56
247.5	85.56
247.733	70.56
247.966	84.56
248.2	91.56
248.433	82.56
248.666	87.56
248.899	86.56
249.133	80.56
249.366	82.56
249.599	74.56
249.832	81.56
250.066	99.56
250.299	91.56
250.532	69.56
250.765	78.56
250.998	72.56
251.231	79.56
251.465	80.56
251.698	93.56
251.931	80.56
252.164	92.56
252.397	91.56
252.63	87.56
252.863	77.56
253.096	77.56
253.329	88.56
253.562	89.56
253.795	96.56
254.028	98.56
254.261	85.56
254.494	75.56
254.727	76.56
254.96	84.56
255.193	90.56
255.426	75.56
255.659	75.56
255.892	82.56
256.124	71.56
256.357	77.56
256.59	83.56
256.823	80.56
257.056	73.56
257.289	88.56
257.521	89.56
257.754	97.56
257.987	84.56
258.22	73.56
258.452	64.56
258.685	88.56
258.918	72.56
259.151	80.56
259.383	82.56
259.616	90.56
259.849	71.56
260.081	81.56
260.314	92.56
260.547	93.56
260.779	98.56
261.012	83.56
261.244	81.56
261.477	83.56
261.71	90.56
261.942	78.56
262.175	93.56
262.407	80.56
262.64	94.56
262.872	70.56
263.105	77.56
263.337	82.56
263.57	86.56
263.802	88.56
264.035	80.56
264.267	86.56
264.499	90.56
264.732	83.56
264.964	92.56
265.197	79.56
265.429	88.56
265.661	88.56
265.894	85.56
266.126	91.56
266.358	81.56
266.591	91.56
266.823	83.56
267.055	75.56
267.287	97.56
267.52	78.56
267.752	85.56
267.984	82.56
268.216	77.56
268.448	85.56
268.681	78.56
268.913	82.56
269.145	79.56
269.377	87.56
269.609	84.56
269.841	81.56
270.073	76.56
270.306	83.56
270.538	89.56
270.77	91.56
271.002	72.56
271.234	72.56
271.466	89.56
271.698	81.56
271.93	87.56
272.162	96.56
272.394	80.56
272.626	76.56
272.858	87.56
273.09	84.56
273.322	90.56
273.553	77.56
273.785	85.56
274.017	86.56
274.249	88.56
274.481	96.56
274.713	91.56
274.945	94.56
275.176	77.56
275.408	75.56
275.64	90.56
275.872	95.56
276.104	79.56
276.335	86.56
276.567	84.56
276.799	79.56
277.031	82.56
277.262	83.56
277.494	83.56
277.726	87.56
277.957	93.56
278.189	82.56
278.421	84.56
278.652	82.56
278.884	84.56
279.115	85.56
279.347	85.56
279.579	89.56
279.81	85.56
280.042	86.56
280.273	77.56
280.505	97.56
280.736	76.56
280.968	89.56
281.199	76.56
281.431	96.56
281.662	79.56
281.894	76.56
282.125	108.56
282.356	101.56
282.588	92.56
282.819	86.56
283.051	88.56
283.282	78.56
283.513	85.56
283.745	92.56
283.976	87.56
284.207	84.56
284.439	77.56
284.67	94.56
284.901	90.56
285.132	82.56
285.364	92.56
285.595	103.56
285.826	97.56
286.057	81.56
286.288	92.56
286.52	76.56
286.751	102.56
286.982	96.56
287.213	84.56
287.444	90.56
287.675	84.56
287.906	85.56
288.138	90.56
288.369	77.56
288.6	97.56
288.831	93.56
289.062	87.56
289.293	73.56
289.524	97.56
289.755	83.56
289.986	103.56
290.217	88.56
290.448	82.56
290.679	88.56
290.91	96.56
291.141	88.56
291.371	106.56
291.602	85.56
291.833	85.56
292.064	60.56
292.295	74.56
292.526	88.56
292.757	90.56
292.987	93.56
293.218	84.56
293.449	106.56
293.68	86.56
293.91	84.56
294.141	83.56
294.372	80.56
294.603	91.56
294.833	83.56
295.064	91.56
295.295	90.56
295.525	100.56
295.756	92.56
295.987	89.56
296.217	84.56
296.448	93.56
296.679	84.56
296.909	90.56
297.14	83.56
297.37	96.56
297.601	67.56
297.831	76.56
298.062	88.56
298.292	97.56
298.523	94.56
298.753	81.56
298.984	85.56
299.214	77.56
299.445	92.56
299.675	90.56
299.905	87.56
300.136	93.56
300.366	92.56
300.597	90.56
300.827	90.56
301.057	79.56
301.288	98.56
301.518	88.56
301.748	91.56
301.979	105.56
302.209	89.56
302.439	87.56
302.669	85.56
302.9	82.56
303.13	92.56
303.36	96.56
303.59	82.56
303.82	100.56
304.051	96.56
304.281	83.56
304.511	101.56
304.741	81.56
304.971	103.56
305.201	98.56
305.431	97.56
305.661	79.56
305.891	79.56
306.121	76.56
306.352	99.56
306.582	85.56
306.812	88.56
307.042	72.56
307.272	86.56
307.502	98.56
307.731	82.56
307.961	78.56
308.191	98.56
308.421	90.56
308.651	93.56
308.881	76.56
309.111	90.56
309.341	85.56
309.571	83.56
309.8	92.56
310.03	87.56
310.26	92.56
310.49	90.56
310.72	85.56
310.949	91.56
311.179	73.56
311.409	93.56
311.639	89.56
311.868	89.56
312.098	85.56
312.328	84.56
312.557	84.56
312.787	73.56
313.017	79.56
313.246	97.56
313.476	96.56
313.706	88.56
313.935	86.56
314.165	87.56
314.394	82.56
314.624	82.56
314.853	85.56
315.083	102.56
315.312	95.56
315.542	99.56
315.771	96.56
316.001	94.56
316.23	104.56
316.46	86.56
316.689	80.56
316.919	79.56
317.148	86.56
317.377	91.56
317.607	91.56
317.836	98.56
318.065	104.56
318.295	101.56
318.524	94.56
318.753	99.56
318.983	84.56
319.212	79.56
319.441	75.56
319.67	81.56
319.9	85.56
320.129	95.56
320.358	92.56
320.587	85.56
320.816	91.56
321.046	106.56
321.275	92.56
321.504	78.56
321.733	79.56
321.962	83.56
322.191	90.56
322.42	79.56
322.649	105.56
322.878	80.56
323.108	85.56
323.337	68.56
323.566	81.56
323.795	92.56
324.024	89.56
324.253	86.56
324.482	97.56
324.71	92.56
324.939	72.56
325.168	78.56
325.397	84.56
325.626	82.56
325.855	80.56
326.084	92.56
326.313	95.56
326.542	87.56
326.77	92.56
326.999	81.56
327.228	95.56
327.457	85.56
327.686	96.56
327.914	79.56
328.143	87.56
328.372	86.56
328.6	95.56
328.829	91.56
329.058	76.56
329.287	82.56
329.515	86.56
329.744	90.56
329.972	86.56
330.201	77.56
330.43	99.56
330.658	93.56
330.887	87.56
331.115	94.56
331.344	94.56
331.572	94.56
331.801	82.56
332.03	93.56
332.258	82.56
332.486	84.56
332.715	92.56
332.943	84.56
333.172	75.56
333.4	90.56
333.629	99.56
333.857	101.56
334.085	88.56
334.314	85.56
334.542	91.56
334.771	80.56
334.999	88.56
335.227	88.56
335.455	81.56
335.684	92.56
335.912	90.56
336.14	88.56
336.369	96.56
336.597	79.56
336.825	87.56
337.053	88.56
337.281	88.56
337.51	82.56
337.738	82.56
337.966	81.56
338.194	87.56
338.422	78.56
338.65	80.56
338.878	90.56
339.106	88.56
339.334	86.56
339.562	85.56
339.79	70.56
340.018	87.56
340.246	77.56
340.474	83.56
340.702	78.56
340.93	98.56
341.158	91.56
341.386	78.56
341.614	95.56
341.842	84.56
342.07	89.56
342.298	92.56
342.526	98.56
342.754	82.56
342.981	93.56
343.209	90.56
343.437	99.56
343.665	86.56
343.893	88.56
344.12	87.56
344.348	105.56
344.576	85.56
344.804	89.56
345.031	73.56
345.259	92.56
345.487	83.56
345.714	90.56
345.942	80.56
346.17	94.56
346.397	86.56
346.625	102.56
346.853	74.56
347.08	90.56
347.308	88.56
347.535	92.56
347.763	95.56
347.99	80.56
348.218	64.56
348.445	89.56
348.673	85.56
348.9	93.56
349.128	78.56
349.355	74.56
349.583	93.56
349.81	91.56
350.037	83.56
350.265	78.56
350.492	89.56
350.72	82.56
350.947	93.56
351.174	93.56
351.402	95.56
351.629	93.56
351.856	93.56
352.083	83.56
352.311	76.56
352.538	78.56
352.765	75.56
352.992	95.56
353.22	97.56
353.447	92.56
353.674	73.56
353.901	82.56
354.128	88.56
354.355	85.56
354.583	80.56
354.81	73.56
355.037	87.56
355.264	74.56
355.491	90.56
355.718	85.56
355.945	85.56
356.172	92.56
356.399	88.56
356.626	78.56
356.853	103.56
357.08	88.56
357.307	107.56
357.534	89.56
357.761	78.56
357.988	92.56
358.215	88.56
358.441	92.56
358.668	97.56
358.895	86.56
359.122	90.56
359.349	86.56
359.576	89.56
359.802	88.56
360.029	84.56
360.256	88.56
360.483	90.56
360.709	87.56
360.936	93.56
361.163	96.56
361.39	73.56
361.616	80.56
361.843	83.56
362.07	104.56
362.296	94.56
362.523	92.56
362.749	94.56
362.976	94.56
363.203	109.56
363.429	75.56
363.656	80.56
363.882	74.56
364.109	92.56
364.335	98.56
364.562	106.56
364.788	81.56
365.015	98.56
365.241	107.56
365.468	88.56
365.694	76.56
365.92	88.56
366.147	77.56
366.373	86.56
366.599	83.56
366.826	90.56
367.052	86.56
367.278	88.56
367.505	85.56
367.731	93.56
367.957	89.56
368.184	90.56
368.41	89.56
368.636	77.56
368.862	87.56
369.089	82.56
369.315	92.56
369.541	90.56
369.767	94.56
369.993	79.56
370.219	106.56
370.445	82.56
370.672	105.56
370.898	99.56
371.124	100.56
371.35	80.56
371.576	84.56
371.802	85.56
372.028	87.56
372.254	91.56
372.48	86.56
372.706	98.56
372.932	82.56
373.158	89.56
373.384	97.56
373.61	98.56
373.835	104.56
374.061	102.56
374.287	90.56
374.513	81.56
374.739	101.56
374.965	96.56
375.191	98.56
375.416	84.56
375.642	82.56
375.868	91.56
376.094	91.56
376.319	77.56
376.545	81.56
376.771	84.56
376.997	79.56
377.222	83.56
377.448	97.56
377.674	96.56
377.899	87.56
378.125	88.56
378.35	90.56
378.576	82.56
378.802	75.56
379.027	87.56
379.253	80.56
379.478	88.56
379.704	73.56
379.929	93.56
380.155	89.56
380.38	85.56
380.606	90.56
380.831	90.56
381.057	79.56
381.282	87.56
381.507	83.56
381.733	82.56
381.958	98.56
382.184	98.56
382.409	103.56
382.634	75.56
382.86	77.56
383.085	85.56
383.31	99.56
383.535	92.56
383.761	82.56
383.986	91.56
384.211	92.56
384.436	82.56
384.662	90.56
384.887	83.56
385.112	80.56
385.337	90.56
385.562	81.56
385.787	92.56
386.013	107.56
386.238	99.56
386.463	108.56
386.688	90.56
386.913	79.56
387.138	88.56
387.363	87.56
387.588	84.56
387.813	94.56
388.038	98.56
388.263	84.56
388.488	90.56
388.713	105.56
388.938	91.56
389.163	82.56
389.387	95.56
389.612	82.56
389.837	93.56
390.062	89.56
390.287	92.56
390.512	91.56
390.736	74.56
390.961	82.56
391.186	92.56
391.411	85.56
391.636	78.56
391.86	82.56
392.085	87.56
392.31	77.56
392.534	98.56
392.759	116.56
392.984	149.56
393.208	250.56
393.433	404.56
393.658	314.56
393.882	125.56
394.107	102.56
394.331	97.56
394.556	105.56
394.78	104.56
395.005	100.56
395.229	91.56
395.454	84.56
395.678	92.56
395.903	112.56
396.127	112.56
396.352	97.56
396.576	179.56
396.801	255.56
397.025	343.56
397.249	165.56
397.474	112.56
397.698	96.56
397.922	100.56
398.147	98.56
398.371	63.56
398.595	81.56
398.82	96.56
399.044	91.56
399.268	72.56
399.492	77.56
399.717	87.56
399.941	84.56
400.165	79.56
400.389	78.56
400.613	91.56
400.837	89.56
401.062	85.56
401.286	93.56
401.51	81.56
401.734	81.56
401.958	77.56
402.182	85.56
402.406	90.56
402.63	102.56
402.854	88.56
403.078	94.56
403.302	94.56
403.526	75.56
403.75	86.56
403.974	97.56
404.198	102.56
404.422	107.56
404.645	99.56
404.869	92.56
405.093	87.56
405.317	91.56
405.541	94.56
405.765	85.56
405.988	93.56
406.212	93.56
406.436	94.56
406.66	88.56
406.883	89.56
407.107	91.56
407.331	101.56
407.555	106.56
407.778	91.56
408.002	112.56
408.226	90.56
408.449	66.56
408.673	100.56
408.896	92.56
409.12	88.56
409.344	85.56
409.567	90.56
409.791	85.56
410.014	98.56
410.238	79.56
410.461	95.56
410.685	82.56
410.908	100.56
411.132	77.56
411.355	86.56
411.578	101.56
411.802	88.56
412.025	84.56
412.249	80.56
412.472	81.56
412.695	89.56
412.919	97.56
413.142	92.56
413.365	90.56
413.589	86.56
413.812	85.56
414.035	76.56
414.258	81.56
414.482	74.56
414.705	85.56
414.928	93.56
415.151	79.56
415.374	89.56
415.597	90.56
415.821	78.56
416.044	93.56
416.267	90.56
416.49	73.56
416.713	92.56
416.936	102.56
417.159	84.56
417.382	97.56
417.605	91.56
417.828	78.56
418.051	84.56
418.274	81.56
418.497	90.56
418.72	81.56
418.943	91.56
419.166	90.56
419.389	99.56
419.611	78.56
419.834	85.56
420.057	108.56
420.28	91.56
420.503	89.56
420.726	78.56
420.948	96.56
421.171	98.56
421.394	107.56
421.617	105.56
421.839	105.56
422.062	108.56
422.285	129.56
422.507	206.56
422.73	339.56
422.953	301.56
423.175	141.56
423.398	121.56
423.621	96.56
423.843	101.56
424.066	91.56
424.288	91.56
424.511	88.56
424.733	92.56
424.956	93.56
425.178	88.56
425.401	85.56
425.623	92.56
425.846	80.56
426.068	90.56
426.291	83.56
426.513	94.56
426.735	99.56
426.958	109.56
427.18	81.56
427.402	81.56
427.625	85.56
427.847	93.56
428.069	92.56
428.292	109.56
428.514	125.56
428.736	110.56
428.958	108.56
429.181	122.56
429.403	90.56
429.625	78.56
429.847	98.56
430.069	129.56
430.292	167.56
430.514	131.56
430.736	117.56
430.958	129.56
431.18	89.56
431.402	114.56
431.624	96.56
431.846	102.56
432.068	116.56
432.29	92.56
432.512	98.56
432.734	92.56
432.956	74.56
433.178	88.56
433.4	83.56
433.622	96.56
433.844	83.56
434.066	88.56
434.287	73.56
434.509	77.56
434.731	85.56
434.953	92.56
435.175	88.56
435.397	99.56
435.618	81.56
435.84	80.56
436.062	73.56
436.284	72.56
436.505	91.56
436.727	74.56
436.949	80.56
437.17	80.56
437.392	81.56
437.614	82.56
437.835	69.56
438.057	70.56
438.278	98.56
438.5	92.56
438.721	86.56
438.943	76.56
439.165	98.56
439.386	78.56
439.608	92.56
439.829	87.56
440.05	83.56
440.272	88.56
440.493	86.56
440.715	82.56
440.936	90.56
441.158	89.56
441.379	88.56
441.6	71.56
441.822	86.56
442.043	93.56
442.264	80.56
442.486	123.56
442.707	130.56
442.928	104.56
443.149	105.56
443.371	127.56
443.592	180.56
443.813	166.56
444.034	110.56
444.255	77.56
444.476	85.56
444.698	87.56
444.919	69.56
445.14	184.56
445.361	181.56
445.582	210.56
445.803	176.56
446.024	89.56
446.245	96.56
446.466	93.56
446.687	83.56
446.908	77.56
447.129	84.56
447.35	95.56
447.571	87.56
447.792	84.56
448.013	70.56
448.234	74.56
448.455	73.56
448.675	87.56
448.896	88.56
449.117	84.56
449.338	89.56
449.559	91.56
449.779	82.56
450	78.56
450.221	80.56
450.442	81.56
450.662	99.56
450.883	67.56
451.104	80.56
451.324	98.56
451.545	89.56
451.766	86.56
451.986	85.56
452.207	92.56
452.428	80.56
452.648	97.56
452.869	86.56
453.089	76.56
453.31	86.56
453.53	86.56
453.751	83.56
453.971	85.56
454.192	85.56
454.412	88.56
454.633	81.56
454.853	76.56
455.073	82.56
455.294	86.56
455.514	77.56
455.734	88.56
455.955	86.56
456.175	91.56
456.395	92.56
456.616	91.56
456.836	96.56
457.056	93.56
457.276	93.56
457.497	84.56
457.717	107.56
457.937	84.56
458.157	103.56
458.377	102.56
458.598	94.56
458.818	105.56
459.038	90.56
459.258	81.56
459.478	93.56
459.698	93.56
459.918	90.56
460.138	89.56
460.358	84.56
460.578	98.56
460.798	103.56
461.018	107.56
461.238	79.56
461.458	78.56
461.678	87.56
461.898	78.56
462.118	93.56
462.338	74.56
462.558	80.56
462.777	77.56
462.997	90.56
463.217	78.56
463.437	80.56
463.657	86.56
463.876	82.56
464.096	83.56
464.316	79.56
464.536	84.56
464.755	87.56
464.975	84.56
465.195	79.56
465.414	82.56
465.634	99.56
465.854	84.56
466.073	87.56
466.293	91.56
466.512	76.56
466.732	104.56
466.951	98.56
467.171	85.56
467.391	80.56
467.61	84.56
467.829	85.56
468.049	84.56
468.268	83.56
468.488	95.56
468.707	89.56
468.927	86.56
469.146	90.56
469.365	92.56
469.585	99.56
469.804	93.56
470.023	86.56
470.243	83.56
470.462	85.56
470.681	86.56
470.901	79.56
471.12	87.56
471.339	105.56
471.558	84.56
471.777	80.56
471.997	88.56
472.216	87.56
472.435	105.56
472.654	96.56
472.873	93.56
473.092	94.56
473.311	92.56
473.53	82.56
473.749	87.56
473.968	75.56
474.187	81.56
474.406	87.56
474.625	85.56
474.844	83.56
475.063	82.56
475.282	86.56
475.501	93.56
475.72	76.56
475.939	78.56
476.158	83.56
476.377	85.56
476.596	86.56
476.814	88.56
477.033	85.56
477.252	77.56
477.471	91.56
477.69	79.56
477.908	92.56
478.127	78.56
478.346	90.56
478.564	92.56
478.783	95.56
479.002	91.56
479.22	90.56
479.439	92.56
479.658	89.56
479.876	80.56
480.095	78.56
480.313	96.56
480.532	100.56
480.751	96.56
480.969	69.56
481.188	86.56
481.406	84.56
481.624	85.56
481.843	85.56
482.061	67.56
482.28	91.56
482.498	81.56
482.717	77.56
482.935	87.56
483.153	74.56
483.372	90.56
483.59	77.56
483.808	88.56
484.027	96.56
484.245	93.56
484.463	79.56
484.681	89.56
484.9	90.56
485.118	94.56
485.336	77.56
485.554	89.56
485.772	80.56
485.99	95.56
486.209	70.56
486.427	85.56
486.645	88.56
486.863	98.56
487.081	81.56
487.299	76.56
487.517	83.56
487.735	101.56
487.953	125.56
488.171	102.56
488.389	89.56
488.607	82.56
488.825	97.56
489.043	109.56
489.261	78.56
489.479	90.56
489.696	93.56
489.914	78.56
490.132	84.56
490.35	90.56
490.568	77.56
490.786	96.56
491.003	73.56
491.221	84.56
491.439	86.56
491.657	87.56
491.874	93.56
492.092	84.56
492.31	98.56
492.527	93.56
492.745	91.56
492.963	79.56
493.18	98.56
493.398	91.56
493.615	94.56
493.833	86.56
494.05	89.56
494.268	82.56
494.485	90.56
494.703	86.56
494.92	87.56
495.138	82.56
495.355	82.56
495.573	93.56
495.79	89.56
496.008	98.56
496.225	100.56
496.442	82.56
496.66	74.56
496.877	80.56
497.094	88.56
497.312	88.56
497.529	92.56
497.746	88.56
497.963	72.56
498.181	73.56
498.398	85.56
498.615	109.56
498.832	98.56
499.049	94.56
499.267	106.56
499.484	90.56
499.701	85.56
499.918	88.56
500.135	80.56
500.352	88.56
500.569	92.56
500.786	89.56
501.003	100.56
501.22	82.56
501.437	82.56
501.654	94.56
501.871	85.56
502.088	80.56
502.305	83.56
502.522	75.56
502.739	89.56
502.956	76.56
503.172	90.56
503.389	94.56
503.606	100.56
503.823	88.56
504.04	94.56
504.256	117.56
504.473	112.56
504.69	103.56
504.907	97.56
505.123	85.56
505.34	81.56
505.557	89.56
505.773	74.56
505.99	72.56
506.207	85.56
506.423	91.56
506.64	91.56
506.856	98.56
507.073	86.56
507.289	100.56
507.506	78.56
507.722	74.56
507.939	100.56
508.155	83.56
508.372	94.56
508.588	85.56
508.805	88.56
509.021	84.56
509.238	90.56
509.454	91.56
509.67	80.56
509.887	91.56
510.103	88.56
510.319	89.56
510.536	92.56
510.752	100.56
510.968	80.56
511.184	94.56
511.401	75.56
511.617	93.56
511.833	88.56
512.049	101.56
512.265	90.56
512.481	75.56
512.698	81.56
512.914	74.56
513.13	98.56
513.346	75.56
513.562	93.56
513.778	87.56
513.994	92.56
514.21	91.56
514.426	96.56
514.642	87.56
514.858	89.56
515.074	80.56
515.29	96.56
515.506	87.56
515.721	83.56
515.937	89.56
516.153	96.56
516.369	86.56
516.585	81.56
516.801	86.56
517.016	79.56
517.232	79.56
517.448	95.56
517.664	89.56
517.879	78.56
518.095	94.56
518.311	84.56
518.527	90.56
