Data from CBS_3_HRD10591_00045.txt Node
Date: Mon Jan 19 14:06:01 EST 2026
User: Yrep
Spectrometer: HR+D1059
Trigger mode: 1
Integration Time (sec): 1.000000E-1
Scans to average: 1
Electric dark correction enabled: true
Nonlinearity correction enabled: false
Boxcar width: 0
XAxis mode: Wavelengths
Number of Pixels in Spectrum: 2048
>>>>>Begin Spectral Data<<<<<
223.165	-4.69
223.4	-4.69
223.635	-4.69
223.869	-16.69
224.104	-21.69
224.338	-16.69
224.573	-27.69
224.808	-22.69
225.042	7.31
225.277	-4.69
225.511	0.31
225.746	1.31
225.98	1.31
226.215	17.31
226.449	15.31
226.683	30.31
226.918	18.31
227.152	23.31
227.387	19.31
227.621	31.31
227.856	46.31
228.09	42.31
228.324	46.31
228.559	58.31
228.793	59.31
229.027	67.31
229.262	63.31
229.496	62.31
229.73	65.31
229.964	80.31
230.199	71.31
230.433	70.31
230.667	70.31
230.901	81.31
231.136	77.31
231.37	81.31
231.604	77.31
231.838	71.31
232.072	70.31
232.306	72.31
232.541	70.31
232.775	73.31
233.009	87.31
233.243	94.31
233.477	82.31
233.711	65.31
233.945	81.31
234.179	69.31
234.413	63.31
234.647	77.31
234.881	71.31
235.115	84.31
235.349	70.31
235.583	80.31
235.817	80.31
236.051	74.31
236.285	79.31
236.519	79.31
236.753	80.31
236.987	80.31
237.221	69.31
237.455	81.31
237.689	80.31
237.922	88.31
238.156	81.31
238.39	70.31
238.624	57.31
238.858	61.31
239.091	72.31
239.325	72.31
239.559	65.31
239.793	83.31
240.027	70.31
240.26	74.31
240.494	69.31
240.728	71.31
240.961	77.31
241.195	61.31
241.429	59.31
241.662	69.31
241.896	66.31
242.13	65.31
242.363	72.31
242.597	71.31
242.83	62.31
243.064	76.31
243.298	73.31
243.531	70.31
243.765	71.31
243.998	82.31
244.232	72.31
244.465	73.31
244.699	83.31
244.932	87.31
245.166	80.31
245.399	85.31
245.633	80.31
245.866	77.31
246.099	71.31
246.333	85.31
246.566	70.31
246.8	65.31
247.033	86.31
247.266	86.31
247.5	81.31
247.733	75.31
247.966	57.31
248.2	87.31
248.433	70.31
248.666	77.31
248.899	71.31
249.133	59.31
249.366	88.31
249.599	72.31
249.832	76.31
250.066	97.31
250.299	73.31
250.532	67.31
250.765	85.31
250.998	72.31
251.231	86.31
251.465	99.31
251.698	89.31
251.931	83.31
252.164	90.31
252.397	85.31
252.63	88.31
252.863	80.31
253.096	95.31
253.329	83.31
253.562	84.31
253.795	79.31
254.028	58.31
254.261	69.31
254.494	81.31
254.727	81.31
254.96	70.31
255.193	77.31
255.426	84.31
255.659	85.31
255.892	70.31
256.124	82.31
256.357	73.31
256.59	75.31
256.823	75.31
257.056	94.31
257.289	89.31
257.521	71.31
257.754	63.31
257.987	81.31
258.22	81.31
258.452	76.31
258.685	67.31
258.918	69.31
259.151	78.31
259.383	85.31
259.616	81.31
259.849	67.31
260.081	84.31
260.314	87.31
260.547	88.31
260.779	77.31
261.012	95.31
261.244	90.31
261.477	87.31
261.71	84.31
261.942	85.31
262.175	68.31
262.407	62.31
262.64	65.31
262.872	87.31
263.105	67.31
263.337	85.31
263.57	93.31
263.802	79.31
264.035	82.31
264.267	93.31
264.499	74.31
264.732	87.31
264.964	77.31
265.197	73.31
265.429	84.31
265.661	70.31
265.894	83.31
266.126	81.31
266.358	64.31
266.591	91.31
266.823	85.31
267.055	68.31
267.287	72.31
267.52	72.31
267.752	82.31
267.984	82.31
268.216	76.31
268.448	92.31
268.681	83.31
268.913	73.31
269.145	89.31
269.377	87.31
269.609	72.31
269.841	72.31
270.073	76.31
270.306	76.31
270.538	85.31
270.77	73.31
271.002	93.31
271.234	76.31
271.466	75.31
271.698	79.31
271.93	78.31
272.162	61.31
272.394	86.31
272.626	67.31
272.858	75.31
273.09	80.31
273.322	72.31
273.553	79.31
273.785	87.31
274.017	74.31
274.249	77.31
274.481	85.31
274.713	87.31
274.945	77.31
275.176	73.31
275.408	90.31
275.64	67.31
275.872	70.31
276.104	85.31
276.335	77.31
276.567	83.31
276.799	72.31
277.031	67.31
277.262	68.31
277.494	75.31
277.726	85.31
277.957	72.31
278.189	61.31
278.421	91.31
278.652	98.31
278.884	79.31
279.115	87.31
279.347	78.31
279.579	98.31
279.81	113.31
280.042	75.31
280.273	97.31
280.505	90.31
280.736	84.31
280.968	84.31
281.199	89.31
281.431	90.31
281.662	74.31
281.894	79.31
282.125	82.31
282.356	78.31
282.588	79.31
282.819	77.31
283.051	78.31
283.282	87.31
283.513	78.31
283.745	89.31
283.976	79.31
284.207	83.31
284.439	84.31
284.67	79.31
284.901	79.31
285.132	84.31
285.364	87.31
285.595	73.31
285.826	65.31
286.057	61.31
286.288	94.31
286.52	85.31
286.751	69.31
286.982	91.31
287.213	77.31
287.444	76.31
287.675	79.31
287.906	88.31
288.138	86.31
288.369	83.31
288.6	83.31
288.831	76.31
289.062	95.31
289.293	93.31
289.524	76.31
289.755	82.31
289.986	78.31
290.217	79.31
290.448	75.31
290.679	103.31
290.91	93.31
291.141	84.31
291.371	85.31
291.602	82.31
291.833	81.31
292.064	85.31
292.295	94.31
292.526	85.31
292.757	93.31
292.987	86.31
293.218	86.31
293.449	85.31
293.68	64.31
293.91	82.31
294.141	94.31
294.372	81.31
294.603	86.31
294.833	88.31
295.064	81.31
295.295	79.31
295.525	77.31
295.756	86.31
295.987	71.31
296.217	69.31
296.448	82.31
296.679	95.31
296.909	79.31
297.14	77.31
297.37	83.31
297.601	82.31
297.831	79.31
298.062	63.31
298.292	83.31
298.523	79.31
298.753	73.31
298.984	94.31
299.214	77.31
299.445	75.31
299.675	67.31
299.905	84.31
300.136	92.31
300.366	78.31
300.597	91.31
300.827	93.31
301.057	83.31
301.288	81.31
301.518	85.31
301.748	85.31
301.979	100.31
302.209	81.31
302.439	99.31
302.669	79.31
302.9	86.31
303.13	72.31
303.36	82.31
303.59	95.31
303.82	79.31
304.051	71.31
304.281	94.31
304.511	77.31
304.741	107.31
304.971	77.31
305.201	88.31
305.431	84.31
305.661	81.31
305.891	73.31
306.121	79.31
306.352	85.31
306.582	61.31
306.812	75.31
307.042	83.31
307.272	66.31
307.502	86.31
307.731	83.31
307.961	89.31
308.191	94.31
308.421	102.31
308.651	91.31
308.881	86.31
309.111	97.31
309.341	97.31
309.571	94.31
309.8	92.31
310.03	74.31
310.26	97.31
310.49	87.31
310.72	65.31
310.949	89.31
311.179	70.31
311.409	74.31
311.639	85.31
311.868	85.31
312.098	88.31
312.328	83.31
312.557	84.31
312.787	93.31
313.017	89.31
313.246	94.31
313.476	91.31
313.706	82.31
313.935	89.31
314.165	80.31
314.394	76.31
314.624	74.31
314.853	86.31
315.083	82.31
315.312	73.31
315.542	103.31
315.771	112.31
316.001	107.31
316.23	111.31
316.46	85.31
316.689	81.31
316.919	83.31
317.148	99.31
317.377	94.31
317.607	95.31
317.836	131.31
318.065	134.31
318.295	124.31
318.524	85.31
318.753	87.31
318.983	90.31
319.212	66.31
319.441	63.31
319.67	87.31
319.9	91.31
320.129	88.31
320.358	82.31
320.587	93.31
320.816	85.31
321.046	80.31
321.275	87.31
321.504	89.31
321.733	84.31
321.962	89.31
322.191	84.31
322.42	77.31
322.649	86.31
322.878	92.31
323.108	89.31
323.337	89.31
323.566	97.31
323.795	93.31
324.024	76.31
324.253	82.31
324.482	98.31
324.71	98.31
324.939	89.31
325.168	90.31
325.397	83.31
325.626	65.31
325.855	75.31
326.084	87.31
326.313	86.31
326.542	81.31
326.77	87.31
326.999	75.31
327.228	85.31
327.457	86.31
327.686	85.31
327.914	93.31
328.143	85.31
328.372	80.31
328.6	81.31
328.829	93.31
329.058	75.31
329.287	72.31
329.515	84.31
329.744	80.31
329.972	89.31
330.201	81.31
330.43	82.31
330.658	82.31
330.887	85.31
331.115	77.31
331.344	85.31
331.572	88.31
331.801	75.31
332.03	100.31
332.258	102.31
332.486	77.31
332.715	88.31
332.943	92.31
333.172	98.31
333.4	95.31
333.629	74.31
333.857	81.31
334.085	78.31
334.314	86.31
334.542	92.31
334.771	99.31
334.999	83.31
335.227	97.31
335.455	95.31
335.684	94.31
335.912	85.31
336.14	101.31
336.369	88.31
336.597	73.31
336.825	85.31
337.053	95.31
337.281	90.31
337.51	90.31
337.738	93.31
337.966	86.31
338.194	85.31
338.422	76.31
338.65	83.31
338.878	84.31
339.106	82.31
339.334	91.31
339.562	85.31
339.79	98.31
340.018	85.31
340.246	89.31
340.474	83.31
340.702	69.31
340.93	82.31
341.158	83.31
341.386	91.31
341.614	89.31
341.842	84.31
342.07	81.31
342.298	79.31
342.526	85.31
342.754	88.31
342.981	78.31
343.209	72.31
343.437	102.31
343.665	76.31
343.893	70.31
344.12	89.31
344.348	82.31
344.576	81.31
344.804	98.31
345.031	77.31
345.259	91.31
345.487	87.31
345.714	68.31
345.942	87.31
346.17	87.31
346.397	84.31
346.625	89.31
346.853	77.31
347.08	68.31
347.308	90.31
347.535	95.31
347.763	90.31
347.99	80.31
348.218	91.31
348.445	81.31
348.673	79.31
348.9	81.31
349.128	79.31
349.355	79.31
349.583	76.31
349.81	79.31
350.037	88.31
350.265	84.31
350.492	81.31
350.72	72.31
350.947	90.31
351.174	82.31
351.402	80.31
351.629	76.31
351.856	77.31
352.083	84.31
352.311	89.31
352.538	81.31
352.765	74.31
352.992	77.31
353.22	102.31
353.447	77.31
353.674	87.31
353.901	87.31
354.128	77.31
354.355	78.31
354.583	80.31
354.81	91.31
355.037	89.31
355.264	93.31
355.491	89.31
355.718	100.31
355.945	86.31
356.172	85.31
356.399	89.31
356.626	85.31
356.853	84.31
357.08	87.31
357.307	82.31
357.534	87.31
357.761	92.31
357.988	93.31
358.215	99.31
358.441	80.31
358.668	97.31
358.895	75.31
359.122	80.31
359.349	87.31
359.576	84.31
359.802	77.31
360.029	95.31
360.256	83.31
360.483	91.31
360.709	94.31
360.936	83.31
361.163	71.31
361.39	85.31
361.616	89.31
361.843	79.31
362.07	107.31
362.296	94.31
362.523	111.31
362.749	107.31
362.976	121.31
363.203	143.31
363.429	102.31
363.656	105.31
363.882	96.31
364.109	120.31
364.335	144.31
364.562	133.31
364.788	114.31
365.015	89.31
365.241	85.31
365.468	82.31
365.694	87.31
365.92	91.31
366.147	89.31
366.373	75.31
366.599	75.31
366.826	83.31
367.052	62.31
367.278	75.31
367.505	77.31
367.731	85.31
367.957	78.31
368.184	84.31
368.41	78.31
368.636	101.31
368.862	96.31
369.089	73.31
369.315	78.31
369.541	91.31
369.767	81.31
369.993	79.31
370.219	90.31
370.445	102.31
370.672	110.31
370.898	102.31
371.124	89.31
371.35	72.31
371.576	84.31
371.802	88.31
372.028	99.31
372.254	109.31
372.48	91.31
372.706	95.31
372.932	87.31
373.158	90.31
373.384	97.31
373.61	130.31
373.835	137.31
374.061	98.31
374.287	105.31
374.513	81.31
374.739	76.31
374.965	96.31
375.191	98.31
375.416	86.31
375.642	89.31
375.868	96.31
376.094	83.31
376.319	93.31
376.545	79.31
376.771	87.31
376.997	80.31
377.222	97.31
377.448	87.31
377.674	93.31
377.899	95.31
378.125	82.31
378.35	105.31
378.576	85.31
378.802	71.31
379.027	72.31
379.253	91.31
379.478	86.31
379.704	80.31
379.929	92.31
380.155	80.31
380.38	98.31
380.606	86.31
380.831	85.31
381.057	80.31
381.282	103.31
381.507	94.31
381.733	84.31
381.958	87.31
382.184	107.31
382.409	95.31
382.634	101.31
382.86	91.31
383.085	102.31
383.31	93.31
383.535	116.31
383.761	90.31
383.986	95.31
384.211	95.31
384.436	107.31
384.662	98.31
384.887	87.31
385.112	90.31
385.337	95.31
385.562	93.31
385.787	97.31
386.013	89.31
386.238	101.31
386.463	93.31
386.688	105.31
386.913	98.31
387.138	95.31
387.363	88.31
387.588	93.31
387.813	105.31
388.038	102.31
388.263	109.31
388.488	104.31
388.713	92.31
388.938	92.31
389.163	81.31
389.387	92.31
389.612	89.31
389.837	93.31
390.062	86.31
390.287	81.31
390.512	95.31
390.736	88.31
390.961	85.31
391.186	91.31
391.411	77.31
391.636	105.31
391.86	98.31
392.085	103.31
392.31	102.31
392.534	112.31
392.759	167.31
392.984	313.31
393.208	651.31
393.433	980.31
393.658	717.31
393.882	262.31
394.107	154.31
394.331	149.31
394.556	157.31
394.78	123.31
395.005	93.31
395.229	106.31
395.454	106.31
395.678	133.31
395.903	164.31
396.127	210.31
396.352	242.31
396.576	335.31
396.801	609.31
397.025	753.31
397.249	339.31
397.474	183.31
397.698	125.31
397.922	93.31
398.147	101.31
398.371	90.31
398.595	90.31
398.82	70.31
399.044	95.31
399.268	77.31
399.492	86.31
399.717	89.31
399.941	80.31
400.165	89.31
400.389	83.31
400.613	84.31
400.837	84.31
401.062	81.31
401.286	81.31
401.51	79.31
401.734	80.31
401.958	82.31
402.182	78.31
402.406	75.31
402.63	87.31
402.854	95.31
403.078	90.31
403.302	100.31
403.526	92.31
403.75	74.31
403.974	85.31
404.198	107.31
404.422	109.31
404.645	121.31
404.869	114.31
405.093	100.31
405.317	85.31
405.541	76.31
405.765	82.31
405.988	72.31
406.212	78.31
406.436	73.31
406.66	87.31
406.883	80.31
407.107	83.31
407.331	91.31
407.555	112.31
407.778	145.31
408.002	139.31
408.226	101.31
408.449	84.31
408.673	89.31
408.896	87.31
409.12	75.31
409.344	98.31
409.567	97.31
409.791	95.31
410.014	111.31
410.238	95.31
410.461	89.31
410.685	90.31
410.908	75.31
411.132	81.31
411.355	94.31
411.578	91.31
411.802	90.31
412.025	77.31
412.249	77.31
412.472	93.31
412.695	72.31
412.919	82.31
413.142	88.31
413.365	75.31
413.589	67.31
413.812	85.31
414.035	97.31
414.258	86.31
414.482	71.31
414.705	80.31
414.928	81.31
415.151	89.31
415.374	79.31
415.597	106.31
415.821	82.31
416.044	87.31
416.267	78.31
416.49	93.31
416.713	94.31
416.936	73.31
417.159	69.31
417.382	81.31
417.605	64.31
417.828	82.31
418.051	83.31
418.274	83.31
418.497	85.31
418.72	80.31
418.943	79.31
419.166	85.31
419.389	86.31
419.611	93.31
419.834	72.31
420.057	81.31
420.28	99.31
420.503	98.31
420.726	86.31
420.948	77.31
421.171	104.31
421.394	126.31
421.617	156.31
421.839	151.31
422.062	154.31
422.285	197.31
422.507	401.31
422.73	675.31
422.953	577.31
423.175	245.31
423.398	149.31
423.621	106.31
423.843	99.31
424.066	86.31
424.288	92.31
424.511	69.31
424.733	89.31
424.956	99.31
425.178	81.31
425.401	79.31
425.623	77.31
425.846	98.31
426.068	78.31
426.291	87.31
426.513	84.31
426.735	79.31
426.958	67.31
427.18	95.31
427.402	94.31
427.625	89.31
427.847	94.31
428.069	109.31
428.292	170.31
428.514	218.31
428.736	137.31
428.958	185.31
429.181	179.31
429.403	116.31
429.625	118.31
429.847	153.31
430.069	220.31
430.292	299.31
430.514	267.31
430.736	171.31
430.958	190.31
431.18	128.31
431.402	112.31
431.624	114.31
431.846	144.31
432.068	184.31
432.29	105.31
432.512	91.31
432.734	71.31
432.956	80.31
433.178	77.31
433.4	82.31
433.622	90.31
433.844	86.31
434.066	71.31
434.287	89.31
434.509	75.31
434.731	78.31
434.953	79.31
435.175	81.31
435.397	89.31
435.618	105.31
435.84	85.31
436.062	83.31
436.284	83.31
436.505	87.31
436.727	69.31
436.949	80.31
437.17	79.31
437.392	90.31
437.614	84.31
437.835	79.31
438.057	85.31
438.278	97.31
438.5	88.31
438.721	84.31
438.943	83.31
439.165	98.31
439.386	98.31
439.608	82.31
439.829	81.31
440.05	84.31
440.272	78.31
440.493	77.31
440.715	86.31
440.936	99.31
441.158	77.31
441.379	87.31
441.6	87.31
441.822	94.31
442.043	95.31
442.264	109.31
442.486	155.31
442.707	234.31
442.928	156.31
443.149	125.31
443.371	215.31
443.592	389.31
443.813	343.31
444.034	147.31
444.255	86.31
444.476	96.31
444.698	96.31
444.919	101.31
445.14	222.31
445.361	303.31
445.582	492.31
445.803	405.31
446.024	155.31
446.245	89.31
446.466	87.31
446.687	70.31
446.908	82.31
447.129	77.31
447.35	73.31
447.571	74.31
447.792	86.31
448.013	90.31
448.234	88.31
448.455	79.31
448.675	86.31
448.896	81.31
449.117	71.31
449.338	79.31
449.559	77.31
449.779	79.31
450	72.31
450.221	77.31
450.442	71.31
450.662	75.31
450.883	93.31
451.104	81.31
451.324	84.31
451.545	79.31
451.766	97.31
451.986	78.31
452.207	85.31
452.428	87.31
452.648	88.31
452.869	97.31
453.089	93.31
453.31	83.31
453.53	97.31
453.751	85.31
453.971	86.31
454.192	75.31
454.412	91.31
454.633	87.31
454.853	83.31
455.073	84.31
455.294	59.31
455.514	73.31
455.734	66.31
455.955	76.31
456.175	96.31
456.395	80.31
456.616	86.31
456.836	75.31
457.056	96.31
457.276	77.31
457.497	77.31
457.717	76.31
457.937	126.31
458.157	146.31
458.377	164.31
458.598	138.31
458.818	145.31
459.038	119.31
459.258	82.31
459.478	77.31
459.698	76.31
459.918	86.31
460.138	92.31
460.358	89.31
460.578	92.31
460.798	122.31
461.018	129.31
461.238	76.31
461.458	87.31
461.678	86.31
461.898	86.31
462.118	85.31
462.338	78.31
462.558	79.31
462.777	82.31
462.997	86.31
463.217	93.31
463.437	77.31
463.657	83.31
463.876	97.31
464.096	82.31
464.316	98.31
464.536	72.31
464.755	61.31
464.975	74.31
465.195	77.31
465.414	82.31
465.634	86.31
465.854	93.31
466.073	75.31
466.293	83.31
466.512	88.31
466.732	77.31
466.951	66.31
467.171	85.31
467.391	80.31
467.61	69.31
467.829	78.31
468.049	85.31
468.268	85.31
468.488	89.31
468.707	99.31
468.927	86.31
469.146	88.31
469.365	82.31
469.585	77.31
469.804	83.31
470.023	80.31
470.243	86.31
470.462	85.31
470.681	81.31
470.901	81.31
471.12	84.31
471.339	77.31
471.558	88.31
471.777	93.31
471.997	88.31
472.216	86.31
472.435	88.31
472.654	77.31
472.873	77.31
473.092	83.31
473.311	97.31
473.53	73.31
473.749	81.31
473.968	97.31
474.187	94.31
474.406	78.31
474.625	83.31
474.844	105.31
475.063	91.31
475.282	71.31
475.501	86.31
475.72	78.31
475.939	82.31
476.158	87.31
476.377	89.31
476.596	81.31
476.814	70.31
477.033	77.31
477.252	75.31
477.471	75.31
477.69	91.31
477.908	99.31
478.127	82.31
478.346	87.31
478.564	82.31
478.783	89.31
479.002	77.31
479.22	83.31
479.439	89.31
479.658	76.31
479.876	90.31
480.095	73.31
480.313	85.31
480.532	86.31
480.751	92.31
480.969	79.31
481.188	81.31
481.406	84.31
481.624	73.31
481.843	80.31
482.061	81.31
482.28	77.31
482.498	84.31
482.717	96.31
482.935	75.31
483.153	82.31
483.372	90.31
483.59	98.31
483.808	77.31
484.027	89.31
484.245	85.31
484.463	84.31
484.681	87.31
484.9	86.31
485.118	85.31
485.336	64.31
485.554	84.31
485.772	95.31
485.99	83.31
486.209	82.31
486.427	70.31
486.645	88.31
486.863	102.31
487.081	91.31
487.299	93.31
487.517	97.31
487.735	135.31
487.953	247.31
488.171	177.31
488.389	99.31
488.607	85.31
488.825	87.31
489.043	85.31
489.261	80.31
489.479	68.31
489.696	78.31
489.914	79.31
490.132	88.31
490.35	83.31
490.568	85.31
490.786	80.31
491.003	77.31
491.221	77.31
491.439	84.31
491.657	84.31
491.874	83.31
492.092	81.31
492.31	91.31
492.527	69.31
492.745	75.31
492.963	81.31
493.18	94.31
493.398	69.31
493.615	91.31
493.833	89.31
494.05	69.31
494.268	90.31
494.485	83.31
494.703	97.31
494.92	96.31
495.138	85.31
495.355	86.31
495.573	82.31
495.79	93.31
496.008	98.31
496.225	89.31
496.442	74.31
496.66	89.31
496.877	98.31
497.094	105.31
497.312	83.31
497.529	86.31
497.746	91.31
497.963	95.31
498.181	85.31
498.398	90.31
498.615	93.31
498.832	85.31
499.049	82.31
499.267	98.31
499.484	78.31
499.701	80.31
499.918	79.31
500.135	85.31
500.352	87.31
500.569	75.31
500.786	89.31
501.003	86.31
501.22	83.31
501.437	86.31
501.654	85.31
501.871	90.31
502.088	101.31
502.305	92.31
502.522	86.31
502.739	107.31
502.956	81.31
503.172	98.31
503.389	90.31
503.606	101.31
503.823	90.31
504.04	103.31
504.256	151.31
504.473	151.31
504.69	109.31
504.907	101.31
505.123	81.31
505.34	94.31
505.557	88.31
505.773	79.31
505.99	86.31
506.207	79.31
506.423	85.31
506.64	101.31
506.856	96.31
507.073	86.31
507.289	84.31
507.506	85.31
507.722	66.31
507.939	82.31
508.155	91.31
508.372	92.31
508.588	97.31
508.805	98.31
509.021	90.31
509.238	82.31
509.454	85.31
509.67	78.31
509.887	83.31
510.103	97.31
510.319	78.31
510.536	81.31
510.752	71.31
510.968	89.31
511.184	86.31
511.401	75.31
511.617	93.31
511.833	86.31
512.049	84.31
512.265	87.31
512.481	84.31
512.698	79.31
512.914	76.31
513.13	78.31
513.346	90.31
513.562	93.31
513.778	92.31
513.994	77.31
514.21	85.31
514.426	102.31
514.642	77.31
514.858	98.31
515.074	75.31
515.29	78.31
515.506	86.31
515.721	102.31
515.937	85.31
516.153	86.31
516.369	93.31
516.585	85.31
516.801	83.31
517.016	96.31
517.232	92.31
517.448	95.31
517.664	91.31
517.879	95.31
518.095	72.31
