Data from CBS_3_HRD10591_00022.txt Node
Date: Mon Jan 19 14:05:49 EST 2026
User: Yrep
Spectrometer: HR+D1059
Trigger mode: 1
Integration Time (sec): 1.000000E-1
Scans to average: 1
Electric dark correction enabled: true
Nonlinearity correction enabled: false
Boxcar width: 0
XAxis mode: Wavelengths
Number of Pixels in Spectrum: 2048
>>>>>Begin Spectral Data<<<<<
223.165	-19.44
223.4	-19.44
223.635	-19.44
223.869	-25.44
224.104	-19.44
224.338	-9.44
224.573	-18.44
224.808	-29.44
225.042	-16.44
225.277	-2.44
225.511	-6.44
225.746	11.56
225.98	19.56
226.215	14.56
226.449	22.56
226.683	25.56
226.918	13.56
227.152	39.56
227.387	19.56
227.621	50.56
227.856	45.56
228.09	47.56
228.324	42.56
228.559	50.56
228.793	67.56
229.027	72.56
229.262	51.56
229.496	76.56
229.73	55.56
229.964	78.56
230.199	70.56
230.433	82.56
230.667	81.56
230.901	69.56
231.136	69.56
231.37	81.56
231.604	75.56
231.838	71.56
232.072	75.56
232.306	88.56
232.541	71.56
232.775	88.56
233.009	86.56
233.243	84.56
233.477	84.56
233.711	69.56
233.945	72.56
234.179	88.56
234.413	77.56
234.647	72.56
234.881	91.56
235.115	81.56
235.349	77.56
235.583	79.56
235.817	78.56
236.051	68.56
236.285	72.56
236.519	76.56
236.753	81.56
236.987	72.56
237.221	81.56
237.455	70.56
237.689	59.56
237.922	70.56
238.156	74.56
238.39	68.56
238.624	77.56
238.858	79.56
239.091	80.56
239.325	63.56
239.559	73.56
239.793	73.56
240.027	80.56
240.26	71.56
240.494	63.56
240.728	73.56
240.961	72.56
241.195	72.56
241.429	85.56
241.662	71.56
241.896	79.56
242.13	81.56
242.363	68.56
242.597	93.56
242.83	73.56
243.064	71.56
243.298	85.56
243.531	78.56
243.765	73.56
243.998	72.56
244.232	84.56
244.465	74.56
244.699	74.56
244.932	78.56
245.166	68.56
245.399	82.56
245.633	70.56
245.866	63.56
246.099	81.56
246.333	84.56
246.566	79.56
246.8	66.56
247.033	76.56
247.266	70.56
247.5	80.56
247.733	68.56
247.966	63.56
248.2	59.56
248.433	73.56
248.666	76.56
248.899	84.56
249.133	78.56
249.366	67.56
249.599	82.56
249.832	83.56
250.066	71.56
250.299	76.56
250.532	59.56
250.765	81.56
250.998	58.56
251.231	87.56
251.465	71.56
251.698	64.56
251.931	74.56
252.164	64.56
252.397	71.56
252.63	76.56
252.863	78.56
253.096	76.56
253.329	59.56
253.562	87.56
253.795	75.56
254.028	84.56
254.261	90.56
254.494	76.56
254.727	79.56
254.96	56.56
255.193	89.56
255.426	88.56
255.659	77.56
255.892	75.56
256.124	84.56
256.357	87.56
256.59	87.56
256.823	74.56
257.056	87.56
257.289	82.56
257.521	64.56
257.754	90.56
257.987	67.56
258.22	73.56
258.452	72.56
258.685	91.56
258.918	73.56
259.151	77.56
259.383	73.56
259.616	68.56
259.849	76.56
260.081	100.56
260.314	68.56
260.547	72.56
260.779	91.56
261.012	67.56
261.244	76.56
261.477	69.56
261.71	71.56
261.942	91.56
262.175	78.56
262.407	87.56
262.64	77.56
262.872	71.56
263.105	79.56
263.337	81.56
263.57	86.56
263.802	87.56
264.035	73.56
264.267	91.56
264.499	80.56
264.732	73.56
264.964	89.56
265.197	74.56
265.429	92.56
265.661	77.56
265.894	85.56
266.126	89.56
266.358	91.56
266.591	77.56
266.823	81.56
267.055	75.56
267.287	69.56
267.52	69.56
267.752	73.56
267.984	91.56
268.216	81.56
268.448	99.56
268.681	82.56
268.913	87.56
269.145	67.56
269.377	85.56
269.609	96.56
269.841	70.56
270.073	78.56
270.306	78.56
270.538	68.56
270.77	79.56
271.002	93.56
271.234	93.56
271.466	78.56
271.698	70.56
271.93	80.56
272.162	82.56
272.394	84.56
272.626	76.56
272.858	79.56
273.09	85.56
273.322	73.56
273.553	82.56
273.785	74.56
274.017	80.56
274.249	73.56
274.481	93.56
274.713	99.56
274.945	87.56
275.176	78.56
275.408	90.56
275.64	76.56
275.872	82.56
276.104	78.56
276.335	81.56
276.567	92.56
276.799	92.56
277.031	79.56
277.262	92.56
277.494	67.56
277.726	77.56
277.957	81.56
278.189	83.56
278.421	80.56
278.652	75.56
278.884	77.56
279.115	79.56
279.347	82.56
279.579	77.56
279.81	82.56
280.042	70.56
280.273	89.56
280.505	77.56
280.736	85.56
280.968	83.56
281.199	88.56
281.431	83.56
281.662	81.56
281.894	83.56
282.125	94.56
282.356	87.56
282.588	77.56
282.819	85.56
283.051	77.56
283.282	85.56
283.513	98.56
283.745	80.56
283.976	77.56
284.207	72.56
284.439	82.56
284.67	90.56
284.901	90.56
285.132	85.56
285.364	91.56
285.595	94.56
285.826	92.56
286.057	90.56
286.288	87.56
286.52	80.56
286.751	85.56
286.982	67.56
287.213	88.56
287.444	84.56
287.675	86.56
287.906	75.56
288.138	77.56
288.369	93.56
288.6	99.56
288.831	88.56
289.062	73.56
289.293	85.56
289.524	79.56
289.755	79.56
289.986	77.56
290.217	85.56
290.448	84.56
290.679	71.56
290.91	85.56
291.141	90.56
291.371	85.56
291.602	76.56
291.833	76.56
292.064	77.56
292.295	78.56
292.526	88.56
292.757	83.56
292.987	92.56
293.218	79.56
293.449	67.56
293.68	79.56
293.91	79.56
294.141	84.56
294.372	83.56
294.603	86.56
294.833	72.56
295.064	74.56
295.295	92.56
295.525	86.56
295.756	91.56
295.987	70.56
296.217	84.56
296.448	75.56
296.679	75.56
296.909	80.56
297.14	92.56
297.37	69.56
297.601	85.56
297.831	86.56
298.062	88.56
298.292	74.56
298.523	67.56
298.753	72.56
298.984	91.56
299.214	81.56
299.445	95.56
299.675	83.56
299.905	91.56
300.136	96.56
300.366	88.56
300.597	84.56
300.827	90.56
301.057	81.56
301.288	81.56
301.518	102.56
301.748	73.56
301.979	84.56
302.209	94.56
302.439	88.56
302.669	86.56
302.9	81.56
303.13	72.56
303.36	88.56
303.59	82.56
303.82	79.56
304.051	83.56
304.281	89.56
304.511	88.56
304.741	87.56
304.971	83.56
305.201	102.56
305.431	88.56
305.661	89.56
305.891	92.56
306.121	78.56
306.352	86.56
306.582	78.56
306.812	88.56
307.042	74.56
307.272	79.56
307.502	86.56
307.731	88.56
307.961	84.56
308.191	89.56
308.421	93.56
308.651	89.56
308.881	87.56
309.111	99.56
309.341	100.56
309.571	79.56
309.8	87.56
310.03	85.56
310.26	87.56
310.49	86.56
310.72	69.56
310.949	87.56
311.179	80.56
311.409	79.56
311.639	84.56
311.868	77.56
312.098	95.56
312.328	86.56
312.557	87.56
312.787	80.56
313.017	82.56
313.246	88.56
313.476	80.56
313.706	95.56
313.935	78.56
314.165	94.56
314.394	87.56
314.624	74.56
314.853	101.56
315.083	88.56
315.312	91.56
315.542	92.56
315.771	80.56
316.001	84.56
316.23	86.56
316.46	75.56
316.689	77.56
316.919	87.56
317.148	93.56
317.377	82.56
317.607	82.56
317.836	100.56
318.065	100.56
318.295	90.56
318.524	83.56
318.753	102.56
318.983	87.56
319.212	93.56
319.441	72.56
319.67	80.56
319.9	90.56
320.129	96.56
320.358	86.56
320.587	85.56
320.816	87.56
321.046	80.56
321.275	76.56
321.504	62.56
321.733	77.56
321.962	77.56
322.191	79.56
322.42	92.56
322.649	78.56
322.878	99.56
323.108	101.56
323.337	85.56
323.566	88.56
323.795	93.56
324.024	96.56
324.253	76.56
324.482	84.56
324.71	80.56
324.939	80.56
325.168	83.56
325.397	81.56
325.626	89.56
325.855	91.56
326.084	85.56
326.313	76.56
326.542	73.56
326.77	101.56
326.999	71.56
327.228	93.56
327.457	88.56
327.686	97.56
327.914	86.56
328.143	101.56
328.372	79.56
328.6	98.56
328.829	77.56
329.058	84.56
329.287	76.56
329.515	89.56
329.744	95.56
329.972	95.56
330.201	65.56
330.43	84.56
330.658	79.56
330.887	80.56
331.115	84.56
331.344	67.56
331.572	93.56
331.801	68.56
332.03	77.56
332.258	93.56
332.486	70.56
332.715	83.56
332.943	76.56
333.172	72.56
333.4	89.56
333.629	104.56
333.857	77.56
334.085	74.56
334.314	100.56
334.542	87.56
334.771	83.56
334.999	97.56
335.227	94.56
335.455	97.56
335.684	94.56
335.912	95.56
336.14	89.56
336.369	115.56
336.597	91.56
336.825	91.56
337.053	79.56
337.281	94.56
337.51	91.56
337.738	75.56
337.966	80.56
338.194	87.56
338.422	74.56
338.65	94.56
338.878	97.56
339.106	84.56
339.334	71.56
339.562	84.56
339.79	85.56
340.018	76.56
340.246	90.56
340.474	92.56
340.702	83.56
340.93	86.56
341.158	85.56
341.386	83.56
341.614	81.56
341.842	74.56
342.07	76.56
342.298	99.56
342.526	91.56
342.754	77.56
342.981	73.56
343.209	79.56
343.437	93.56
343.665	86.56
343.893	82.56
344.12	83.56
344.348	92.56
344.576	78.56
344.804	76.56
345.031	82.56
345.259	77.56
345.487	77.56
345.714	87.56
345.942	83.56
346.17	84.56
346.397	81.56
346.625	86.56
346.853	87.56
347.08	96.56
347.308	81.56
347.535	81.56
347.763	92.56
347.99	87.56
348.218	91.56
348.445	88.56
348.673	73.56
348.9	96.56
349.128	95.56
349.355	78.56
349.583	92.56
349.81	88.56
350.037	86.56
350.265	92.56
350.492	96.56
350.72	90.56
350.947	83.56
351.174	79.56
351.402	97.56
351.629	90.56
351.856	82.56
352.083	80.56
352.311	79.56
352.538	92.56
352.765	81.56
352.992	85.56
353.22	79.56
353.447	80.56
353.674	79.56
353.901	76.56
354.128	73.56
354.355	76.56
354.583	88.56
354.81	80.56
355.037	87.56
355.264	89.56
355.491	79.56
355.718	77.56
355.945	74.56
356.172	66.56
356.399	97.56
356.626	88.56
356.853	78.56
357.08	75.56
357.307	77.56
357.534	76.56
357.761	89.56
357.988	79.56
358.215	95.56
358.441	91.56
358.668	92.56
358.895	84.56
359.122	80.56
359.349	83.56
359.576	71.56
359.802	87.56
360.029	83.56
360.256	82.56
360.483	90.56
360.709	89.56
360.936	88.56
361.163	82.56
361.39	79.56
361.616	100.56
361.843	82.56
362.07	75.56
362.296	109.56
362.523	99.56
362.749	100.56
362.976	122.56
363.203	123.56
363.429	101.56
363.656	97.56
363.882	100.56
364.109	95.56
364.335	137.56
364.562	140.56
364.788	101.56
365.015	88.56
365.241	86.56
365.468	97.56
365.694	72.56
365.92	73.56
366.147	89.56
366.373	76.56
366.599	87.56
366.826	71.56
367.052	88.56
367.278	88.56
367.505	82.56
367.731	74.56
367.957	83.56
368.184	101.56
368.41	81.56
368.636	93.56
368.862	84.56
369.089	87.56
369.315	83.56
369.541	89.56
369.767	95.56
369.993	77.56
370.219	72.56
370.445	85.56
370.672	83.56
370.898	86.56
371.124	92.56
371.35	86.56
371.576	93.56
371.802	84.56
372.028	79.56
372.254	99.56
372.48	84.56
372.706	110.56
372.932	73.56
373.158	92.56
373.384	91.56
373.61	92.56
373.835	102.56
374.061	93.56
374.287	95.56
374.513	87.56
374.739	83.56
374.965	83.56
375.191	83.56
375.416	81.56
375.642	68.56
375.868	79.56
376.094	77.56
376.319	89.56
376.545	84.56
376.771	87.56
376.997	75.56
377.222	85.56
377.448	80.56
377.674	79.56
377.899	84.56
378.125	73.56
378.35	66.56
378.576	88.56
378.802	73.56
379.027	104.56
379.253	87.56
379.478	85.56
379.704	69.56
379.929	91.56
380.155	87.56
380.38	63.56
380.606	86.56
380.831	79.56
381.057	83.56
381.282	91.56
381.507	72.56
381.733	88.56
381.958	84.56
382.184	96.56
382.409	72.56
382.634	89.56
382.86	91.56
383.085	84.56
383.31	81.56
383.535	86.56
383.761	83.56
383.986	85.56
384.211	95.56
384.436	89.56
384.662	81.56
384.887	92.56
385.112	90.56
385.337	99.56
385.562	96.56
385.787	97.56
386.013	85.56
386.238	89.56
386.463	82.56
386.688	88.56
386.913	82.56
387.138	83.56
387.363	86.56
387.588	92.56
387.813	94.56
388.038	91.56
388.263	89.56
388.488	82.56
388.713	99.56
388.938	87.56
389.163	76.56
389.387	86.56
389.612	78.56
389.837	79.56
390.062	79.56
390.287	82.56
390.512	94.56
390.736	96.56
390.961	101.56
391.186	89.56
391.411	92.56
391.636	97.56
391.86	97.56
392.085	84.56
392.31	89.56
392.534	99.56
392.759	125.56
392.984	174.56
393.208	334.56
393.433	492.56
393.658	377.56
393.882	153.56
394.107	117.56
394.331	101.56
394.556	117.56
394.78	110.56
395.005	110.56
395.229	103.56
395.454	118.56
395.678	124.56
395.903	120.56
396.127	137.56
396.352	148.56
396.576	201.56
396.801	347.56
397.025	403.56
397.249	190.56
397.474	135.56
397.698	117.56
397.922	98.56
398.147	88.56
398.371	74.56
398.595	76.56
398.82	82.56
399.044	79.56
399.268	80.56
399.492	95.56
399.717	91.56
399.941	77.56
400.165	102.56
400.389	80.56
400.613	77.56
400.837	93.56
401.062	80.56
401.286	87.56
401.51	85.56
401.734	79.56
401.958	88.56
402.182	83.56
402.406	87.56
402.63	85.56
402.854	79.56
403.078	92.56
403.302	86.56
403.526	80.56
403.75	80.56
403.974	74.56
404.198	85.56
404.422	111.56
404.645	135.56
404.869	115.56
405.093	88.56
405.317	88.56
405.541	76.56
405.765	80.56
405.988	63.56
406.212	87.56
406.436	84.56
406.66	89.56
406.883	79.56
407.107	84.56
407.331	89.56
407.555	111.56
407.778	114.56
408.002	109.56
408.226	89.56
408.449	85.56
408.673	84.56
408.896	94.56
409.12	72.56
409.344	90.56
409.567	93.56
409.791	95.56
410.014	97.56
410.238	110.56
410.461	89.56
410.685	64.56
410.908	77.56
411.132	91.56
411.355	70.56
411.578	86.56
411.802	83.56
412.025	91.56
412.249	79.56
412.472	76.56
412.695	83.56
412.919	85.56
413.142	80.56
413.365	95.56
413.589	78.56
413.812	79.56
414.035	79.56
414.258	96.56
414.482	89.56
414.705	83.56
414.928	99.56
415.151	82.56
415.374	77.56
415.597	79.56
415.821	83.56
416.044	85.56
416.267	71.56
416.49	83.56
416.713	88.56
416.936	73.56
417.159	78.56
417.382	80.56
417.605	80.56
417.828	78.56
418.051	77.56
418.274	83.56
418.497	80.56
418.72	77.56
418.943	99.56
419.166	92.56
419.389	77.56
419.611	102.56
419.834	96.56
420.057	100.56
420.28	87.56
420.503	78.56
420.726	84.56
420.948	85.56
421.171	91.56
421.394	109.56
421.617	129.56
421.839	124.56
422.062	140.56
422.285	219.56
422.507	403.56
422.73	627.56
422.953	537.56
423.175	238.56
423.398	137.56
423.621	120.56
423.843	102.56
424.066	107.56
424.288	100.56
424.511	101.56
424.733	94.56
424.956	93.56
425.178	94.56
425.401	76.56
425.623	90.56
425.846	76.56
426.068	89.56
426.291	75.56
426.513	84.56
426.735	68.56
426.958	81.56
427.18	70.56
427.402	90.56
427.625	100.56
427.847	101.56
428.069	108.56
428.292	145.56
428.514	148.56
428.736	132.56
428.958	141.56
429.181	163.56
429.403	115.56
429.625	121.56
429.847	139.56
430.069	209.56
430.292	246.56
430.514	219.56
430.736	161.56
430.958	185.56
431.18	105.56
431.402	97.56
431.624	92.56
431.846	143.56
432.068	162.56
432.29	131.56
432.512	90.56
432.734	74.56
432.956	79.56
433.178	80.56
433.4	72.56
433.622	70.56
433.844	88.56
434.066	87.56
434.287	83.56
434.509	69.56
434.731	93.56
434.953	85.56
435.175	87.56
435.397	103.56
435.618	99.56
435.84	97.56
436.062	88.56
436.284	97.56
436.505	77.56
436.727	86.56
436.949	83.56
437.17	92.56
437.392	79.56
437.614	77.56
437.835	86.56
438.057	87.56
438.278	78.56
438.5	84.56
438.721	88.56
438.943	92.56
439.165	79.56
439.386	75.56
439.608	98.56
439.829	99.56
440.05	78.56
440.272	85.56
440.493	80.56
440.715	81.56
440.936	82.56
441.158	74.56
441.379	93.56
441.6	87.56
441.822	78.56
442.043	99.56
442.264	101.56
442.486	180.56
442.707	239.56
442.928	171.56
443.149	125.56
443.371	206.56
443.592	365.56
443.813	296.56
444.034	130.56
444.255	92.56
444.476	93.56
444.698	99.56
444.919	100.56
445.14	208.56
445.361	279.56
445.582	432.56
445.803	351.56
446.024	137.56
446.245	103.56
446.466	87.56
446.687	92.56
446.908	88.56
447.129	87.56
447.35	82.56
447.571	81.56
447.792	71.56
448.013	58.56
448.234	94.56
448.455	86.56
448.675	79.56
448.896	78.56
449.117	84.56
449.338	72.56
449.559	79.56
449.779	86.56
450	89.56
450.221	100.56
450.442	83.56
450.662	86.56
450.883	93.56
451.104	78.56
451.324	96.56
451.545	70.56
451.766	83.56
451.986	92.56
452.207	85.56
452.428	83.56
452.648	92.56
452.869	98.56
453.089	87.56
453.31	80.56
453.53	100.56
453.751	93.56
453.971	79.56
454.192	88.56
454.412	72.56
454.633	77.56
454.853	83.56
455.073	83.56
455.294	73.56
455.514	84.56
455.734	90.56
455.955	82.56
456.175	68.56
456.395	67.56
456.616	75.56
456.836	71.56
457.056	92.56
457.276	90.56
457.497	80.56
457.717	112.56
457.937	107.56
458.157	140.56
458.377	137.56
458.598	124.56
458.818	142.56
459.038	104.56
459.258	88.56
459.478	93.56
459.698	74.56
459.918	80.56
460.138	80.56
460.358	87.56
460.578	68.56
460.798	118.56
461.018	111.56
461.238	95.56
461.458	86.56
461.678	72.56
461.898	77.56
462.118	83.56
462.338	81.56
462.558	78.56
462.777	82.56
462.997	75.56
463.217	85.56
463.437	69.56
463.657	76.56
463.876	90.56
464.096	83.56
464.316	78.56
464.536	66.56
464.755	79.56
464.975	89.56
465.195	101.56
465.414	84.56
465.634	73.56
465.854	67.56
466.073	90.56
466.293	73.56
466.512	86.56
466.732	65.56
466.951	84.56
467.171	86.56
467.391	75.56
467.61	87.56
467.829	89.56
468.049	84.56
468.268	89.56
468.488	97.56
468.707	97.56
468.927	95.56
469.146	77.56
469.365	69.56
469.585	72.56
469.804	93.56
470.023	82.56
470.243	83.56
470.462	81.56
470.681	68.56
470.901	87.56
471.12	102.56
471.339	86.56
471.558	66.56
471.777	77.56
471.997	77.56
472.216	79.56
472.435	90.56
472.654	93.56
472.873	63.56
473.092	78.56
473.311	87.56
473.53	90.56
473.749	74.56
473.968	73.56
474.187	88.56
474.406	89.56
474.625	78.56
474.844	78.56
475.063	80.56
475.282	78.56
475.501	73.56
475.72	95.56
475.939	79.56
476.158	89.56
476.377	81.56
476.596	84.56
476.814	91.56
477.033	73.56
477.252	69.56
477.471	89.56
477.69	85.56
477.908	76.56
478.127	93.56
478.346	73.56
478.564	85.56
478.783	86.56
479.002	76.56
479.22	93.56
479.439	77.56
479.658	79.56
479.876	81.56
480.095	84.56
480.313	84.56
480.532	99.56
480.751	104.56
480.969	72.56
481.188	71.56
481.406	88.56
481.624	85.56
481.843	87.56
482.061	87.56
482.28	92.56
482.498	76.56
482.717	84.56
482.935	84.56
483.153	70.56
483.372	91.56
483.59	81.56
483.808	84.56
484.027	83.56
484.245	98.56
484.463	87.56
484.681	89.56
484.9	74.56
485.118	86.56
485.336	81.56
485.554	76.56
485.772	93.56
485.99	91.56
486.209	88.56
486.427	81.56
486.645	87.56
486.863	96.56
487.081	85.56
487.299	88.56
487.517	85.56
487.735	126.56
487.953	187.56
488.171	166.56
488.389	100.56
488.607	78.56
488.825	83.56
489.043	87.56
489.261	90.56
489.479	82.56
489.696	91.56
489.914	81.56
490.132	89.56
490.35	91.56
490.568	104.56
490.786	95.56
491.003	85.56
491.221	86.56
491.439	97.56
491.657	77.56
491.874	95.56
492.092	79.56
492.31	93.56
492.527	83.56
492.745	72.56
492.963	79.56
493.18	81.56
493.398	90.56
493.615	88.56
493.833	94.56
494.05	91.56
494.268	80.56
494.485	91.56
494.703	86.56
494.92	81.56
495.138	86.56
495.355	85.56
495.573	92.56
495.79	87.56
496.008	91.56
496.225	85.56
496.442	88.56
496.66	88.56
496.877	85.56
497.094	87.56
497.312	85.56
497.529	96.56
497.746	88.56
497.963	83.56
498.181	77.56
498.398	87.56
498.615	95.56
498.832	88.56
499.049	87.56
499.267	79.56
499.484	91.56
499.701	86.56
499.918	72.56
500.135	96.56
500.352	83.56
500.569	79.56
500.786	82.56
501.003	95.56
501.22	95.56
501.437	101.56
501.654	83.56
501.871	73.56
502.088	77.56
502.305	83.56
502.522	86.56
502.739	106.56
502.956	73.56
503.172	76.56
503.389	84.56
503.606	88.56
503.823	87.56
504.04	103.56
504.256	145.56
504.473	153.56
504.69	90.56
504.907	83.56
505.123	88.56
505.34	96.56
505.557	100.56
505.773	84.56
505.99	78.56
506.207	76.56
506.423	79.56
506.64	79.56
506.856	74.56
507.073	78.56
507.289	86.56
507.506	77.56
507.722	79.56
507.939	79.56
508.155	86.56
508.372	82.56
508.588	86.56
508.805	86.56
509.021	83.56
509.238	87.56
509.454	92.56
509.67	81.56
509.887	99.56
510.103	95.56
510.319	96.56
510.536	83.56
510.752	79.56
510.968	73.56
511.184	74.56
511.401	90.56
511.617	96.56
511.833	95.56
512.049	89.56
512.265	84.56
512.481	89.56
512.698	75.56
512.914	94.56
513.13	68.56
513.346	91.56
513.562	88.56
513.778	79.56
513.994	80.56
514.21	66.56
514.426	79.56
514.642	92.56
514.858	87.56
515.074	71.56
515.29	72.56
515.506	88.56
515.721	89.56
515.937	93.56
516.153	77.56
516.369	92.56
516.585	92.56
516.801	83.56
517.016	81.56
517.232	84.56
517.448	91.56
517.664	84.56
517.879	85.56
518.095	92.56
518.311	95.56
