Data from CBS_3_HRD10591_00031.txt Node
Date: Mon Jan 19 14:05:54 EST 2026
User: Yrep
Spectrometer: HR+D1059
Trigger mode: 1
Integration Time (sec): 1.000000E-1
Scans to average: 1
Electric dark correction enabled: true
Nonlinearity correction enabled: false
Boxcar width: 0
XAxis mode: Wavelengths
Number of Pixels in Spectrum: 2048
>>>>>Begin Spectral Data<<<<<
223.165	-23.31
223.4	-23.31
223.635	-23.31
223.869	-26.31
224.104	-27.31
224.338	-5.31
224.573	-15.31
224.808	-11.31
225.042	-20.31
225.277	3.69
225.511	7.69
225.746	2.69
225.98	4.69
226.215	18.69
226.449	-0.31
226.683	22.69
226.918	30.69
227.152	38.69
227.387	37.69
227.621	40.69
227.856	32.69
228.09	34.69
228.324	48.69
228.559	62.69
228.793	51.69
229.027	56.69
229.262	67.69
229.496	65.69
229.73	72.69
229.964	79.69
230.199	67.69
230.433	65.69
230.667	70.69
230.901	78.69
231.136	83.69
231.37	86.69
231.604	80.69
231.838	71.69
232.072	75.69
232.306	84.69
232.541	75.69
232.775	71.69
233.009	91.69
233.243	87.69
233.477	74.69
233.711	70.69
233.945	93.69
234.179	90.69
234.413	76.69
234.647	86.69
234.881	67.69
235.115	60.69
235.349	70.69
235.583	77.69
235.817	87.69
236.051	66.69
236.285	75.69
236.519	72.69
236.753	86.69
236.987	63.69
237.221	93.69
237.455	66.69
237.689	77.69
237.922	86.69
238.156	93.69
238.39	80.69
238.624	73.69
238.858	62.69
239.091	83.69
239.325	57.69
239.559	62.69
239.793	78.69
240.027	79.69
240.26	103.69
240.494	66.69
240.728	79.69
240.961	76.69
241.195	68.69
241.429	73.69
241.662	77.69
241.896	72.69
242.13	74.69
242.363	78.69
242.597	83.69
242.83	76.69
243.064	84.69
243.298	76.69
243.531	90.69
243.765	76.69
243.998	75.69
244.232	88.69
244.465	66.69
244.699	69.69
244.932	68.69
245.166	88.69
245.399	69.69
245.633	76.69
245.866	64.69
246.099	72.69
246.333	76.69
246.566	78.69
246.8	78.69
247.033	79.69
247.266	70.69
247.5	66.69
247.733	60.69
247.966	66.69
248.2	80.69
248.433	79.69
248.666	81.69
248.899	73.69
249.133	95.69
249.366	77.69
249.599	77.69
249.832	60.69
250.066	82.69
250.299	82.69
250.532	80.69
250.765	83.69
250.998	80.69
251.231	77.69
251.465	64.69
251.698	78.69
251.931	90.69
252.164	80.69
252.397	69.69
252.63	91.69
252.863	73.69
253.096	72.69
253.329	84.69
253.562	72.69
253.795	83.69
254.028	70.69
254.261	80.69
254.494	82.69
254.727	84.69
254.96	70.69
255.193	68.69
255.426	77.69
255.659	82.69
255.892	75.69
256.124	70.69
256.357	73.69
256.59	80.69
256.823	80.69
257.056	89.69
257.289	79.69
257.521	76.69
257.754	76.69
257.987	79.69
258.22	80.69
258.452	84.69
258.685	84.69
258.918	82.69
259.151	90.69
259.383	81.69
259.616	87.69
259.849	91.69
260.081	86.69
260.314	78.69
260.547	79.69
260.779	71.69
261.012	64.69
261.244	76.69
261.477	80.69
261.71	83.69
261.942	82.69
262.175	82.69
262.407	81.69
262.64	80.69
262.872	71.69
263.105	80.69
263.337	95.69
263.57	74.69
263.802	96.69
264.035	71.69
264.267	70.69
264.499	77.69
264.732	78.69
264.964	78.69
265.197	69.69
265.429	88.69
265.661	83.69
265.894	94.69
266.126	85.69
266.358	78.69
266.591	78.69
266.823	81.69
267.055	80.69
267.287	89.69
267.52	77.69
267.752	83.69
267.984	80.69
268.216	71.69
268.448	86.69
268.681	83.69
268.913	90.69
269.145	70.69
269.377	76.69
269.609	80.69
269.841	65.69
270.073	66.69
270.306	66.69
270.538	78.69
270.77	83.69
271.002	84.69
271.234	79.69
271.466	82.69
271.698	78.69
271.93	96.69
272.162	78.69
272.394	77.69
272.626	87.69
272.858	74.69
273.09	80.69
273.322	76.69
273.553	73.69
273.785	83.69
274.017	71.69
274.249	88.69
274.481	79.69
274.713	79.69
274.945	94.69
275.176	74.69
275.408	72.69
275.64	73.69
275.872	92.69
276.104	75.69
276.335	99.69
276.567	72.69
276.799	71.69
277.031	68.69
277.262	79.69
277.494	78.69
277.726	84.69
277.957	82.69
278.189	80.69
278.421	92.69
278.652	96.69
278.884	80.69
279.115	88.69
279.347	75.69
279.579	92.69
279.81	85.69
280.042	96.69
280.273	97.69
280.505	80.69
280.736	72.69
280.968	80.69
281.199	72.69
281.431	81.69
281.662	88.69
281.894	82.69
282.125	84.69
282.356	86.69
282.588	87.69
282.819	98.69
283.051	73.69
283.282	86.69
283.513	75.69
283.745	74.69
283.976	84.69
284.207	81.69
284.439	77.69
284.67	87.69
284.901	83.69
285.132	86.69
285.364	84.69
285.595	90.69
285.826	87.69
286.057	77.69
286.288	68.69
286.52	92.69
286.751	82.69
286.982	71.69
287.213	85.69
287.444	92.69
287.675	82.69
287.906	82.69
288.138	84.69
288.369	90.69
288.6	97.69
288.831	85.69
289.062	80.69
289.293	87.69
289.524	81.69
289.755	74.69
289.986	79.69
290.217	85.69
290.448	83.69
290.679	87.69
290.91	77.69
291.141	85.69
291.371	106.69
291.602	62.69
291.833	86.69
292.064	69.69
292.295	75.69
292.526	70.69
292.757	73.69
292.987	83.69
293.218	70.69
293.449	94.69
293.68	88.69
293.91	92.69
294.141	92.69
294.372	90.69
294.603	93.69
294.833	76.69
295.064	80.69
295.295	89.69
295.525	76.69
295.756	83.69
295.987	74.69
296.217	91.69
296.448	87.69
296.679	98.69
296.909	82.69
297.14	86.69
297.37	93.69
297.601	84.69
297.831	88.69
298.062	80.69
298.292	83.69
298.523	78.69
298.753	74.69
298.984	83.69
299.214	82.69
299.445	80.69
299.675	87.69
299.905	86.69
300.136	80.69
300.366	80.69
300.597	80.69
300.827	85.69
301.057	86.69
301.288	96.69
301.518	82.69
301.748	75.69
301.979	100.69
302.209	83.69
302.439	86.69
302.669	86.69
302.9	70.69
303.13	82.69
303.36	73.69
303.59	88.69
303.82	83.69
304.051	78.69
304.281	75.69
304.511	74.69
304.741	77.69
304.971	81.69
305.201	70.69
305.431	84.69
305.661	76.69
305.891	85.69
306.121	81.69
306.352	71.69
306.582	84.69
306.812	78.69
307.042	85.69
307.272	78.69
307.502	80.69
307.731	83.69
307.961	78.69
308.191	95.69
308.421	101.69
308.651	103.69
308.881	92.69
309.111	97.69
309.341	94.69
309.571	99.69
309.8	110.69
310.03	87.69
310.26	100.69
310.49	83.69
310.72	81.69
310.949	83.69
311.179	84.69
311.409	83.69
311.639	80.69
311.868	82.69
312.098	91.69
312.328	77.69
312.557	89.69
312.787	86.69
313.017	86.69
313.246	92.69
313.476	82.69
313.706	66.69
313.935	92.69
314.165	80.69
314.394	83.69
314.624	90.69
314.853	84.69
315.083	79.69
315.312	108.69
315.542	107.69
315.771	101.69
316.001	108.69
316.23	101.69
316.46	84.69
316.689	78.69
316.919	80.69
317.148	80.69
317.377	98.69
317.607	97.69
317.836	107.69
318.065	113.69
318.295	109.69
318.524	87.69
318.753	97.69
318.983	83.69
319.212	76.69
319.441	70.69
319.67	63.69
319.9	78.69
320.129	92.69
320.358	94.69
320.587	89.69
320.816	85.69
321.046	86.69
321.275	87.69
321.504	86.69
321.733	84.69
321.962	84.69
322.191	83.69
322.42	96.69
322.649	88.69
322.878	92.69
323.108	83.69
323.337	62.69
323.566	94.69
323.795	92.69
324.024	93.69
324.253	77.69
324.482	80.69
324.71	87.69
324.939	77.69
325.168	85.69
325.397	92.69
325.626	94.69
325.855	85.69
326.084	71.69
326.313	89.69
326.542	85.69
326.77	85.69
326.999	78.69
327.228	97.69
327.457	94.69
327.686	90.69
327.914	80.69
328.143	87.69
328.372	84.69
328.6	84.69
328.829	95.69
329.058	81.69
329.287	89.69
329.515	73.69
329.744	83.69
329.972	81.69
330.201	90.69
330.43	70.69
330.658	83.69
330.887	78.69
331.115	78.69
331.344	100.69
331.572	84.69
331.801	91.69
332.03	78.69
332.258	92.69
332.486	94.69
332.715	85.69
332.943	84.69
333.172	88.69
333.4	93.69
333.629	94.69
333.857	72.69
334.085	77.69
334.314	84.69
334.542	92.69
334.771	83.69
334.999	89.69
335.227	90.69
335.455	96.69
335.684	82.69
335.912	101.69
336.14	92.69
336.369	100.69
336.597	83.69
336.825	90.69
337.053	76.69
337.281	94.69
337.51	80.69
337.738	91.69
337.966	76.69
338.194	88.69
338.422	90.69
338.65	83.69
338.878	81.69
339.106	85.69
339.334	93.69
339.562	94.69
339.79	79.69
340.018	88.69
340.246	100.69
340.474	73.69
340.702	74.69
340.93	75.69
341.158	77.69
341.386	90.69
341.614	75.69
341.842	65.69
342.07	76.69
342.298	80.69
342.526	78.69
342.754	83.69
342.981	70.69
343.209	81.69
343.437	95.69
343.665	91.69
343.893	91.69
344.12	106.69
344.348	78.69
344.576	82.69
344.804	77.69
345.031	76.69
345.259	98.69
345.487	94.69
345.714	78.69
345.942	79.69
346.17	84.69
346.397	84.69
346.625	92.69
346.853	80.69
347.08	73.69
347.308	82.69
347.535	90.69
347.763	79.69
347.99	93.69
348.218	86.69
348.445	80.69
348.673	84.69
348.9	84.69
349.128	87.69
349.355	61.69
349.583	92.69
349.81	70.69
350.037	76.69
350.265	84.69
350.492	78.69
350.72	79.69
350.947	103.69
351.174	86.69
351.402	85.69
351.629	84.69
351.856	89.69
352.083	87.69
352.311	79.69
352.538	97.69
352.765	83.69
352.992	81.69
353.22	88.69
353.447	69.69
353.674	78.69
353.901	82.69
354.128	100.69
354.355	86.69
354.583	82.69
354.81	83.69
355.037	92.69
355.264	95.69
355.491	101.69
355.718	68.69
355.945	90.69
356.172	83.69
356.399	79.69
356.626	81.69
356.853	70.69
357.08	93.69
357.307	84.69
357.534	92.69
357.761	87.69
357.988	87.69
358.215	88.69
358.441	84.69
358.668	70.69
358.895	78.69
359.122	84.69
359.349	84.69
359.576	89.69
359.802	72.69
360.029	78.69
360.256	78.69
360.483	85.69
360.709	92.69
360.936	89.69
361.163	82.69
361.39	94.69
361.616	87.69
361.843	84.69
362.07	102.69
362.296	92.69
362.523	106.69
362.749	110.69
362.976	108.69
363.203	124.69
363.429	95.69
363.656	101.69
363.882	98.69
364.109	120.69
364.335	128.69
364.562	135.69
364.788	112.69
365.015	94.69
365.241	90.69
365.468	88.69
365.694	83.69
365.92	94.69
366.147	73.69
366.373	91.69
366.599	82.69
366.826	76.69
367.052	81.69
367.278	86.69
367.505	87.69
367.731	77.69
367.957	77.69
368.184	91.69
368.41	77.69
368.636	86.69
368.862	75.69
369.089	85.69
369.315	95.69
369.541	82.69
369.767	90.69
369.993	90.69
370.219	87.69
370.445	80.69
370.672	98.69
370.898	95.69
371.124	93.69
371.35	69.69
371.576	83.69
371.802	101.69
372.028	91.69
372.254	93.69
372.48	85.69
372.706	90.69
372.932	82.69
373.158	84.69
373.384	105.69
373.61	108.69
373.835	120.69
374.061	104.69
374.287	88.69
374.513	88.69
374.739	102.69
374.965	99.69
375.191	79.69
375.416	83.69
375.642	82.69
375.868	85.69
376.094	78.69
376.319	82.69
376.545	82.69
376.771	79.69
376.997	94.69
377.222	88.69
377.448	92.69
377.674	91.69
377.899	72.69
378.125	78.69
378.35	75.69
378.576	94.69
378.802	76.69
379.027	78.69
379.253	96.69
379.478	86.69
379.704	85.69
379.929	85.69
380.155	69.69
380.38	83.69
380.606	85.69
380.831	79.69
381.057	99.69
381.282	80.69
381.507	80.69
381.733	83.69
381.958	78.69
382.184	100.69
382.409	94.69
382.634	95.69
382.86	98.69
383.085	80.69
383.31	84.69
383.535	89.69
383.761	104.69
383.986	92.69
384.211	85.69
384.436	97.69
384.662	82.69
384.887	95.69
385.112	85.69
385.337	91.69
385.562	70.69
385.787	93.69
386.013	96.69
386.238	107.69
386.463	91.69
386.688	108.69
386.913	88.69
387.138	102.69
387.363	89.69
387.588	101.69
387.813	99.69
388.038	63.69
388.263	90.69
388.488	86.69
388.713	94.69
388.938	92.69
389.163	81.69
389.387	98.69
389.612	79.69
389.837	89.69
390.062	82.69
390.287	83.69
390.512	75.69
390.736	93.69
390.961	86.69
391.186	108.69
391.411	71.69
391.636	80.69
391.86	91.69
392.085	91.69
392.31	101.69
392.534	108.69
392.759	138.69
392.984	212.69
393.208	433.69
393.433	640.69
393.658	476.69
393.882	199.69
394.107	141.69
394.331	129.69
394.556	143.69
394.78	96.69
395.005	99.69
395.229	101.69
395.454	95.69
395.678	104.69
395.903	138.69
396.127	140.69
396.352	190.69
396.576	268.69
396.801	456.69
397.025	509.69
397.249	253.69
397.474	153.69
397.698	98.69
397.922	93.69
398.147	94.69
398.371	94.69
398.595	94.69
398.82	96.69
399.044	87.69
399.268	80.69
399.492	84.69
399.717	87.69
399.941	84.69
400.165	100.69
400.389	82.69
400.613	86.69
400.837	92.69
401.062	92.69
401.286	90.69
401.51	71.69
401.734	68.69
401.958	88.69
402.182	91.69
402.406	90.69
402.63	91.69
402.854	88.69
403.078	88.69
403.302	92.69
403.526	81.69
403.75	101.69
403.974	95.69
404.198	86.69
404.422	91.69
404.645	88.69
404.869	95.69
405.093	80.69
405.317	85.69
405.541	80.69
405.765	79.69
405.988	84.69
406.212	80.69
406.436	79.69
406.66	78.69
406.883	91.69
407.107	90.69
407.331	95.69
407.555	99.69
407.778	134.69
408.002	147.69
408.226	88.69
408.449	80.69
408.673	63.69
408.896	78.69
409.12	94.69
409.344	101.69
409.567	101.69
409.791	118.69
410.014	108.69
410.238	100.69
410.461	84.69
410.685	84.69
410.908	79.69
411.132	88.69
411.355	99.69
411.578	83.69
411.802	89.69
412.025	83.69
412.249	80.69
412.472	96.69
412.695	72.69
412.919	84.69
413.142	94.69
413.365	85.69
413.589	90.69
413.812	82.69
414.035	89.69
414.258	82.69
414.482	78.69
414.705	87.69
414.928	84.69
415.151	91.69
415.374	69.69
415.597	61.69
415.821	86.69
416.044	77.69
416.267	93.69
416.49	80.69
416.713	73.69
416.936	84.69
417.159	88.69
417.382	78.69
417.605	76.69
417.828	78.69
418.051	85.69
418.274	78.69
418.497	87.69
418.72	89.69
418.943	66.69
419.166	89.69
419.389	89.69
419.611	82.69
419.834	83.69
420.057	88.69
420.28	75.69
420.503	90.69
420.726	86.69
420.948	94.69
421.171	109.69
421.394	115.69
421.617	122.69
421.839	132.69
422.062	128.69
422.285	170.69
422.507	350.69
422.73	577.69
422.953	492.69
423.175	226.69
423.398	142.69
423.621	119.69
423.843	91.69
424.066	103.69
424.288	93.69
424.511	94.69
424.733	103.69
424.956	90.69
425.178	80.69
425.401	87.69
425.623	77.69
425.846	78.69
426.068	87.69
426.291	90.69
426.513	87.69
426.735	86.69
426.958	79.69
427.18	98.69
427.402	94.69
427.625	91.69
427.847	92.69
428.069	101.69
428.292	144.69
428.514	151.69
428.736	128.69
428.958	151.69
429.181	155.69
429.403	100.69
429.625	103.69
429.847	145.69
430.069	195.69
430.292	229.69
430.514	215.69
430.736	150.69
430.958	162.69
431.18	90.69
431.402	101.69
431.624	111.69
431.846	145.69
432.068	164.69
432.29	110.69
432.512	86.69
432.734	95.69
432.956	82.69
433.178	86.69
433.4	85.69
433.622	100.69
433.844	77.69
434.066	85.69
434.287	83.69
434.509	95.69
434.731	78.69
434.953	83.69
435.175	98.69
435.397	97.69
435.618	92.69
435.84	79.69
436.062	91.69
436.284	82.69
436.505	79.69
436.727	72.69
436.949	81.69
437.17	89.69
437.392	93.69
437.614	83.69
437.835	80.69
438.057	79.69
438.278	90.69
438.5	94.69
438.721	83.69
438.943	78.69
439.165	86.69
439.386	87.69
439.608	76.69
439.829	71.69
440.05	79.69
440.272	70.69
440.493	91.69
440.715	76.69
440.936	95.69
441.158	98.69
441.379	95.69
441.6	94.69
441.822	80.69
442.043	71.69
442.264	110.69
442.486	143.69
442.707	200.69
442.928	140.69
443.149	119.69
443.371	197.69
443.592	318.69
443.813	270.69
444.034	128.69
444.255	82.69
444.476	77.69
444.698	94.69
444.919	107.69
445.14	194.69
445.361	234.69
445.582	385.69
445.803	318.69
446.024	124.69
446.245	90.69
446.466	78.69
446.687	99.69
446.908	86.69
447.129	91.69
447.35	88.69
447.571	78.69
447.792	82.69
448.013	78.69
448.234	84.69
448.455	82.69
448.675	77.69
448.896	95.69
449.117	83.69
449.338	71.69
449.559	92.69
449.779	74.69
450	66.69
450.221	79.69
450.442	81.69
450.662	67.69
450.883	76.69
451.104	84.69
451.324	82.69
451.545	98.69
451.766	76.69
451.986	78.69
452.207	95.69
452.428	84.69
452.648	104.69
452.869	104.69
453.089	93.69
453.31	84.69
453.53	81.69
453.751	82.69
453.971	93.69
454.192	91.69
454.412	78.69
454.633	62.69
454.853	93.69
455.073	78.69
455.294	84.69
455.514	87.69
455.734	89.69
455.955	77.69
456.175	94.69
456.395	70.69
456.616	80.69
456.836	86.69
457.056	87.69
457.276	80.69
457.497	86.69
457.717	83.69
457.937	120.69
458.157	147.69
458.377	131.69
458.598	131.69
458.818	145.69
459.038	94.69
459.258	82.69
459.478	84.69
459.698	79.69
459.918	81.69
460.138	81.69
460.358	88.69
460.578	98.69
460.798	125.69
461.018	110.69
461.238	90.69
461.458	87.69
461.678	86.69
461.898	76.69
462.118	80.69
462.338	100.69
462.558	68.69
462.777	79.69
462.997	84.69
463.217	91.69
463.437	74.69
463.657	77.69
463.876	82.69
464.096	82.69
464.316	71.69
464.536	90.69
464.755	88.69
464.975	83.69
465.195	78.69
465.414	91.69
465.634	71.69
465.854	80.69
466.073	77.69
466.293	85.69
466.512	82.69
466.732	87.69
466.951	85.69
467.171	83.69
467.391	69.69
467.61	80.69
467.829	75.69
468.049	95.69
468.268	86.69
468.488	90.69
468.707	88.69
468.927	80.69
469.146	95.69
469.365	87.69
469.585	76.69
469.804	84.69
470.023	86.69
470.243	75.69
470.462	79.69
470.681	80.69
470.901	82.69
471.12	89.69
471.339	88.69
471.558	75.69
471.777	85.69
471.997	80.69
472.216	90.69
472.435	97.69
472.654	74.69
472.873	77.69
473.092	91.69
473.311	86.69
473.53	78.69
473.749	91.69
473.968	86.69
474.187	87.69
474.406	87.69
474.625	91.69
474.844	72.69
475.063	82.69
475.282	79.69
475.501	83.69
475.72	78.69
475.939	75.69
476.158	78.69
476.377	92.69
476.596	86.69
476.814	81.69
477.033	87.69
477.252	71.69
477.471	80.69
477.69	90.69
477.908	87.69
478.127	85.69
478.346	102.69
478.564	90.69
478.783	79.69
479.002	82.69
479.22	78.69
479.439	63.69
479.658	78.69
479.876	92.69
480.095	86.69
480.313	78.69
480.532	90.69
480.751	82.69
480.969	72.69
481.188	89.69
481.406	79.69
481.624	100.69
481.843	88.69
482.061	87.69
482.28	68.69
482.498	94.69
482.717	96.69
482.935	85.69
483.153	100.69
483.372	97.69
483.59	101.69
483.808	79.69
484.027	88.69
484.245	91.69
484.463	97.69
484.681	98.69
484.9	106.69
485.118	87.69
485.336	69.69
485.554	96.69
485.772	87.69
485.99	94.69
486.209	93.69
486.427	78.69
486.645	91.69
486.863	90.69
487.081	76.69
487.299	96.69
487.517	93.69
487.735	130.69
487.953	210.69
488.171	164.69
488.389	114.69
488.607	78.69
488.825	87.69
489.043	82.69
489.261	87.69
489.479	94.69
489.696	73.69
489.914	90.69
490.132	73.69
490.35	87.69
490.568	87.69
490.786	101.69
491.003	85.69
491.221	79.69
491.439	81.69
491.657	82.69
491.874	98.69
492.092	84.69
492.31	94.69
492.527	96.69
492.745	89.69
492.963	88.69
493.18	83.69
493.398	92.69
493.615	101.69
493.833	71.69
494.05	78.69
494.268	87.69
494.485	86.69
494.703	89.69
494.92	73.69
495.138	92.69
495.355	79.69
495.573	111.69
495.79	82.69
496.008	79.69
496.225	84.69
496.442	80.69
496.66	96.69
496.877	79.69
497.094	100.69
497.312	89.69
497.529	71.69
497.746	87.69
497.963	91.69
498.181	74.69
498.398	108.69
498.615	95.69
498.832	87.69
499.049	87.69
499.267	93.69
499.484	99.69
499.701	92.69
499.918	85.69
500.135	86.69
500.352	86.69
500.569	81.69
500.786	94.69
501.003	83.69
501.22	90.69
501.437	72.69
501.654	80.69
501.871	85.69
502.088	81.69
502.305	79.69
502.522	93.69
502.739	91.69
502.956	77.69
503.172	86.69
503.389	88.69
503.606	97.69
503.823	99.69
504.04	110.69
504.256	174.69
504.473	151.69
504.69	102.69
504.907	93.69
505.123	94.69
505.34	92.69
505.557	99.69
505.773	92.69
505.99	70.69
506.207	82.69
506.423	88.69
506.64	80.69
506.856	87.69
507.073	79.69
507.289	98.69
507.506	106.69
507.722	82.69
507.939	70.69
508.155	84.69
508.372	94.69
508.588	88.69
508.805	72.69
509.021	92.69
509.238	106.69
509.454	74.69
509.67	76.69
509.887	80.69
510.103	86.69
510.319	87.69
510.536	85.69
510.752	90.69
510.968	78.69
511.184	74.69
511.401	89.69
511.617	80.69
511.833	97.69
512.049	84.69
512.265	94.69
512.481	88.69
512.698	82.69
512.914	99.69
513.13	89.69
513.346	77.69
513.562	94.69
513.778	84.69
513.994	78.69
514.21	91.69
514.426	82.69
514.642	93.69
514.858	90.69
515.074	81.69
515.29	82.69
515.506	89.69
515.721	78.69
515.937	101.69
516.153	82.69
516.369	74.69
516.585	83.69
516.801	85.69
517.016	94.69
517.232	88.69
517.448	96.69
517.664	72.69
517.879	89.69
518.095	86.69
