Data from CBS_3_HRD10591_00037.txt Node
Date: Mon Jan 19 14:05:57 EST 2026
User: Yrep
Spectrometer: HR+D1059
Trigger mode: 1
Integration Time (sec): 1.000000E-1
Scans to average: 1
Electric dark correction enabled: true
Nonlinearity correction enabled: false
Boxcar width: 0
XAxis mode: Wavelengths
Number of Pixels in Spectrum: 2048
>>>>>Begin Spectral Data<<<<<
223.165	-12.62
223.4	-12.62
223.635	-12.62
223.869	-12.62
224.104	-9.62
224.338	-16.62
224.573	-17.62
224.808	-2.62
225.042	-13.62
225.277	-6.62
225.511	-6.62
225.746	-5.62
225.98	9.38
226.215	18.38
226.449	13.38
226.683	32.38
226.918	8.38
227.152	22.38
227.387	28.38
227.621	35.38
227.856	29.38
228.09	47.38
228.324	59.38
228.559	66.38
228.793	50.38
229.027	55.38
229.262	63.38
229.496	80.38
229.73	65.38
229.964	85.38
230.199	73.38
230.433	90.38
230.667	74.38
230.901	82.38
231.136	84.38
231.37	87.38
231.604	75.38
231.838	78.38
232.072	64.38
232.306	87.38
232.541	88.38
232.775	78.38
233.009	73.38
233.243	85.38
233.477	86.38
233.711	59.38
233.945	77.38
234.179	80.38
234.413	87.38
234.647	91.38
234.881	82.38
235.115	64.38
235.349	74.38
235.583	69.38
235.817	71.38
236.051	82.38
236.285	73.38
236.519	69.38
236.753	92.38
236.987	73.38
237.221	74.38
237.455	77.38
237.689	69.38
237.922	79.38
238.156	71.38
238.39	70.38
238.624	86.38
238.858	79.38
239.091	79.38
239.325	74.38
239.559	65.38
239.793	63.38
240.027	56.38
240.26	74.38
240.494	74.38
240.728	86.38
240.961	71.38
241.195	77.38
241.429	70.38
241.662	62.38
241.896	78.38
242.13	60.38
242.363	71.38
242.597	76.38
242.83	61.38
243.064	81.38
243.298	65.38
243.531	72.38
243.765	71.38
243.998	76.38
244.232	74.38
244.465	61.38
244.699	81.38
244.932	72.38
245.166	79.38
245.399	93.38
245.633	77.38
245.866	77.38
246.099	65.38
246.333	68.38
246.566	74.38
246.8	65.38
247.033	71.38
247.266	77.38
247.5	69.38
247.733	74.38
247.966	69.38
248.2	73.38
248.433	61.38
248.666	72.38
248.899	73.38
249.133	75.38
249.366	83.38
249.599	77.38
249.832	75.38
250.066	71.38
250.299	80.38
250.532	70.38
250.765	67.38
250.998	81.38
251.231	72.38
251.465	72.38
251.698	69.38
251.931	95.38
252.164	79.38
252.397	73.38
252.63	82.38
252.863	78.38
253.096	80.38
253.329	72.38
253.562	75.38
253.795	83.38
254.028	69.38
254.261	73.38
254.494	83.38
254.727	81.38
254.96	79.38
255.193	70.38
255.426	76.38
255.659	75.38
255.892	81.38
256.124	68.38
256.357	65.38
256.59	66.38
256.823	75.38
257.056	77.38
257.289	59.38
257.521	77.38
257.754	93.38
257.987	90.38
258.22	80.38
258.452	69.38
258.685	74.38
258.918	71.38
259.151	69.38
259.383	84.38
259.616	80.38
259.849	64.38
260.081	67.38
260.314	72.38
260.547	80.38
260.779	87.38
261.012	66.38
261.244	72.38
261.477	88.38
261.71	81.38
261.942	81.38
262.175	80.38
262.407	78.38
262.64	88.38
262.872	71.38
263.105	78.38
263.337	81.38
263.57	77.38
263.802	69.38
264.035	72.38
264.267	77.38
264.499	83.38
264.732	96.38
264.964	87.38
265.197	81.38
265.429	77.38
265.661	69.38
265.894	81.38
266.126	72.38
266.358	83.38
266.591	86.38
266.823	67.38
267.055	96.38
267.287	82.38
267.52	86.38
267.752	74.38
267.984	81.38
268.216	77.38
268.448	84.38
268.681	80.38
268.913	90.38
269.145	99.38
269.377	82.38
269.609	85.38
269.841	78.38
270.073	77.38
270.306	77.38
270.538	76.38
270.77	67.38
271.002	84.38
271.234	76.38
271.466	70.38
271.698	83.38
271.93	77.38
272.162	71.38
272.394	91.38
272.626	88.38
272.858	77.38
273.09	78.38
273.322	78.38
273.553	87.38
273.785	88.38
274.017	88.38
274.249	78.38
274.481	63.38
274.713	81.38
274.945	76.38
275.176	68.38
275.408	76.38
275.64	72.38
275.872	77.38
276.104	63.38
276.335	76.38
276.567	78.38
276.799	81.38
277.031	85.38
277.262	94.38
277.494	85.38
277.726	88.38
277.957	84.38
278.189	77.38
278.421	78.38
278.652	89.38
278.884	74.38
279.115	81.38
279.347	79.38
279.579	81.38
279.81	97.38
280.042	83.38
280.273	77.38
280.505	80.38
280.736	84.38
280.968	86.38
281.199	75.38
281.431	83.38
281.662	82.38
281.894	83.38
282.125	79.38
282.356	76.38
282.588	77.38
282.819	85.38
283.051	76.38
283.282	79.38
283.513	79.38
283.745	72.38
283.976	85.38
284.207	77.38
284.439	73.38
284.67	81.38
284.901	93.38
285.132	95.38
285.364	86.38
285.595	78.38
285.826	80.38
286.057	87.38
286.288	80.38
286.52	86.38
286.751	93.38
286.982	85.38
287.213	77.38
287.444	83.38
287.675	86.38
287.906	89.38
288.138	96.38
288.369	80.38
288.6	82.38
288.831	87.38
289.062	88.38
289.293	81.38
289.524	79.38
289.755	80.38
289.986	94.38
290.217	95.38
290.448	92.38
290.679	79.38
290.91	86.38
291.141	77.38
291.371	69.38
291.602	92.38
291.833	79.38
292.064	93.38
292.295	77.38
292.526	78.38
292.757	74.38
292.987	84.38
293.218	80.38
293.449	86.38
293.68	84.38
293.91	88.38
294.141	70.38
294.372	80.38
294.603	83.38
294.833	92.38
295.064	82.38
295.295	88.38
295.525	74.38
295.756	90.38
295.987	73.38
296.217	80.38
296.448	84.38
296.679	71.38
296.909	82.38
297.14	80.38
297.37	83.38
297.601	73.38
297.831	83.38
298.062	91.38
298.292	66.38
298.523	94.38
298.753	81.38
298.984	70.38
299.214	91.38
299.445	69.38
299.675	73.38
299.905	77.38
300.136	72.38
300.366	77.38
300.597	69.38
300.827	82.38
301.057	86.38
301.288	83.38
301.518	88.38
301.748	87.38
301.979	102.38
302.209	72.38
302.439	92.38
302.669	70.38
302.9	81.38
303.13	75.38
303.36	79.38
303.59	78.38
303.82	76.38
304.051	77.38
304.281	81.38
304.511	81.38
304.741	83.38
304.971	79.38
305.201	80.38
305.431	82.38
305.661	75.38
305.891	74.38
306.121	73.38
306.352	69.38
306.582	78.38
306.812	91.38
307.042	81.38
307.272	79.38
307.502	80.38
307.731	75.38
307.961	99.38
308.191	88.38
308.421	72.38
308.651	77.38
308.881	81.38
309.111	75.38
309.341	77.38
309.571	69.38
309.8	76.38
310.03	73.38
310.26	69.38
310.49	79.38
310.72	87.38
310.949	92.38
311.179	79.38
311.409	95.38
311.639	88.38
311.868	76.38
312.098	68.38
312.328	91.38
312.557	77.38
312.787	86.38
313.017	91.38
313.246	85.38
313.476	75.38
313.706	74.38
313.935	86.38
314.165	87.38
314.394	80.38
314.624	73.38
314.853	79.38
315.083	73.38
315.312	74.38
315.542	83.38
315.771	68.38
316.001	73.38
316.23	82.38
316.46	60.38
316.689	75.38
316.919	72.38
317.148	84.38
317.377	97.38
317.607	78.38
317.836	92.38
318.065	71.38
318.295	92.38
318.524	97.38
318.753	77.38
318.983	77.38
319.212	84.38
319.441	89.38
319.67	80.38
319.9	82.38
320.129	88.38
320.358	87.38
320.587	80.38
320.816	89.38
321.046	78.38
321.275	81.38
321.504	72.38
321.733	77.38
321.962	98.38
322.191	91.38
322.42	81.38
322.649	73.38
322.878	84.38
323.108	95.38
323.337	82.38
323.566	99.38
323.795	84.38
324.024	88.38
324.253	73.38
324.482	83.38
324.71	88.38
324.939	87.38
325.168	85.38
325.397	72.38
325.626	87.38
325.855	95.38
326.084	72.38
326.313	72.38
326.542	74.38
326.77	79.38
326.999	74.38
327.228	88.38
327.457	93.38
327.686	96.38
327.914	88.38
328.143	85.38
328.372	80.38
328.6	71.38
328.829	84.38
329.058	79.38
329.287	82.38
329.515	85.38
329.744	79.38
329.972	70.38
330.201	94.38
330.43	77.38
330.658	79.38
330.887	68.38
331.115	76.38
331.344	92.38
331.572	81.38
331.801	84.38
332.03	85.38
332.258	80.38
332.486	74.38
332.715	83.38
332.943	60.38
333.172	78.38
333.4	80.38
333.629	83.38
333.857	73.38
334.085	86.38
334.314	90.38
334.542	79.38
334.771	78.38
334.999	86.38
335.227	80.38
335.455	78.38
335.684	94.38
335.912	88.38
336.14	84.38
336.369	84.38
336.597	84.38
336.825	73.38
337.053	79.38
337.281	77.38
337.51	87.38
337.738	86.38
337.966	61.38
338.194	87.38
338.422	95.38
338.65	85.38
338.878	77.38
339.106	66.38
339.334	85.38
339.562	94.38
339.79	82.38
340.018	87.38
340.246	93.38
340.474	93.38
340.702	89.38
340.93	89.38
341.158	77.38
341.386	87.38
341.614	83.38
341.842	88.38
342.07	79.38
342.298	82.38
342.526	92.38
342.754	67.38
342.981	74.38
343.209	79.38
343.437	102.38
343.665	76.38
343.893	95.38
344.12	93.38
344.348	89.38
344.576	72.38
344.804	102.38
345.031	75.38
345.259	83.38
345.487	86.38
345.714	83.38
345.942	83.38
346.17	77.38
346.397	80.38
346.625	88.38
346.853	72.38
347.08	79.38
347.308	72.38
347.535	81.38
347.763	62.38
347.99	80.38
348.218	85.38
348.445	90.38
348.673	80.38
348.9	88.38
349.128	77.38
349.355	80.38
349.583	77.38
349.81	79.38
350.037	77.38
350.265	71.38
350.492	87.38
350.72	75.38
350.947	73.38
351.174	98.38
351.402	68.38
351.629	83.38
351.856	87.38
352.083	68.38
352.311	72.38
352.538	83.38
352.765	79.38
352.992	79.38
353.22	81.38
353.447	76.38
353.674	96.38
353.901	80.38
354.128	83.38
354.355	93.38
354.583	80.38
354.81	71.38
355.037	75.38
355.264	72.38
355.491	69.38
355.718	69.38
355.945	72.38
356.172	71.38
356.399	75.38
356.626	83.38
356.853	90.38
357.08	84.38
357.307	76.38
357.534	76.38
357.761	79.38
357.988	73.38
358.215	80.38
358.441	89.38
358.668	91.38
358.895	80.38
359.122	82.38
359.349	98.38
359.576	75.38
359.802	92.38
360.029	79.38
360.256	83.38
360.483	78.38
360.709	74.38
360.936	93.38
361.163	94.38
361.39	71.38
361.616	71.38
361.843	80.38
362.07	74.38
362.296	85.38
362.523	83.38
362.749	81.38
362.976	95.38
363.203	81.38
363.429	71.38
363.656	83.38
363.882	95.38
364.109	86.38
364.335	83.38
364.562	89.38
364.788	103.38
365.015	80.38
365.241	97.38
365.468	82.38
365.694	73.38
365.92	73.38
366.147	93.38
366.373	90.38
366.599	79.38
366.826	85.38
367.052	73.38
367.278	86.38
367.505	83.38
367.731	79.38
367.957	77.38
368.184	80.38
368.41	89.38
368.636	78.38
368.862	76.38
369.089	86.38
369.315	79.38
369.541	87.38
369.767	89.38
369.993	69.38
370.219	63.38
370.445	82.38
370.672	75.38
370.898	77.38
371.124	93.38
371.35	71.38
371.576	84.38
371.802	78.38
372.028	85.38
372.254	70.38
372.48	78.38
372.706	93.38
372.932	88.38
373.158	87.38
373.384	91.38
373.61	77.38
373.835	87.38
374.061	66.38
374.287	79.38
374.513	74.38
374.739	79.38
374.965	72.38
375.191	88.38
375.416	83.38
375.642	79.38
375.868	83.38
376.094	72.38
376.319	83.38
376.545	71.38
376.771	82.38
376.997	74.38
377.222	71.38
377.448	61.38
377.674	80.38
377.899	69.38
378.125	78.38
378.35	77.38
378.576	92.38
378.802	72.38
379.027	69.38
379.253	84.38
379.478	80.38
379.704	88.38
379.929	81.38
380.155	88.38
380.38	72.38
380.606	80.38
380.831	75.38
381.057	91.38
381.282	73.38
381.507	92.38
381.733	80.38
381.958	70.38
382.184	90.38
382.409	67.38
382.634	83.38
382.86	72.38
383.085	85.38
383.31	87.38
383.535	69.38
383.761	96.38
383.986	75.38
384.211	84.38
384.436	71.38
384.662	85.38
384.887	85.38
385.112	87.38
385.337	89.38
385.562	88.38
385.787	89.38
386.013	84.38
386.238	77.38
386.463	72.38
386.688	103.38
386.913	83.38
387.138	84.38
387.363	86.38
387.588	87.38
387.813	69.38
388.038	78.38
388.263	77.38
388.488	84.38
388.713	81.38
388.938	85.38
389.163	88.38
389.387	87.38
389.612	60.38
389.837	94.38
390.062	83.38
390.287	69.38
390.512	72.38
390.736	76.38
390.961	83.38
391.186	88.38
391.411	81.38
391.636	88.38
391.86	79.38
392.085	70.38
392.31	83.38
392.534	81.38
392.759	82.38
392.984	97.38
393.208	130.38
393.433	159.38
393.658	143.38
393.882	101.38
394.107	84.38
394.331	80.38
394.556	87.38
394.78	83.38
395.005	92.38
395.229	91.38
395.454	102.38
395.678	73.38
395.903	107.38
396.127	107.38
396.352	93.38
396.576	104.38
396.801	140.38
397.025	133.38
397.249	99.38
397.474	80.38
397.698	96.38
397.922	85.38
398.147	83.38
398.371	84.38
398.595	82.38
398.82	72.38
399.044	75.38
399.268	75.38
399.492	73.38
399.717	79.38
399.941	82.38
400.165	87.38
400.389	77.38
400.613	94.38
400.837	83.38
401.062	79.38
401.286	93.38
401.51	91.38
401.734	83.38
401.958	86.38
402.182	79.38
402.406	72.38
402.63	75.38
402.854	69.38
403.078	69.38
403.302	81.38
403.526	89.38
403.75	82.38
403.974	84.38
404.198	85.38
404.422	91.38
404.645	85.38
404.869	74.38
405.093	73.38
405.317	85.38
405.541	81.38
405.765	73.38
405.988	69.38
406.212	82.38
406.436	75.38
406.66	85.38
406.883	98.38
407.107	87.38
407.331	81.38
407.555	89.38
407.778	86.38
408.002	92.38
408.226	85.38
408.449	68.38
408.673	89.38
408.896	69.38
409.12	72.38
409.344	86.38
409.567	65.38
409.791	81.38
410.014	84.38
410.238	68.38
410.461	84.38
410.685	74.38
410.908	93.38
411.132	77.38
411.355	83.38
411.578	95.38
411.802	80.38
412.025	75.38
412.249	74.38
412.472	80.38
412.695	84.38
412.919	72.38
413.142	89.38
413.365	84.38
413.589	75.38
413.812	73.38
414.035	84.38
414.258	91.38
414.482	79.38
414.705	79.38
414.928	82.38
415.151	93.38
415.374	88.38
415.597	69.38
415.821	78.38
416.044	67.38
416.267	85.38
416.49	78.38
416.713	63.38
416.936	78.38
417.159	74.38
417.382	86.38
417.605	70.38
417.828	73.38
418.051	89.38
418.274	91.38
418.497	69.38
418.72	81.38
418.943	93.38
419.166	80.38
419.389	97.38
419.611	77.38
419.834	85.38
420.057	69.38
420.28	89.38
420.503	79.38
420.726	81.38
420.948	93.38
421.171	79.38
421.394	99.38
421.617	83.38
421.839	97.38
422.062	87.38
422.285	91.38
422.507	147.38
422.73	189.38
422.953	168.38
423.175	111.38
423.398	97.38
423.621	84.38
423.843	69.38
424.066	78.38
424.288	97.38
424.511	69.38
424.733	78.38
424.956	99.38
425.178	77.38
425.401	87.38
425.623	64.38
425.846	77.38
426.068	80.38
426.291	79.38
426.513	87.38
426.735	90.38
426.958	78.38
427.18	85.38
427.402	83.38
427.625	84.38
427.847	79.38
428.069	85.38
428.292	86.38
428.514	109.38
428.736	91.38
428.958	94.38
429.181	79.38
429.403	93.38
429.625	72.38
429.847	95.38
430.069	107.38
430.292	107.38
430.514	93.38
430.736	86.38
430.958	90.38
431.18	71.38
431.402	83.38
431.624	87.38
431.846	91.38
432.068	83.38
432.29	79.38
432.512	85.38
432.734	69.38
432.956	67.38
433.178	88.38
433.4	89.38
433.622	78.38
433.844	88.38
434.066	87.38
434.287	76.38
434.509	78.38
434.731	69.38
434.953	81.38
435.175	92.38
435.397	80.38
435.618	88.38
435.84	88.38
436.062	76.38
436.284	79.38
436.505	75.38
436.727	84.38
436.949	78.38
437.17	87.38
437.392	82.38
437.614	79.38
437.835	82.38
438.057	73.38
438.278	72.38
438.5	76.38
438.721	84.38
438.943	73.38
439.165	74.38
439.386	67.38
439.608	91.38
439.829	92.38
440.05	67.38
440.272	77.38
440.493	78.38
440.715	72.38
440.936	81.38
441.158	68.38
441.379	75.38
441.6	71.38
441.822	76.38
442.043	86.38
442.264	100.38
442.486	88.38
442.707	115.38
442.928	93.38
443.149	101.38
443.371	92.38
443.592	116.38
443.813	115.38
444.034	86.38
444.255	90.38
444.476	84.38
444.698	71.38
444.919	73.38
445.14	174.38
445.361	137.38
445.582	149.38
445.803	136.38
446.024	93.38
446.245	91.38
446.466	64.38
446.687	79.38
446.908	77.38
447.129	99.38
447.35	95.38
447.571	58.38
447.792	81.38
448.013	78.38
448.234	84.38
448.455	83.38
448.675	74.38
448.896	77.38
449.117	83.38
449.338	68.38
449.559	79.38
449.779	83.38
450	73.38
450.221	70.38
450.442	81.38
450.662	99.38
450.883	81.38
451.104	85.38
451.324	86.38
451.545	65.38
451.766	85.38
451.986	79.38
452.207	84.38
452.428	71.38
452.648	78.38
452.869	77.38
453.089	81.38
453.31	85.38
453.53	93.38
453.751	83.38
453.971	79.38
454.192	72.38
454.412	82.38
454.633	84.38
454.853	81.38
455.073	70.38
455.294	79.38
455.514	99.38
455.734	92.38
455.955	79.38
456.175	88.38
456.395	68.38
456.616	77.38
456.836	83.38
457.056	78.38
457.276	74.38
457.497	68.38
457.717	92.38
457.937	93.38
458.157	89.38
458.377	81.38
458.598	96.38
458.818	108.38
459.038	81.38
459.258	74.38
459.478	85.38
459.698	82.38
459.918	78.38
460.138	81.38
460.358	86.38
460.578	77.38
460.798	96.38
461.018	83.38
461.238	88.38
461.458	96.38
461.678	82.38
461.898	81.38
462.118	87.38
462.338	74.38
462.558	81.38
462.777	84.38
462.997	81.38
463.217	66.38
463.437	64.38
463.657	83.38
463.876	83.38
464.096	73.38
464.316	69.38
464.536	81.38
464.755	69.38
464.975	85.38
465.195	81.38
465.414	76.38
465.634	78.38
465.854	82.38
466.073	86.38
466.293	75.38
466.512	96.38
466.732	73.38
466.951	74.38
467.171	74.38
467.391	70.38
467.61	73.38
467.829	81.38
468.049	76.38
468.268	84.38
468.488	73.38
468.707	93.38
468.927	83.38
469.146	86.38
469.365	73.38
469.585	80.38
469.804	92.38
470.023	86.38
470.243	69.38
470.462	85.38
470.681	87.38
470.901	88.38
471.12	77.38
471.339	80.38
471.558	79.38
471.777	74.38
471.997	84.38
472.216	72.38
472.435	87.38
472.654	79.38
472.873	99.38
473.092	73.38
473.311	74.38
473.53	72.38
473.749	74.38
473.968	77.38
474.187	89.38
474.406	79.38
474.625	82.38
474.844	85.38
475.063	83.38
475.282	80.38
475.501	81.38
475.72	89.38
475.939	70.38
476.158	82.38
476.377	69.38
476.596	88.38
476.814	73.38
477.033	85.38
477.252	83.38
477.471	81.38
477.69	72.38
477.908	74.38
478.127	77.38
478.346	82.38
478.564	89.38
478.783	81.38
479.002	80.38
479.22	84.38
479.439	63.38
479.658	79.38
479.876	76.38
480.095	90.38
480.313	77.38
480.532	83.38
480.751	88.38
480.969	67.38
481.188	59.38
481.406	88.38
481.624	77.38
481.843	83.38
482.061	77.38
482.28	68.38
482.498	72.38
482.717	75.38
482.935	69.38
483.153	80.38
483.372	81.38
483.59	72.38
483.808	88.38
484.027	89.38
484.245	85.38
484.463	72.38
484.681	81.38
484.9	71.38
485.118	95.38
485.336	80.38
485.554	80.38
485.772	76.38
485.99	79.38
486.209	79.38
486.427	78.38
486.645	90.38
486.863	94.38
487.081	81.38
487.299	84.38
487.517	80.38
487.735	96.38
487.953	109.38
488.171	89.38
488.389	75.38
488.607	67.38
488.825	72.38
489.043	77.38
489.261	83.38
489.479	88.38
489.696	77.38
489.914	71.38
490.132	77.38
490.35	89.38
490.568	84.38
490.786	81.38
491.003	93.38
491.221	83.38
491.439	65.38
491.657	75.38
491.874	73.38
492.092	83.38
492.31	93.38
492.527	90.38
492.745	84.38
492.963	80.38
493.18	81.38
493.398	59.38
493.615	75.38
493.833	80.38
494.05	79.38
494.268	84.38
494.485	92.38
494.703	73.38
494.92	88.38
495.138	75.38
495.355	82.38
495.573	83.38
495.79	76.38
496.008	65.38
496.225	75.38
496.442	87.38
496.66	93.38
496.877	81.38
497.094	91.38
497.312	71.38
497.529	71.38
497.746	90.38
497.963	86.38
498.181	74.38
498.398	88.38
498.615	87.38
498.832	95.38
499.049	81.38
499.267	81.38
499.484	87.38
499.701	86.38
499.918	72.38
500.135	83.38
500.352	55.38
500.569	89.38
500.786	91.38
501.003	85.38
501.22	80.38
501.437	84.38
501.654	88.38
501.871	68.38
502.088	76.38
502.305	69.38
502.522	77.38
502.739	88.38
502.956	92.38
503.172	80.38
503.389	82.38
503.606	74.38
503.823	72.38
504.04	85.38
504.256	95.38
504.473	85.38
504.69	90.38
504.907	77.38
505.123	75.38
505.34	86.38
505.557	92.38
505.773	70.38
505.99	93.38
506.207	75.38
506.423	74.38
506.64	85.38
506.856	91.38
507.073	87.38
507.289	86.38
507.506	73.38
507.722	71.38
507.939	79.38
508.155	86.38
508.372	91.38
508.588	94.38
508.805	86.38
509.021	89.38
509.238	72.38
509.454	67.38
509.67	86.38
509.887	71.38
510.103	89.38
510.319	70.38
510.536	83.38
510.752	87.38
510.968	84.38
511.184	82.38
511.401	73.38
511.617	89.38
511.833	80.38
512.049	77.38
512.265	88.38
512.481	85.38
512.698	85.38
512.914	85.38
513.13	86.38
513.346	93.38
513.562	76.38
513.778	84.38
513.994	82.38
514.21	77.38
514.426	92.38
514.642	82.38
514.858	90.38
515.074	82.38
515.29	82.38
515.506	73.38
515.721	79.38
515.937	93.38
516.153	80.38
516.369	79.38
516.585	79.38
516.801	87.38
517.016	77.38
517.232	77.38
517.448	74.38
517.664	78.38
517.879	72.38
518.095	82.38
518.311	85.38
518.527	96.38
518.742	100.38
518.958	111.38
519.173	104.38
519.389	90.38
519.605	70.38
519.82	77.38
