Data from CBS_3_HRD10591_00017.txt Node
Date: Mon Jan 19 14:05:47 EST 2026
User: Yrep
Spectrometer: HR+D1059
Trigger mode: 1
Integration Time (sec): 1.000000E-1
Scans to average: 1
Electric dark correction enabled: true
Nonlinearity correction enabled: false
Boxcar width: 0
XAxis mode: Wavelengths
Number of Pixels in Spectrum: 2048
>>>>>Begin Spectral Data<<<<<
223.165	-7.56
223.4	-7.56
223.635	-7.56
223.869	-14.56
224.104	-2.56
224.338	-26.56
224.573	-17.56
224.808	-27.56
225.042	-4.56
225.277	3.44
225.511	-9.56
225.746	13.44
225.98	5.44
226.215	7.44
226.449	8.44
226.683	11.44
226.918	25.44
227.152	35.44
227.387	41.44
227.621	52.44
227.856	39.44
228.09	56.44
228.324	60.44
228.559	46.44
228.793	68.44
229.027	65.44
229.262	65.44
229.496	74.44
229.73	72.44
229.964	84.44
230.199	85.44
230.433	80.44
230.667	72.44
230.901	62.44
231.136	76.44
231.37	96.44
231.604	75.44
231.838	77.44
232.072	80.44
232.306	94.44
232.541	89.44
232.775	86.44
233.009	83.44
233.243	89.44
233.477	77.44
233.711	86.44
233.945	76.44
234.179	86.44
234.413	83.44
234.647	75.44
234.881	82.44
235.115	78.44
235.349	80.44
235.583	66.44
235.817	73.44
236.051	80.44
236.285	70.44
236.519	68.44
236.753	69.44
236.987	71.44
237.221	77.44
237.455	80.44
237.689	82.44
237.922	81.44
238.156	70.44
238.39	76.44
238.624	82.44
238.858	83.44
239.091	76.44
239.325	77.44
239.559	71.44
239.793	78.44
240.027	88.44
240.26	82.44
240.494	79.44
240.728	92.44
240.961	75.44
241.195	62.44
241.429	80.44
241.662	68.44
241.896	65.44
242.13	80.44
242.363	79.44
242.597	84.44
242.83	85.44
243.064	81.44
243.298	82.44
243.531	76.44
243.765	79.44
243.998	69.44
244.232	88.44
244.465	84.44
244.699	79.44
244.932	69.44
245.166	70.44
245.399	78.44
245.633	75.44
245.866	71.44
246.099	72.44
246.333	70.44
246.566	85.44
246.8	78.44
247.033	62.44
247.266	73.44
247.5	76.44
247.733	73.44
247.966	74.44
248.2	66.44
248.433	57.44
248.666	81.44
248.899	71.44
249.133	86.44
249.366	78.44
249.599	92.44
249.832	64.44
250.066	80.44
250.299	79.44
250.532	78.44
250.765	74.44
250.998	67.44
251.231	74.44
251.465	79.44
251.698	75.44
251.931	90.44
252.164	88.44
252.397	73.44
252.63	67.44
252.863	65.44
253.096	90.44
253.329	83.44
253.562	82.44
253.795	88.44
254.028	76.44
254.261	85.44
254.494	72.44
254.727	72.44
254.96	72.44
255.193	85.44
255.426	70.44
255.659	84.44
255.892	90.44
256.124	84.44
256.357	64.44
256.59	80.44
256.823	69.44
257.056	80.44
257.289	92.44
257.521	87.44
257.754	66.44
257.987	74.44
258.22	74.44
258.452	77.44
258.685	80.44
258.918	72.44
259.151	72.44
259.383	89.44
259.616	75.44
259.849	79.44
260.081	84.44
260.314	84.44
260.547	74.44
260.779	81.44
261.012	78.44
261.244	80.44
261.477	84.44
261.71	77.44
261.942	78.44
262.175	80.44
262.407	85.44
262.64	80.44
262.872	63.44
263.105	74.44
263.337	73.44
263.57	97.44
263.802	74.44
264.035	74.44
264.267	87.44
264.499	72.44
264.732	71.44
264.964	88.44
265.197	71.44
265.429	79.44
265.661	94.44
265.894	91.44
266.126	73.44
266.358	84.44
266.591	84.44
266.823	80.44
267.055	78.44
267.287	79.44
267.52	70.44
267.752	86.44
267.984	68.44
268.216	83.44
268.448	78.44
268.681	98.44
268.913	75.44
269.145	69.44
269.377	82.44
269.609	73.44
269.841	90.44
270.073	89.44
270.306	85.44
270.538	85.44
270.77	67.44
271.002	94.44
271.234	93.44
271.466	80.44
271.698	78.44
271.93	82.44
272.162	85.44
272.394	90.44
272.626	87.44
272.858	81.44
273.09	74.44
273.322	87.44
273.553	84.44
273.785	83.44
274.017	83.44
274.249	82.44
274.481	80.44
274.713	87.44
274.945	91.44
275.176	81.44
275.408	86.44
275.64	78.44
275.872	78.44
276.104	92.44
276.335	81.44
276.567	93.44
276.799	79.44
277.031	73.44
277.262	91.44
277.494	86.44
277.726	80.44
277.957	92.44
278.189	86.44
278.421	94.44
278.652	81.44
278.884	83.44
279.115	90.44
279.347	87.44
279.579	84.44
279.81	72.44
280.042	79.44
280.273	81.44
280.505	76.44
280.736	84.44
280.968	93.44
281.199	80.44
281.431	82.44
281.662	85.44
281.894	71.44
282.125	69.44
282.356	79.44
282.588	84.44
282.819	92.44
283.051	83.44
283.282	84.44
283.513	95.44
283.745	97.44
283.976	86.44
284.207	84.44
284.439	88.44
284.67	88.44
284.901	89.44
285.132	80.44
285.364	102.44
285.595	97.44
285.826	86.44
286.057	88.44
286.288	82.44
286.52	85.44
286.751	70.44
286.982	96.44
287.213	89.44
287.444	86.44
287.675	90.44
287.906	93.44
288.138	86.44
288.369	92.44
288.6	67.44
288.831	86.44
289.062	92.44
289.293	70.44
289.524	84.44
289.755	80.44
289.986	74.44
290.217	67.44
290.448	89.44
290.679	93.44
290.91	88.44
291.141	66.44
291.371	89.44
291.602	94.44
291.833	72.44
292.064	82.44
292.295	86.44
292.526	70.44
292.757	74.44
292.987	67.44
293.218	92.44
293.449	79.44
293.68	84.44
293.91	77.44
294.141	82.44
294.372	77.44
294.603	84.44
294.833	84.44
295.064	83.44
295.295	70.44
295.525	80.44
295.756	78.44
295.987	84.44
296.217	80.44
296.448	95.44
296.679	88.44
296.909	81.44
297.14	86.44
297.37	89.44
297.601	92.44
297.831	83.44
298.062	83.44
298.292	101.44
298.523	88.44
298.753	90.44
298.984	86.44
299.214	77.44
299.445	91.44
299.675	98.44
299.905	90.44
300.136	90.44
300.366	93.44
300.597	86.44
300.827	93.44
301.057	91.44
301.288	80.44
301.518	87.44
301.748	87.44
301.979	96.44
302.209	90.44
302.439	84.44
302.669	76.44
302.9	88.44
303.13	67.44
303.36	86.44
303.59	92.44
303.82	86.44
304.051	92.44
304.281	90.44
304.511	77.44
304.741	85.44
304.971	96.44
305.201	84.44
305.431	86.44
305.661	88.44
305.891	85.44
306.121	86.44
306.352	84.44
306.582	80.44
306.812	85.44
307.042	80.44
307.272	80.44
307.502	74.44
307.731	82.44
307.961	95.44
308.191	89.44
308.421	92.44
308.651	100.44
308.881	81.44
309.111	103.44
309.341	109.44
309.571	86.44
309.8	96.44
310.03	72.44
310.26	95.44
310.49	88.44
310.72	83.44
310.949	88.44
311.179	85.44
311.409	89.44
311.639	78.44
311.868	83.44
312.098	82.44
312.328	71.44
312.557	78.44
312.787	86.44
313.017	93.44
313.246	80.44
313.476	88.44
313.706	85.44
313.935	86.44
314.165	97.44
314.394	77.44
314.624	72.44
314.853	79.44
315.083	97.44
315.312	92.44
315.542	92.44
315.771	90.44
316.001	109.44
316.23	98.44
316.46	88.44
316.689	93.44
316.919	80.44
317.148	80.44
317.377	101.44
317.607	101.44
317.836	118.44
318.065	112.44
318.295	110.44
318.524	99.44
318.753	90.44
318.983	79.44
319.212	93.44
319.441	73.44
319.67	78.44
319.9	80.44
320.129	75.44
320.358	81.44
320.587	84.44
320.816	96.44
321.046	80.44
321.275	94.44
321.504	89.44
321.733	89.44
321.962	77.44
322.191	84.44
322.42	87.44
322.649	89.44
322.878	89.44
323.108	76.44
323.337	70.44
323.566	85.44
323.795	98.44
324.024	96.44
324.253	90.44
324.482	96.44
324.71	94.44
324.939	78.44
325.168	74.44
325.397	78.44
325.626	70.44
325.855	83.44
326.084	71.44
326.313	95.44
326.542	74.44
326.77	89.44
326.999	89.44
327.228	88.44
327.457	86.44
327.686	100.44
327.914	85.44
328.143	73.44
328.372	86.44
328.6	86.44
328.829	85.44
329.058	88.44
329.287	87.44
329.515	87.44
329.744	83.44
329.972	96.44
330.201	73.44
330.43	97.44
330.658	81.44
330.887	92.44
331.115	88.44
331.344	87.44
331.572	95.44
331.801	87.44
332.03	68.44
332.258	91.44
332.486	89.44
332.715	84.44
332.943	83.44
333.172	87.44
333.4	94.44
333.629	77.44
333.857	74.44
334.085	85.44
334.314	86.44
334.542	89.44
334.771	96.44
334.999	96.44
335.227	96.44
335.455	87.44
335.684	100.44
335.912	93.44
336.14	104.44
336.369	111.44
336.597	76.44
336.825	106.44
337.053	76.44
337.281	82.44
337.51	82.44
337.738	95.44
337.966	79.44
338.194	84.44
338.422	89.44
338.65	92.44
338.878	81.44
339.106	93.44
339.334	87.44
339.562	89.44
339.79	75.44
340.018	79.44
340.246	87.44
340.474	83.44
340.702	88.44
340.93	81.44
341.158	72.44
341.386	78.44
341.614	81.44
341.842	78.44
342.07	80.44
342.298	93.44
342.526	70.44
342.754	84.44
342.981	87.44
343.209	80.44
343.437	106.44
343.665	90.44
343.893	100.44
344.12	82.44
344.348	89.44
344.576	81.44
344.804	90.44
345.031	86.44
345.259	81.44
345.487	87.44
345.714	85.44
345.942	89.44
346.17	80.44
346.397	94.44
346.625	88.44
346.853	88.44
347.08	78.44
347.308	74.44
347.535	90.44
347.763	85.44
347.99	100.44
348.218	91.44
348.445	78.44
348.673	71.44
348.9	70.44
349.128	86.44
349.355	84.44
349.583	89.44
349.81	85.44
350.037	90.44
350.265	86.44
350.492	85.44
350.72	85.44
350.947	84.44
351.174	86.44
351.402	77.44
351.629	71.44
351.856	87.44
352.083	92.44
352.311	86.44
352.538	73.44
352.765	80.44
352.992	82.44
353.22	98.44
353.447	84.44
353.674	83.44
353.901	99.44
354.128	90.44
354.355	83.44
354.583	95.44
354.81	95.44
355.037	69.44
355.264	101.44
355.491	81.44
355.718	86.44
355.945	92.44
356.172	84.44
356.399	86.44
356.626	95.44
356.853	88.44
357.08	88.44
357.307	85.44
357.534	78.44
357.761	102.44
357.988	81.44
358.215	106.44
358.441	86.44
358.668	78.44
358.895	98.44
359.122	69.44
359.349	82.44
359.576	92.44
359.802	80.44
360.029	97.44
360.256	85.44
360.483	83.44
360.709	80.44
360.936	96.44
361.163	77.44
361.39	65.44
361.616	80.44
361.843	82.44
362.07	96.44
362.296	98.44
362.523	112.44
362.749	100.44
362.976	118.44
363.203	128.44
363.429	119.44
363.656	88.44
363.882	97.44
364.109	111.44
364.335	160.44
364.562	159.44
364.788	137.44
365.015	95.44
365.241	88.44
365.468	89.44
365.694	91.44
365.92	94.44
366.147	98.44
366.373	80.44
366.599	93.44
366.826	90.44
367.052	83.44
367.278	72.44
367.505	87.44
367.731	95.44
367.957	98.44
368.184	80.44
368.41	82.44
368.636	79.44
368.862	86.44
369.089	88.44
369.315	92.44
369.541	88.44
369.767	85.44
369.993	94.44
370.219	89.44
370.445	108.44
370.672	95.44
370.898	101.44
371.124	91.44
371.35	71.44
371.576	82.44
371.802	78.44
372.028	80.44
372.254	79.44
372.48	95.44
372.706	84.44
372.932	92.44
373.158	87.44
373.384	103.44
373.61	117.44
373.835	126.44
374.061	114.44
374.287	89.44
374.513	88.44
374.739	66.44
374.965	96.44
375.191	84.44
375.416	80.44
375.642	96.44
375.868	80.44
376.094	89.44
376.319	81.44
376.545	89.44
376.771	80.44
376.997	96.44
377.222	80.44
377.448	88.44
377.674	97.44
377.899	80.44
378.125	83.44
378.35	83.44
378.576	91.44
378.802	80.44
379.027	102.44
379.253	93.44
379.478	96.44
379.704	89.44
379.929	82.44
380.155	69.44
380.38	102.44
380.606	93.44
380.831	88.44
381.057	97.44
381.282	103.44
381.507	81.44
381.733	98.44
381.958	104.44
382.184	101.44
382.409	95.44
382.634	94.44
382.86	103.44
383.085	80.44
383.31	97.44
383.535	96.44
383.761	98.44
383.986	98.44
384.211	89.44
384.436	98.44
384.662	88.44
384.887	98.44
385.112	110.44
385.337	100.44
385.562	101.44
385.787	104.44
386.013	110.44
386.238	91.44
386.463	89.44
386.688	108.44
386.913	92.44
387.138	99.44
387.363	108.44
387.588	101.44
387.813	94.44
388.038	108.44
388.263	91.44
388.488	92.44
388.713	91.44
388.938	78.44
389.163	85.44
389.387	89.44
389.612	89.44
389.837	93.44
390.062	95.44
390.287	97.44
390.512	91.44
390.736	92.44
390.961	97.44
391.186	93.44
391.411	93.44
391.636	90.44
391.86	87.44
392.085	114.44
392.31	110.44
392.534	112.44
392.759	151.44
392.984	232.44
393.208	480.44
393.433	709.44
393.658	533.44
393.882	219.44
394.107	125.44
394.331	127.44
394.556	144.44
394.78	124.44
395.005	105.44
395.229	112.44
395.454	112.44
395.678	132.44
395.903	129.44
396.127	173.44
396.352	202.44
396.576	270.44
396.801	475.44
397.025	545.44
397.249	268.44
397.474	147.44
397.698	121.44
397.922	97.44
398.147	88.44
398.371	83.44
398.595	80.44
398.82	89.44
399.044	90.44
399.268	81.44
399.492	91.44
399.717	97.44
399.941	89.44
400.165	78.44
400.389	94.44
400.613	85.44
400.837	76.44
401.062	86.44
401.286	91.44
401.51	79.44
401.734	81.44
401.958	93.44
402.182	86.44
402.406	72.44
402.63	76.44
402.854	88.44
403.078	95.44
403.302	103.44
403.526	96.44
403.75	90.44
403.974	86.44
404.198	93.44
404.422	99.44
404.645	93.44
404.869	92.44
405.093	88.44
405.317	87.44
405.541	86.44
405.765	90.44
405.988	83.44
406.212	75.44
406.436	98.44
406.66	95.44
406.883	81.44
407.107	78.44
407.331	87.44
407.555	110.44
407.778	129.44
408.002	136.44
408.226	91.44
408.449	98.44
408.673	98.44
408.896	87.44
409.12	91.44
409.344	112.44
409.567	101.44
409.791	106.44
410.014	113.44
410.238	102.44
410.461	81.44
410.685	80.44
410.908	94.44
411.132	103.44
411.355	78.44
411.578	88.44
411.802	92.44
412.025	78.44
412.249	84.44
412.472	81.44
412.695	81.44
412.919	99.44
413.142	100.44
413.365	102.44
413.589	92.44
413.812	77.44
414.035	95.44
414.258	84.44
414.482	96.44
414.705	87.44
414.928	104.44
415.151	88.44
415.374	101.44
415.597	98.44
415.821	96.44
416.044	77.44
416.267	88.44
416.49	90.44
416.713	85.44
416.936	92.44
417.159	84.44
417.382	82.44
417.605	93.44
417.828	86.44
418.051	86.44
418.274	84.44
418.497	84.44
418.72	88.44
418.943	95.44
419.166	82.44
419.389	104.44
419.611	92.44
419.834	90.44
420.057	90.44
420.28	86.44
420.503	88.44
420.726	83.44
420.948	73.44
421.171	106.44
421.394	99.44
421.617	167.44
421.839	164.44
422.062	152.44
422.285	201.44
422.507	386.44
422.73	641.44
422.953	552.44
423.175	264.44
423.398	144.44
423.621	112.44
423.843	110.44
424.066	105.44
424.288	116.44
424.511	87.44
424.733	92.44
424.956	74.44
425.178	91.44
425.401	90.44
425.623	82.44
425.846	92.44
426.068	102.44
426.291	81.44
426.513	98.44
426.735	77.44
426.958	86.44
427.18	86.44
427.402	94.44
427.625	103.44
427.847	85.44
428.069	96.44
428.292	166.44
428.514	186.44
428.736	135.44
428.958	163.44
429.181	173.44
429.403	114.44
429.625	128.44
429.847	161.44
430.069	227.44
430.292	243.44
430.514	227.44
430.736	182.44
430.958	188.44
431.18	110.44
431.402	105.44
431.624	98.44
431.846	154.44
432.068	180.44
432.29	102.44
432.512	90.44
432.734	97.44
432.956	90.44
433.178	89.44
433.4	90.44
433.622	76.44
433.844	93.44
434.066	92.44
434.287	91.44
434.509	93.44
434.731	96.44
434.953	75.44
435.175	74.44
435.397	86.44
435.618	95.44
435.84	94.44
436.062	96.44
436.284	80.44
436.505	79.44
436.727	71.44
436.949	80.44
437.17	87.44
437.392	84.44
437.614	81.44
437.835	97.44
438.057	75.44
438.278	75.44
438.5	91.44
438.721	93.44
438.943	96.44
439.165	93.44
439.386	92.44
439.608	92.44
439.829	85.44
440.05	95.44
440.272	116.44
440.493	94.44
440.715	68.44
440.936	90.44
441.158	84.44
441.379	92.44
441.6	94.44
441.822	85.44
442.043	102.44
442.264	118.44
442.486	175.44
442.707	235.44
442.928	151.44
443.149	137.44
443.371	199.44
443.592	365.44
443.813	334.44
444.034	134.44
444.255	101.44
444.476	94.44
444.698	100.44
444.919	90.44
445.14	216.44
445.361	262.44
445.582	432.44
445.803	380.44
446.024	141.44
446.245	114.44
446.466	101.44
446.687	98.44
446.908	96.44
447.129	92.44
447.35	92.44
447.571	100.44
447.792	97.44
448.013	91.44
448.234	88.44
448.455	94.44
448.675	90.44
448.896	80.44
449.117	76.44
449.338	72.44
449.559	78.44
449.779	80.44
450	83.44
450.221	75.44
450.442	89.44
450.662	82.44
450.883	76.44
451.104	90.44
451.324	76.44
451.545	89.44
451.766	89.44
451.986	75.44
452.207	94.44
452.428	92.44
452.648	87.44
452.869	100.44
453.089	85.44
453.31	96.44
453.53	89.44
453.751	88.44
453.971	103.44
454.192	78.44
454.412	82.44
454.633	83.44
454.853	85.44
455.073	80.44
455.294	96.44
455.514	90.44
455.734	82.44
455.955	93.44
456.175	81.44
456.395	77.44
456.616	74.44
456.836	86.44
457.056	88.44
457.276	92.44
457.497	94.44
457.717	92.44
457.937	106.44
458.157	151.44
458.377	139.44
458.598	147.44
458.818	155.44
459.038	105.44
459.258	96.44
459.478	87.44
459.698	88.44
459.918	95.44
460.138	90.44
460.358	86.44
460.578	95.44
460.798	137.44
461.018	128.44
461.238	100.44
461.458	94.44
461.678	81.44
461.898	88.44
462.118	95.44
462.338	76.44
462.558	74.44
462.777	89.44
462.997	80.44
463.217	94.44
463.437	79.44
463.657	86.44
463.876	92.44
464.096	95.44
464.316	84.44
464.536	81.44
464.755	81.44
464.975	82.44
465.195	100.44
465.414	92.44
465.634	88.44
465.854	70.44
466.073	95.44
466.293	100.44
466.512	79.44
466.732	79.44
466.951	89.44
467.171	80.44
467.391	73.44
467.61	85.44
467.829	98.44
468.049	98.44
468.268	85.44
468.488	89.44
468.707	100.44
468.927	104.44
469.146	83.44
469.365	88.44
469.585	80.44
469.804	82.44
470.023	74.44
470.243	71.44
470.462	80.44
470.681	87.44
470.901	78.44
471.12	75.44
471.339	101.44
471.558	92.44
471.777	88.44
471.997	89.44
472.216	92.44
472.435	71.44
472.654	72.44
472.873	93.44
473.092	89.44
473.311	86.44
473.53	80.44
473.749	87.44
473.968	95.44
474.187	81.44
474.406	78.44
474.625	80.44
474.844	76.44
475.063	84.44
475.282	70.44
475.501	78.44
475.72	94.44
475.939	73.44
476.158	75.44
476.377	88.44
476.596	93.44
476.814	96.44
477.033	90.44
477.252	99.44
477.471	82.44
477.69	90.44
477.908	84.44
478.127	84.44
478.346	66.44
478.564	78.44
478.783	84.44
479.002	89.44
479.22	97.44
479.439	80.44
479.658	93.44
479.876	101.44
480.095	82.44
480.313	83.44
480.532	100.44
480.751	92.44
480.969	76.44
481.188	88.44
481.406	100.44
481.624	88.44
481.843	83.44
482.061	81.44
482.28	80.44
482.498	95.44
482.717	87.44
482.935	88.44
483.153	93.44
483.372	86.44
483.59	87.44
483.808	112.44
484.027	76.44
484.245	83.44
484.463	94.44
484.681	86.44
484.9	103.44
485.118	88.44
485.336	92.44
485.554	100.44
485.772	93.44
485.99	82.44
486.209	88.44
486.427	78.44
486.645	85.44
486.863	90.44
487.081	97.44
487.299	90.44
487.517	101.44
487.735	136.44
487.953	248.44
488.171	172.44
488.389	88.44
488.607	97.44
488.825	85.44
489.043	101.44
489.261	94.44
489.479	87.44
489.696	83.44
489.914	95.44
490.132	98.44
490.35	97.44
490.568	78.44
490.786	90.44
491.003	78.44
491.221	78.44
491.439	102.44
491.657	95.44
491.874	84.44
492.092	99.44
492.31	86.44
492.527	102.44
492.745	94.44
492.963	81.44
493.18	94.44
493.398	90.44
493.615	94.44
493.833	94.44
494.05	90.44
494.268	92.44
494.485	80.44
494.703	83.44
494.92	72.44
495.138	84.44
495.355	84.44
495.573	94.44
495.79	84.44
496.008	94.44
496.225	99.44
496.442	94.44
496.66	84.44
496.877	92.44
497.094	88.44
497.312	81.44
497.529	90.44
497.746	92.44
497.963	95.44
498.181	98.44
498.398	89.44
498.615	88.44
498.832	83.44
499.049	81.44
499.267	93.44
499.484	88.44
499.701	88.44
499.918	90.44
500.135	80.44
500.352	70.44
500.569	91.44
500.786	92.44
501.003	89.44
501.22	83.44
501.437	81.44
501.654	95.44
501.871	98.44
502.088	91.44
502.305	85.44
502.522	88.44
502.739	96.44
502.956	88.44
503.172	93.44
503.389	90.44
503.606	104.44
503.823	83.44
504.04	130.44
504.256	175.44
504.473	192.44
504.69	108.44
504.907	84.44
505.123	97.44
505.34	83.44
505.557	85.44
505.773	95.44
505.99	81.44
506.207	88.44
506.423	72.44
506.64	92.44
506.856	84.44
507.073	98.44
507.289	86.44
507.506	86.44
507.722	92.44
507.939	88.44
508.155	90.44
508.372	79.44
508.588	83.44
508.805	84.44
509.021	85.44
509.238	101.44
509.454	84.44
509.67	98.44
509.887	87.44
510.103	83.44
510.319	88.44
510.536	80.44
510.752	85.44
510.968	89.44
511.184	78.44
511.401	98.44
511.617	106.44
511.833	88.44
512.049	89.44
512.265	88.44
512.481	70.44
512.698	96.44
512.914	88.44
513.13	95.44
513.346	96.44
513.562	90.44
513.778	90.44
513.994	96.44
514.21	94.44
514.426	87.44
514.642	94.44
514.858	76.44
515.074	78.44
515.29	97.44
515.506	102.44
515.721	92.44
515.937	95.44
516.153	90.44
516.369	80.44
516.585	101.44
516.801	66.44
517.016	78.44
517.232	87.44
517.448	109.44
517.664	93.44
