Data from CBS_3_HRD10591_00043.txt Node
Date: Mon Jan 19 14:06:00 EST 2026
User: Yrep
Spectrometer: HR+D1059
Trigger mode: 1
Integration Time (sec): 1.000000E-1
Scans to average: 1
Electric dark correction enabled: true
Nonlinearity correction enabled: false
Boxcar width: 0
XAxis mode: Wavelengths
Number of Pixels in Spectrum: 2048
>>>>>Begin Spectral Data<<<<<
223.165	-16.19
223.4	-16.19
223.635	-16.19
223.869	-24.19
224.104	-12.19
224.338	-7.19
224.573	-28.19
224.808	-4.19
225.042	-7.19
225.277	-16.19
225.511	-12.19
225.746	11.81
225.98	2.81
226.215	14.81
226.449	28.81
226.683	28.81
226.918	9.81
227.152	30.81
227.387	27.81
227.621	41.81
227.856	48.81
228.09	41.81
228.324	55.81
228.559	55.81
228.793	54.81
229.027	58.81
229.262	67.81
229.496	62.81
229.73	59.81
229.964	63.81
230.199	90.81
230.433	77.81
230.667	74.81
230.901	79.81
231.136	70.81
231.37	78.81
231.604	89.81
231.838	84.81
232.072	85.81
232.306	66.81
232.541	67.81
232.775	81.81
233.009	71.81
233.243	86.81
233.477	70.81
233.711	79.81
233.945	83.81
234.179	74.81
234.413	83.81
234.647	72.81
234.881	74.81
235.115	68.81
235.349	71.81
235.583	69.81
235.817	70.81
236.051	74.81
236.285	80.81
236.519	79.81
236.753	73.81
236.987	72.81
237.221	77.81
237.455	82.81
237.689	74.81
237.922	79.81
238.156	80.81
238.39	65.81
238.624	77.81
238.858	71.81
239.091	73.81
239.325	66.81
239.559	80.81
239.793	91.81
240.027	78.81
240.26	80.81
240.494	78.81
240.728	88.81
240.961	64.81
241.195	70.81
241.429	82.81
241.662	94.81
241.896	82.81
242.13	54.81
242.363	75.81
242.597	71.81
242.83	75.81
243.064	70.81
243.298	76.81
243.531	79.81
243.765	65.81
243.998	82.81
244.232	62.81
244.465	68.81
244.699	73.81
244.932	58.81
245.166	74.81
245.399	65.81
245.633	72.81
245.866	75.81
246.099	74.81
246.333	87.81
246.566	85.81
246.8	83.81
247.033	64.81
247.266	75.81
247.5	72.81
247.733	77.81
247.966	85.81
248.2	68.81
248.433	80.81
248.666	67.81
248.899	78.81
249.133	82.81
249.366	75.81
249.599	84.81
249.832	75.81
250.066	65.81
250.299	72.81
250.532	72.81
250.765	64.81
250.998	72.81
251.231	71.81
251.465	74.81
251.698	73.81
251.931	87.81
252.164	65.81
252.397	74.81
252.63	73.81
252.863	73.81
253.096	80.81
253.329	72.81
253.562	73.81
253.795	72.81
254.028	101.81
254.261	80.81
254.494	84.81
254.727	80.81
254.96	76.81
255.193	61.81
255.426	83.81
255.659	98.81
255.892	88.81
256.124	83.81
256.357	85.81
256.59	76.81
256.823	66.81
257.056	85.81
257.289	78.81
257.521	75.81
257.754	69.81
257.987	71.81
258.22	74.81
258.452	84.81
258.685	81.81
258.918	81.81
259.151	83.81
259.383	82.81
259.616	87.81
259.849	85.81
260.081	90.81
260.314	84.81
260.547	75.81
260.779	69.81
261.012	67.81
261.244	74.81
261.477	83.81
261.71	90.81
261.942	76.81
262.175	75.81
262.407	87.81
262.64	67.81
262.872	77.81
263.105	81.81
263.337	79.81
263.57	90.81
263.802	75.81
264.035	101.81
264.267	79.81
264.499	82.81
264.732	74.81
264.964	83.81
265.197	76.81
265.429	91.81
265.661	84.81
265.894	80.81
266.126	72.81
266.358	90.81
266.591	75.81
266.823	80.81
267.055	75.81
267.287	73.81
267.52	90.81
267.752	69.81
267.984	85.81
268.216	75.81
268.448	91.81
268.681	82.81
268.913	98.81
269.145	87.81
269.377	90.81
269.609	95.81
269.841	74.81
270.073	71.81
270.306	83.81
270.538	83.81
270.77	81.81
271.002	83.81
271.234	88.81
271.466	73.81
271.698	78.81
271.93	72.81
272.162	80.81
272.394	89.81
272.626	66.81
272.858	85.81
273.09	83.81
273.322	70.81
273.553	66.81
273.785	81.81
274.017	87.81
274.249	82.81
274.481	60.81
274.713	85.81
274.945	92.81
275.176	93.81
275.408	90.81
275.64	61.81
275.872	81.81
276.104	75.81
276.335	90.81
276.567	84.81
276.799	88.81
277.031	79.81
277.262	79.81
277.494	101.81
277.726	97.81
277.957	79.81
278.189	79.81
278.421	84.81
278.652	86.81
278.884	84.81
279.115	72.81
279.347	89.81
279.579	76.81
279.81	85.81
280.042	91.81
280.273	69.81
280.505	84.81
280.736	77.81
280.968	81.81
281.199	93.81
281.431	84.81
281.662	73.81
281.894	69.81
282.125	82.81
282.356	71.81
282.588	89.81
282.819	69.81
283.051	87.81
283.282	75.81
283.513	82.81
283.745	78.81
283.976	70.81
284.207	74.81
284.439	76.81
284.67	85.81
284.901	80.81
285.132	85.81
285.364	89.81
285.595	94.81
285.826	90.81
286.057	83.81
286.288	89.81
286.52	91.81
286.751	78.81
286.982	72.81
287.213	76.81
287.444	72.81
287.675	86.81
287.906	80.81
288.138	85.81
288.369	78.81
288.6	72.81
288.831	81.81
289.062	90.81
289.293	86.81
289.524	76.81
289.755	83.81
289.986	93.81
290.217	97.81
290.448	76.81
290.679	71.81
290.91	99.81
291.141	82.81
291.371	87.81
291.602	87.81
291.833	81.81
292.064	74.81
292.295	75.81
292.526	91.81
292.757	69.81
292.987	67.81
293.218	81.81
293.449	79.81
293.68	85.81
293.91	90.81
294.141	79.81
294.372	82.81
294.603	90.81
294.833	74.81
295.064	78.81
295.295	79.81
295.525	76.81
295.756	93.81
295.987	94.81
296.217	81.81
296.448	81.81
296.679	83.81
296.909	81.81
297.14	96.81
297.37	94.81
297.601	79.81
297.831	94.81
298.062	73.81
298.292	74.81
298.523	72.81
298.753	76.81
298.984	68.81
299.214	92.81
299.445	84.81
299.675	89.81
299.905	87.81
300.136	82.81
300.366	78.81
300.597	95.81
300.827	78.81
301.057	82.81
301.288	80.81
301.518	88.81
301.748	75.81
301.979	99.81
302.209	91.81
302.439	88.81
302.669	82.81
302.9	91.81
303.13	61.81
303.36	82.81
303.59	83.81
303.82	93.81
304.051	100.81
304.281	81.81
304.511	79.81
304.741	100.81
304.971	74.81
305.201	82.81
305.431	93.81
305.661	90.81
305.891	72.81
306.121	103.81
306.352	86.81
306.582	96.81
306.812	83.81
307.042	99.81
307.272	77.81
307.502	69.81
307.731	85.81
307.961	81.81
308.191	75.81
308.421	87.81
308.651	83.81
308.881	85.81
309.111	78.81
309.341	83.81
309.571	79.81
309.8	84.81
310.03	89.81
310.26	84.81
310.49	91.81
310.72	80.81
310.949	94.81
311.179	81.81
311.409	84.81
311.639	97.81
311.868	81.81
312.098	88.81
312.328	86.81
312.557	72.81
312.787	87.81
313.017	93.81
313.246	75.81
313.476	86.81
313.706	79.81
313.935	85.81
314.165	94.81
314.394	82.81
314.624	89.81
314.853	81.81
315.083	82.81
315.312	87.81
315.542	84.81
315.771	111.81
316.001	96.81
316.23	83.81
316.46	72.81
316.689	110.81
316.919	90.81
317.148	82.81
317.377	89.81
317.607	77.81
317.836	89.81
318.065	98.81
318.295	85.81
318.524	95.81
318.753	95.81
318.983	90.81
319.212	85.81
319.441	83.81
319.67	80.81
319.9	77.81
320.129	92.81
320.358	85.81
320.587	75.81
320.816	93.81
321.046	77.81
321.275	87.81
321.504	92.81
321.733	92.81
321.962	81.81
322.191	82.81
322.42	82.81
322.649	88.81
322.878	85.81
323.108	82.81
323.337	81.81
323.566	82.81
323.795	90.81
324.024	78.81
324.253	87.81
324.482	80.81
324.71	85.81
324.939	82.81
325.168	80.81
325.397	65.81
325.626	85.81
325.855	75.81
326.084	81.81
326.313	81.81
326.542	79.81
326.77	84.81
326.999	71.81
327.228	72.81
327.457	80.81
327.686	80.81
327.914	96.81
328.143	78.81
328.372	79.81
328.6	76.81
328.829	87.81
329.058	90.81
329.287	79.81
329.515	86.81
329.744	90.81
329.972	83.81
330.201	89.81
330.43	70.81
330.658	77.81
330.887	71.81
331.115	88.81
331.344	93.81
331.572	105.81
331.801	81.81
332.03	88.81
332.258	77.81
332.486	91.81
332.715	87.81
332.943	91.81
333.172	80.81
333.4	88.81
333.629	82.81
333.857	80.81
334.085	89.81
334.314	89.81
334.542	88.81
334.771	99.81
334.999	90.81
335.227	79.81
335.455	85.81
335.684	89.81
335.912	81.81
336.14	83.81
336.369	94.81
336.597	81.81
336.825	79.81
337.053	71.81
337.281	85.81
337.51	85.81
337.738	74.81
337.966	74.81
338.194	90.81
338.422	88.81
338.65	71.81
338.878	88.81
339.106	77.81
339.334	72.81
339.562	86.81
339.79	63.81
340.018	72.81
340.246	71.81
340.474	94.81
340.702	97.81
340.93	78.81
341.158	79.81
341.386	81.81
341.614	75.81
341.842	80.81
342.07	93.81
342.298	63.81
342.526	78.81
342.754	87.81
342.981	89.81
343.209	73.81
343.437	111.81
343.665	77.81
343.893	93.81
344.12	86.81
344.348	87.81
344.576	92.81
344.804	91.81
345.031	75.81
345.259	88.81
345.487	95.81
345.714	82.81
345.942	79.81
346.17	67.81
346.397	102.81
346.625	94.81
346.853	74.81
347.08	82.81
347.308	85.81
347.535	77.81
347.763	82.81
347.99	92.81
348.218	84.81
348.445	74.81
348.673	73.81
348.9	91.81
349.128	94.81
349.355	88.81
349.583	85.81
349.81	78.81
350.037	81.81
350.265	89.81
350.492	103.81
350.72	95.81
350.947	87.81
351.174	86.81
351.402	79.81
351.629	83.81
351.856	75.81
352.083	85.81
352.311	85.81
352.538	84.81
352.765	85.81
352.992	86.81
353.22	94.81
353.447	87.81
353.674	84.81
353.901	78.81
354.128	89.81
354.355	71.81
354.583	81.81
354.81	74.81
355.037	83.81
355.264	81.81
355.491	88.81
355.718	92.81
355.945	73.81
356.172	77.81
356.399	81.81
356.626	78.81
356.853	87.81
357.08	73.81
357.307	87.81
357.534	86.81
357.761	85.81
357.988	91.81
358.215	81.81
358.441	79.81
358.668	81.81
358.895	81.81
359.122	76.81
359.349	79.81
359.576	83.81
359.802	73.81
360.029	84.81
360.256	82.81
360.483	94.81
360.709	89.81
360.936	89.81
361.163	76.81
361.39	101.81
361.616	71.81
361.843	99.81
362.07	87.81
362.296	89.81
362.523	87.81
362.749	85.81
362.976	89.81
363.203	88.81
363.429	90.81
363.656	85.81
363.882	88.81
364.109	103.81
364.335	114.81
364.562	111.81
364.788	94.81
365.015	78.81
365.241	91.81
365.468	102.81
365.694	72.81
365.92	86.81
366.147	73.81
366.373	85.81
366.599	83.81
366.826	79.81
367.052	89.81
367.278	97.81
367.505	90.81
367.731	90.81
367.957	88.81
368.184	74.81
368.41	76.81
368.636	83.81
368.862	86.81
369.089	88.81
369.315	86.81
369.541	75.81
369.767	85.81
369.993	83.81
370.219	91.81
370.445	89.81
370.672	100.81
370.898	79.81
371.124	83.81
371.35	86.81
371.576	90.81
371.802	70.81
372.028	94.81
372.254	86.81
372.48	97.81
372.706	79.81
372.932	87.81
373.158	101.81
373.384	91.81
373.61	93.81
373.835	91.81
374.061	78.81
374.287	89.81
374.513	81.81
374.739	85.81
374.965	93.81
375.191	77.81
375.416	89.81
375.642	89.81
375.868	79.81
376.094	87.81
376.319	81.81
376.545	86.81
376.771	83.81
376.997	84.81
377.222	90.81
377.448	90.81
377.674	75.81
377.899	76.81
378.125	87.81
378.35	86.81
378.576	88.81
378.802	83.81
379.027	85.81
379.253	82.81
379.478	80.81
379.704	87.81
379.929	77.81
380.155	73.81
380.38	83.81
380.606	82.81
380.831	87.81
381.057	91.81
381.282	82.81
381.507	87.81
381.733	81.81
381.958	83.81
382.184	80.81
382.409	74.81
382.634	87.81
382.86	81.81
383.085	89.81
383.31	98.81
383.535	87.81
383.761	99.81
383.986	88.81
384.211	90.81
384.436	85.81
384.662	85.81
384.887	78.81
385.112	78.81
385.337	83.81
385.562	86.81
385.787	83.81
386.013	85.81
386.238	96.81
386.463	82.81
386.688	93.81
386.913	97.81
387.138	82.81
387.363	84.81
387.588	80.81
387.813	90.81
388.038	88.81
388.263	80.81
388.488	86.81
388.713	75.81
388.938	82.81
389.163	81.81
389.387	72.81
389.612	79.81
389.837	90.81
390.062	82.81
390.287	88.81
390.512	82.81
390.736	66.81
390.961	71.81
391.186	83.81
391.411	76.81
391.636	82.81
391.86	93.81
392.085	98.81
392.31	82.81
392.534	86.81
392.759	104.81
392.984	151.81
393.208	299.81
393.433	453.81
393.658	321.81
393.882	134.81
394.107	103.81
394.331	106.81
394.556	96.81
394.78	80.81
395.005	76.81
395.229	95.81
395.454	90.81
395.678	86.81
395.903	115.81
396.127	111.81
396.352	129.81
396.576	161.81
396.801	275.81
397.025	317.81
397.249	186.81
397.474	132.81
397.698	96.81
397.922	89.81
398.147	102.81
398.371	83.81
398.595	85.81
398.82	83.81
399.044	81.81
399.268	81.81
399.492	86.81
399.717	87.81
399.941	84.81
400.165	89.81
400.389	81.81
400.613	70.81
400.837	97.81
401.062	73.81
401.286	78.81
401.51	92.81
401.734	87.81
401.958	68.81
402.182	75.81
402.406	68.81
402.63	85.81
402.854	77.81
403.078	97.81
403.302	82.81
403.526	92.81
403.75	98.81
403.974	90.81
404.198	74.81
404.422	115.81
404.645	100.81
404.869	99.81
405.093	72.81
405.317	86.81
405.541	80.81
405.765	82.81
405.988	78.81
406.212	93.81
406.436	77.81
406.66	90.81
406.883	81.81
407.107	87.81
407.331	81.81
407.555	90.81
407.778	97.81
408.002	112.81
408.226	81.81
408.449	89.81
408.673	79.81
408.896	76.81
409.12	78.81
409.344	89.81
409.567	95.81
409.791	90.81
410.014	85.81
410.238	89.81
410.461	78.81
410.685	91.81
410.908	89.81
411.132	74.81
411.355	80.81
411.578	96.81
411.802	84.81
412.025	91.81
412.249	96.81
412.472	73.81
412.695	50.81
412.919	77.81
413.142	78.81
413.365	87.81
413.589	79.81
413.812	74.81
414.035	85.81
414.258	88.81
414.482	91.81
414.705	76.81
414.928	83.81
415.151	88.81
415.374	90.81
415.597	86.81
415.821	89.81
416.044	83.81
416.267	89.81
416.49	78.81
416.713	83.81
416.936	87.81
417.159	74.81
417.382	65.81
417.605	76.81
417.828	89.81
418.051	85.81
418.274	92.81
418.497	90.81
418.72	86.81
418.943	78.81
419.166	95.81
419.389	78.81
419.611	78.81
419.834	81.81
420.057	85.81
420.28	82.81
420.503	79.81
420.726	79.81
420.948	86.81
421.171	86.81
421.394	106.81
421.617	102.81
421.839	103.81
422.062	114.81
422.285	136.81
422.507	244.81
422.73	375.81
422.953	342.81
423.175	167.81
423.398	111.81
423.621	93.81
423.843	98.81
424.066	90.81
424.288	90.81
424.511	84.81
424.733	91.81
424.956	89.81
425.178	73.81
425.401	82.81
425.623	79.81
425.846	88.81
426.068	78.81
426.291	93.81
426.513	89.81
426.735	79.81
426.958	88.81
427.18	73.81
427.402	77.81
427.625	82.81
427.847	89.81
428.069	85.81
428.292	116.81
428.514	133.81
428.736	103.81
428.958	129.81
429.181	132.81
429.403	89.81
429.625	78.81
429.847	123.81
430.069	154.81
430.292	181.81
430.514	166.81
430.736	111.81
430.958	133.81
431.18	94.81
431.402	101.81
431.624	88.81
431.846	103.81
432.068	129.81
432.29	109.81
432.512	86.81
432.734	78.81
432.956	92.81
433.178	83.81
433.4	95.81
433.622	80.81
433.844	89.81
434.066	74.81
434.287	81.81
434.509	77.81
434.731	89.81
434.953	79.81
435.175	75.81
435.397	74.81
435.618	85.81
435.84	84.81
436.062	85.81
436.284	85.81
436.505	86.81
436.727	87.81
436.949	78.81
437.17	92.81
437.392	78.81
437.614	85.81
437.835	85.81
438.057	87.81
438.278	98.81
438.5	90.81
438.721	74.81
438.943	92.81
439.165	79.81
439.386	78.81
439.608	95.81
439.829	90.81
440.05	90.81
440.272	69.81
440.493	66.81
440.715	69.81
440.936	87.81
441.158	68.81
441.379	85.81
441.6	91.81
441.822	85.81
442.043	101.81
442.264	91.81
442.486	115.81
442.707	141.81
442.928	96.81
443.149	95.81
443.371	119.81
443.592	197.81
443.813	179.81
444.034	95.81
444.255	79.81
444.476	80.81
444.698	99.81
444.919	97.81
445.14	175.81
445.361	202.81
445.582	245.81
445.803	210.81
446.024	123.81
446.245	83.81
446.466	83.81
446.687	84.81
446.908	71.81
447.129	93.81
447.35	87.81
447.571	85.81
447.792	93.81
448.013	80.81
448.234	83.81
448.455	75.81
448.675	79.81
448.896	89.81
449.117	80.81
449.338	79.81
449.559	81.81
449.779	83.81
450	91.81
450.221	100.81
450.442	83.81
450.662	87.81
450.883	83.81
451.104	91.81
451.324	91.81
451.545	76.81
451.766	72.81
451.986	89.81
452.207	76.81
452.428	71.81
452.648	84.81
452.869	86.81
453.089	101.81
453.31	94.81
453.53	81.81
453.751	76.81
453.971	81.81
454.192	92.81
454.412	94.81
454.633	77.81
454.853	87.81
455.073	86.81
455.294	79.81
455.514	89.81
455.734	71.81
455.955	84.81
456.175	82.81
456.395	87.81
456.616	84.81
456.836	62.81
457.056	80.81
457.276	77.81
457.497	81.81
457.717	82.81
457.937	85.81
458.157	96.81
458.377	105.81
458.598	94.81
458.818	110.81
459.038	90.81
459.258	79.81
459.478	70.81
459.698	79.81
459.918	82.81
460.138	72.81
460.358	71.81
460.578	84.81
460.798	99.81
461.018	96.81
461.238	83.81
461.458	77.81
461.678	77.81
461.898	70.81
462.118	72.81
462.338	89.81
462.558	81.81
462.777	80.81
462.997	100.81
463.217	73.81
463.437	87.81
463.657	72.81
463.876	86.81
464.096	80.81
464.316	80.81
464.536	81.81
464.755	70.81
464.975	71.81
465.195	74.81
465.414	70.81
465.634	87.81
465.854	86.81
466.073	77.81
466.293	85.81
466.512	89.81
466.732	74.81
466.951	76.81
467.171	79.81
467.391	99.81
467.61	90.81
467.829	83.81
468.049	79.81
468.268	83.81
468.488	84.81
468.707	92.81
468.927	74.81
469.146	75.81
469.365	88.81
469.585	77.81
469.804	69.81
470.023	87.81
470.243	87.81
470.462	66.81
470.681	74.81
470.901	78.81
471.12	77.81
471.339	84.81
471.558	82.81
471.777	85.81
471.997	75.81
472.216	85.81
472.435	84.81
472.654	80.81
472.873	82.81
473.092	89.81
473.311	70.81
473.53	65.81
473.749	105.81
473.968	76.81
474.187	74.81
474.406	93.81
474.625	81.81
474.844	78.81
475.063	77.81
475.282	79.81
475.501	82.81
475.72	96.81
475.939	89.81
476.158	83.81
476.377	93.81
476.596	97.81
476.814	91.81
477.033	79.81
477.252	75.81
477.471	85.81
477.69	76.81
477.908	97.81
478.127	88.81
478.346	74.81
478.564	81.81
478.783	85.81
479.002	83.81
479.22	86.81
479.439	93.81
479.658	83.81
479.876	91.81
480.095	90.81
480.313	83.81
480.532	84.81
480.751	88.81
480.969	83.81
481.188	71.81
481.406	83.81
481.624	83.81
481.843	97.81
482.061	98.81
482.28	87.81
482.498	81.81
482.717	78.81
482.935	84.81
483.153	82.81
483.372	89.81
483.59	78.81
483.808	81.81
484.027	77.81
484.245	91.81
484.463	91.81
484.681	82.81
484.9	75.81
485.118	88.81
485.336	84.81
485.554	73.81
485.772	83.81
485.99	88.81
486.209	76.81
486.427	76.81
486.645	73.81
486.863	76.81
487.081	79.81
487.299	86.81
487.517	83.81
487.735	97.81
487.953	149.81
488.171	127.81
488.389	81.81
488.607	87.81
488.825	79.81
489.043	86.81
489.261	72.81
489.479	83.81
489.696	94.81
489.914	103.81
490.132	92.81
490.35	84.81
490.568	81.81
490.786	93.81
491.003	90.81
491.221	93.81
491.439	71.81
491.657	87.81
491.874	88.81
492.092	84.81
492.31	89.81
492.527	86.81
492.745	83.81
492.963	71.81
493.18	83.81
493.398	75.81
493.615	88.81
493.833	93.81
494.05	87.81
494.268	90.81
494.485	89.81
494.703	80.81
494.92	82.81
495.138	79.81
495.355	75.81
495.573	89.81
495.79	86.81
496.008	76.81
496.225	104.81
496.442	98.81
496.66	82.81
496.877	78.81
497.094	83.81
497.312	99.81
497.529	72.81
497.746	84.81
497.963	88.81
498.181	79.81
498.398	97.81
498.615	85.81
498.832	80.81
499.049	80.81
499.267	88.81
499.484	82.81
499.701	94.81
499.918	93.81
500.135	75.81
500.352	82.81
500.569	87.81
500.786	85.81
501.003	86.81
501.22	81.81
501.437	81.81
501.654	88.81
501.871	95.81
502.088	72.81
502.305	93.81
502.522	105.81
502.739	91.81
502.956	98.81
503.172	80.81
503.389	75.81
503.606	82.81
503.823	88.81
504.04	85.81
504.256	112.81
504.473	100.81
504.69	89.81
504.907	83.81
505.123	81.81
505.34	90.81
505.557	87.81
505.773	76.81
505.99	90.81
506.207	83.81
506.423	89.81
506.64	79.81
506.856	94.81
507.073	76.81
507.289	80.81
507.506	91.81
507.722	85.81
507.939	85.81
508.155	80.81
508.372	88.81
508.588	88.81
508.805	84.81
509.021	97.81
509.238	73.81
509.454	89.81
509.67	77.81
509.887	88.81
510.103	89.81
510.319	90.81
510.536	78.81
510.752	73.81
510.968	72.81
511.184	76.81
511.401	71.81
511.617	73.81
511.833	89.81
512.049	88.81
512.265	67.81
512.481	97.81
512.698	99.81
512.914	86.81
513.13	90.81
513.346	85.81
513.562	75.81
513.778	104.81
513.994	81.81
514.21	74.81
514.426	85.81
514.642	81.81
514.858	82.81
515.074	89.81
515.29	96.81
515.506	85.81
515.721	80.81
515.937	88.81
516.153	87.81
516.369	85.81
516.585	101.81
516.801	92.81
517.016	97.81
517.232	85.81
517.448	86.81
517.664	97.81
517.879	79.81
518.095	81.81
518.311	85.81
518.527	92.81
518.742	89.81
518.958	125.81
