Data from CBS_3_HRD10591_00023.txt Node
Date: Mon Jan 19 14:05:50 EST 2026
User: Yrep
Spectrometer: HR+D1059
Trigger mode: 1
Integration Time (sec): 1.000000E-1
Scans to average: 1
Electric dark correction enabled: true
Nonlinearity correction enabled: false
Boxcar width: 0
XAxis mode: Wavelengths
Number of Pixels in Spectrum: 2048
>>>>>Begin Spectral Data<<<<<
223.165	-28.94
223.4	-28.94
223.635	-28.94
223.869	-29.94
224.104	-18.94
224.338	-20.94
224.573	-5.94
224.808	-24.94
225.042	-6.94
225.277	-9.94
225.511	4.06
225.746	-2.94
225.98	10.06
226.215	21.06
226.449	24.06
226.683	38.06
226.918	26.06
227.152	26.06
227.387	35.06
227.621	40.06
227.856	58.06
228.09	46.06
228.324	57.06
228.559	62.06
228.793	59.06
229.027	66.06
229.262	57.06
229.496	69.06
229.73	67.06
229.964	70.06
230.199	59.06
230.433	72.06
230.667	83.06
230.901	76.06
231.136	72.06
231.37	91.06
231.604	79.06
231.838	83.06
232.072	83.06
232.306	73.06
232.541	76.06
232.775	74.06
233.009	73.06
233.243	81.06
233.477	84.06
233.711	74.06
233.945	62.06
234.179	78.06
234.413	79.06
234.647	100.06
234.881	87.06
235.115	75.06
235.349	76.06
235.583	78.06
235.817	84.06
236.051	86.06
236.285	86.06
236.519	82.06
236.753	61.06
236.987	63.06
237.221	75.06
237.455	76.06
237.689	91.06
237.922	63.06
238.156	92.06
238.39	72.06
238.624	80.06
238.858	95.06
239.091	80.06
239.325	69.06
239.559	78.06
239.793	81.06
240.027	92.06
240.26	76.06
240.494	77.06
240.728	74.06
240.961	82.06
241.195	80.06
241.429	85.06
241.662	71.06
241.896	78.06
242.13	82.06
242.363	79.06
242.597	87.06
242.83	85.06
243.064	79.06
243.298	86.06
243.531	75.06
243.765	93.06
243.998	78.06
244.232	75.06
244.465	74.06
244.699	86.06
244.932	71.06
245.166	74.06
245.399	77.06
245.633	84.06
245.866	94.06
246.099	88.06
246.333	83.06
246.566	74.06
246.8	74.06
247.033	81.06
247.266	88.06
247.5	82.06
247.733	89.06
247.966	74.06
248.2	72.06
248.433	79.06
248.666	74.06
248.899	90.06
249.133	77.06
249.366	74.06
249.599	76.06
249.832	83.06
250.066	83.06
250.299	84.06
250.532	82.06
250.765	91.06
250.998	86.06
251.231	76.06
251.465	79.06
251.698	76.06
251.931	84.06
252.164	77.06
252.397	96.06
252.63	78.06
252.863	75.06
253.096	66.06
253.329	70.06
253.562	84.06
253.795	86.06
254.028	73.06
254.261	82.06
254.494	86.06
254.727	90.06
254.96	86.06
255.193	86.06
255.426	84.06
255.659	72.06
255.892	77.06
256.124	94.06
256.357	90.06
256.59	87.06
256.823	79.06
257.056	79.06
257.289	87.06
257.521	93.06
257.754	82.06
257.987	73.06
258.22	84.06
258.452	92.06
258.685	89.06
258.918	70.06
259.151	74.06
259.383	78.06
259.616	65.06
259.849	76.06
260.081	74.06
260.314	84.06
260.547	77.06
260.779	88.06
261.012	86.06
261.244	86.06
261.477	73.06
261.71	82.06
261.942	75.06
262.175	74.06
262.407	77.06
262.64	91.06
262.872	82.06
263.105	80.06
263.337	82.06
263.57	64.06
263.802	84.06
264.035	78.06
264.267	70.06
264.499	85.06
264.732	72.06
264.964	80.06
265.197	82.06
265.429	89.06
265.661	70.06
265.894	84.06
266.126	90.06
266.358	86.06
266.591	90.06
266.823	86.06
267.055	78.06
267.287	85.06
267.52	87.06
267.752	95.06
267.984	74.06
268.216	75.06
268.448	74.06
268.681	79.06
268.913	74.06
269.145	83.06
269.377	90.06
269.609	87.06
269.841	73.06
270.073	95.06
270.306	95.06
270.538	78.06
270.77	80.06
271.002	75.06
271.234	78.06
271.466	94.06
271.698	72.06
271.93	72.06
272.162	90.06
272.394	83.06
272.626	72.06
272.858	94.06
273.09	85.06
273.322	95.06
273.553	86.06
273.785	84.06
274.017	76.06
274.249	84.06
274.481	90.06
274.713	82.06
274.945	96.06
275.176	93.06
275.408	88.06
275.64	76.06
275.872	90.06
276.104	87.06
276.335	95.06
276.567	86.06
276.799	82.06
277.031	84.06
277.262	83.06
277.494	87.06
277.726	84.06
277.957	84.06
278.189	75.06
278.421	87.06
278.652	76.06
278.884	87.06
279.115	87.06
279.347	86.06
279.579	68.06
279.81	92.06
280.042	88.06
280.273	88.06
280.505	69.06
280.736	72.06
280.968	83.06
281.199	78.06
281.431	77.06
281.662	90.06
281.894	87.06
282.125	92.06
282.356	100.06
282.588	90.06
282.819	78.06
283.051	85.06
283.282	76.06
283.513	84.06
283.745	83.06
283.976	92.06
284.207	66.06
284.439	87.06
284.67	85.06
284.901	85.06
285.132	86.06
285.364	75.06
285.595	87.06
285.826	86.06
286.057	79.06
286.288	71.06
286.52	74.06
286.751	66.06
286.982	71.06
287.213	74.06
287.444	82.06
287.675	93.06
287.906	72.06
288.138	84.06
288.369	87.06
288.6	98.06
288.831	96.06
289.062	87.06
289.293	81.06
289.524	86.06
289.755	74.06
289.986	89.06
290.217	87.06
290.448	82.06
290.679	73.06
290.91	77.06
291.141	94.06
291.371	100.06
291.602	84.06
291.833	83.06
292.064	106.06
292.295	87.06
292.526	76.06
292.757	86.06
292.987	79.06
293.218	99.06
293.449	92.06
293.68	75.06
293.91	90.06
294.141	82.06
294.372	82.06
294.603	92.06
294.833	88.06
295.064	91.06
295.295	88.06
295.525	90.06
295.756	86.06
295.987	73.06
296.217	80.06
296.448	94.06
296.679	91.06
296.909	91.06
297.14	105.06
297.37	89.06
297.601	87.06
297.831	82.06
298.062	85.06
298.292	86.06
298.523	90.06
298.753	73.06
298.984	83.06
299.214	70.06
299.445	80.06
299.675	97.06
299.905	100.06
300.136	80.06
300.366	71.06
300.597	76.06
300.827	92.06
301.057	82.06
301.288	97.06
301.518	86.06
301.748	83.06
301.979	107.06
302.209	82.06
302.439	86.06
302.669	72.06
302.9	81.06
303.13	90.06
303.36	90.06
303.59	91.06
303.82	87.06
304.051	103.06
304.281	66.06
304.511	80.06
304.741	86.06
304.971	87.06
305.201	79.06
305.431	83.06
305.661	92.06
305.891	82.06
306.121	78.06
306.352	81.06
306.582	87.06
306.812	85.06
307.042	94.06
307.272	84.06
307.502	85.06
307.731	96.06
307.961	91.06
308.191	92.06
308.421	82.06
308.651	88.06
308.881	78.06
309.111	86.06
309.341	87.06
309.571	89.06
309.8	96.06
310.03	94.06
310.26	96.06
310.49	102.06
310.72	87.06
310.949	105.06
311.179	79.06
311.409	92.06
311.639	91.06
311.868	86.06
312.098	94.06
312.328	80.06
312.557	78.06
312.787	72.06
313.017	81.06
313.246	82.06
313.476	70.06
313.706	90.06
313.935	83.06
314.165	98.06
314.394	98.06
314.624	74.06
314.853	89.06
315.083	91.06
315.312	86.06
315.542	95.06
315.771	86.06
316.001	81.06
316.23	89.06
316.46	82.06
316.689	97.06
316.919	83.06
317.148	86.06
317.377	88.06
317.607	77.06
317.836	86.06
318.065	89.06
318.295	94.06
318.524	102.06
318.753	77.06
318.983	87.06
319.212	74.06
319.441	78.06
319.67	89.06
319.9	105.06
320.129	90.06
320.358	114.06
320.587	90.06
320.816	83.06
321.046	80.06
321.275	94.06
321.504	86.06
321.733	99.06
321.962	82.06
322.191	77.06
322.42	88.06
322.649	75.06
322.878	66.06
323.108	91.06
323.337	82.06
323.566	82.06
323.795	77.06
324.024	97.06
324.253	96.06
324.482	100.06
324.71	90.06
324.939	90.06
325.168	90.06
325.397	97.06
325.626	90.06
325.855	91.06
326.084	74.06
326.313	87.06
326.542	81.06
326.77	86.06
326.999	94.06
327.228	93.06
327.457	84.06
327.686	88.06
327.914	83.06
328.143	98.06
328.372	88.06
328.6	91.06
328.829	85.06
329.058	100.06
329.287	93.06
329.515	78.06
329.744	82.06
329.972	81.06
330.201	87.06
330.43	89.06
330.658	91.06
330.887	83.06
331.115	83.06
331.344	90.06
331.572	77.06
331.801	75.06
332.03	92.06
332.258	89.06
332.486	84.06
332.715	82.06
332.943	77.06
333.172	95.06
333.4	82.06
333.629	96.06
333.857	94.06
334.085	93.06
334.314	74.06
334.542	94.06
334.771	87.06
334.999	99.06
335.227	95.06
335.455	96.06
335.684	79.06
335.912	88.06
336.14	76.06
336.369	83.06
336.597	92.06
336.825	90.06
337.053	87.06
337.281	78.06
337.51	94.06
337.738	89.06
337.966	86.06
338.194	95.06
338.422	88.06
338.65	98.06
338.878	68.06
339.106	89.06
339.334	92.06
339.562	76.06
339.79	87.06
340.018	79.06
340.246	78.06
340.474	83.06
340.702	94.06
340.93	82.06
341.158	89.06
341.386	82.06
341.614	102.06
341.842	88.06
342.07	85.06
342.298	86.06
342.526	95.06
342.754	94.06
342.981	98.06
343.209	88.06
343.437	102.06
343.665	80.06
343.893	77.06
344.12	88.06
344.348	78.06
344.576	90.06
344.804	80.06
345.031	83.06
345.259	74.06
345.487	96.06
345.714	92.06
345.942	74.06
346.17	78.06
346.397	85.06
346.625	71.06
346.853	76.06
347.08	71.06
347.308	83.06
347.535	91.06
347.763	85.06
347.99	85.06
348.218	96.06
348.445	86.06
348.673	86.06
348.9	98.06
349.128	84.06
349.355	76.06
349.583	83.06
349.81	95.06
350.037	84.06
350.265	92.06
350.492	87.06
350.72	72.06
350.947	80.06
351.174	81.06
351.402	85.06
351.629	89.06
351.856	84.06
352.083	82.06
352.311	80.06
352.538	79.06
352.765	88.06
352.992	100.06
353.22	107.06
353.447	86.06
353.674	90.06
353.901	88.06
354.128	86.06
354.355	75.06
354.583	78.06
354.81	95.06
355.037	84.06
355.264	100.06
355.491	107.06
355.718	86.06
355.945	93.06
356.172	92.06
356.399	90.06
356.626	78.06
356.853	84.06
357.08	84.06
357.307	89.06
357.534	78.06
357.761	93.06
357.988	89.06
358.215	98.06
358.441	89.06
358.668	89.06
358.895	88.06
359.122	84.06
359.349	76.06
359.576	94.06
359.802	86.06
360.029	82.06
360.256	87.06
360.483	86.06
360.709	87.06
360.936	80.06
361.163	84.06
361.39	93.06
361.616	89.06
361.843	78.06
362.07	93.06
362.296	91.06
362.523	95.06
362.749	77.06
362.976	92.06
363.203	118.06
363.429	95.06
363.656	78.06
363.882	87.06
364.109	84.06
364.335	93.06
364.562	95.06
364.788	101.06
365.015	72.06
365.241	78.06
365.468	92.06
365.694	73.06
365.92	82.06
366.147	90.06
366.373	79.06
366.599	75.06
366.826	74.06
367.052	96.06
367.278	83.06
367.505	97.06
367.731	101.06
367.957	91.06
368.184	89.06
368.41	77.06
368.636	80.06
368.862	74.06
369.089	64.06
369.315	76.06
369.541	84.06
369.767	85.06
369.993	83.06
370.219	88.06
370.445	97.06
370.672	82.06
370.898	63.06
371.124	74.06
371.35	84.06
371.576	87.06
371.802	82.06
372.028	81.06
372.254	81.06
372.48	81.06
372.706	92.06
372.932	89.06
373.158	96.06
373.384	103.06
373.61	72.06
373.835	91.06
374.061	94.06
374.287	91.06
374.513	86.06
374.739	72.06
374.965	86.06
375.191	79.06
375.416	88.06
375.642	84.06
375.868	84.06
376.094	84.06
376.319	88.06
376.545	84.06
376.771	79.06
376.997	87.06
377.222	93.06
377.448	83.06
377.674	76.06
377.899	75.06
378.125	84.06
378.35	88.06
378.576	74.06
378.802	83.06
379.027	82.06
379.253	79.06
379.478	79.06
379.704	79.06
379.929	92.06
380.155	75.06
380.38	84.06
380.606	73.06
380.831	90.06
381.057	87.06
381.282	90.06
381.507	89.06
381.733	91.06
381.958	89.06
382.184	78.06
382.409	87.06
382.634	91.06
382.86	76.06
383.085	74.06
383.31	86.06
383.535	87.06
383.761	90.06
383.986	77.06
384.211	97.06
384.436	84.06
384.662	87.06
384.887	86.06
385.112	95.06
385.337	103.06
385.562	78.06
385.787	88.06
386.013	72.06
386.238	102.06
386.463	91.06
386.688	89.06
386.913	84.06
387.138	88.06
387.363	90.06
387.588	84.06
387.813	88.06
388.038	92.06
388.263	88.06
388.488	87.06
388.713	85.06
388.938	85.06
389.163	69.06
389.387	94.06
389.612	80.06
389.837	82.06
390.062	82.06
390.287	82.06
390.512	102.06
390.736	85.06
390.961	83.06
391.186	83.06
391.411	83.06
391.636	81.06
391.86	81.06
392.085	74.06
392.31	84.06
392.534	89.06
392.759	91.06
392.984	106.06
393.208	127.06
393.433	158.06
393.658	132.06
393.882	94.06
394.107	76.06
394.331	86.06
394.556	101.06
394.78	83.06
395.005	84.06
395.229	78.06
395.454	113.06
395.678	82.06
395.903	83.06
396.127	103.06
396.352	95.06
396.576	95.06
396.801	133.06
397.025	138.06
397.249	99.06
397.474	99.06
397.698	81.06
397.922	84.06
398.147	86.06
398.371	79.06
398.595	74.06
398.82	85.06
399.044	91.06
399.268	81.06
399.492	95.06
399.717	89.06
399.941	86.06
400.165	97.06
400.389	74.06
400.613	86.06
400.837	80.06
401.062	86.06
401.286	94.06
401.51	91.06
401.734	74.06
401.958	88.06
402.182	87.06
402.406	80.06
402.63	95.06
402.854	84.06
403.078	81.06
403.302	90.06
403.526	78.06
403.75	81.06
403.974	88.06
404.198	89.06
404.422	89.06
404.645	81.06
404.869	94.06
405.093	86.06
405.317	87.06
405.541	85.06
405.765	81.06
405.988	90.06
406.212	87.06
406.436	79.06
406.66	84.06
406.883	77.06
407.107	77.06
407.331	75.06
407.555	74.06
407.778	82.06
408.002	86.06
408.226	78.06
408.449	77.06
408.673	88.06
408.896	64.06
409.12	86.06
409.344	86.06
409.567	80.06
409.791	84.06
410.014	87.06
410.238	90.06
410.461	82.06
410.685	91.06
410.908	83.06
411.132	95.06
411.355	86.06
411.578	89.06
411.802	81.06
412.025	100.06
412.249	81.06
412.472	78.06
412.695	90.06
412.919	82.06
413.142	103.06
413.365	87.06
413.589	98.06
413.812	82.06
414.035	80.06
414.258	100.06
414.482	80.06
414.705	85.06
414.928	86.06
415.151	72.06
415.374	91.06
415.597	98.06
415.821	80.06
416.044	86.06
416.267	93.06
416.49	94.06
416.713	90.06
416.936	86.06
417.159	86.06
417.382	87.06
417.605	86.06
417.828	81.06
418.051	85.06
418.274	97.06
418.497	81.06
418.72	76.06
418.943	90.06
419.166	90.06
419.389	80.06
419.611	78.06
419.834	82.06
420.057	80.06
420.28	78.06
420.503	75.06
420.726	84.06
420.948	88.06
421.171	90.06
421.394	104.06
421.617	115.06
421.839	96.06
422.062	110.06
422.285	120.06
422.507	162.06
422.73	201.06
422.953	167.06
423.175	142.06
423.398	101.06
423.621	98.06
423.843	97.06
424.066	87.06
424.288	86.06
424.511	97.06
424.733	87.06
424.956	88.06
425.178	75.06
425.401	81.06
425.623	67.06
425.846	86.06
426.068	70.06
426.291	87.06
426.513	82.06
426.735	90.06
426.958	88.06
427.18	90.06
427.402	100.06
427.625	80.06
427.847	99.06
428.069	95.06
428.292	91.06
428.514	108.06
428.736	108.06
428.958	104.06
429.181	107.06
429.403	96.06
429.625	82.06
429.847	100.06
430.069	110.06
430.292	105.06
430.514	112.06
430.736	110.06
430.958	105.06
431.18	82.06
431.402	88.06
431.624	90.06
431.846	92.06
432.068	107.06
432.29	85.06
432.512	103.06
432.734	91.06
432.956	97.06
433.178	90.06
433.4	76.06
433.622	75.06
433.844	92.06
434.066	90.06
434.287	86.06
434.509	63.06
434.731	78.06
434.953	84.06
435.175	87.06
435.397	82.06
435.618	88.06
435.84	80.06
436.062	81.06
436.284	74.06
436.505	90.06
436.727	88.06
436.949	113.06
437.17	96.06
437.392	88.06
437.614	94.06
437.835	82.06
438.057	88.06
438.278	82.06
438.5	104.06
438.721	95.06
438.943	93.06
439.165	83.06
439.386	74.06
439.608	98.06
439.829	82.06
440.05	86.06
440.272	66.06
440.493	78.06
440.715	67.06
440.936	86.06
441.158	92.06
441.379	82.06
441.6	82.06
441.822	86.06
442.043	91.06
442.264	93.06
442.486	103.06
442.707	114.06
442.928	101.06
443.149	94.06
443.371	115.06
443.592	142.06
443.813	133.06
444.034	113.06
444.255	94.06
444.476	87.06
444.698	85.06
444.919	84.06
445.14	164.06
445.361	148.06
445.582	171.06
445.803	146.06
446.024	107.06
446.245	86.06
446.466	94.06
446.687	85.06
446.908	76.06
447.129	91.06
447.35	97.06
447.571	90.06
447.792	86.06
448.013	94.06
448.234	82.06
448.455	84.06
448.675	74.06
448.896	75.06
449.117	88.06
449.338	81.06
449.559	81.06
449.779	83.06
450	81.06
450.221	89.06
450.442	83.06
450.662	85.06
450.883	82.06
451.104	91.06
451.324	72.06
451.545	84.06
451.766	96.06
451.986	74.06
452.207	73.06
452.428	77.06
452.648	89.06
452.869	90.06
453.089	92.06
453.31	82.06
453.53	81.06
453.751	88.06
453.971	95.06
454.192	78.06
454.412	76.06
454.633	82.06
454.853	92.06
455.073	88.06
455.294	67.06
455.514	88.06
455.734	82.06
455.955	83.06
456.175	85.06
456.395	79.06
456.616	67.06
456.836	64.06
457.056	98.06
457.276	92.06
457.497	77.06
457.717	90.06
457.937	92.06
458.157	98.06
458.377	94.06
458.598	96.06
458.818	99.06
459.038	80.06
459.258	78.06
459.478	79.06
459.698	80.06
459.918	96.06
460.138	89.06
460.358	82.06
460.578	78.06
460.798	100.06
461.018	98.06
461.238	90.06
461.458	85.06
461.678	78.06
461.898	84.06
462.118	92.06
462.338	99.06
462.558	93.06
462.777	90.06
462.997	88.06
463.217	79.06
463.437	98.06
463.657	91.06
463.876	69.06
464.096	102.06
464.316	76.06
464.536	82.06
464.755	88.06
464.975	89.06
465.195	81.06
465.414	94.06
465.634	82.06
465.854	86.06
466.073	80.06
466.293	87.06
466.512	72.06
466.732	86.06
466.951	84.06
467.171	95.06
467.391	76.06
467.61	86.06
467.829	85.06
468.049	82.06
468.268	86.06
468.488	82.06
468.707	90.06
468.927	74.06
469.146	91.06
469.365	82.06
469.585	100.06
469.804	77.06
470.023	64.06
470.243	82.06
470.462	82.06
470.681	90.06
470.901	85.06
471.12	101.06
471.339	89.06
471.558	87.06
471.777	83.06
471.997	75.06
472.216	79.06
472.435	84.06
472.654	76.06
472.873	86.06
473.092	80.06
473.311	88.06
473.53	88.06
473.749	67.06
473.968	94.06
474.187	80.06
474.406	74.06
474.625	86.06
474.844	87.06
475.063	85.06
475.282	95.06
475.501	85.06
475.72	97.06
475.939	90.06
476.158	89.06
476.377	87.06
476.596	88.06
476.814	83.06
477.033	72.06
477.252	85.06
477.471	78.06
477.69	102.06
477.908	89.06
478.127	70.06
478.346	87.06
478.564	86.06
478.783	86.06
479.002	90.06
479.22	86.06
479.439	77.06
479.658	72.06
479.876	85.06
480.095	86.06
480.313	89.06
480.532	94.06
480.751	75.06
480.969	78.06
481.188	85.06
481.406	105.06
481.624	92.06
481.843	88.06
482.061	83.06
482.28	79.06
482.498	82.06
482.717	86.06
482.935	83.06
483.153	84.06
483.372	92.06
483.59	85.06
483.808	97.06
484.027	90.06
484.245	95.06
484.463	85.06
484.681	93.06
484.9	85.06
485.118	97.06
485.336	85.06
485.554	92.06
485.772	82.06
485.99	82.06
486.209	76.06
486.427	92.06
486.645	96.06
486.863	82.06
487.081	82.06
487.299	84.06
487.517	84.06
487.735	94.06
487.953	122.06
488.171	98.06
488.389	93.06
488.607	82.06
488.825	86.06
489.043	87.06
489.261	96.06
489.479	88.06
489.696	85.06
489.914	76.06
490.132	83.06
490.35	81.06
490.568	82.06
490.786	78.06
491.003	83.06
491.221	89.06
491.439	86.06
491.657	83.06
491.874	100.06
492.092	82.06
492.31	89.06
492.527	83.06
492.745	73.06
492.963	78.06
493.18	98.06
493.398	91.06
493.615	92.06
493.833	70.06
494.05	77.06
494.268	90.06
494.485	90.06
494.703	77.06
494.92	96.06
495.138	82.06
495.355	89.06
495.573	103.06
495.79	94.06
496.008	95.06
496.225	83.06
496.442	84.06
496.66	91.06
496.877	86.06
497.094	84.06
497.312	89.06
497.529	87.06
497.746	82.06
497.963	88.06
498.181	77.06
498.398	88.06
498.615	85.06
498.832	85.06
499.049	87.06
499.267	81.06
499.484	82.06
499.701	94.06
499.918	91.06
500.135	93.06
500.352	74.06
500.569	86.06
500.786	89.06
501.003	70.06
501.22	81.06
501.437	88.06
501.654	91.06
501.871	87.06
502.088	73.06
502.305	79.06
502.522	90.06
502.739	90.06
502.956	96.06
503.172	82.06
503.389	84.06
503.606	90.06
503.823	92.06
504.04	89.06
504.256	118.06
504.473	98.06
504.69	84.06
504.907	89.06
505.123	104.06
505.34	80.06
505.557	96.06
505.773	91.06
505.99	82.06
506.207	84.06
506.423	91.06
506.64	85.06
506.856	96.06
507.073	83.06
507.289	95.06
507.506	92.06
507.722	90.06
507.939	82.06
508.155	75.06
508.372	99.06
508.588	84.06
508.805	89.06
509.021	86.06
509.238	85.06
509.454	68.06
509.67	93.06
509.887	94.06
510.103	75.06
510.319	90.06
510.536	84.06
510.752	85.06
510.968	85.06
511.184	84.06
511.401	82.06
511.617	79.06
511.833	96.06
512.049	77.06
512.265	92.06
512.481	85.06
512.698	86.06
512.914	82.06
513.13	81.06
513.346	89.06
513.562	94.06
513.778	92.06
513.994	79.06
514.21	84.06
514.426	79.06
514.642	88.06
514.858	86.06
515.074	75.06
515.29	107.06
515.506	104.06
515.721	95.06
515.937	82.06
516.153	91.06
516.369	83.06
516.585	106.06
516.801	89.06
517.016	94.06
517.232	93.06
517.448	98.06
517.664	78.06
517.879	92.06
518.095	82.06
518.311	74.06
518.527	83.06
518.742	100.06
518.958	121.06
