Data from CBS_3_HRD10591_00007.txt Node
Date: Mon Jan 19 14:05:42 EST 2026
User: Yrep
Spectrometer: HR+D1059
Trigger mode: 1
Integration Time (sec): 1.000000E-1
Scans to average: 1
Electric dark correction enabled: true
Nonlinearity correction enabled: false
Boxcar width: 0
XAxis mode: Wavelengths
Number of Pixels in Spectrum: 2048
>>>>>Begin Spectral Data<<<<<
223.165	-18.81
223.4	-18.81
223.635	-18.81
223.869	-15.81
224.104	-17.81
224.338	-22.81
224.573	-13.81
224.808	-21.81
225.042	-12.81
225.277	-3.81
225.511	-3.81
225.746	28.19
225.98	-1.81
226.215	5.19
226.449	16.19
226.683	22.19
226.918	26.19
227.152	35.19
227.387	27.19
227.621	30.19
227.856	41.19
228.09	42.19
228.324	38.19
228.559	55.19
228.793	50.19
229.027	61.19
229.262	61.19
229.496	52.19
229.73	80.19
229.964	71.19
230.199	69.19
230.433	75.19
230.667	65.19
230.901	63.19
231.136	66.19
231.37	80.19
231.604	79.19
231.838	76.19
232.072	75.19
232.306	74.19
232.541	88.19
232.775	90.19
233.009	67.19
233.243	74.19
233.477	75.19
233.711	74.19
233.945	84.19
234.179	89.19
234.413	84.19
234.647	80.19
234.881	70.19
235.115	76.19
235.349	88.19
235.583	81.19
235.817	70.19
236.051	80.19
236.285	87.19
236.519	67.19
236.753	92.19
236.987	78.19
237.221	85.19
237.455	82.19
237.689	87.19
237.922	77.19
238.156	78.19
238.39	82.19
238.624	76.19
238.858	70.19
239.091	66.19
239.325	70.19
239.559	77.19
239.793	77.19
240.027	84.19
240.26	81.19
240.494	75.19
240.728	90.19
240.961	84.19
241.195	69.19
241.429	82.19
241.662	62.19
241.896	82.19
242.13	72.19
242.363	76.19
242.597	82.19
242.83	60.19
243.064	76.19
243.298	75.19
243.531	69.19
243.765	76.19
243.998	86.19
244.232	71.19
244.465	82.19
244.699	78.19
244.932	74.19
245.166	71.19
245.399	78.19
245.633	88.19
245.866	76.19
246.099	91.19
246.333	79.19
246.566	85.19
246.8	87.19
247.033	92.19
247.266	87.19
247.5	72.19
247.733	91.19
247.966	74.19
248.2	79.19
248.433	77.19
248.666	92.19
248.899	86.19
249.133	86.19
249.366	84.19
249.599	82.19
249.832	69.19
250.066	87.19
250.299	72.19
250.532	82.19
250.765	83.19
250.998	81.19
251.231	72.19
251.465	81.19
251.698	94.19
251.931	91.19
252.164	92.19
252.397	89.19
252.63	86.19
252.863	80.19
253.096	87.19
253.329	83.19
253.562	85.19
253.795	88.19
254.028	82.19
254.261	90.19
254.494	77.19
254.727	90.19
254.96	91.19
255.193	84.19
255.426	84.19
255.659	75.19
255.892	83.19
256.124	77.19
256.357	74.19
256.59	81.19
256.823	82.19
257.056	67.19
257.289	82.19
257.521	81.19
257.754	87.19
257.987	73.19
258.22	80.19
258.452	82.19
258.685	92.19
258.918	79.19
259.151	76.19
259.383	94.19
259.616	85.19
259.849	65.19
260.081	89.19
260.314	84.19
260.547	92.19
260.779	72.19
261.012	68.19
261.244	91.19
261.477	82.19
261.71	73.19
261.942	77.19
262.175	75.19
262.407	71.19
262.64	76.19
262.872	88.19
263.105	92.19
263.337	86.19
263.57	85.19
263.802	83.19
264.035	72.19
264.267	75.19
264.499	69.19
264.732	84.19
264.964	59.19
265.197	74.19
265.429	74.19
265.661	81.19
265.894	88.19
266.126	89.19
266.358	86.19
266.591	78.19
266.823	76.19
267.055	78.19
267.287	86.19
267.52	95.19
267.752	74.19
267.984	88.19
268.216	81.19
268.448	75.19
268.681	80.19
268.913	84.19
269.145	95.19
269.377	94.19
269.609	59.19
269.841	84.19
270.073	74.19
270.306	79.19
270.538	75.19
270.77	89.19
271.002	73.19
271.234	87.19
271.466	82.19
271.698	78.19
271.93	89.19
272.162	78.19
272.394	111.19
272.626	88.19
272.858	81.19
273.09	78.19
273.322	83.19
273.553	88.19
273.785	89.19
274.017	80.19
274.249	99.19
274.481	87.19
274.713	79.19
274.945	87.19
275.176	87.19
275.408	90.19
275.64	91.19
275.872	88.19
276.104	72.19
276.335	90.19
276.567	90.19
276.799	84.19
277.031	77.19
277.262	88.19
277.494	82.19
277.726	96.19
277.957	82.19
278.189	74.19
278.421	87.19
278.652	79.19
278.884	96.19
279.115	84.19
279.347	82.19
279.579	95.19
279.81	106.19
280.042	101.19
280.273	94.19
280.505	90.19
280.736	80.19
280.968	101.19
281.199	105.19
281.431	94.19
281.662	85.19
281.894	85.19
282.125	71.19
282.356	77.19
282.588	74.19
282.819	99.19
283.051	72.19
283.282	84.19
283.513	89.19
283.745	88.19
283.976	79.19
284.207	91.19
284.439	88.19
284.67	78.19
284.901	94.19
285.132	96.19
285.364	110.19
285.595	96.19
285.826	86.19
286.057	94.19
286.288	84.19
286.52	82.19
286.751	90.19
286.982	82.19
287.213	84.19
287.444	93.19
287.675	93.19
287.906	83.19
288.138	97.19
288.369	96.19
288.6	86.19
288.831	79.19
289.062	95.19
289.293	98.19
289.524	96.19
289.755	81.19
289.986	89.19
290.217	74.19
290.448	90.19
290.679	93.19
290.91	104.19
291.141	70.19
291.371	77.19
291.602	93.19
291.833	82.19
292.064	85.19
292.295	87.19
292.526	91.19
292.757	85.19
292.987	83.19
293.218	87.19
293.449	82.19
293.68	90.19
293.91	87.19
294.141	107.19
294.372	101.19
294.603	85.19
294.833	95.19
295.064	87.19
295.295	89.19
295.525	79.19
295.756	105.19
295.987	99.19
296.217	92.19
296.448	84.19
296.679	93.19
296.909	92.19
297.14	93.19
297.37	91.19
297.601	93.19
297.831	100.19
298.062	98.19
298.292	99.19
298.523	80.19
298.753	76.19
298.984	87.19
299.214	100.19
299.445	100.19
299.675	111.19
299.905	116.19
300.136	115.19
300.366	99.19
300.597	110.19
300.827	111.19
301.057	115.19
301.288	91.19
301.518	104.19
301.748	94.19
301.979	102.19
302.209	106.19
302.439	100.19
302.669	87.19
302.9	96.19
303.13	82.19
303.36	83.19
303.59	92.19
303.82	91.19
304.051	98.19
304.281	105.19
304.511	103.19
304.741	89.19
304.971	73.19
305.201	102.19
305.431	87.19
305.661	87.19
305.891	100.19
306.121	102.19
306.352	92.19
306.582	95.19
306.812	74.19
307.042	98.19
307.272	88.19
307.502	83.19
307.731	102.19
307.961	105.19
308.191	121.19
308.421	122.19
308.651	102.19
308.881	103.19
309.111	104.19
309.341	150.19
309.571	115.19
309.8	106.19
310.03	100.19
310.26	84.19
310.49	90.19
310.72	92.19
310.949	82.19
311.179	91.19
311.409	74.19
311.639	97.19
311.868	84.19
312.098	100.19
312.328	91.19
312.557	85.19
312.787	82.19
313.017	83.19
313.246	84.19
313.476	100.19
313.706	99.19
313.935	97.19
314.165	95.19
314.394	99.19
314.624	107.19
314.853	105.19
315.083	104.19
315.312	93.19
315.542	125.19
315.771	146.19
316.001	190.19
316.23	162.19
316.46	105.19
316.689	96.19
316.919	104.19
317.148	102.19
317.377	131.19
317.607	140.19
317.836	198.19
318.065	235.19
318.295	190.19
318.524	126.19
318.753	104.19
318.983	99.19
319.212	99.19
319.441	97.19
319.67	87.19
319.9	84.19
320.129	90.19
320.358	100.19
320.587	96.19
320.816	95.19
321.046	88.19
321.275	107.19
321.504	88.19
321.733	99.19
321.962	99.19
322.191	96.19
322.42	105.19
322.649	108.19
322.878	106.19
323.108	103.19
323.337	105.19
323.566	88.19
323.795	101.19
324.024	96.19
324.253	83.19
324.482	83.19
324.71	103.19
324.939	75.19
325.168	112.19
325.397	94.19
325.626	103.19
325.855	82.19
326.084	91.19
326.313	104.19
326.542	91.19
326.77	97.19
326.999	91.19
327.228	94.19
327.457	94.19
327.686	92.19
327.914	96.19
328.143	80.19
328.372	85.19
328.6	90.19
328.829	99.19
329.058	100.19
329.287	87.19
329.515	99.19
329.744	90.19
329.972	100.19
330.201	97.19
330.43	92.19
330.658	81.19
330.887	88.19
331.115	96.19
331.344	81.19
331.572	102.19
331.801	92.19
332.03	100.19
332.258	93.19
332.486	83.19
332.715	91.19
332.943	75.19
333.172	103.19
333.4	105.19
333.629	108.19
333.857	99.19
334.085	104.19
334.314	111.19
334.542	138.19
334.771	124.19
334.999	142.19
335.227	138.19
335.455	117.19
335.684	122.19
335.912	133.19
336.14	148.19
336.369	118.19
336.597	114.19
336.825	123.19
337.053	103.19
337.281	100.19
337.51	101.19
337.738	103.19
337.966	76.19
338.194	106.19
338.422	97.19
338.65	95.19
338.878	98.19
339.106	97.19
339.334	97.19
339.562	88.19
339.79	95.19
340.018	77.19
340.246	89.19
340.474	99.19
340.702	89.19
340.93	82.19
341.158	94.19
341.386	95.19
341.614	81.19
341.842	99.19
342.07	83.19
342.298	88.19
342.526	95.19
342.754	101.19
342.981	102.19
343.209	99.19
343.437	106.19
343.665	95.19
343.893	100.19
344.12	107.19
344.348	98.19
344.576	95.19
344.804	101.19
345.031	86.19
345.259	91.19
345.487	93.19
345.714	90.19
345.942	89.19
346.17	113.19
346.397	101.19
346.625	88.19
346.853	87.19
347.08	85.19
347.308	92.19
347.535	111.19
347.763	103.19
347.99	97.19
348.218	90.19
348.445	96.19
348.673	106.19
348.9	132.19
349.128	133.19
349.355	108.19
349.583	92.19
349.81	88.19
350.037	85.19
350.265	100.19
350.492	96.19
350.72	97.19
350.947	94.19
351.174	96.19
351.402	89.19
351.629	84.19
351.856	92.19
352.083	94.19
352.311	104.19
352.538	91.19
352.765	94.19
352.992	97.19
353.22	99.19
353.447	99.19
353.674	91.19
353.901	77.19
354.128	95.19
354.355	103.19
354.583	80.19
354.81	89.19
355.037	94.19
355.264	99.19
355.491	85.19
355.718	95.19
355.945	105.19
356.172	98.19
356.399	99.19
356.626	98.19
356.853	110.19
357.08	110.19
357.307	111.19
357.534	97.19
357.761	95.19
357.988	114.19
358.215	109.19
358.441	119.19
358.668	117.19
358.895	112.19
359.122	98.19
359.349	81.19
359.576	99.19
359.802	104.19
360.029	100.19
360.256	99.19
360.483	93.19
360.709	114.19
360.936	102.19
361.163	112.19
361.39	106.19
361.616	105.19
361.843	124.19
362.07	136.19
362.296	179.19
362.523	198.19
362.749	197.19
362.976	251.19
363.203	288.19
363.429	170.19
363.656	149.19
363.882	141.19
364.109	228.19
364.335	308.19
364.562	380.19
364.788	228.19
365.015	128.19
365.241	125.19
365.468	106.19
365.694	103.19
365.92	97.19
366.147	112.19
366.373	104.19
366.599	80.19
366.826	93.19
367.052	97.19
367.278	108.19
367.505	90.19
367.731	99.19
367.957	98.19
368.184	101.19
368.41	100.19
368.636	106.19
368.862	91.19
369.089	98.19
369.315	98.19
369.541	106.19
369.767	102.19
369.993	95.19
370.219	121.19
370.445	130.19
370.672	183.19
370.898	161.19
371.124	96.19
371.35	94.19
371.576	94.19
371.802	117.19
372.028	113.19
372.254	97.19
372.48	114.19
372.706	86.19
372.932	122.19
373.158	126.19
373.384	163.19
373.61	226.19
373.835	273.19
374.061	166.19
374.287	107.19
374.513	131.19
374.739	126.19
374.965	133.19
375.191	94.19
375.416	110.19
375.642	116.19
375.868	102.19
376.094	112.19
376.319	120.19
376.545	98.19
376.771	104.19
376.997	104.19
377.222	95.19
377.448	107.19
377.674	84.19
377.899	89.19
378.125	104.19
378.35	108.19
378.576	103.19
378.802	114.19
379.027	100.19
379.253	104.19
379.478	116.19
379.704	97.19
379.929	114.19
380.155	112.19
380.38	91.19
380.606	111.19
380.831	109.19
381.057	106.19
381.282	116.19
381.507	105.19
381.733	105.19
381.958	106.19
382.184	114.19
382.409	116.19
382.634	141.19
382.86	136.19
383.085	143.19
383.31	142.19
383.535	136.19
383.761	131.19
383.986	140.19
384.211	128.19
384.436	112.19
384.662	128.19
384.887	130.19
385.112	115.19
385.337	129.19
385.562	130.19
385.787	133.19
386.013	148.19
386.238	132.19
386.463	119.19
386.688	145.19
386.913	144.19
387.138	138.19
387.363	147.19
387.588	143.19
387.813	136.19
388.038	161.19
388.263	150.19
388.488	135.19
388.713	123.19
388.938	122.19
389.163	107.19
389.387	122.19
389.612	110.19
389.837	112.19
390.062	123.19
390.287	118.19
390.512	122.19
390.736	125.19
390.961	132.19
391.186	134.19
391.411	117.19
391.636	126.19
391.86	153.19
392.085	144.19
392.31	182.19
392.534	249.19
392.759	358.19
392.984	674.19
393.208	1361.19
393.433	2147.19
393.658	1572.19
393.882	571.19
394.107	291.19
394.331	258.19
394.556	263.19
394.78	222.19
395.005	169.19
395.229	166.19
395.454	171.19
395.678	208.19
395.903	299.19
396.127	363.19
396.352	490.19
396.576	747.19
396.801	1365.19
397.025	1600.19
397.249	738.19
397.474	363.19
397.698	235.19
397.922	168.19
398.147	126.19
398.371	122.19
398.595	123.19
398.82	94.19
399.044	111.19
399.268	112.19
399.492	105.19
399.717	107.19
399.941	107.19
400.165	92.19
400.389	107.19
400.613	103.19
400.837	90.19
401.062	94.19
401.286	107.19
401.51	90.19
401.734	104.19
401.958	106.19
402.182	114.19
402.406	108.19
402.63	108.19
402.854	102.19
403.078	125.19
403.302	135.19
403.526	124.19
403.75	113.19
403.974	95.19
404.198	98.19
404.422	106.19
404.645	121.19
404.869	92.19
405.093	101.19
405.317	96.19
405.541	91.19
405.765	96.19
405.988	96.19
406.212	105.19
406.436	94.19
406.66	112.19
406.883	101.19
407.107	102.19
407.331	122.19
407.555	165.19
407.778	225.19
408.002	234.19
408.226	122.19
408.449	102.19
408.673	107.19
408.896	122.19
409.12	106.19
409.344	162.19
409.567	186.19
409.791	211.19
410.014	219.19
410.238	162.19
410.461	134.19
410.685	130.19
410.908	123.19
411.132	134.19
411.355	115.19
411.578	102.19
411.802	95.19
412.025	98.19
412.249	101.19
412.472	95.19
412.695	110.19
412.919	93.19
413.142	89.19
413.365	112.19
413.589	110.19
413.812	82.19
414.035	92.19
414.258	112.19
414.482	105.19
414.705	90.19
414.928	100.19
415.151	105.19
415.374	108.19
415.597	100.19
415.821	92.19
416.044	98.19
416.267	110.19
416.49	93.19
416.713	106.19
416.936	104.19
417.159	84.19
417.382	92.19
417.605	101.19
417.828	96.19
418.051	108.19
418.274	94.19
418.497	86.19
418.72	111.19
418.943	95.19
419.166	111.19
419.389	92.19
419.611	100.19
419.834	107.19
420.057	100.19
420.28	119.19
420.503	127.19
420.726	126.19
420.948	117.19
421.171	147.19
421.394	171.19
421.617	262.19
421.839	293.19
422.062	316.19
422.285	488.19
422.507	1038.19
422.73	1762.19
422.953	1567.19
423.175	707.19
423.398	355.19
423.621	234.19
423.843	186.19
424.066	171.19
424.288	146.19
424.511	125.19
424.733	130.19
424.956	134.19
425.178	120.19
425.401	94.19
425.623	96.19
425.846	98.19
426.068	98.19
426.291	102.19
426.513	116.19
426.735	110.19
426.958	108.19
427.18	107.19
427.402	112.19
427.625	107.19
427.847	127.19
428.069	176.19
428.292	316.19
428.514	413.19
428.736	257.19
428.958	336.19
429.181	363.19
429.403	158.19
429.625	184.19
429.847	327.19
430.069	523.19
430.292	630.19
430.514	576.19
430.736	354.19
430.958	396.19
431.18	197.19
431.402	131.19
431.624	175.19
431.846	312.19
432.068	368.19
432.29	177.19
432.512	102.19
432.734	99.19
432.956	94.19
433.178	110.19
433.4	91.19
433.622	85.19
433.844	104.19
434.066	99.19
434.287	90.19
434.509	103.19
434.731	92.19
434.953	114.19
435.175	119.19
435.397	117.19
435.618	141.19
435.84	143.19
436.062	138.19
436.284	103.19
436.505	86.19
436.727	99.19
436.949	96.19
437.17	86.19
437.392	92.19
437.614	79.19
437.835	94.19
438.057	91.19
438.278	88.19
438.5	112.19
438.721	106.19
438.943	89.19
439.165	111.19
439.386	95.19
439.608	98.19
439.829	89.19
440.05	104.19
440.272	95.19
440.493	101.19
440.715	105.19
440.936	94.19
441.158	100.19
441.379	104.19
441.6	125.19
441.822	115.19
442.043	143.19
442.264	167.19
442.486	355.19
442.707	550.19
442.928	323.19
443.149	252.19
443.371	484.19
443.592	1006.19
443.813	840.19
444.034	263.19
444.255	137.19
444.476	134.19
444.698	138.19
444.919	159.19
445.14	340.19
445.361	638.19
445.582	1263.19
445.803	1034.19
446.024	318.19
446.245	150.19
446.466	115.19
446.687	110.19
446.908	104.19
447.129	105.19
447.35	82.19
447.571	102.19
447.792	99.19
448.013	94.19
448.234	86.19
448.455	96.19
448.675	112.19
448.896	97.19
449.117	98.19
449.338	91.19
449.559	98.19
449.779	103.19
450	88.19
450.221	96.19
450.442	84.19
450.662	95.19
450.883	95.19
451.104	99.19
451.324	98.19
451.545	104.19
451.766	100.19
451.986	99.19
452.207	101.19
452.428	116.19
452.648	149.19
452.869	185.19
453.089	148.19
453.31	107.19
453.53	122.19
453.751	99.19
453.971	88.19
454.192	85.19
454.412	98.19
454.633	90.19
454.853	96.19
455.073	87.19
455.294	100.19
455.514	104.19
455.734	107.19
455.955	103.19
456.175	104.19
456.395	92.19
456.616	95.19
456.836	106.19
457.056	89.19
457.276	88.19
457.497	124.19
457.717	144.19
457.937	244.19
458.157	333.19
458.377	363.19
458.598	332.19
458.818	383.19
459.038	192.19
459.258	106.19
459.478	94.19
459.698	101.19
459.918	89.19
460.138	102.19
460.358	101.19
460.578	120.19
460.798	196.19
461.018	200.19
461.238	118.19
461.458	92.19
461.678	98.19
461.898	77.19
462.118	86.19
462.338	100.19
462.558	86.19
462.777	95.19
462.997	103.19
463.217	99.19
463.437	98.19
463.657	79.19
463.876	91.19
464.096	106.19
464.316	82.19
464.536	70.19
464.755	82.19
464.975	103.19
465.195	93.19
465.414	90.19
465.634	85.19
465.854	89.19
466.073	79.19
466.293	97.19
466.512	88.19
466.732	95.19
466.951	78.19
467.171	93.19
467.391	89.19
467.61	87.19
467.829	95.19
468.049	100.19
468.268	95.19
468.488	115.19
468.707	120.19
468.927	98.19
469.146	92.19
469.365	70.19
469.585	92.19
469.804	79.19
470.023	80.19
470.243	90.19
470.462	84.19
470.681	90.19
470.901	94.19
471.12	86.19
471.339	96.19
471.558	107.19
471.777	99.19
471.997	91.19
472.216	94.19
472.435	75.19
472.654	88.19
472.873	95.19
473.092	89.19
473.311	107.19
473.53	103.19
473.749	102.19
473.968	114.19
474.187	104.19
474.406	102.19
474.625	99.19
474.844	97.19
475.063	87.19
475.282	88.19
475.501	90.19
475.72	100.19
475.939	80.19
476.158	99.19
476.377	88.19
476.596	91.19
476.814	98.19
477.033	97.19
477.252	97.19
477.471	90.19
477.69	82.19
477.908	110.19
478.127	112.19
478.346	93.19
478.564	92.19
478.783	102.19
479.002	89.19
479.22	98.19
479.439	83.19
479.658	87.19
479.876	100.19
480.095	108.19
480.313	97.19
480.532	102.19
480.751	90.19
480.969	101.19
481.188	99.19
481.406	110.19
481.624	101.19
481.843	108.19
482.061	103.19
482.28	117.19
482.498	102.19
482.717	101.19
482.935	105.19
483.153	117.19
483.372	116.19
483.59	129.19
483.808	112.19
484.027	105.19
484.245	106.19
484.463	106.19
484.681	126.19
484.9	120.19
485.118	113.19
485.336	108.19
485.554	94.19
485.772	105.19
485.99	120.19
486.209	90.19
486.427	91.19
486.645	82.19
486.863	104.19
487.081	120.19
487.299	145.19
487.517	160.19
487.735	268.19
487.953	599.19
488.171	456.19
488.389	158.19
488.607	120.19
488.825	111.19
489.043	115.19
489.261	112.19
489.479	112.19
489.696	96.19
489.914	98.19
490.132	99.19
490.35	105.19
490.568	88.19
490.786	108.19
491.003	94.19
491.221	92.19
491.439	108.19
491.657	106.19
491.874	107.19
492.092	108.19
492.31	105.19
492.527	89.19
492.745	91.19
492.963	101.19
493.18	105.19
493.398	101.19
493.615	102.19
493.833	95.19
494.05	95.19
494.268	96.19
494.485	89.19
494.703	102.19
494.92	94.19
495.138	102.19
495.355	96.19
495.573	107.19
495.79	88.19
496.008	103.19
496.225	114.19
496.442	118.19
496.66	112.19
496.877	110.19
497.094	105.19
497.312	97.19
497.529	91.19
497.746	100.19
497.963	102.19
498.181	112.19
498.398	112.19
498.615	101.19
498.832	100.19
499.049	101.19
499.267	116.19
499.484	105.19
499.701	92.19
499.918	90.19
500.135	102.19
500.352	94.19
500.569	101.19
500.786	109.19
501.003	101.19
501.22	104.19
501.437	98.19
501.654	103.19
501.871	94.19
502.088	85.19
502.305	97.19
502.522	105.19
502.739	113.19
502.956	88.19
503.172	110.19
503.389	110.19
503.606	107.19
503.823	131.19
504.04	182.19
504.256	371.19
504.473	430.19
504.69	171.19
504.907	118.19
505.123	119.19
505.34	102.19
505.557	111.19
505.773	93.19
505.99	102.19
506.207	100.19
506.423	95.19
506.64	103.19
506.856	86.19
507.073	88.19
507.289	100.19
507.506	100.19
507.722	113.19
507.939	107.19
508.155	89.19
508.372	95.19
508.588	107.19
508.805	107.19
509.021	99.19
509.238	82.19
509.454	100.19
509.67	91.19
509.887	100.19
510.103	96.19
510.319	91.19
510.536	95.19
510.752	101.19
510.968	99.19
511.184	104.19
511.401	98.19
511.617	102.19
