Data from CBS_3_HRD10591_00009.txt Node
Date: Mon Jan 19 14:05:43 EST 2026
User: Yrep
Spectrometer: HR+D1059
Trigger mode: 1
Integration Time (sec): 1.000000E-1
Scans to average: 1
Electric dark correction enabled: true
Nonlinearity correction enabled: false
Boxcar width: 0
XAxis mode: Wavelengths
Number of Pixels in Spectrum: 2048
>>>>>Begin Spectral Data<<<<<
223.165	-11.94
223.4	-11.94
223.635	-11.94
223.869	-15.94
224.104	-30.94
224.338	-19.94
224.573	-8.94
224.808	1.06
225.042	-7.94
225.277	-17.94
225.511	-10.94
225.746	-14.94
225.98	2.06
226.215	19.06
226.449	14.06
226.683	17.06
226.918	42.06
227.152	44.06
227.387	34.06
227.621	35.06
227.856	44.06
228.09	48.06
228.324	47.06
228.559	65.06
228.793	64.06
229.027	68.06
229.262	76.06
229.496	59.06
229.73	66.06
229.964	63.06
230.199	61.06
230.433	72.06
230.667	86.06
230.901	68.06
231.136	73.06
231.37	84.06
231.604	88.06
231.838	76.06
232.072	74.06
232.306	75.06
232.541	97.06
232.775	88.06
233.009	89.06
233.243	83.06
233.477	78.06
233.711	87.06
233.945	70.06
234.179	71.06
234.413	82.06
234.647	86.06
234.881	88.06
235.115	82.06
235.349	82.06
235.583	81.06
235.817	75.06
236.051	81.06
236.285	85.06
236.519	74.06
236.753	87.06
236.987	84.06
237.221	80.06
237.455	84.06
237.689	82.06
237.922	72.06
238.156	74.06
238.39	77.06
238.624	87.06
238.858	86.06
239.091	73.06
239.325	61.06
239.559	84.06
239.793	73.06
240.027	72.06
240.26	78.06
240.494	74.06
240.728	85.06
240.961	68.06
241.195	63.06
241.429	76.06
241.662	84.06
241.896	77.06
242.13	71.06
242.363	76.06
242.597	73.06
242.83	82.06
243.064	72.06
243.298	80.06
243.531	80.06
243.765	88.06
243.998	80.06
244.232	77.06
244.465	80.06
244.699	82.06
244.932	82.06
245.166	85.06
245.399	70.06
245.633	94.06
245.866	76.06
246.099	74.06
246.333	65.06
246.566	72.06
246.8	74.06
247.033	76.06
247.266	76.06
247.5	74.06
247.733	76.06
247.966	86.06
248.2	72.06
248.433	76.06
248.666	76.06
248.899	70.06
249.133	85.06
249.366	93.06
249.599	83.06
249.832	86.06
250.066	93.06
250.299	68.06
250.532	65.06
250.765	84.06
250.998	75.06
251.231	85.06
251.465	81.06
251.698	70.06
251.931	78.06
252.164	86.06
252.397	72.06
252.63	67.06
252.863	60.06
253.096	81.06
253.329	89.06
253.562	76.06
253.795	86.06
254.028	72.06
254.261	80.06
254.494	86.06
254.727	83.06
254.96	70.06
255.193	76.06
255.426	85.06
255.659	74.06
255.892	87.06
256.124	74.06
256.357	82.06
256.59	88.06
256.823	81.06
257.056	67.06
257.289	63.06
257.521	82.06
257.754	88.06
257.987	90.06
258.22	81.06
258.452	82.06
258.685	62.06
258.918	84.06
259.151	90.06
259.383	74.06
259.616	77.06
259.849	81.06
260.081	84.06
260.314	80.06
260.547	82.06
260.779	69.06
261.012	72.06
261.244	81.06
261.477	98.06
261.71	96.06
261.942	85.06
262.175	88.06
262.407	77.06
262.64	98.06
262.872	88.06
263.105	71.06
263.337	82.06
263.57	81.06
263.802	70.06
264.035	93.06
264.267	64.06
264.499	84.06
264.732	78.06
264.964	73.06
265.197	88.06
265.429	78.06
265.661	75.06
265.894	80.06
266.126	86.06
266.358	90.06
266.591	84.06
266.823	78.06
267.055	79.06
267.287	98.06
267.52	95.06
267.752	84.06
267.984	80.06
268.216	90.06
268.448	84.06
268.681	84.06
268.913	89.06
269.145	88.06
269.377	88.06
269.609	86.06
269.841	84.06
270.073	80.06
270.306	88.06
270.538	81.06
270.77	84.06
271.002	87.06
271.234	74.06
271.466	88.06
271.698	91.06
271.93	88.06
272.162	81.06
272.394	93.06
272.626	85.06
272.858	86.06
273.09	77.06
273.322	81.06
273.553	84.06
273.785	80.06
274.017	75.06
274.249	88.06
274.481	83.06
274.713	81.06
274.945	81.06
275.176	77.06
275.408	87.06
275.64	84.06
275.872	81.06
276.104	78.06
276.335	77.06
276.567	92.06
276.799	89.06
277.031	79.06
277.262	77.06
277.494	89.06
277.726	94.06
277.957	88.06
278.189	84.06
278.421	79.06
278.652	79.06
278.884	74.06
279.115	86.06
279.347	86.06
279.579	87.06
279.81	101.06
280.042	89.06
280.273	84.06
280.505	104.06
280.736	93.06
280.968	92.06
281.199	88.06
281.431	86.06
281.662	93.06
281.894	80.06
282.125	92.06
282.356	90.06
282.588	69.06
282.819	78.06
283.051	80.06
283.282	87.06
283.513	100.06
283.745	86.06
283.976	84.06
284.207	89.06
284.439	74.06
284.67	92.06
284.901	95.06
285.132	113.06
285.364	112.06
285.595	108.06
285.826	89.06
286.057	99.06
286.288	84.06
286.52	84.06
286.751	86.06
286.982	93.06
287.213	84.06
287.444	85.06
287.675	80.06
287.906	84.06
288.138	90.06
288.369	95.06
288.6	90.06
288.831	92.06
289.062	83.06
289.293	73.06
289.524	80.06
289.755	90.06
289.986	83.06
290.217	81.06
290.448	98.06
290.679	92.06
290.91	85.06
291.141	74.06
291.371	88.06
291.602	81.06
291.833	96.06
292.064	92.06
292.295	78.06
292.526	87.06
292.757	80.06
292.987	77.06
293.218	92.06
293.449	87.06
293.68	92.06
293.91	96.06
294.141	85.06
294.372	90.06
294.603	79.06
294.833	86.06
295.064	85.06
295.295	87.06
295.525	89.06
295.756	88.06
295.987	92.06
296.217	77.06
296.448	74.06
296.679	72.06
296.909	87.06
297.14	94.06
297.37	88.06
297.601	81.06
297.831	93.06
298.062	97.06
298.292	89.06
298.523	83.06
298.753	96.06
298.984	81.06
299.214	84.06
299.445	91.06
299.675	102.06
299.905	115.06
300.136	89.06
300.366	112.06
300.597	104.06
300.827	114.06
301.057	106.06
301.288	102.06
301.518	88.06
301.748	87.06
301.979	118.06
302.209	92.06
302.439	78.06
302.669	92.06
302.9	82.06
303.13	87.06
303.36	96.06
303.59	94.06
303.82	80.06
304.051	100.06
304.281	95.06
304.511	92.06
304.741	94.06
304.971	86.06
305.201	83.06
305.431	82.06
305.661	89.06
305.891	96.06
306.121	84.06
306.352	84.06
306.582	73.06
306.812	92.06
307.042	71.06
307.272	78.06
307.502	89.06
307.731	86.06
307.961	87.06
308.191	99.06
308.421	108.06
308.651	109.06
308.881	99.06
309.111	113.06
309.341	126.06
309.571	122.06
309.8	94.06
310.03	100.06
310.26	73.06
310.49	92.06
310.72	90.06
310.949	85.06
311.179	77.06
311.409	90.06
311.639	82.06
311.868	79.06
312.098	84.06
312.328	83.06
312.557	105.06
312.787	95.06
313.017	92.06
313.246	100.06
313.476	98.06
313.706	89.06
313.935	98.06
314.165	99.06
314.394	85.06
314.624	109.06
314.853	103.06
315.083	98.06
315.312	95.06
315.542	124.06
315.771	149.06
316.001	143.06
316.23	130.06
316.46	107.06
316.689	88.06
316.919	81.06
317.148	93.06
317.377	91.06
317.607	114.06
317.836	148.06
318.065	186.06
318.295	150.06
318.524	110.06
318.753	103.06
318.983	94.06
319.212	93.06
319.441	87.06
319.67	98.06
319.9	86.06
320.129	87.06
320.358	100.06
320.587	99.06
320.816	96.06
321.046	98.06
321.275	97.06
321.504	93.06
321.733	100.06
321.962	94.06
322.191	95.06
322.42	101.06
322.649	112.06
322.878	112.06
323.108	93.06
323.337	97.06
323.566	100.06
323.795	89.06
324.024	92.06
324.253	92.06
324.482	92.06
324.71	97.06
324.939	101.06
325.168	77.06
325.397	94.06
325.626	89.06
325.855	80.06
326.084	76.06
326.313	86.06
326.542	82.06
326.77	92.06
326.999	88.06
327.228	76.06
327.457	88.06
327.686	96.06
327.914	100.06
328.143	93.06
328.372	72.06
328.6	88.06
328.829	89.06
329.058	86.06
329.287	92.06
329.515	80.06
329.744	108.06
329.972	86.06
330.201	87.06
330.43	92.06
330.658	82.06
330.887	74.06
331.115	92.06
331.344	90.06
331.572	89.06
331.801	84.06
332.03	100.06
332.258	95.06
332.486	107.06
332.715	92.06
332.943	66.06
333.172	92.06
333.4	96.06
333.629	93.06
333.857	102.06
334.085	97.06
334.314	105.06
334.542	115.06
334.771	142.06
334.999	127.06
335.227	131.06
335.455	112.06
335.684	112.06
335.912	134.06
336.14	159.06
336.369	113.06
336.597	124.06
336.825	112.06
337.053	97.06
337.281	88.06
337.51	104.06
337.738	109.06
337.966	94.06
338.194	102.06
338.422	89.06
338.65	106.06
338.878	94.06
339.106	92.06
339.334	85.06
339.562	93.06
339.79	95.06
340.018	85.06
340.246	88.06
340.474	80.06
340.702	97.06
340.93	104.06
341.158	94.06
341.386	92.06
341.614	86.06
341.842	75.06
342.07	94.06
342.298	98.06
342.526	85.06
342.754	88.06
342.981	92.06
343.209	90.06
343.437	108.06
343.665	108.06
343.893	93.06
344.12	110.06
344.348	104.06
344.576	95.06
344.804	110.06
345.031	99.06
345.259	82.06
345.487	84.06
345.714	94.06
345.942	87.06
346.17	88.06
346.397	96.06
346.625	96.06
346.853	89.06
347.08	90.06
347.308	111.06
347.535	96.06
347.763	94.06
347.99	96.06
348.218	74.06
348.445	103.06
348.673	108.06
348.9	110.06
349.128	99.06
349.355	90.06
349.583	94.06
349.81	90.06
350.037	79.06
350.265	84.06
350.492	95.06
350.72	93.06
350.947	82.06
351.174	80.06
351.402	81.06
351.629	84.06
351.856	92.06
352.083	84.06
352.311	96.06
352.538	82.06
352.765	96.06
352.992	95.06
353.22	74.06
353.447	84.06
353.674	101.06
353.901	94.06
354.128	72.06
354.355	88.06
354.583	96.06
354.81	84.06
355.037	100.06
355.264	94.06
355.491	91.06
355.718	89.06
355.945	98.06
356.172	91.06
356.399	104.06
356.626	105.06
356.853	93.06
357.08	111.06
357.307	101.06
357.534	74.06
357.761	93.06
357.988	108.06
358.215	121.06
358.441	112.06
358.668	105.06
358.895	99.06
359.122	93.06
359.349	99.06
359.576	100.06
359.802	91.06
360.029	102.06
360.256	87.06
360.483	88.06
360.709	88.06
360.936	105.06
361.163	109.06
361.39	87.06
361.616	96.06
361.843	122.06
362.07	126.06
362.296	154.06
362.523	188.06
362.749	198.06
362.976	246.06
363.203	257.06
363.429	175.06
363.656	120.06
363.882	137.06
364.109	195.06
364.335	300.06
364.562	338.06
364.788	205.06
365.015	124.06
365.241	110.06
365.468	110.06
365.694	101.06
365.92	99.06
366.147	101.06
366.373	90.06
366.599	82.06
366.826	97.06
367.052	97.06
367.278	96.06
367.505	110.06
367.731	112.06
367.957	94.06
368.184	85.06
368.41	97.06
368.636	97.06
368.862	110.06
369.089	96.06
369.315	108.06
369.541	89.06
369.767	96.06
369.993	89.06
370.219	109.06
370.445	122.06
370.672	154.06
370.898	130.06
371.124	121.06
371.35	103.06
371.576	85.06
371.802	112.06
372.028	112.06
372.254	97.06
372.48	102.06
372.706	102.06
372.932	96.06
373.158	120.06
373.384	146.06
373.61	183.06
373.835	229.06
374.061	136.06
374.287	108.06
374.513	108.06
374.739	126.06
374.965	117.06
375.191	110.06
375.416	98.06
375.642	108.06
375.868	112.06
376.094	110.06
376.319	101.06
376.545	93.06
376.771	107.06
376.997	95.06
377.222	110.06
377.448	105.06
377.674	109.06
377.899	97.06
378.125	86.06
378.35	103.06
378.576	108.06
378.802	93.06
379.027	116.06
379.253	102.06
379.478	108.06
379.704	112.06
379.929	112.06
380.155	85.06
380.38	97.06
380.606	104.06
380.831	100.06
381.057	104.06
381.282	86.06
381.507	103.06
381.733	116.06
381.958	122.06
382.184	129.06
382.409	109.06
382.634	116.06
382.86	122.06
383.085	116.06
383.31	126.06
383.535	130.06
383.761	138.06
383.986	129.06
384.211	115.06
384.436	119.06
384.662	112.06
384.887	116.06
385.112	124.06
385.337	120.06
385.562	117.06
385.787	116.06
386.013	142.06
386.238	133.06
386.463	120.06
386.688	130.06
386.913	130.06
387.138	144.06
387.363	136.06
387.588	137.06
387.813	146.06
388.038	134.06
388.263	136.06
388.488	139.06
388.713	118.06
388.938	109.06
389.163	102.06
389.387	116.06
389.612	103.06
389.837	102.06
390.062	101.06
390.287	110.06
390.512	120.06
390.736	108.06
390.961	114.06
391.186	124.06
391.411	127.06
391.636	134.06
391.86	142.06
392.085	144.06
392.31	175.06
392.534	210.06
392.759	309.06
392.984	550.06
393.208	1095.06
393.433	1644.06
393.658	1212.06
393.882	463.06
394.107	254.06
394.331	229.06
394.556	239.06
394.78	168.06
395.005	160.06
395.229	167.06
395.454	173.06
395.678	194.06
395.903	249.06
396.127	323.06
396.352	407.06
396.576	604.06
396.801	1088.06
397.025	1287.06
397.249	619.06
397.474	328.06
397.698	206.06
397.922	140.06
398.147	114.06
398.371	125.06
398.595	133.06
398.82	119.06
399.044	108.06
399.268	109.06
399.492	110.06
399.717	101.06
399.941	103.06
400.165	96.06
400.389	96.06
400.613	112.06
400.837	93.06
401.062	92.06
401.286	93.06
401.51	102.06
401.734	78.06
401.958	95.06
402.182	88.06
402.406	100.06
402.63	94.06
402.854	97.06
403.078	100.06
403.302	118.06
403.526	116.06
403.75	93.06
403.974	101.06
404.198	100.06
404.422	89.06
404.645	109.06
404.869	116.06
405.093	97.06
405.317	99.06
405.541	92.06
405.765	97.06
405.988	104.06
406.212	102.06
406.436	104.06
406.66	97.06
406.883	106.06
407.107	101.06
407.331	108.06
407.555	139.06
407.778	194.06
408.002	210.06
408.226	117.06
408.449	101.06
408.673	101.06
408.896	119.06
409.12	116.06
409.344	155.06
409.567	174.06
409.791	181.06
410.014	180.06
410.238	163.06
410.461	134.06
410.685	122.06
410.908	102.06
411.132	126.06
411.355	104.06
411.578	100.06
411.802	117.06
412.025	90.06
412.249	93.06
412.472	88.06
412.695	82.06
412.919	86.06
413.142	88.06
413.365	100.06
413.589	103.06
413.812	85.06
414.035	86.06
414.258	96.06
414.482	82.06
414.705	96.06
414.928	108.06
415.151	96.06
415.374	94.06
415.597	89.06
415.821	105.06
416.044	81.06
416.267	87.06
416.49	90.06
416.713	93.06
416.936	100.06
417.159	113.06
417.382	94.06
417.605	109.06
417.828	99.06
418.051	103.06
418.274	92.06
418.497	111.06
418.72	80.06
418.943	89.06
419.166	112.06
419.389	104.06
419.611	97.06
419.834	101.06
420.057	104.06
420.28	94.06
420.503	106.06
420.726	133.06
420.948	136.06
421.171	138.06
421.394	172.06
421.617	246.06
421.839	278.06
422.062	281.06
422.285	456.06
422.507	888.06
422.73	1401.06
422.953	1225.06
423.175	591.06
423.398	300.06
423.621	218.06
423.843	146.06
424.066	157.06
424.288	153.06
424.511	122.06
424.733	129.06
424.956	128.06
425.178	97.06
425.401	108.06
425.623	94.06
425.846	97.06
426.068	98.06
426.291	105.06
426.513	94.06
426.735	122.06
426.958	112.06
427.18	109.06
427.402	103.06
427.625	88.06
427.847	123.06
428.069	154.06
428.292	294.06
428.514	349.06
428.736	238.06
428.958	300.06
429.181	295.06
429.403	170.06
429.625	168.06
429.847	269.06
430.069	424.06
430.292	547.06
430.514	498.06
430.736	328.06
430.958	338.06
431.18	176.06
431.402	116.06
431.624	132.06
431.846	271.06
432.068	339.06
432.29	149.06
432.512	120.06
432.734	114.06
432.956	78.06
433.178	94.06
433.4	97.06
433.622	83.06
433.844	102.06
434.066	100.06
434.287	93.06
434.509	90.06
434.731	89.06
434.953	97.06
435.175	117.06
435.397	119.06
435.618	131.06
435.84	120.06
436.062	121.06
436.284	117.06
436.505	101.06
436.727	101.06
436.949	102.06
437.17	99.06
437.392	96.06
437.614	91.06
437.835	83.06
438.057	85.06
438.278	106.06
438.5	110.06
438.721	101.06
438.943	86.06
439.165	93.06
439.386	98.06
439.608	97.06
439.829	88.06
440.05	103.06
440.272	90.06
440.493	107.06
440.715	97.06
440.936	112.06
441.158	91.06
441.379	110.06
441.6	107.06
441.822	105.06
442.043	116.06
442.264	161.06
442.486	308.06
442.707	504.06
442.928	294.06
443.149	230.06
443.371	397.06
443.592	864.06
443.813	696.06
444.034	236.06
444.255	159.06
444.476	137.06
444.698	133.06
444.919	161.06
445.14	333.06
445.361	537.06
445.582	1057.06
445.803	909.06
446.024	291.06
446.245	156.06
446.466	105.06
446.687	115.06
446.908	105.06
447.129	101.06
447.35	101.06
447.571	100.06
447.792	105.06
448.013	94.06
448.234	90.06
448.455	91.06
448.675	80.06
448.896	91.06
449.117	95.06
449.338	93.06
449.559	88.06
449.779	88.06
450	96.06
450.221	80.06
450.442	81.06
450.662	86.06
450.883	102.06
451.104	100.06
451.324	102.06
451.545	105.06
451.766	107.06
451.986	109.06
452.207	93.06
452.428	101.06
452.648	143.06
452.869	174.06
453.089	150.06
453.31	112.06
453.53	111.06
453.751	120.06
453.971	88.06
454.192	86.06
454.412	89.06
454.633	98.06
454.853	81.06
455.073	88.06
455.294	97.06
455.514	101.06
455.734	92.06
455.955	94.06
456.175	89.06
456.395	90.06
456.616	107.06
456.836	102.06
457.056	90.06
457.276	91.06
457.497	109.06
457.717	140.06
457.937	228.06
458.157	313.06
458.377	322.06
458.598	293.06
458.818	338.06
459.038	170.06
459.258	104.06
459.478	93.06
459.698	100.06
459.918	87.06
460.138	83.06
460.358	108.06
460.578	125.06
460.798	173.06
461.018	194.06
461.238	114.06
461.458	97.06
461.678	87.06
461.898	92.06
462.118	82.06
462.338	86.06
462.558	97.06
462.777	111.06
462.997	82.06
463.217	92.06
463.437	98.06
463.657	97.06
463.876	98.06
464.096	74.06
464.316	81.06
464.536	94.06
464.755	96.06
464.975	87.06
465.195	91.06
465.414	94.06
465.634	94.06
465.854	78.06
466.073	95.06
466.293	92.06
466.512	88.06
466.732	95.06
466.951	74.06
467.171	98.06
467.391	92.06
467.61	80.06
467.829	98.06
468.049	107.06
468.268	111.06
468.488	101.06
468.707	116.06
468.927	98.06
469.146	90.06
469.365	89.06
469.585	97.06
469.804	88.06
470.023	104.06
470.243	89.06
470.462	88.06
470.681	104.06
470.901	95.06
471.12	94.06
471.339	94.06
471.558	88.06
471.777	82.06
471.997	82.06
472.216	83.06
472.435	92.06
472.654	93.06
472.873	92.06
473.092	85.06
473.311	86.06
473.53	91.06
473.749	86.06
473.968	90.06
474.187	74.06
474.406	87.06
474.625	94.06
474.844	87.06
475.063	84.06
475.282	98.06
475.501	86.06
475.72	94.06
475.939	83.06
476.158	99.06
476.377	96.06
476.596	103.06
476.814	80.06
477.033	86.06
477.252	98.06
477.471	106.06
477.69	89.06
477.908	85.06
478.127	89.06
478.346	91.06
478.564	98.06
478.783	95.06
479.002	103.06
479.22	95.06
479.439	97.06
479.658	90.06
479.876	93.06
480.095	92.06
480.313	95.06
480.532	99.06
480.751	88.06
480.969	106.06
481.188	96.06
481.406	104.06
481.624	95.06
481.843	108.06
482.061	88.06
482.28	109.06
482.498	90.06
482.717	112.06
482.935	89.06
483.153	105.06
483.372	111.06
483.59	116.06
483.808	112.06
484.027	95.06
484.245	89.06
484.463	103.06
484.681	97.06
484.9	108.06
485.118	104.06
485.336	88.06
485.554	89.06
485.772	81.06
485.99	93.06
486.209	99.06
486.427	97.06
486.645	97.06
486.863	118.06
487.081	108.06
487.299	119.06
487.517	144.06
487.735	256.06
487.953	593.06
488.171	438.06
488.389	144.06
488.607	114.06
488.825	102.06
489.043	96.06
489.261	110.06
489.479	97.06
489.696	99.06
489.914	85.06
490.132	110.06
490.35	100.06
490.568	96.06
490.786	96.06
491.003	73.06
491.221	94.06
491.439	103.06
491.657	84.06
491.874	89.06
492.092	102.06
492.31	104.06
492.527	97.06
492.745	106.06
492.963	101.06
493.18	97.06
493.398	98.06
493.615	115.06
493.833	98.06
494.05	88.06
494.268	101.06
494.485	90.06
494.703	83.06
494.92	86.06
495.138	87.06
495.355	90.06
495.573	103.06
495.79	93.06
496.008	111.06
496.225	97.06
496.442	104.06
496.66	100.06
496.877	88.06
497.094	106.06
497.312	87.06
497.529	100.06
497.746	91.06
497.963	106.06
498.181	101.06
498.398	100.06
498.615	114.06
498.832	94.06
499.049	98.06
499.267	100.06
499.484	93.06
499.701	102.06
499.918	103.06
500.135	110.06
500.352	108.06
500.569	109.06
500.786	93.06
501.003	99.06
501.22	94.06
501.437	108.06
501.654	113.06
501.871	95.06
502.088	102.06
502.305	92.06
502.522	90.06
502.739	95.06
502.956	105.06
503.172	105.06
503.389	120.06
503.606	105.06
503.823	115.06
504.04	184.06
504.256	361.06
504.473	385.06
504.69	154.06
504.907	118.06
505.123	113.06
505.34	93.06
505.557	85.06
505.773	95.06
505.99	85.06
506.207	93.06
506.423	100.06
506.64	104.06
506.856	93.06
507.073	96.06
507.289	85.06
507.506	95.06
507.722	88.06
507.939	86.06
508.155	83.06
508.372	87.06
508.588	82.06
508.805	86.06
509.021	101.06
509.238	89.06
509.454	70.06
509.67	97.06
509.887	100.06
510.103	93.06
510.319	80.06
510.536	105.06
510.752	97.06
510.968	89.06
511.184	93.06
511.401	87.06
511.617	83.06
511.833	88.06
512.049	97.06
512.265	105.06
512.481	103.06
512.698	105.06
512.914	102.06
513.13	97.06
