Data from CBS_3_HRD10591_00033.txt Node
Date: Mon Jan 19 14:05:55 EST 2026
User: Yrep
Spectrometer: HR+D1059
Trigger mode: 1
Integration Time (sec): 1.000000E-1
Scans to average: 1
Electric dark correction enabled: true
Nonlinearity correction enabled: false
Boxcar width: 0
XAxis mode: Wavelengths
Number of Pixels in Spectrum: 2048
>>>>>Begin Spectral Data<<<<<
223.165	-6
223.4	-6
223.635	-6
223.869	-21
224.104	-22
224.338	-19
224.573	-23
224.808	-20
225.042	-19
225.277	-2
225.511	-25
225.746	18
225.98	11
226.215	12
226.449	21
226.683	19
226.918	37
227.152	39
227.387	57
227.621	51
227.856	43
228.09	61
228.324	48
228.559	50
228.793	51
229.027	51
229.262	63
229.496	66
229.73	84
229.964	83
230.199	69
230.433	69
230.667	75
230.901	69
231.136	78
231.37	81
231.604	98
231.838	90
232.072	88
232.306	80
232.541	83
232.775	88
233.009	85
233.243	78
233.477	84
233.711	93
233.945	92
234.179	83
234.413	85
234.647	80
234.881	74
235.115	78
235.349	83
235.583	87
235.817	78
236.051	85
236.285	96
236.519	73
236.753	83
236.987	79
237.221	78
237.455	81
237.689	77
237.922	85
238.156	71
238.39	82
238.624	83
238.858	77
239.091	77
239.325	85
239.559	81
239.793	84
240.027	83
240.26	72
240.494	84
240.728	82
240.961	86
241.195	80
241.429	72
241.662	55
241.896	61
242.13	88
242.363	88
242.597	77
242.83	72
243.064	87
243.298	84
243.531	66
243.765	78
243.998	84
244.232	68
244.465	73
244.699	84
244.932	72
245.166	83
245.399	85
245.633	72
245.866	75
246.099	81
246.333	74
246.566	72
246.8	83
247.033	60
247.266	63
247.5	69
247.733	73
247.966	90
248.2	85
248.433	73
248.666	76
248.899	70
249.133	90
249.366	84
249.599	94
249.832	79
250.066	82
250.299	71
250.532	76
250.765	90
250.998	76
251.231	97
251.465	92
251.698	86
251.931	69
252.164	76
252.397	69
252.63	66
252.863	83
253.096	72
253.329	80
253.562	74
253.795	100
254.028	80
254.261	77
254.494	83
254.727	80
254.96	76
255.193	72
255.426	88
255.659	78
255.892	100
256.124	90
256.357	92
256.59	89
256.823	89
257.056	86
257.289	95
257.521	84
257.754	85
257.987	84
258.22	75
258.452	81
258.685	82
258.918	72
259.151	98
259.383	72
259.616	78
259.849	93
260.081	69
260.314	74
260.547	91
260.779	88
261.012	79
261.244	65
261.477	101
261.71	82
261.942	72
262.175	73
262.407	77
262.64	89
262.872	94
263.105	84
263.337	82
263.57	79
263.802	77
264.035	80
264.267	76
264.499	88
264.732	84
264.964	70
265.197	80
265.429	84
265.661	94
265.894	92
266.126	104
266.358	82
266.591	88
266.823	82
267.055	75
267.287	86
267.52	74
267.752	76
267.984	99
268.216	90
268.448	70
268.681	88
268.913	92
269.145	86
269.377	83
269.609	77
269.841	94
270.073	70
270.306	84
270.538	93
270.77	64
271.002	94
271.234	85
271.466	88
271.698	90
271.93	88
272.162	102
272.394	90
272.626	86
272.858	69
273.09	91
273.322	76
273.553	73
273.785	84
274.017	86
274.249	89
274.481	84
274.713	83
274.945	85
275.176	73
275.408	84
275.64	74
275.872	84
276.104	79
276.335	92
276.567	93
276.799	102
277.031	80
277.262	94
277.494	86
277.726	76
277.957	83
278.189	86
278.421	81
278.652	93
278.884	85
279.115	85
279.347	89
279.579	81
279.81	84
280.042	85
280.273	94
280.505	83
280.736	90
280.968	85
281.199	93
281.431	84
281.662	72
281.894	93
282.125	78
282.356	86
282.588	79
282.819	74
283.051	86
283.282	99
283.513	84
283.745	85
283.976	82
284.207	91
284.439	68
284.67	69
284.901	81
285.132	85
285.364	92
285.595	82
285.826	95
286.057	75
286.288	89
286.52	82
286.751	92
286.982	94
287.213	83
287.444	88
287.675	88
287.906	90
288.138	78
288.369	84
288.6	67
288.831	101
289.062	93
289.293	67
289.524	76
289.755	85
289.986	94
290.217	88
290.448	84
290.679	83
290.91	83
291.141	83
291.371	79
291.602	96
291.833	85
292.064	82
292.295	78
292.526	76
292.757	79
292.987	94
293.218	85
293.449	85
293.68	73
293.91	92
294.141	86
294.372	84
294.603	79
294.833	81
295.064	100
295.295	84
295.525	87
295.756	81
295.987	76
296.217	82
296.448	84
296.679	100
296.909	91
297.14	92
297.37	90
297.601	93
297.831	86
298.062	78
298.292	81
298.523	88
298.753	75
298.984	87
299.214	89
299.445	98
299.675	84
299.905	87
300.136	97
300.366	89
300.597	90
300.827	90
301.057	92
301.288	89
301.518	81
301.748	93
301.979	104
302.209	92
302.439	81
302.669	94
302.9	97
303.13	75
303.36	94
303.59	76
303.82	75
304.051	93
304.281	84
304.511	76
304.741	74
304.971	89
305.201	94
305.431	80
305.661	96
305.891	86
306.121	82
306.352	91
306.582	73
306.812	88
307.042	95
307.272	77
307.502	68
307.731	85
307.961	94
308.191	86
308.421	83
308.651	78
308.881	82
309.111	76
309.341	97
309.571	84
309.8	76
310.03	72
310.26	85
310.49	90
310.72	87
310.949	100
311.179	98
311.409	89
311.639	76
311.868	84
312.098	84
312.328	92
312.557	91
312.787	85
313.017	97
313.246	91
313.476	88
313.706	87
313.935	82
314.165	97
314.394	93
314.624	91
314.853	84
315.083	93
315.312	83
315.542	95
315.771	98
316.001	93
316.23	85
316.46	90
316.689	89
316.919	79
317.148	94
317.377	91
317.607	103
317.836	90
318.065	82
318.295	94
318.524	84
318.753	96
318.983	102
319.212	80
319.441	82
319.67	77
319.9	101
320.129	82
320.358	80
320.587	74
320.816	91
321.046	97
321.275	96
321.504	86
321.733	83
321.962	87
322.191	89
322.42	76
322.649	103
322.878	101
323.108	88
323.337	84
323.566	77
323.795	75
324.024	84
324.253	82
324.482	86
324.71	88
324.939	77
325.168	86
325.397	92
325.626	89
325.855	87
326.084	83
326.313	77
326.542	76
326.77	79
326.999	90
327.228	90
327.457	79
327.686	90
327.914	71
328.143	95
328.372	79
328.6	91
328.829	101
329.058	84
329.287	87
329.515	78
329.744	79
329.972	81
330.201	100
330.43	90
330.658	83
330.887	88
331.115	91
331.344	84
331.572	96
331.801	87
332.03	102
332.258	89
332.486	96
332.715	78
332.943	89
333.172	92
333.4	74
333.629	88
333.857	99
334.085	82
334.314	77
334.542	76
334.771	98
334.999	90
335.227	103
335.455	90
335.684	92
335.912	76
336.14	93
336.369	82
336.597	93
336.825	88
337.053	90
337.281	87
337.51	97
337.738	90
337.966	96
338.194	72
338.422	87
338.65	83
338.878	85
339.106	90
339.334	80
339.562	95
339.79	88
340.018	85
340.246	88
340.474	92
340.702	89
340.93	85
341.158	75
341.386	71
341.614	91
341.842	85
342.07	82
342.298	87
342.526	93
342.754	74
342.981	72
343.209	82
343.437	99
343.665	99
343.893	94
344.12	90
344.348	80
344.576	85
344.804	91
345.031	88
345.259	82
345.487	92
345.714	80
345.942	81
346.17	85
346.397	86
346.625	95
346.853	89
347.08	78
347.308	86
347.535	96
347.763	87
347.99	96
348.218	90
348.445	88
348.673	93
348.9	92
349.128	87
349.355	76
349.583	82
349.81	82
350.037	87
350.265	98
350.492	88
350.72	77
350.947	86
351.174	91
351.402	79
351.629	76
351.856	85
352.083	83
352.311	73
352.538	93
352.765	86
352.992	80
353.22	79
353.447	85
353.674	102
353.901	90
354.128	79
354.355	93
354.583	86
354.81	98
355.037	89
355.264	88
355.491	92
355.718	80
355.945	91
356.172	83
356.399	85
356.626	86
356.853	81
357.08	89
357.307	92
357.534	74
357.761	85
357.988	83
358.215	88
358.441	85
358.668	77
358.895	92
359.122	90
359.349	98
359.576	88
359.802	90
360.029	98
360.256	98
360.483	88
360.709	84
360.936	77
361.163	79
361.39	109
361.616	76
361.843	86
362.07	85
362.296	89
362.523	100
362.749	84
362.976	103
363.203	108
363.429	109
363.656	96
363.882	101
364.109	73
364.335	95
364.562	102
364.788	71
365.015	83
365.241	90
365.468	96
365.694	71
365.92	85
366.147	93
366.373	94
366.599	89
366.826	91
367.052	104
367.278	100
367.505	83
367.731	98
367.957	83
368.184	98
368.41	79
368.636	82
368.862	95
369.089	87
369.315	78
369.541	74
369.767	64
369.993	85
370.219	83
370.445	81
370.672	91
370.898	93
371.124	86
371.35	81
371.576	88
371.802	82
372.028	84
372.254	104
372.48	96
372.706	97
372.932	87
373.158	94
373.384	96
373.61	90
373.835	90
374.061	93
374.287	84
374.513	85
374.739	88
374.965	98
375.191	77
375.416	107
375.642	83
375.868	92
376.094	76
376.319	81
376.545	90
376.771	99
376.997	88
377.222	90
377.448	101
377.674	102
377.899	82
378.125	76
378.35	83
378.576	84
378.802	82
379.027	74
379.253	93
379.478	90
379.704	76
379.929	100
380.155	84
380.38	81
380.606	70
380.831	97
381.057	87
381.282	96
381.507	84
381.733	83
381.958	72
382.184	74
382.409	81
382.634	90
382.86	87
383.085	85
383.31	73
383.535	91
383.761	80
383.986	88
384.211	100
384.436	86
384.662	82
384.887	83
385.112	89
385.337	102
385.562	76
385.787	79
386.013	75
386.238	90
386.463	83
386.688	102
386.913	89
387.138	84
387.363	82
387.588	89
387.813	80
388.038	85
388.263	91
388.488	88
388.713	81
388.938	96
389.163	92
389.387	93
389.612	87
389.837	70
390.062	86
390.287	73
390.512	92
390.736	86
390.961	85
391.186	81
391.411	87
391.636	106
391.86	98
392.085	97
392.31	101
392.534	85
392.759	98
392.984	114
393.208	149
393.433	209
393.658	170
393.882	105
394.107	99
394.331	91
394.556	101
394.78	104
395.005	86
395.229	82
395.454	85
395.678	92
395.903	95
396.127	116
396.352	113
396.576	118
396.801	148
397.025	177
397.249	120
397.474	114
397.698	78
397.922	92
398.147	84
398.371	85
398.595	91
398.82	84
399.044	91
399.268	91
399.492	80
399.717	87
399.941	85
400.165	94
400.389	78
400.613	85
400.837	81
401.062	86
401.286	98
401.51	92
401.734	86
401.958	91
402.182	70
402.406	79
402.63	73
402.854	98
403.078	88
403.302	80
403.526	90
403.75	102
403.974	101
404.198	87
404.422	89
404.645	85
404.869	82
405.093	82
405.317	82
405.541	87
405.765	84
405.988	79
406.212	87
406.436	89
406.66	90
406.883	82
407.107	83
407.331	72
407.555	88
407.778	90
408.002	96
408.226	77
408.449	78
408.673	78
408.896	72
409.12	75
409.344	88
409.567	89
409.791	105
410.014	91
410.238	83
410.461	79
410.685	92
410.908	95
411.132	89
411.355	81
411.578	88
411.802	96
412.025	80
412.249	76
412.472	86
412.695	78
412.919	73
413.142	86
413.365	79
413.589	98
413.812	93
414.035	77
414.258	73
414.482	97
414.705	88
414.928	87
415.151	86
415.374	78
415.597	78
415.821	61
416.044	80
416.267	89
416.49	90
416.713	91
416.936	94
417.159	81
417.382	92
417.605	93
417.828	98
418.051	95
418.274	97
418.497	76
418.72	88
418.943	86
419.166	92
419.389	74
419.611	96
419.834	90
420.057	98
420.28	86
420.503	86
420.726	77
420.948	73
421.171	80
421.394	91
421.617	96
421.839	94
422.062	91
422.285	115
422.507	166
422.73	230
422.953	197
423.175	117
423.398	109
423.621	88
423.843	91
424.066	85
424.288	93
424.511	92
424.733	80
424.956	85
425.178	68
425.401	83
425.623	85
425.846	93
426.068	94
426.291	92
426.513	81
426.735	80
426.958	87
427.18	84
427.402	85
427.625	91
427.847	109
428.069	105
428.292	91
428.514	105
428.736	98
428.958	120
429.181	94
429.403	88
429.625	97
429.847	103
430.069	112
430.292	117
430.514	113
430.736	102
430.958	104
431.18	86
431.402	77
431.624	98
431.846	100
432.068	94
432.29	88
432.512	93
432.734	88
432.956	91
433.178	91
433.4	90
433.622	93
433.844	75
434.066	85
434.287	78
434.509	102
434.731	79
434.953	91
435.175	84
435.397	76
435.618	79
435.84	82
436.062	86
436.284	82
436.505	86
436.727	75
436.949	89
437.17	89
437.392	90
437.614	99
437.835	86
438.057	76
438.278	74
438.5	86
438.721	83
438.943	83
439.165	73
439.386	94
439.608	96
439.829	92
440.05	100
440.272	91
440.493	91
440.715	91
440.936	77
441.158	83
441.379	90
441.6	84
441.822	78
442.043	69
442.264	89
442.486	82
442.707	123
442.928	93
443.149	64
443.371	106
443.592	125
443.813	119
444.034	91
444.255	88
444.476	90
444.698	70
444.919	88
445.14	176
445.361	142
445.582	154
445.803	126
446.024	87
446.245	91
446.466	74
446.687	95
446.908	84
447.129	85
447.35	87
447.571	89
447.792	94
448.013	88
448.234	82
448.455	87
448.675	96
448.896	95
449.117	82
449.338	80
449.559	92
449.779	86
450	86
450.221	83
450.442	78
450.662	89
450.883	88
451.104	97
451.324	84
451.545	79
451.766	89
451.986	90
452.207	93
452.428	78
452.648	78
452.869	82
453.089	77
453.31	82
453.53	78
453.751	96
453.971	91
454.192	72
454.412	72
454.633	72
454.853	85
455.073	73
455.294	81
455.514	78
455.734	73
455.955	81
456.175	85
456.395	85
456.616	80
456.836	79
457.056	104
457.276	91
457.497	90
457.717	92
457.937	100
458.157	94
458.377	88
458.598	92
458.818	84
459.038	89
459.258	86
459.478	82
459.698	78
459.918	81
460.138	95
460.358	78
460.578	92
460.798	101
461.018	90
461.238	85
461.458	93
461.678	84
461.898	93
462.118	92
462.338	72
462.558	86
462.777	89
462.997	82
463.217	80
463.437	82
463.657	92
463.876	86
464.096	91
464.316	78
464.536	80
464.755	76
464.975	72
465.195	85
465.414	85
465.634	95
465.854	81
466.073	95
466.293	74
466.512	86
466.732	81
466.951	86
467.171	76
467.391	74
467.61	88
467.829	78
468.049	83
468.268	77
468.488	82
468.707	85
468.927	83
469.146	87
469.365	89
469.585	75
469.804	82
470.023	75
470.243	76
470.462	96
470.681	95
470.901	87
471.12	88
471.339	78
471.558	85
471.777	88
471.997	91
472.216	81
472.435	74
472.654	90
472.873	73
473.092	83
473.311	86
473.53	91
473.749	95
473.968	74
474.187	90
474.406	78
474.625	76
474.844	100
475.063	89
475.282	76
475.501	84
475.72	93
475.939	88
476.158	88
476.377	73
476.596	89
476.814	90
477.033	99
477.252	80
477.471	74
477.69	82
477.908	84
478.127	98
478.346	86
478.564	68
478.783	84
479.002	90
479.22	82
479.439	89
479.658	92
479.876	82
480.095	84
480.313	82
480.532	78
480.751	86
480.969	86
481.188	81
481.406	98
481.624	85
481.843	90
482.061	93
482.28	89
482.498	94
482.717	96
482.935	89
483.153	92
483.372	75
483.59	68
483.808	86
484.027	95
484.245	82
484.463	85
484.681	93
484.9	82
485.118	90
485.336	88
485.554	82
485.772	95
485.99	98
486.209	104
486.427	108
486.645	79
486.863	82
487.081	81
487.299	85
487.517	77
487.735	91
487.953	120
488.171	106
488.389	98
488.607	97
488.825	84
489.043	86
489.261	89
489.479	92
489.696	89
489.914	88
490.132	74
490.35	78
490.568	86
490.786	87
491.003	94
491.221	85
491.439	79
491.657	83
491.874	99
492.092	85
492.31	86
492.527	81
492.745	77
492.963	76
493.18	92
493.398	95
493.615	92
493.833	86
494.05	100
494.268	96
494.485	95
494.703	87
494.92	82
495.138	85
495.355	81
495.573	78
495.79	71
496.008	101
496.225	100
496.442	91
496.66	97
496.877	78
497.094	89
497.312	85
497.529	78
497.746	100
497.963	77
498.181	81
498.398	91
498.615	89
498.832	85
499.049	85
499.267	85
499.484	85
499.701	89
499.918	83
500.135	80
500.352	98
500.569	92
500.786	96
501.003	90
501.22	79
501.437	84
501.654	95
501.871	95
502.088	85
502.305	94
502.522	89
502.739	90
502.956	70
503.172	89
503.389	84
503.606	77
503.823	84
504.04	85
504.256	106
504.473	90
504.69	93
504.907	82
505.123	86
505.34	82
505.557	85
505.773	88
505.99	90
506.207	97
506.423	88
506.64	88
506.856	78
507.073	79
507.289	64
507.506	100
507.722	96
507.939	80
508.155	85
508.372	89
508.588	94
508.805	76
509.021	72
509.238	93
509.454	74
509.67	82
509.887	83
510.103	84
510.319	101
510.536	78
510.752	82
510.968	83
511.184	88
511.401	87
511.617	95
511.833	96
512.049	72
512.265	86
512.481	75
512.698	77
512.914	95
513.13	84
513.346	88
513.562	75
513.778	96
513.994	87
514.21	100
514.426	85
514.642	89
514.858	69
515.074	80
515.29	88
515.506	89
515.721	94
515.937	96
516.153	84
516.369	94
516.585	91
516.801	76
517.016	83
517.232	82
517.448	88
517.664	93
517.879	89
518.095	83
518.311	91
518.527	94
518.742	97
518.958	94
519.173	99
519.389	78
519.605	86
519.82	98
520.036	80
520.251	89
520.467	89
520.682	74
520.898	86
521.113	74
521.329	79
521.544	95
521.76	89
521.975	75
522.19	82
522.406	86
522.621	86
522.836	81
523.052	84
523.267	91
523.482	83
523.698	87
523.913	84
524.128	86
524.343	76
524.559	79
524.774	81
524.989	84
525.204	80
525.419	88
525.634	78
525.849	92
526.064	106
526.28	126
526.495	132
526.71	147
526.925	113
527.14	145
527.355	144
527.57	107
527.785	98
527.999	88
528.214	92
528.429	96
528.644	83
528.859	97
529.074	91
529.289	78
529.503	86
529.718	94
529.933	88
530.148	80
530.363	94
530.577	90
530.792	89
531.007	82
531.221	75
531.436	86
531.651	78
531.865	87
532.08	93
532.295	102
532.509	89
532.724	85
532.938	80
533.153	82
533.367	90
533.582	97
533.796	89
534.011	93
534.225	80
534.44	88
534.654	100
534.868	90
535.083	120
535.297	119
535.511	99
535.726	88
535.94	85
536.154	92
536.369	85
536.583	72
536.797	81
537.011	86
537.225	89
537.44	88
537.654	98
537.868	84
538.082	87
538.296	88
538.51	81
538.724	90
538.938	85
539.153	90
539.367	80
539.581	98
539.795	84
540.009	84
540.222	83
540.436	76
540.65	75
540.864	102
541.078	91
541.292	80
541.506	98
541.72	91
541.934	103
542.147	98
542.361	82
542.575	84
542.789	76
543.002	82
543.216	90
543.43	86
543.644	92
543.857	89
544.071	93
544.285	93
544.498	74
544.712	72
544.925	92
545.139	101
545.352	86
545.566	108
545.779	85
545.993	77
546.206	83
546.42	90
546.633	93
546.847	91
547.06	101
547.274	109
547.487	102
547.7	120
547.914	110
548.127	121
548.34	121
548.554	111
548.767	113
548.98	114
549.193	125
549.407	107
549.62	124
549.833	124
550.046	135
550.259	134
550.473	115
550.686	136
550.899	138
551.112	136
551.325	124
551.538	145
551.751	150
551.964	120
552.177	133
552.39	137
552.603	112
552.816	119
553.029	112
553.242	132
553.455	130
553.667	134
553.88	112
554.093	140
554.306	126
554.519	130
554.732	138
554.944	123
555.157	124
555.37	142
555.583	114
555.795	109
556.008	114
556.221	106
556.433	107
556.646	119
556.859	97
557.071	93
557.284	105
557.496	101
557.709	102
557.921	117
558.134	83
558.346	117
558.559	105
558.771	112
558.984	162
559.196	181
559.409	116
559.621	153
559.833	143
560.046	151
560.258	132
560.47	127
560.683	100
560.895	99
561.107	91
561.32	85
561.532	74
561.744	96
561.956	81
562.168	91
562.381	90
562.593	77
562.805	105
563.017	98
563.229	82
563.441	89
563.653	97
563.865	73
564.077	76
564.289	98
564.501	98
564.713	79
564.925	104
565.137	98
565.349	96
565.561	85
565.773	97
565.985	97
566.197	92
566.408	92
566.62	84
566.832	93
567.044	102
567.255	88
567.467	86
567.679	76
567.891	95
568.102	79
568.314	96
568.526	91
568.737	81
568.949	93
569.161	88
569.372	89
569.584	102
569.795	101
570.007	83
570.218	87
570.43	88
570.641	100
570.853	85
571.064	75
571.276	75
571.487	79
571.698	98
571.91	74
572.121	88
572.333	85
572.544	101
572.755	94
572.966	84
573.178	94
573.389	72
573.6	92
573.811	94
574.023	85
574.234	85
574.445	79
574.656	83
574.867	91
575.078	92
575.289	95
575.501	87
575.712	78
575.923	96
576.134	85
576.345	96
576.556	91
576.767	102
576.978	101
577.188	82
577.399	81
577.61	88
577.821	87
578.032	78
578.243	90
578.454	85
578.665	95
578.875	97
579.086	90
579.297	79
579.508	86
579.718	92
579.929	96
580.14	87
580.35	88
580.561	96
580.772	89
580.982	86
581.193	88
581.403	74
581.614	79
581.825	86
582.035	89
582.246	85
582.456	102
582.667	104
582.877	88
583.087	102
583.298	87
583.508	85
583.719	96
583.929	86
584.139	85
584.35	104
584.56	88
584.77	85
584.981	91
585.191	85
585.401	98
585.611	89
585.821	114
586.032	142
586.242	103
586.452	84
586.662	88
586.872	97
587.082	92
587.292	77
587.502	88
587.713	98
