Data from CBS_3_HRD10591_00026.txt Node
Date: Mon Jan 19 14:05:51 EST 2026
User: Yrep
Spectrometer: HR+D1059
Trigger mode: 1
Integration Time (sec): 1.000000E-1
Scans to average: 1
Electric dark correction enabled: true
Nonlinearity correction enabled: false
Boxcar width: 0
XAxis mode: Wavelengths
Number of Pixels in Spectrum: 2048
>>>>>Begin Spectral Data<<<<<
223.165	-5.06
223.4	-5.06
223.635	-5.06
223.869	-21.06
224.104	-29.06
224.338	-19.06
224.573	-23.06
224.808	-14.06
225.042	-11.06
225.277	-3.06
225.511	10.94
225.746	10.94
225.98	13.94
226.215	18.94
226.449	5.94
226.683	25.94
226.918	5.94
227.152	32.94
227.387	40.94
227.621	41.94
227.856	61.94
228.09	38.94
228.324	50.94
228.559	59.94
228.793	55.94
229.027	57.94
229.262	49.94
229.496	58.94
229.73	67.94
229.964	60.94
230.199	73.94
230.433	60.94
230.667	58.94
230.901	64.94
231.136	66.94
231.37	69.94
231.604	74.94
231.838	82.94
232.072	84.94
232.306	84.94
232.541	91.94
232.775	74.94
233.009	72.94
233.243	71.94
233.477	77.94
233.711	74.94
233.945	72.94
234.179	94.94
234.413	85.94
234.647	75.94
234.881	95.94
235.115	70.94
235.349	84.94
235.583	72.94
235.817	68.94
236.051	82.94
236.285	73.94
236.519	76.94
236.753	79.94
236.987	75.94
237.221	80.94
237.455	72.94
237.689	69.94
237.922	76.94
238.156	77.94
238.39	79.94
238.624	60.94
238.858	65.94
239.091	75.94
239.325	78.94
239.559	75.94
239.793	76.94
240.027	84.94
240.26	71.94
240.494	92.94
240.728	80.94
240.961	72.94
241.195	71.94
241.429	77.94
241.662	74.94
241.896	82.94
242.13	88.94
242.363	82.94
242.597	74.94
242.83	74.94
243.064	61.94
243.298	64.94
243.531	82.94
243.765	82.94
243.998	76.94
244.232	82.94
244.465	84.94
244.699	75.94
244.932	78.94
245.166	83.94
245.399	76.94
245.633	84.94
245.866	67.94
246.099	71.94
246.333	75.94
246.566	82.94
246.8	69.94
247.033	80.94
247.266	71.94
247.5	68.94
247.733	83.94
247.966	85.94
248.2	75.94
248.433	68.94
248.666	86.94
248.899	86.94
249.133	81.94
249.366	74.94
249.599	71.94
249.832	70.94
250.066	92.94
250.299	80.94
250.532	72.94
250.765	78.94
250.998	80.94
251.231	82.94
251.465	75.94
251.698	64.94
251.931	70.94
252.164	74.94
252.397	83.94
252.63	92.94
252.863	76.94
253.096	89.94
253.329	85.94
253.562	83.94
253.795	66.94
254.028	77.94
254.261	73.94
254.494	79.94
254.727	92.94
254.96	66.94
255.193	71.94
255.426	85.94
255.659	92.94
255.892	79.94
256.124	79.94
256.357	79.94
256.59	70.94
256.823	71.94
257.056	68.94
257.289	81.94
257.521	80.94
257.754	88.94
257.987	71.94
258.22	92.94
258.452	66.94
258.685	87.94
258.918	75.94
259.151	76.94
259.383	80.94
259.616	89.94
259.849	87.94
260.081	81.94
260.314	83.94
260.547	97.94
260.779	80.94
261.012	88.94
261.244	89.94
261.477	86.94
261.71	83.94
261.942	83.94
262.175	74.94
262.407	82.94
262.64	90.94
262.872	77.94
263.105	80.94
263.337	88.94
263.57	93.94
263.802	73.94
264.035	73.94
264.267	69.94
264.499	78.94
264.732	88.94
264.964	69.94
265.197	82.94
265.429	84.94
265.661	84.94
265.894	82.94
266.126	88.94
266.358	74.94
266.591	74.94
266.823	80.94
267.055	83.94
267.287	82.94
267.52	71.94
267.752	84.94
267.984	85.94
268.216	89.94
268.448	84.94
268.681	79.94
268.913	68.94
269.145	88.94
269.377	87.94
269.609	69.94
269.841	78.94
270.073	69.94
270.306	72.94
270.538	75.94
270.77	88.94
271.002	88.94
271.234	81.94
271.466	73.94
271.698	110.94
271.93	72.94
272.162	93.94
272.394	70.94
272.626	76.94
272.858	87.94
273.09	74.94
273.322	74.94
273.553	83.94
273.785	99.94
274.017	94.94
274.249	88.94
274.481	78.94
274.713	73.94
274.945	96.94
275.176	73.94
275.408	78.94
275.64	88.94
275.872	66.94
276.104	94.94
276.335	81.94
276.567	88.94
276.799	74.94
277.031	78.94
277.262	68.94
277.494	84.94
277.726	73.94
277.957	90.94
278.189	87.94
278.421	90.94
278.652	79.94
278.884	78.94
279.115	81.94
279.347	76.94
279.579	87.94
279.81	82.94
280.042	84.94
280.273	84.94
280.505	84.94
280.736	73.94
280.968	74.94
281.199	74.94
281.431	79.94
281.662	84.94
281.894	89.94
282.125	85.94
282.356	75.94
282.588	85.94
282.819	86.94
283.051	73.94
283.282	66.94
283.513	77.94
283.745	81.94
283.976	89.94
284.207	77.94
284.439	78.94
284.67	86.94
284.901	86.94
285.132	80.94
285.364	86.94
285.595	68.94
285.826	67.94
286.057	85.94
286.288	70.94
286.52	75.94
286.751	80.94
286.982	75.94
287.213	90.94
287.444	85.94
287.675	83.94
287.906	81.94
288.138	88.94
288.369	88.94
288.6	83.94
288.831	76.94
289.062	68.94
289.293	76.94
289.524	93.94
289.755	66.94
289.986	92.94
290.217	95.94
290.448	83.94
290.679	71.94
290.91	92.94
291.141	78.94
291.371	84.94
291.602	84.94
291.833	89.94
292.064	76.94
292.295	72.94
292.526	72.94
292.757	89.94
292.987	74.94
293.218	86.94
293.449	73.94
293.68	89.94
293.91	82.94
294.141	80.94
294.372	78.94
294.603	88.94
294.833	86.94
295.064	82.94
295.295	85.94
295.525	72.94
295.756	78.94
295.987	80.94
296.217	73.94
296.448	76.94
296.679	90.94
296.909	78.94
297.14	84.94
297.37	76.94
297.601	84.94
297.831	78.94
298.062	85.94
298.292	81.94
298.523	82.94
298.753	78.94
298.984	96.94
299.214	87.94
299.445	83.94
299.675	99.94
299.905	90.94
300.136	75.94
300.366	66.94
300.597	92.94
300.827	72.94
301.057	84.94
301.288	80.94
301.518	84.94
301.748	76.94
301.979	98.94
302.209	79.94
302.439	74.94
302.669	75.94
302.9	79.94
303.13	84.94
303.36	90.94
303.59	70.94
303.82	86.94
304.051	91.94
304.281	84.94
304.511	84.94
304.741	90.94
304.971	79.94
305.201	94.94
305.431	87.94
305.661	92.94
305.891	91.94
306.121	98.94
306.352	76.94
306.582	73.94
306.812	96.94
307.042	81.94
307.272	82.94
307.502	86.94
307.731	76.94
307.961	85.94
308.191	98.94
308.421	78.94
308.651	94.94
308.881	85.94
309.111	88.94
309.341	81.94
309.571	84.94
309.8	79.94
310.03	80.94
310.26	79.94
310.49	70.94
310.72	84.94
310.949	77.94
311.179	91.94
311.409	85.94
311.639	89.94
311.868	69.94
312.098	95.94
312.328	83.94
312.557	88.94
312.787	89.94
313.017	96.94
313.246	90.94
313.476	92.94
313.706	76.94
313.935	72.94
314.165	98.94
314.394	88.94
314.624	85.94
314.853	81.94
315.083	88.94
315.312	81.94
315.542	91.94
315.771	94.94
316.001	104.94
316.23	110.94
316.46	95.94
316.689	74.94
316.919	82.94
317.148	70.94
317.377	86.94
317.607	81.94
317.836	89.94
318.065	81.94
318.295	92.94
318.524	70.94
318.753	73.94
318.983	80.94
319.212	79.94
319.441	88.94
319.67	88.94
319.9	78.94
320.129	91.94
320.358	84.94
320.587	80.94
320.816	82.94
321.046	83.94
321.275	70.94
321.504	77.94
321.733	92.94
321.962	86.94
322.191	86.94
322.42	90.94
322.649	91.94
322.878	92.94
323.108	97.94
323.337	82.94
323.566	82.94
323.795	92.94
324.024	97.94
324.253	87.94
324.482	89.94
324.71	79.94
324.939	87.94
325.168	96.94
325.397	72.94
325.626	82.94
325.855	76.94
326.084	80.94
326.313	90.94
326.542	94.94
326.77	84.94
326.999	88.94
327.228	78.94
327.457	72.94
327.686	68.94
327.914	86.94
328.143	79.94
328.372	82.94
328.6	96.94
328.829	84.94
329.058	80.94
329.287	95.94
329.515	64.94
329.744	74.94
329.972	75.94
330.201	84.94
330.43	82.94
330.658	85.94
330.887	78.94
331.115	80.94
331.344	89.94
331.572	101.94
331.801	88.94
332.03	82.94
332.258	87.94
332.486	93.94
332.715	87.94
332.943	82.94
333.172	101.94
333.4	78.94
333.629	88.94
333.857	81.94
334.085	80.94
334.314	70.94
334.542	92.94
334.771	88.94
334.999	73.94
335.227	83.94
335.455	79.94
335.684	83.94
335.912	95.94
336.14	92.94
336.369	94.94
336.597	79.94
336.825	75.94
337.053	87.94
337.281	92.94
337.51	84.94
337.738	85.94
337.966	92.94
338.194	76.94
338.422	86.94
338.65	99.94
338.878	88.94
339.106	72.94
339.334	73.94
339.562	74.94
339.79	78.94
340.018	79.94
340.246	87.94
340.474	88.94
340.702	81.94
340.93	97.94
341.158	82.94
341.386	85.94
341.614	76.94
341.842	68.94
342.07	79.94
342.298	88.94
342.526	78.94
342.754	88.94
342.981	82.94
343.209	96.94
343.437	103.94
343.665	80.94
343.893	77.94
344.12	86.94
344.348	90.94
344.576	86.94
344.804	80.94
345.031	67.94
345.259	80.94
345.487	96.94
345.714	84.94
345.942	74.94
346.17	76.94
346.397	82.94
346.625	70.94
346.853	74.94
347.08	73.94
347.308	78.94
347.535	82.94
347.763	97.94
347.99	87.94
348.218	93.94
348.445	74.94
348.673	82.94
348.9	80.94
349.128	84.94
349.355	78.94
349.583	80.94
349.81	81.94
350.037	82.94
350.265	69.94
350.492	84.94
350.72	96.94
350.947	90.94
351.174	88.94
351.402	73.94
351.629	82.94
351.856	65.94
352.083	86.94
352.311	84.94
352.538	74.94
352.765	73.94
352.992	92.94
353.22	95.94
353.447	82.94
353.674	85.94
353.901	82.94
354.128	80.94
354.355	86.94
354.583	83.94
354.81	91.94
355.037	98.94
355.264	74.94
355.491	77.94
355.718	78.94
355.945	100.94
356.172	82.94
356.399	80.94
356.626	81.94
356.853	71.94
357.08	85.94
357.307	92.94
357.534	84.94
357.761	82.94
357.988	74.94
358.215	76.94
358.441	76.94
358.668	84.94
358.895	81.94
359.122	78.94
359.349	82.94
359.576	84.94
359.802	79.94
360.029	86.94
360.256	83.94
360.483	89.94
360.709	65.94
360.936	91.94
361.163	87.94
361.39	91.94
361.616	87.94
361.843	85.94
362.07	82.94
362.296	86.94
362.523	95.94
362.749	86.94
362.976	98.94
363.203	112.94
363.429	102.94
363.656	101.94
363.882	80.94
364.109	93.94
364.335	110.94
364.562	122.94
364.788	95.94
365.015	77.94
365.241	91.94
365.468	82.94
365.694	72.94
365.92	78.94
366.147	81.94
366.373	82.94
366.599	85.94
366.826	86.94
367.052	91.94
367.278	96.94
367.505	82.94
367.731	89.94
367.957	86.94
368.184	83.94
368.41	76.94
368.636	82.94
368.862	72.94
369.089	97.94
369.315	78.94
369.541	82.94
369.767	88.94
369.993	87.94
370.219	73.94
370.445	105.94
370.672	71.94
370.898	91.94
371.124	79.94
371.35	80.94
371.576	87.94
371.802	96.94
372.028	91.94
372.254	88.94
372.48	76.94
372.706	93.94
372.932	84.94
373.158	90.94
373.384	93.94
373.61	99.94
373.835	92.94
374.061	70.94
374.287	87.94
374.513	73.94
374.739	84.94
374.965	82.94
375.191	82.94
375.416	86.94
375.642	78.94
375.868	90.94
376.094	93.94
376.319	73.94
376.545	82.94
376.771	64.94
376.997	79.94
377.222	86.94
377.448	79.94
377.674	80.94
377.899	84.94
378.125	76.94
378.35	100.94
378.576	92.94
378.802	86.94
379.027	88.94
379.253	85.94
379.478	81.94
379.704	96.94
379.929	76.94
380.155	79.94
380.38	90.94
380.606	91.94
380.831	98.94
381.057	88.94
381.282	78.94
381.507	65.94
381.733	77.94
381.958	93.94
382.184	71.94
382.409	89.94
382.634	87.94
382.86	94.94
383.085	85.94
383.31	85.94
383.535	81.94
383.761	95.94
383.986	81.94
384.211	81.94
384.436	66.94
384.662	89.94
384.887	77.94
385.112	78.94
385.337	74.94
385.562	77.94
385.787	84.94
386.013	89.94
386.238	89.94
386.463	88.94
386.688	109.94
386.913	104.94
387.138	80.94
387.363	94.94
387.588	92.94
387.813	83.94
388.038	85.94
388.263	73.94
388.488	90.94
388.713	78.94
388.938	91.94
389.163	92.94
389.387	91.94
389.612	78.94
389.837	76.94
390.062	72.94
390.287	81.94
390.512	87.94
390.736	91.94
390.961	75.94
391.186	81.94
391.411	92.94
391.636	96.94
391.86	78.94
392.085	94.94
392.31	75.94
392.534	101.94
392.759	100.94
392.984	132.94
393.208	187.94
393.433	247.94
393.658	179.94
393.882	122.94
394.107	94.94
394.331	98.94
394.556	98.94
394.78	109.94
395.005	99.94
395.229	92.94
395.454	89.94
395.678	93.94
395.903	104.94
396.127	98.94
396.352	112.94
396.576	124.94
396.801	157.94
397.025	190.94
397.249	132.94
397.474	114.94
397.698	81.94
397.922	84.94
398.147	82.94
398.371	78.94
398.595	91.94
398.82	73.94
399.044	89.94
399.268	96.94
399.492	81.94
399.717	77.94
399.941	79.94
400.165	77.94
400.389	80.94
400.613	86.94
400.837	71.94
401.062	80.94
401.286	83.94
401.51	85.94
401.734	90.94
401.958	83.94
402.182	73.94
402.406	80.94
402.63	84.94
402.854	69.94
403.078	78.94
403.302	92.94
403.526	92.94
403.75	97.94
403.974	82.94
404.198	81.94
404.422	78.94
404.645	82.94
404.869	78.94
405.093	86.94
405.317	83.94
405.541	75.94
405.765	88.94
405.988	73.94
406.212	74.94
406.436	89.94
406.66	83.94
406.883	86.94
407.107	89.94
407.331	81.94
407.555	80.94
407.778	84.94
408.002	85.94
408.226	81.94
408.449	74.94
408.673	77.94
408.896	92.94
409.12	98.94
409.344	86.94
409.567	84.94
409.791	84.94
410.014	90.94
410.238	74.94
410.461	81.94
410.685	89.94
410.908	90.94
411.132	76.94
411.355	84.94
411.578	97.94
411.802	75.94
412.025	100.94
412.249	81.94
412.472	70.94
412.695	90.94
412.919	78.94
413.142	82.94
413.365	86.94
413.589	78.94
413.812	76.94
414.035	82.94
414.258	85.94
414.482	82.94
414.705	78.94
414.928	77.94
415.151	78.94
415.374	73.94
415.597	69.94
415.821	75.94
416.044	90.94
416.267	86.94
416.49	85.94
416.713	80.94
416.936	84.94
417.159	78.94
417.382	91.94
417.605	82.94
417.828	80.94
418.051	82.94
418.274	90.94
418.497	75.94
418.72	62.94
418.943	81.94
419.166	86.94
419.389	85.94
419.611	76.94
419.834	94.94
420.057	75.94
420.28	82.94
420.503	80.94
420.726	79.94
420.948	89.94
421.171	88.94
421.394	99.94
421.617	93.94
421.839	101.94
422.062	110.94
422.285	131.94
422.507	196.94
422.73	309.94
422.953	257.94
423.175	155.94
423.398	114.94
423.621	88.94
423.843	101.94
424.066	84.94
424.288	92.94
424.511	92.94
424.733	86.94
424.956	98.94
425.178	90.94
425.401	83.94
425.623	90.94
425.846	74.94
426.068	85.94
426.291	74.94
426.513	84.94
426.735	84.94
426.958	85.94
427.18	80.94
427.402	77.94
427.625	85.94
427.847	84.94
428.069	104.94
428.292	100.94
428.514	114.94
428.736	108.94
428.958	97.94
429.181	116.94
429.403	87.94
429.625	100.94
429.847	115.94
430.069	125.94
430.292	149.94
430.514	132.94
430.736	121.94
430.958	128.94
431.18	100.94
431.402	82.94
431.624	83.94
431.846	100.94
432.068	111.94
432.29	90.94
432.512	94.94
432.734	77.94
432.956	85.94
433.178	89.94
433.4	71.94
433.622	81.94
433.844	86.94
434.066	78.94
434.287	89.94
434.509	80.94
434.731	67.94
434.953	68.94
435.175	74.94
435.397	95.94
435.618	87.94
435.84	77.94
436.062	83.94
436.284	79.94
436.505	78.94
436.727	80.94
436.949	86.94
437.17	79.94
437.392	68.94
437.614	80.94
437.835	90.94
438.057	68.94
438.278	84.94
438.5	82.94
438.721	76.94
438.943	90.94
439.165	86.94
439.386	93.94
439.608	87.94
439.829	86.94
440.05	87.94
440.272	82.94
440.493	81.94
440.715	85.94
440.936	73.94
441.158	82.94
441.379	92.94
441.6	84.94
441.822	89.94
442.043	94.94
442.264	100.94
442.486	115.94
442.707	128.94
442.928	121.94
443.149	95.94
443.371	124.94
443.592	192.94
443.813	156.94
444.034	98.94
444.255	88.94
444.476	95.94
444.698	83.94
444.919	84.94
445.14	196.94
445.361	178.94
445.582	231.94
445.803	203.94
446.024	102.94
446.245	90.94
446.466	101.94
446.687	74.94
446.908	82.94
447.129	83.94
447.35	81.94
447.571	88.94
447.792	80.94
448.013	73.94
448.234	86.94
448.455	74.94
448.675	84.94
448.896	83.94
449.117	86.94
449.338	75.94
449.559	89.94
449.779	78.94
450	76.94
450.221	79.94
450.442	88.94
450.662	81.94
450.883	96.94
451.104	99.94
451.324	93.94
451.545	78.94
451.766	92.94
451.986	88.94
452.207	68.94
452.428	83.94
452.648	85.94
452.869	89.94
453.089	89.94
453.31	85.94
453.53	83.94
453.751	86.94
453.971	79.94
454.192	84.94
454.412	81.94
454.633	74.94
454.853	86.94
455.073	80.94
455.294	78.94
455.514	78.94
455.734	80.94
455.955	81.94
456.175	85.94
456.395	79.94
456.616	79.94
456.836	74.94
457.056	98.94
457.276	78.94
457.497	77.94
457.717	96.94
457.937	114.94
458.157	103.94
458.377	113.94
458.598	106.94
458.818	108.94
459.038	97.94
459.258	68.94
459.478	72.94
459.698	93.94
459.918	81.94
460.138	86.94
460.358	81.94
460.578	88.94
460.798	100.94
461.018	98.94
461.238	90.94
461.458	76.94
461.678	83.94
461.898	74.94
462.118	78.94
462.338	84.94
462.558	87.94
462.777	101.94
462.997	85.94
463.217	80.94
463.437	88.94
463.657	87.94
463.876	90.94
464.096	96.94
464.316	80.94
464.536	73.94
464.755	85.94
464.975	76.94
465.195	81.94
465.414	92.94
465.634	72.94
465.854	92.94
466.073	90.94
466.293	80.94
466.512	79.94
466.732	82.94
466.951	92.94
467.171	100.94
467.391	84.94
467.61	84.94
467.829	80.94
468.049	77.94
468.268	82.94
468.488	70.94
468.707	80.94
468.927	90.94
469.146	84.94
469.365	89.94
469.585	93.94
469.804	84.94
470.023	78.94
470.243	86.94
470.462	92.94
470.681	71.94
470.901	94.94
471.12	102.94
471.339	81.94
471.558	89.94
471.777	80.94
471.997	79.94
472.216	73.94
472.435	60.94
472.654	85.94
472.873	92.94
473.092	85.94
473.311	97.94
473.53	80.94
473.749	86.94
473.968	88.94
474.187	80.94
474.406	79.94
474.625	94.94
474.844	86.94
475.063	73.94
475.282	80.94
475.501	79.94
475.72	69.94
475.939	100.94
476.158	90.94
476.377	85.94
476.596	66.94
476.814	72.94
477.033	82.94
477.252	84.94
477.471	85.94
477.69	88.94
477.908	78.94
478.127	69.94
478.346	71.94
478.564	71.94
478.783	72.94
479.002	82.94
479.22	84.94
479.439	79.94
479.658	82.94
479.876	87.94
480.095	83.94
480.313	85.94
480.532	84.94
480.751	80.94
480.969	84.94
481.188	88.94
481.406	81.94
481.624	74.94
481.843	84.94
482.061	96.94
482.28	84.94
482.498	86.94
482.717	83.94
482.935	84.94
483.153	83.94
483.372	80.94
483.59	82.94
483.808	83.94
484.027	76.94
484.245	71.94
484.463	78.94
484.681	82.94
484.9	92.94
485.118	86.94
485.336	77.94
485.554	80.94
485.772	84.94
485.99	64.94
486.209	80.94
486.427	93.94
486.645	66.94
486.863	86.94
487.081	94.94
487.299	87.94
487.517	100.94
487.735	106.94
487.953	146.94
488.171	138.94
488.389	94.94
488.607	84.94
488.825	83.94
489.043	78.94
489.261	76.94
489.479	92.94
489.696	85.94
489.914	90.94
490.132	90.94
490.35	97.94
490.568	73.94
490.786	87.94
491.003	82.94
491.221	73.94
491.439	83.94
491.657	83.94
491.874	85.94
492.092	82.94
492.31	88.94
492.527	77.94
492.745	86.94
492.963	92.94
493.18	87.94
493.398	80.94
493.615	80.94
493.833	70.94
494.05	85.94
494.268	82.94
494.485	80.94
494.703	73.94
494.92	77.94
495.138	68.94
495.355	80.94
495.573	97.94
495.79	72.94
496.008	92.94
496.225	83.94
496.442	78.94
496.66	92.94
496.877	78.94
497.094	88.94
497.312	85.94
497.529	80.94
497.746	86.94
497.963	82.94
498.181	82.94
498.398	75.94
498.615	90.94
498.832	84.94
499.049	83.94
499.267	81.94
499.484	89.94
499.701	87.94
499.918	79.94
500.135	83.94
500.352	79.94
500.569	88.94
500.786	96.94
501.003	75.94
501.22	81.94
501.437	74.94
501.654	98.94
501.871	88.94
502.088	88.94
502.305	83.94
502.522	81.94
502.739	96.94
502.956	76.94
503.172	80.94
503.389	89.94
503.606	81.94
503.823	81.94
504.04	95.94
504.256	123.94
504.473	116.94
504.69	110.94
504.907	94.94
505.123	94.94
505.34	93.94
505.557	84.94
505.773	85.94
505.99	78.94
506.207	77.94
506.423	68.94
506.64	84.94
506.856	85.94
507.073	88.94
507.289	95.94
507.506	78.94
507.722	75.94
507.939	92.94
508.155	96.94
508.372	91.94
508.588	96.94
508.805	81.94
509.021	84.94
509.238	90.94
509.454	64.94
509.67	94.94
509.887	93.94
510.103	68.94
510.319	84.94
510.536	75.94
510.752	73.94
510.968	94.94
511.184	72.94
511.401	83.94
511.617	85.94
511.833	82.94
512.049	89.94
512.265	69.94
512.481	80.94
512.698	84.94
512.914	86.94
513.13	80.94
513.346	87.94
513.562	90.94
513.778	88.94
513.994	89.94
514.21	88.94
514.426	87.94
514.642	79.94
514.858	81.94
515.074	71.94
515.29	77.94
515.506	75.94
515.721	85.94
515.937	83.94
516.153	85.94
516.369	80.94
516.585	87.94
516.801	84.94
517.016	85.94
517.232	78.94
517.448	101.94
517.664	71.94
517.879	93.94
518.095	72.94
518.311	86.94
518.527	88.94
518.742	104.94
518.958	144.94
