Data from CBS_3_HRD10591_00036.txt Node
Date: Mon Jan 19 14:05:56 EST 2026
User: Yrep
Spectrometer: HR+D1059
Trigger mode: 1
Integration Time (sec): 1.000000E-1
Scans to average: 1
Electric dark correction enabled: true
Nonlinearity correction enabled: false
Boxcar width: 0
XAxis mode: Wavelengths
Number of Pixels in Spectrum: 2048
>>>>>Begin Spectral Data<<<<<
223.165	-22.31
223.4	-22.31
223.635	-22.31
223.869	-10.31
224.104	-17.31
224.338	-29.31
224.573	-22.31
224.808	-3.31
225.042	-12.31
225.277	-5.31
225.511	6.69
225.746	5.69
225.98	9.69
226.215	8.69
226.449	20.69
226.683	11.69
226.918	29.69
227.152	29.69
227.387	33.69
227.621	49.69
227.856	39.69
228.09	55.69
228.324	56.69
228.559	52.69
228.793	56.69
229.027	42.69
229.262	43.69
229.496	76.69
229.73	71.69
229.964	67.69
230.199	74.69
230.433	67.69
230.667	69.69
230.901	76.69
231.136	81.69
231.37	90.69
231.604	62.69
231.838	69.69
232.072	91.69
232.306	74.69
232.541	87.69
232.775	69.69
233.009	87.69
233.243	83.69
233.477	82.69
233.711	71.69
233.945	79.69
234.179	73.69
234.413	73.69
234.647	85.69
234.881	81.69
235.115	62.69
235.349	81.69
235.583	75.69
235.817	75.69
236.051	73.69
236.285	79.69
236.519	83.69
236.753	73.69
236.987	79.69
237.221	76.69
237.455	76.69
237.689	76.69
237.922	84.69
238.156	79.69
238.39	66.69
238.624	87.69
238.858	71.69
239.091	80.69
239.325	93.69
239.559	83.69
239.793	59.69
240.027	85.69
240.26	71.69
240.494	70.69
240.728	90.69
240.961	81.69
241.195	81.69
241.429	75.69
241.662	67.69
241.896	72.69
242.13	80.69
242.363	68.69
242.597	87.69
242.83	67.69
243.064	71.69
243.298	70.69
243.531	85.69
243.765	85.69
243.998	47.69
244.232	69.69
244.465	71.69
244.699	96.69
244.932	78.69
245.166	81.69
245.399	68.69
245.633	81.69
245.866	75.69
246.099	71.69
246.333	84.69
246.566	73.69
246.8	73.69
247.033	82.69
247.266	83.69
247.5	81.69
247.733	89.69
247.966	74.69
248.2	68.69
248.433	76.69
248.666	84.69
248.899	86.69
249.133	71.69
249.366	85.69
249.599	69.69
249.832	81.69
250.066	79.69
250.299	84.69
250.532	79.69
250.765	85.69
250.998	82.69
251.231	83.69
251.465	80.69
251.698	77.69
251.931	83.69
252.164	52.69
252.397	81.69
252.63	76.69
252.863	81.69
253.096	67.69
253.329	65.69
253.562	82.69
253.795	65.69
254.028	67.69
254.261	85.69
254.494	65.69
254.727	75.69
254.96	92.69
255.193	72.69
255.426	69.69
255.659	77.69
255.892	83.69
256.124	74.69
256.357	85.69
256.59	63.69
256.823	76.69
257.056	73.69
257.289	85.69
257.521	87.69
257.754	79.69
257.987	78.69
258.22	85.69
258.452	84.69
258.685	74.69
258.918	89.69
259.151	64.69
259.383	91.69
259.616	81.69
259.849	83.69
260.081	78.69
260.314	78.69
260.547	70.69
260.779	77.69
261.012	81.69
261.244	82.69
261.477	84.69
261.71	87.69
261.942	84.69
262.175	76.69
262.407	86.69
262.64	94.69
262.872	65.69
263.105	85.69
263.337	59.69
263.57	79.69
263.802	66.69
264.035	80.69
264.267	87.69
264.499	75.69
264.732	89.69
264.964	81.69
265.197	86.69
265.429	89.69
265.661	79.69
265.894	83.69
266.126	88.69
266.358	95.69
266.591	78.69
266.823	86.69
267.055	89.69
267.287	93.69
267.52	82.69
267.752	75.69
267.984	79.69
268.216	81.69
268.448	80.69
268.681	85.69
268.913	79.69
269.145	82.69
269.377	87.69
269.609	67.69
269.841	82.69
270.073	73.69
270.306	81.69
270.538	82.69
270.77	90.69
271.002	76.69
271.234	88.69
271.466	89.69
271.698	83.69
271.93	85.69
272.162	76.69
272.394	90.69
272.626	81.69
272.858	83.69
273.09	66.69
273.322	78.69
273.553	81.69
273.785	72.69
274.017	90.69
274.249	82.69
274.481	89.69
274.713	78.69
274.945	86.69
275.176	80.69
275.408	73.69
275.64	85.69
275.872	81.69
276.104	84.69
276.335	86.69
276.567	75.69
276.799	87.69
277.031	78.69
277.262	75.69
277.494	77.69
277.726	91.69
277.957	77.69
278.189	64.69
278.421	83.69
278.652	78.69
278.884	86.69
279.115	73.69
279.347	90.69
279.579	89.69
279.81	76.69
280.042	70.69
280.273	84.69
280.505	81.69
280.736	78.69
280.968	79.69
281.199	82.69
281.431	93.69
281.662	89.69
281.894	87.69
282.125	90.69
282.356	75.69
282.588	73.69
282.819	76.69
283.051	79.69
283.282	80.69
283.513	98.69
283.745	91.69
283.976	80.69
284.207	73.69
284.439	81.69
284.67	89.69
284.901	76.69
285.132	83.69
285.364	79.69
285.595	83.69
285.826	79.69
286.057	98.69
286.288	90.69
286.52	74.69
286.751	87.69
286.982	74.69
287.213	78.69
287.444	72.69
287.675	88.69
287.906	78.69
288.138	84.69
288.369	76.69
288.6	75.69
288.831	81.69
289.062	74.69
289.293	82.69
289.524	89.69
289.755	68.69
289.986	85.69
290.217	92.69
290.448	84.69
290.679	83.69
290.91	79.69
291.141	79.69
291.371	87.69
291.602	89.69
291.833	91.69
292.064	82.69
292.295	88.69
292.526	93.69
292.757	90.69
292.987	86.69
293.218	89.69
293.449	79.69
293.68	76.69
293.91	75.69
294.141	79.69
294.372	82.69
294.603	87.69
294.833	81.69
295.064	84.69
295.295	84.69
295.525	73.69
295.756	97.69
295.987	86.69
296.217	84.69
296.448	80.69
296.679	73.69
296.909	79.69
297.14	74.69
297.37	85.69
297.601	83.69
297.831	81.69
298.062	99.69
298.292	92.69
298.523	92.69
298.753	79.69
298.984	79.69
299.214	79.69
299.445	78.69
299.675	76.69
299.905	75.69
300.136	85.69
300.366	90.69
300.597	98.69
300.827	86.69
301.057	75.69
301.288	89.69
301.518	85.69
301.748	86.69
301.979	102.69
302.209	86.69
302.439	81.69
302.669	90.69
302.9	76.69
303.13	63.69
303.36	83.69
303.59	75.69
303.82	93.69
304.051	88.69
304.281	89.69
304.511	79.69
304.741	84.69
304.971	102.69
305.201	96.69
305.431	88.69
305.661	89.69
305.891	80.69
306.121	74.69
306.352	74.69
306.582	85.69
306.812	75.69
307.042	77.69
307.272	77.69
307.502	66.69
307.731	95.69
307.961	88.69
308.191	102.69
308.421	88.69
308.651	85.69
308.881	78.69
309.111	74.69
309.341	84.69
309.571	72.69
309.8	91.69
310.03	85.69
310.26	101.69
310.49	81.69
310.72	90.69
310.949	95.69
311.179	87.69
311.409	83.69
311.639	76.69
311.868	79.69
312.098	71.69
312.328	78.69
312.557	88.69
312.787	78.69
313.017	84.69
313.246	90.69
313.476	79.69
313.706	72.69
313.935	81.69
314.165	82.69
314.394	81.69
314.624	75.69
314.853	82.69
315.083	90.69
315.312	83.69
315.542	93.69
315.771	77.69
316.001	93.69
316.23	86.69
316.46	72.69
316.689	79.69
316.919	85.69
317.148	67.69
317.377	87.69
317.607	88.69
317.836	78.69
318.065	101.69
318.295	91.69
318.524	81.69
318.753	82.69
318.983	86.69
319.212	85.69
319.441	74.69
319.67	67.69
319.9	81.69
320.129	83.69
320.358	82.69
320.587	84.69
320.816	85.69
321.046	78.69
321.275	73.69
321.504	83.69
321.733	75.69
321.962	78.69
322.191	73.69
322.42	85.69
322.649	75.69
322.878	96.69
323.108	98.69
323.337	88.69
323.566	86.69
323.795	81.69
324.024	78.69
324.253	82.69
324.482	77.69
324.71	75.69
324.939	91.69
325.168	70.69
325.397	75.69
325.626	86.69
325.855	86.69
326.084	86.69
326.313	86.69
326.542	86.69
326.77	80.69
326.999	98.69
327.228	82.69
327.457	84.69
327.686	81.69
327.914	85.69
328.143	88.69
328.372	85.69
328.6	74.69
328.829	94.69
329.058	83.69
329.287	76.69
329.515	65.69
329.744	82.69
329.972	72.69
330.201	81.69
330.43	80.69
330.658	82.69
330.887	86.69
331.115	88.69
331.344	73.69
331.572	78.69
331.801	79.69
332.03	82.69
332.258	65.69
332.486	83.69
332.715	85.69
332.943	79.69
333.172	74.69
333.4	90.69
333.629	79.69
333.857	75.69
334.085	78.69
334.314	83.69
334.542	83.69
334.771	75.69
334.999	80.69
335.227	94.69
335.455	75.69
335.684	85.69
335.912	73.69
336.14	83.69
336.369	85.69
336.597	74.69
336.825	82.69
337.053	88.69
337.281	78.69
337.51	89.69
337.738	83.69
337.966	83.69
338.194	77.69
338.422	73.69
338.65	90.69
338.878	93.69
339.106	87.69
339.334	81.69
339.562	74.69
339.79	74.69
340.018	73.69
340.246	85.69
340.474	75.69
340.702	86.69
340.93	85.69
341.158	87.69
341.386	80.69
341.614	82.69
341.842	66.69
342.07	98.69
342.298	93.69
342.526	89.69
342.754	76.69
342.981	84.69
343.209	72.69
343.437	87.69
343.665	75.69
343.893	76.69
344.12	75.69
344.348	87.69
344.576	82.69
344.804	71.69
345.031	94.69
345.259	91.69
345.487	79.69
345.714	62.69
345.942	76.69
346.17	90.69
346.397	83.69
346.625	72.69
346.853	104.69
347.08	69.69
347.308	89.69
347.535	82.69
347.763	80.69
347.99	90.69
348.218	85.69
348.445	78.69
348.673	83.69
348.9	90.69
349.128	86.69
349.355	75.69
349.583	92.69
349.81	83.69
350.037	87.69
350.265	90.69
350.492	87.69
350.72	76.69
350.947	81.69
351.174	72.69
351.402	85.69
351.629	82.69
351.856	75.69
352.083	74.69
352.311	87.69
352.538	85.69
352.765	85.69
352.992	88.69
353.22	88.69
353.447	82.69
353.674	80.69
353.901	79.69
354.128	92.69
354.355	94.69
354.583	81.69
354.81	88.69
355.037	81.69
355.264	82.69
355.491	87.69
355.718	95.69
355.945	85.69
356.172	73.69
356.399	87.69
356.626	89.69
356.853	85.69
357.08	98.69
357.307	87.69
357.534	77.69
357.761	83.69
357.988	90.69
358.215	82.69
358.441	78.69
358.668	85.69
358.895	90.69
359.122	75.69
359.349	87.69
359.576	79.69
359.802	81.69
360.029	71.69
360.256	84.69
360.483	78.69
360.709	81.69
360.936	82.69
361.163	68.69
361.39	91.69
361.616	92.69
361.843	93.69
362.07	78.69
362.296	79.69
362.523	89.69
362.749	79.69
362.976	78.69
363.203	95.69
363.429	82.69
363.656	84.69
363.882	91.69
364.109	93.69
364.335	86.69
364.562	101.69
364.788	80.69
365.015	83.69
365.241	86.69
365.468	82.69
365.694	85.69
365.92	86.69
366.147	108.69
366.373	90.69
366.599	91.69
366.826	78.69
367.052	92.69
367.278	92.69
367.505	82.69
367.731	85.69
367.957	83.69
368.184	94.69
368.41	90.69
368.636	73.69
368.862	80.69
369.089	91.69
369.315	80.69
369.541	85.69
369.767	79.69
369.993	78.69
370.219	70.69
370.445	79.69
370.672	83.69
370.898	74.69
371.124	87.69
371.35	76.69
371.576	81.69
371.802	71.69
372.028	91.69
372.254	75.69
372.48	79.69
372.706	76.69
372.932	83.69
373.158	86.69
373.384	86.69
373.61	90.69
373.835	84.69
374.061	88.69
374.287	85.69
374.513	81.69
374.739	87.69
374.965	84.69
375.191	69.69
375.416	93.69
375.642	92.69
375.868	95.69
376.094	82.69
376.319	70.69
376.545	89.69
376.771	69.69
376.997	77.69
377.222	85.69
377.448	68.69
377.674	71.69
377.899	83.69
378.125	90.69
378.35	82.69
378.576	91.69
378.802	75.69
379.027	81.69
379.253	85.69
379.478	79.69
379.704	64.69
379.929	81.69
380.155	92.69
380.38	77.69
380.606	70.69
380.831	88.69
381.057	99.69
381.282	89.69
381.507	81.69
381.733	75.69
381.958	83.69
382.184	67.69
382.409	60.69
382.634	83.69
382.86	90.69
383.085	82.69
383.31	80.69
383.535	64.69
383.761	89.69
383.986	74.69
384.211	84.69
384.436	93.69
384.662	85.69
384.887	76.69
385.112	95.69
385.337	95.69
385.562	90.69
385.787	75.69
386.013	80.69
386.238	72.69
386.463	68.69
386.688	97.69
386.913	80.69
387.138	82.69
387.363	83.69
387.588	80.69
387.813	75.69
388.038	86.69
388.263	87.69
388.488	75.69
388.713	83.69
388.938	82.69
389.163	89.69
389.387	85.69
389.612	92.69
389.837	89.69
390.062	97.69
390.287	79.69
390.512	86.69
390.736	75.69
390.961	80.69
391.186	86.69
391.411	88.69
391.636	84.69
391.86	92.69
392.085	95.69
392.31	83.69
392.534	90.69
392.759	98.69
392.984	106.69
393.208	190.69
393.433	233.69
393.658	204.69
393.882	107.69
394.107	93.69
394.331	77.69
394.556	91.69
394.78	96.69
395.005	74.69
395.229	79.69
395.454	79.69
395.678	84.69
395.903	87.69
396.127	86.69
396.352	98.69
396.576	141.69
396.801	188.69
397.025	207.69
397.249	129.69
397.474	99.69
397.698	90.69
397.922	82.69
398.147	96.69
398.371	86.69
398.595	90.69
398.82	87.69
399.044	73.69
399.268	93.69
399.492	65.69
399.717	78.69
399.941	83.69
400.165	88.69
400.389	71.69
400.613	75.69
400.837	81.69
401.062	80.69
401.286	84.69
401.51	86.69
401.734	84.69
401.958	87.69
402.182	87.69
402.406	74.69
402.63	58.69
402.854	72.69
403.078	81.69
403.302	73.69
403.526	83.69
403.75	79.69
403.974	91.69
404.198	86.69
404.422	76.69
404.645	71.69
404.869	79.69
405.093	84.69
405.317	78.69
405.541	85.69
405.765	74.69
405.988	86.69
406.212	87.69
406.436	76.69
406.66	97.69
406.883	80.69
407.107	72.69
407.331	98.69
407.555	85.69
407.778	83.69
408.002	84.69
408.226	87.69
408.449	68.69
408.673	78.69
408.896	70.69
409.12	76.69
409.344	81.69
409.567	87.69
409.791	81.69
410.014	78.69
410.238	78.69
410.461	85.69
410.685	75.69
410.908	76.69
411.132	93.69
411.355	72.69
411.578	89.69
411.802	70.69
412.025	95.69
412.249	94.69
412.472	80.69
412.695	84.69
412.919	82.69
413.142	90.69
413.365	81.69
413.589	84.69
413.812	100.69
414.035	85.69
414.258	75.69
414.482	89.69
414.705	83.69
414.928	91.69
415.151	90.69
415.374	88.69
415.597	75.69
415.821	90.69
416.044	69.69
416.267	79.69
416.49	80.69
416.713	81.69
416.936	74.69
417.159	73.69
417.382	67.69
417.605	76.69
417.828	88.69
418.051	82.69
418.274	87.69
418.497	83.69
418.72	85.69
418.943	73.69
419.166	80.69
419.389	79.69
419.611	88.69
419.834	78.69
420.057	114.69
420.28	81.69
420.503	74.69
420.726	82.69
420.948	74.69
421.171	79.69
421.394	75.69
421.617	84.69
421.839	87.69
422.062	90.69
422.285	94.69
422.507	136.69
422.73	198.69
422.953	202.69
423.175	116.69
423.398	87.69
423.621	87.69
423.843	72.69
424.066	105.69
424.288	74.69
424.511	81.69
424.733	79.69
424.956	61.69
425.178	96.69
425.401	74.69
425.623	79.69
425.846	77.69
426.068	84.69
426.291	78.69
426.513	91.69
426.735	79.69
426.958	83.69
427.18	76.69
427.402	71.69
427.625	73.69
427.847	83.69
428.069	87.69
428.292	91.69
428.514	98.69
428.736	97.69
428.958	91.69
429.181	88.69
429.403	84.69
429.625	94.69
429.847	92.69
430.069	114.69
430.292	122.69
430.514	119.69
430.736	98.69
430.958	90.69
431.18	83.69
431.402	94.69
431.624	92.69
431.846	96.69
432.068	104.69
432.29	86.69
432.512	88.69
432.734	89.69
432.956	81.69
433.178	90.69
433.4	78.69
433.622	86.69
433.844	79.69
434.066	82.69
434.287	80.69
434.509	91.69
434.731	86.69
434.953	82.69
435.175	81.69
435.397	72.69
435.618	71.69
435.84	82.69
436.062	85.69
436.284	90.69
436.505	82.69
436.727	84.69
436.949	74.69
437.17	70.69
437.392	71.69
437.614	84.69
437.835	95.69
438.057	84.69
438.278	74.69
438.5	88.69
438.721	72.69
438.943	81.69
439.165	90.69
439.386	82.69
439.608	81.69
439.829	82.69
440.05	83.69
440.272	68.69
440.493	73.69
440.715	97.69
440.936	82.69
441.158	88.69
441.379	87.69
441.6	83.69
441.822	78.69
442.043	75.69
442.264	83.69
442.486	94.69
442.707	107.69
442.928	102.69
443.149	85.69
443.371	112.69
443.592	127.69
443.813	117.69
444.034	82.69
444.255	96.69
444.476	79.69
444.698	102.69
444.919	81.69
445.14	176.69
445.361	140.69
445.582	149.69
445.803	135.69
446.024	87.69
446.245	66.69
446.466	93.69
446.687	96.69
446.908	78.69
447.129	76.69
447.35	82.69
447.571	74.69
447.792	68.69
448.013	74.69
448.234	81.69
448.455	80.69
448.675	84.69
448.896	85.69
449.117	78.69
449.338	76.69
449.559	80.69
449.779	79.69
450	82.69
450.221	73.69
450.442	77.69
450.662	86.69
450.883	71.69
451.104	90.69
451.324	70.69
451.545	87.69
451.766	82.69
451.986	81.69
452.207	91.69
452.428	83.69
452.648	93.69
452.869	82.69
453.089	77.69
453.31	82.69
453.53	67.69
453.751	91.69
453.971	82.69
454.192	77.69
454.412	86.69
454.633	72.69
454.853	79.69
455.073	79.69
455.294	88.69
455.514	95.69
455.734	106.69
455.955	83.69
456.175	86.69
456.395	76.69
456.616	78.69
456.836	94.69
457.056	91.69
457.276	77.69
457.497	72.69
457.717	78.69
457.937	98.69
458.157	101.69
458.377	85.69
458.598	99.69
458.818	92.69
459.038	80.69
459.258	88.69
459.478	79.69
459.698	74.69
459.918	78.69
460.138	80.69
460.358	78.69
460.578	73.69
460.798	95.69
461.018	86.69
461.238	78.69
461.458	82.69
461.678	62.69
461.898	71.69
462.118	80.69
462.338	75.69
462.558	79.69
462.777	89.69
462.997	76.69
463.217	64.69
463.437	93.69
463.657	76.69
463.876	80.69
464.096	82.69
464.316	86.69
464.536	67.69
464.755	79.69
464.975	86.69
465.195	87.69
465.414	73.69
465.634	86.69
465.854	85.69
466.073	74.69
466.293	82.69
466.512	78.69
466.732	90.69
466.951	88.69
467.171	88.69
467.391	88.69
467.61	71.69
467.829	76.69
468.049	88.69
468.268	79.69
468.488	90.69
468.707	82.69
468.927	76.69
469.146	79.69
469.365	84.69
469.585	82.69
469.804	83.69
470.023	82.69
470.243	83.69
470.462	94.69
470.681	80.69
470.901	76.69
471.12	85.69
471.339	79.69
471.558	91.69
471.777	82.69
471.997	87.69
472.216	70.69
472.435	84.69
472.654	71.69
472.873	75.69
473.092	75.69
473.311	85.69
473.53	82.69
473.749	81.69
473.968	95.69
474.187	80.69
474.406	81.69
474.625	89.69
474.844	75.69
475.063	81.69
475.282	87.69
475.501	74.69
475.72	89.69
475.939	84.69
476.158	86.69
476.377	72.69
476.596	90.69
476.814	73.69
477.033	84.69
477.252	79.69
477.471	89.69
477.69	76.69
477.908	63.69
478.127	85.69
478.346	83.69
478.564	82.69
478.783	73.69
479.002	88.69
479.22	72.69
479.439	63.69
479.658	75.69
479.876	71.69
480.095	79.69
480.313	74.69
480.532	93.69
480.751	76.69
480.969	85.69
481.188	94.69
481.406	66.69
481.624	79.69
481.843	81.69
482.061	80.69
482.28	72.69
482.498	93.69
482.717	83.69
482.935	69.69
483.153	80.69
483.372	73.69
483.59	93.69
483.808	94.69
484.027	95.69
484.245	86.69
484.463	78.69
484.681	76.69
484.9	63.69
485.118	91.69
485.336	78.69
485.554	73.69
485.772	84.69
485.99	83.69
486.209	84.69
486.427	79.69
486.645	83.69
486.863	86.69
487.081	72.69
487.299	85.69
487.517	89.69
487.735	96.69
487.953	99.69
488.171	82.69
488.389	85.69
488.607	83.69
488.825	80.69
489.043	84.69
489.261	68.69
489.479	78.69
489.696	87.69
489.914	67.69
490.132	79.69
490.35	88.69
490.568	71.69
490.786	89.69
491.003	77.69
491.221	77.69
491.439	77.69
491.657	81.69
491.874	76.69
492.092	84.69
492.31	72.69
492.527	80.69
492.745	77.69
492.963	73.69
493.18	76.69
493.398	89.69
493.615	76.69
493.833	70.69
494.05	89.69
494.268	84.69
494.485	91.69
494.703	85.69
494.92	84.69
495.138	84.69
495.355	70.69
495.573	85.69
495.79	99.69
496.008	73.69
496.225	87.69
496.442	92.69
496.66	78.69
496.877	75.69
497.094	87.69
497.312	84.69
497.529	81.69
497.746	87.69
497.963	69.69
498.181	65.69
498.398	79.69
498.615	86.69
498.832	76.69
499.049	88.69
499.267	79.69
499.484	80.69
499.701	78.69
499.918	81.69
500.135	81.69
500.352	72.69
500.569	75.69
500.786	72.69
501.003	72.69
501.22	78.69
501.437	86.69
501.654	89.69
501.871	74.69
502.088	87.69
502.305	78.69
502.522	79.69
502.739	85.69
502.956	83.69
503.172	94.69
503.389	73.69
503.606	76.69
503.823	76.69
504.04	81.69
504.256	104.69
504.473	110.69
504.69	87.69
504.907	97.69
505.123	93.69
505.34	89.69
505.557	89.69
505.773	82.69
505.99	83.69
506.207	74.69
506.423	94.69
506.64	82.69
506.856	78.69
507.073	75.69
507.289	63.69
507.506	82.69
507.722	73.69
507.939	85.69
508.155	94.69
508.372	77.69
508.588	83.69
508.805	83.69
509.021	70.69
509.238	73.69
509.454	81.69
509.67	78.69
509.887	78.69
510.103	69.69
510.319	83.69
510.536	71.69
510.752	78.69
510.968	68.69
511.184	74.69
511.401	80.69
511.617	87.69
511.833	85.69
512.049	74.69
512.265	89.69
512.481	84.69
512.698	75.69
512.914	88.69
513.13	98.69
513.346	77.69
513.562	79.69
513.778	89.69
513.994	95.69
514.21	81.69
514.426	82.69
514.642	94.69
514.858	91.69
515.074	73.69
515.29	86.69
515.506	79.69
515.721	82.69
515.937	94.69
516.153	91.69
516.369	90.69
516.585	69.69
516.801	87.69
517.016	75.69
517.232	85.69
517.448	86.69
517.664	80.69
517.879	84.69
518.095	104.69
518.311	96.69
518.527	112.69
518.742	93.69
518.958	104.69
519.173	93.69
519.389	67.69
519.605	86.69
519.82	72.69
