Data from CBS_3_HRD10591_00012.txt Node
Date: Mon Jan 19 14:05:44 EST 2026
User: Yrep
Spectrometer: HR+D1059
Trigger mode: 1
Integration Time (sec): 1.000000E-1
Scans to average: 1
Electric dark correction enabled: true
Nonlinearity correction enabled: false
Boxcar width: 0
XAxis mode: Wavelengths
Number of Pixels in Spectrum: 2048
>>>>>Begin Spectral Data<<<<<
223.165	-25
223.4	-25
223.635	-25
223.869	-20
224.104	-16
224.338	-3
224.573	-19
224.808	-12
225.042	-9
225.277	6
225.511	-6
225.746	-3
225.98	2
226.215	21
226.449	27
226.683	15
226.918	15
227.152	27
227.387	44
227.621	39
227.856	44
228.09	40
228.324	47
228.559	47
228.793	46
229.027	60
229.262	73
229.496	83
229.73	60
229.964	56
230.199	70
230.433	78
230.667	81
230.901	75
231.136	87
231.37	79
231.604	88
231.838	78
232.072	80
232.306	84
232.541	70
232.775	70
233.009	90
233.243	68
233.477	78
233.711	76
233.945	85
234.179	80
234.413	73
234.647	80
234.881	92
235.115	74
235.349	80
235.583	94
235.817	72
236.051	70
236.285	82
236.519	68
236.753	78
236.987	69
237.221	66
237.455	81
237.689	81
237.922	82
238.156	76
238.39	72
238.624	74
238.858	58
239.091	82
239.325	74
239.559	73
239.793	75
240.027	76
240.26	78
240.494	67
240.728	70
240.961	78
241.195	87
241.429	88
241.662	72
241.896	59
242.13	56
242.363	65
242.597	68
242.83	73
243.064	74
243.298	78
243.531	66
243.765	88
243.998	82
244.232	73
244.465	64
244.699	81
244.932	73
245.166	81
245.399	78
245.633	74
245.866	70
246.099	72
246.333	69
246.566	78
246.8	78
247.033	76
247.266	73
247.5	84
247.733	75
247.966	89
248.2	82
248.433	73
248.666	80
248.899	77
249.133	76
249.366	83
249.599	71
249.832	74
250.066	66
250.299	62
250.532	76
250.765	82
250.998	85
251.231	78
251.465	66
251.698	92
251.931	73
252.164	76
252.397	68
252.63	89
252.863	69
253.096	71
253.329	71
253.562	77
253.795	79
254.028	94
254.261	89
254.494	68
254.727	82
254.96	75
255.193	74
255.426	77
255.659	72
255.892	88
256.124	76
256.357	74
256.59	81
256.823	82
257.056	82
257.289	96
257.521	82
257.754	93
257.987	96
258.22	80
258.452	83
258.685	75
258.918	79
259.151	81
259.383	90
259.616	70
259.849	68
260.081	73
260.314	94
260.547	78
260.779	81
261.012	77
261.244	70
261.477	86
261.71	82
261.942	78
262.175	85
262.407	74
262.64	73
262.872	88
263.105	80
263.337	89
263.57	82
263.802	71
264.035	58
264.267	82
264.499	83
264.732	93
264.964	69
265.197	83
265.429	94
265.661	80
265.894	74
266.126	94
266.358	80
266.591	94
266.823	71
267.055	74
267.287	81
267.52	72
267.752	80
267.984	84
268.216	80
268.448	80
268.681	81
268.913	71
269.145	79
269.377	74
269.609	75
269.841	82
270.073	87
270.306	74
270.538	71
270.77	80
271.002	80
271.234	79
271.466	74
271.698	84
271.93	73
272.162	83
272.394	66
272.626	83
272.858	86
273.09	85
273.322	79
273.553	78
273.785	85
274.017	82
274.249	92
274.481	82
274.713	68
274.945	92
275.176	86
275.408	88
275.64	84
275.872	85
276.104	85
276.335	80
276.567	87
276.799	74
277.031	84
277.262	86
277.494	86
277.726	70
277.957	77
278.189	85
278.421	87
278.652	86
278.884	79
279.115	69
279.347	80
279.579	94
279.81	84
280.042	89
280.273	85
280.505	80
280.736	85
280.968	78
281.199	80
281.431	80
281.662	83
281.894	72
282.125	90
282.356	78
282.588	82
282.819	85
283.051	73
283.282	72
283.513	95
283.745	92
283.976	89
284.207	88
284.439	83
284.67	86
284.901	77
285.132	80
285.364	96
285.595	88
285.826	81
286.057	89
286.288	90
286.52	82
286.751	84
286.982	81
287.213	90
287.444	96
287.675	85
287.906	83
288.138	70
288.369	78
288.6	74
288.831	85
289.062	74
289.293	76
289.524	79
289.755	105
289.986	84
290.217	83
290.448	94
290.679	86
290.91	81
291.141	91
291.371	84
291.602	79
291.833	73
292.064	78
292.295	76
292.526	89
292.757	72
292.987	73
293.218	85
293.449	88
293.68	106
293.91	83
294.141	94
294.372	81
294.603	78
294.833	85
295.064	72
295.295	81
295.525	80
295.756	88
295.987	82
296.217	78
296.448	86
296.679	73
296.909	94
297.14	101
297.37	88
297.601	75
297.831	94
298.062	76
298.292	68
298.523	80
298.753	74
298.984	78
299.214	68
299.445	86
299.675	79
299.905	80
300.136	88
300.366	79
300.597	95
300.827	78
301.057	75
301.288	78
301.518	76
301.748	82
301.979	91
302.209	80
302.439	93
302.669	84
302.9	90
303.13	66
303.36	95
303.59	80
303.82	91
304.051	80
304.281	90
304.511	90
304.741	73
304.971	81
305.201	68
305.431	75
305.661	92
305.891	64
306.121	96
306.352	89
306.582	85
306.812	85
307.042	88
307.272	86
307.502	92
307.731	90
307.961	73
308.191	94
308.421	81
308.651	89
308.881	78
309.111	85
309.341	80
309.571	88
309.8	78
310.03	91
310.26	91
310.49	81
310.72	78
310.949	80
311.179	93
311.409	80
311.639	83
311.868	92
312.098	85
312.328	88
312.557	88
312.787	74
313.017	74
313.246	83
313.476	82
313.706	78
313.935	68
314.165	77
314.394	93
314.624	85
314.853	80
315.083	77
315.312	88
315.542	84
315.771	89
316.001	89
316.23	76
316.46	86
316.689	88
316.919	92
317.148	84
317.377	79
317.607	75
317.836	88
318.065	97
318.295	93
318.524	89
318.753	77
318.983	87
319.212	87
319.441	85
319.67	86
319.9	96
320.129	72
320.358	92
320.587	91
320.816	84
321.046	91
321.275	80
321.504	84
321.733	86
321.962	74
322.191	86
322.42	82
322.649	88
322.878	81
323.108	74
323.337	74
323.566	91
323.795	88
324.024	85
324.253	74
324.482	74
324.71	88
324.939	104
325.168	75
325.397	74
325.626	74
325.855	82
326.084	84
326.313	74
326.542	89
326.77	83
326.999	83
327.228	87
327.457	86
327.686	83
327.914	81
328.143	80
328.372	84
328.6	76
328.829	70
329.058	78
329.287	85
329.515	80
329.744	80
329.972	83
330.201	81
330.43	84
330.658	77
330.887	98
331.115	86
331.344	95
331.572	86
331.801	76
332.03	87
332.258	81
332.486	64
332.715	84
332.943	78
333.172	84
333.4	88
333.629	85
333.857	88
334.085	79
334.314	78
334.542	80
334.771	82
334.999	80
335.227	93
335.455	84
335.684	81
335.912	87
336.14	74
336.369	82
336.597	76
336.825	77
337.053	74
337.281	91
337.51	74
337.738	80
337.966	91
338.194	76
338.422	74
338.65	65
338.878	97
339.106	62
339.334	83
339.562	84
339.79	74
340.018	84
340.246	82
340.474	88
340.702	90
340.93	98
341.158	94
341.386	95
341.614	78
341.842	85
342.07	89
342.298	102
342.526	89
342.754	90
342.981	89
343.209	64
343.437	102
343.665	98
343.893	82
344.12	69
344.348	86
344.576	99
344.804	74
345.031	84
345.259	74
345.487	75
345.714	74
345.942	66
346.17	78
346.397	76
346.625	80
346.853	80
347.08	73
347.308	72
347.535	96
347.763	78
347.99	81
348.218	80
348.445	89
348.673	89
348.9	79
349.128	83
349.355	89
349.583	77
349.81	94
350.037	81
350.265	81
350.492	82
350.72	83
350.947	76
351.174	79
351.402	81
351.629	86
351.856	80
352.083	82
352.311	94
352.538	81
352.765	80
352.992	84
353.22	94
353.447	74
353.674	86
353.901	96
354.128	81
354.355	79
354.583	79
354.81	84
355.037	75
355.264	83
355.491	66
355.718	90
355.945	92
356.172	87
356.399	83
356.626	87
356.853	80
357.08	81
357.307	73
357.534	78
357.761	98
357.988	92
358.215	83
358.441	74
358.668	78
358.895	73
359.122	78
359.349	80
359.576	73
359.802	75
360.029	78
360.256	83
360.483	92
360.709	97
360.936	91
361.163	82
361.39	75
361.616	86
361.843	81
362.07	78
362.296	86
362.523	95
362.749	94
362.976	88
363.203	98
363.429	102
363.656	74
363.882	77
364.109	84
364.335	103
364.562	92
364.788	95
365.015	80
365.241	81
365.468	80
365.694	85
365.92	70
366.147	96
366.373	79
366.599	81
366.826	78
367.052	81
367.278	80
367.505	87
367.731	81
367.957	80
368.184	91
368.41	71
368.636	69
368.862	72
369.089	95
369.315	82
369.541	85
369.767	72
369.993	66
370.219	83
370.445	82
370.672	80
370.898	92
371.124	93
371.35	87
371.576	76
371.802	92
372.028	90
372.254	86
372.48	99
372.706	82
372.932	80
373.158	80
373.384	89
373.61	84
373.835	90
374.061	87
374.287	77
374.513	70
374.739	100
374.965	82
375.191	90
375.416	78
375.642	78
375.868	88
376.094	80
376.319	86
376.545	92
376.771	80
376.997	88
377.222	96
377.448	87
377.674	90
377.899	81
378.125	84
378.35	73
378.576	66
378.802	89
379.027	86
379.253	74
379.478	81
379.704	66
379.929	83
380.155	81
380.38	72
380.606	87
380.831	89
381.057	82
381.282	69
381.507	81
381.733	102
381.958	78
382.184	81
382.409	85
382.634	81
382.86	89
383.085	90
383.31	81
383.535	76
383.761	82
383.986	81
384.211	83
384.436	88
384.662	89
384.887	81
385.112	90
385.337	77
385.562	84
385.787	74
386.013	77
386.238	88
386.463	76
386.688	97
386.913	84
387.138	108
387.363	101
387.588	99
387.813	82
388.038	79
388.263	84
388.488	79
388.713	83
388.938	76
389.163	79
389.387	85
389.612	91
389.837	76
390.062	81
390.287	73
390.512	79
390.736	97
390.961	91
391.186	78
391.411	87
391.636	93
391.86	86
392.085	80
392.31	74
392.534	82
392.759	87
392.984	105
393.208	128
393.433	152
393.658	137
393.882	105
394.107	84
394.331	90
394.556	96
394.78	88
395.005	84
395.229	89
395.454	75
395.678	80
395.903	100
396.127	112
396.352	102
396.576	108
396.801	142
397.025	145
397.249	112
397.474	98
397.698	97
397.922	81
398.147	77
398.371	85
398.595	70
398.82	69
399.044	81
399.268	96
399.492	80
399.717	74
399.941	91
400.165	86
400.389	74
400.613	72
400.837	80
401.062	85
401.286	82
401.51	86
401.734	75
401.958	88
402.182	69
402.406	73
402.63	73
402.854	89
403.078	93
403.302	80
403.526	84
403.75	91
403.974	81
404.198	78
404.422	74
404.645	72
404.869	83
405.093	97
405.317	84
405.541	89
405.765	82
405.988	69
406.212	78
406.436	82
406.66	85
406.883	76
407.107	69
407.331	83
407.555	85
407.778	89
408.002	93
408.226	78
408.449	82
408.673	77
408.896	89
409.12	93
409.344	72
409.567	86
409.791	98
410.014	90
410.238	82
410.461	86
410.685	89
410.908	81
411.132	81
411.355	82
411.578	89
411.802	84
412.025	81
412.249	68
412.472	90
412.695	86
412.919	91
413.142	90
413.365	92
413.589	88
413.812	99
414.035	81
414.258	83
414.482	72
414.705	85
414.928	73
415.151	78
415.374	84
415.597	73
415.821	66
416.044	78
416.267	73
416.49	76
416.713	89
416.936	88
417.159	90
417.382	72
417.605	72
417.828	80
418.051	81
418.274	87
418.497	62
418.72	71
418.943	76
419.166	95
419.389	73
419.611	70
419.834	89
420.057	84
420.28	86
420.503	87
420.726	96
420.948	84
421.171	101
421.394	84
421.617	95
421.839	90
422.062	96
422.285	112
422.507	168
422.73	218
422.953	215
423.175	151
423.398	108
423.621	104
423.843	98
424.066	88
424.288	92
424.511	94
424.733	77
424.956	70
425.178	69
425.401	78
425.623	87
425.846	89
426.068	79
426.291	85
426.513	70
426.735	82
426.958	90
427.18	77
427.402	100
427.625	76
427.847	83
428.069	92
428.292	103
428.514	100
428.736	81
428.958	105
429.181	96
429.403	88
429.625	89
429.847	94
430.069	103
430.292	131
430.514	112
430.736	100
430.958	99
431.18	85
431.402	94
431.624	94
431.846	100
432.068	96
432.29	66
432.512	103
432.734	73
432.956	85
433.178	94
433.4	83
433.622	88
433.844	80
434.066	83
434.287	81
434.509	71
434.731	89
434.953	77
435.175	80
435.397	87
435.618	82
435.84	80
436.062	72
436.284	80
436.505	95
436.727	78
436.949	94
437.17	82
437.392	80
437.614	80
437.835	80
438.057	72
438.278	84
438.5	82
438.721	90
438.943	85
439.165	83
439.386	80
439.608	94
439.829	86
440.05	77
440.272	75
440.493	88
440.715	98
440.936	94
441.158	72
441.379	88
441.6	95
441.822	81
442.043	90
442.264	90
442.486	95
442.707	119
442.928	100
443.149	98
443.371	116
443.592	151
443.813	136
444.034	92
444.255	64
444.476	68
444.698	73
444.919	87
445.14	178
445.361	154
445.582	167
445.803	142
446.024	85
446.245	88
446.466	84
446.687	79
446.908	82
447.129	88
447.35	76
447.571	82
447.792	89
448.013	86
448.234	92
448.455	79
448.675	89
448.896	94
449.117	82
449.338	79
449.559	82
449.779	66
450	77
450.221	64
450.442	91
450.662	82
450.883	71
451.104	84
451.324	79
451.545	75
451.766	84
451.986	71
452.207	81
452.428	96
452.648	74
452.869	86
453.089	84
453.31	85
453.53	80
453.751	84
453.971	84
454.192	78
454.412	89
454.633	87
454.853	87
455.073	88
455.294	73
455.514	86
455.734	89
455.955	69
456.175	87
456.395	86
456.616	79
456.836	73
457.056	73
457.276	92
457.497	85
457.717	70
457.937	104
458.157	94
458.377	97
458.598	105
458.818	99
459.038	89
459.258	80
459.478	63
459.698	82
459.918	88
460.138	88
460.358	88
460.578	95
460.798	94
461.018	102
461.238	77
461.458	83
461.678	93
461.898	94
462.118	74
462.338	81
462.558	89
462.777	96
462.997	82
463.217	71
463.437	73
463.657	77
463.876	89
464.096	80
464.316	75
464.536	89
464.755	84
464.975	85
465.195	76
465.414	74
465.634	82
465.854	90
466.073	86
466.293	81
466.512	95
466.732	83
466.951	85
467.171	74
467.391	86
467.61	81
467.829	88
468.049	94
468.268	84
468.488	80
468.707	92
468.927	81
469.146	88
469.365	74
469.585	87
469.804	73
470.023	76
470.243	79
470.462	86
470.681	79
470.901	95
471.12	78
471.339	65
471.558	80
471.777	82
471.997	80
472.216	95
472.435	89
472.654	94
472.873	84
473.092	87
473.311	85
473.53	82
473.749	78
473.968	81
474.187	87
474.406	89
474.625	74
474.844	72
475.063	81
475.282	79
475.501	78
475.72	70
475.939	74
476.158	81
476.377	92
476.596	75
476.814	64
477.033	76
477.252	75
477.471	90
477.69	74
477.908	66
478.127	83
478.346	82
478.564	83
478.783	70
479.002	81
479.22	93
479.439	85
479.658	80
479.876	77
480.095	92
480.313	69
480.532	81
480.751	78
480.969	84
481.188	69
481.406	82
481.624	78
481.843	80
482.061	87
482.28	85
482.498	84
482.717	81
482.935	72
483.153	83
483.372	87
483.59	84
483.808	85
484.027	93
484.245	85
484.463	81
484.681	84
484.9	97
485.118	82
485.336	88
485.554	78
485.772	81
485.99	74
486.209	70
486.427	88
486.645	85
486.863	82
487.081	87
487.299	96
487.517	83
487.735	104
487.953	123
488.171	118
488.389	88
488.607	97
488.825	76
489.043	87
489.261	96
489.479	78
489.696	88
489.914	80
490.132	71
490.35	74
490.568	87
490.786	80
491.003	69
491.221	80
491.439	73
491.657	88
491.874	93
492.092	75
492.31	85
492.527	75
492.745	84
492.963	86
493.18	89
493.398	84
493.615	82
493.833	83
494.05	74
494.268	80
494.485	81
494.703	82
494.92	91
495.138	74
495.355	94
495.573	82
495.79	83
496.008	84
496.225	90
496.442	88
496.66	103
496.877	84
497.094	80
497.312	77
497.529	76
497.746	89
497.963	92
498.181	85
498.398	80
498.615	74
498.832	84
499.049	99
499.267	94
499.484	100
499.701	79
499.918	86
500.135	80
500.352	92
500.569	76
500.786	94
501.003	88
501.22	84
501.437	85
501.654	90
501.871	77
502.088	97
502.305	82
502.522	90
502.739	89
502.956	78
503.172	80
503.389	88
503.606	78
503.823	83
504.04	86
504.256	109
504.473	107
504.69	103
504.907	83
505.123	88
505.34	79
505.557	92
505.773	81
505.99	81
506.207	77
506.423	98
506.64	87
506.856	78
507.073	80
507.289	84
507.506	89
507.722	71
507.939	81
508.155	91
508.372	97
508.588	87
508.805	97
509.021	68
509.238	86
509.454	88
509.67	80
509.887	85
510.103	81
510.319	85
510.536	89
510.752	91
510.968	88
511.184	74
511.401	83
511.617	75
511.833	80
512.049	81
512.265	84
512.481	88
512.698	95
512.914	80
513.13	84
513.346	85
513.562	88
513.778	91
513.994	78
514.21	96
514.426	76
514.642	84
514.858	87
515.074	92
515.29	82
515.506	84
515.721	88
515.937	86
516.153	96
516.369	86
516.585	82
516.801	85
517.016	72
517.232	95
517.448	81
517.664	88
517.879	90
518.095	86
518.311	104
518.527	108
518.742	89
518.958	128
519.173	128
519.389	89
519.605	101
519.82	81
520.036	101
520.251	97
520.467	75
520.682	76
520.898	88
521.113	86
521.329	81
521.544	73
521.76	81
521.975	75
522.19	78
522.406	98
522.621	85
522.836	80
523.052	81
523.267	92
523.482	104
523.698	78
523.913	95
524.128	97
524.343	90
524.559	94
524.774	92
524.989	88
525.204	74
525.419	85
525.634	89
525.849	92
526.064	113
526.28	167
526.495	174
526.71	204
526.925	129
527.14	165
527.355	166
527.57	95
527.785	101
527.999	100
528.214	90
528.429	92
528.644	96
528.859	105
529.074	90
529.289	90
529.503	81
529.718	89
529.933	88
530.148	96
530.363	84
530.577	99
530.792	81
531.007	92
531.221	92
531.436	105
531.651	74
531.865	90
532.08	78
532.295	91
532.509	102
532.724	76
532.938	102
533.153	80
533.367	99
533.582	88
533.796	100
534.011	87
534.225	100
534.44	92
534.654	88
534.868	82
535.083	128
535.297	111
535.511	89
535.726	101
535.94	90
536.154	91
536.369	82
536.583	98
536.797	90
537.011	94
537.225	89
537.44	103
537.654	89
537.868	91
538.082	86
538.296	80
538.51	75
538.724	91
538.938	101
539.153	96
539.367	87
539.581	100
539.795	89
540.009	99
540.222	93
540.436	83
540.65	102
540.864	99
541.078	88
541.292	102
541.506	102
541.72	97
541.934	97
542.147	102
542.361	92
542.575	70
542.789	78
543.002	84
543.216	97
543.43	98
543.644	87
543.857	77
544.071	94
544.285	93
544.498	78
544.712	104
544.925	92
545.139	103
545.352	107
545.566	89
545.779	100
545.993	104
546.206	79
546.42	109
546.633	94
546.847	111
547.06	101
547.274	118
547.487	134
547.7	142
547.914	136
548.127	136
548.34	136
548.554	147
548.767	140
548.98	149
549.193	147
549.407	133
549.62	152
549.833	135
550.046	146
550.259	188
550.473	147
550.686	168
550.899	189
551.112	197
551.325	197
551.538	212
551.751	197
551.964	186
552.177	180
552.39	180
552.603	177
552.816	179
553.029	180
553.242	161
553.455	194
553.667	199
553.88	184
554.093	190
554.306	195
554.519	201
554.732	183
554.944	178
555.157	176
555.37	186
555.583	157
555.795	162
556.008	143
556.221	158
556.433	159
556.646	150
556.859	146
557.071	134
557.284	142
557.496	128
557.709	127
557.921	127
558.134	117
558.346	147
558.559	143
558.771	130
558.984	211
559.196	228
559.409	144
559.621	180
559.833	144
560.046	188
560.258	157
560.47	160
560.683	119
560.895	98
561.107	106
561.32	94
561.532	95
561.744	88
561.956	108
562.168	95
562.381	82
562.593	90
562.805	105
563.017	111
563.229	110
563.441	98
563.653	97
563.865	88
564.077	93
564.289	80
564.501	89
564.713	92
564.925	100
565.137	96
565.349	82
565.561	93
565.773	95
565.985	89
566.197	91
566.408	80
566.62	94
566.832	98
567.044	86
567.255	97
567.467	106
567.679	80
567.891	90
568.102	90
568.314	109
568.526	94
568.737	103
568.949	94
569.161	98
569.372	87
569.584	88
569.795	84
570.007	94
570.218	100
570.43	114
570.641	104
570.853	96
571.064	95
571.276	95
571.487	80
571.698	101
571.91	94
572.121	96
572.333	81
572.544	103
572.755	92
572.966	94
573.178	79
573.389	103
573.6	92
573.811	95
574.023	74
574.234	80
574.445	87
574.656	81
574.867	84
575.078	72
575.289	83
575.501	90
575.712	91
575.923	76
576.134	86
576.345	77
576.556	88
576.767	94
576.978	89
577.188	101
577.399	83
577.61	88
577.821	89
578.032	88
578.243	83
578.454	92
578.665	96
578.875	80
579.086	79
579.297	88
579.508	78
579.718	94
579.929	92
580.14	98
580.35	76
580.561	80
580.772	89
580.982	77
581.193	96
581.403	87
581.614	85
581.825	91
582.035	77
582.246	88
582.456	101
582.667	95
582.877	76
583.087	101
583.298	103
583.508	92
583.719	92
583.929	92
584.139	93
584.35	85
584.56	92
584.77	73
584.981	97
585.191	87
585.401	89
585.611	92
585.821	129
586.032	146
586.242	108
586.452	85
586.662	84
586.872	102
587.082	88
587.292	90
587.502	98
587.713	104
