Data from CBS_3_HRD10591_00015.txt Node
Date: Mon Jan 19 14:05:46 EST 2026
User: Yrep
Spectrometer: HR+D1059
Trigger mode: 1
Integration Time (sec): 1.000000E-1
Scans to average: 1
Electric dark correction enabled: true
Nonlinearity correction enabled: false
Boxcar width: 0
XAxis mode: Wavelengths
Number of Pixels in Spectrum: 2048
>>>>>Begin Spectral Data<<<<<
223.165	-15.5
223.4	-15.5
223.635	-15.5
223.869	-17.5
224.104	-7.5
224.338	-24.5
224.573	-15.5
224.808	-8.5
225.042	-1.5
225.277	-0.5
225.511	2.5
225.746	5.5
225.98	-3.5
226.215	8.5
226.449	10.5
226.683	7.5
226.918	30.5
227.152	29.5
227.387	54.5
227.621	29.5
227.856	61.5
228.09	39.5
228.324	62.5
228.559	63.5
228.793	68.5
229.027	62.5
229.262	64.5
229.496	70.5
229.73	74.5
229.964	84.5
230.199	65.5
230.433	71.5
230.667	77.5
230.901	74.5
231.136	77.5
231.37	80.5
231.604	83.5
231.838	79.5
232.072	82.5
232.306	75.5
232.541	75.5
232.775	76.5
233.009	66.5
233.243	73.5
233.477	81.5
233.711	75.5
233.945	86.5
234.179	78.5
234.413	83.5
234.647	87.5
234.881	72.5
235.115	69.5
235.349	84.5
235.583	70.5
235.817	74.5
236.051	71.5
236.285	83.5
236.519	64.5
236.753	77.5
236.987	80.5
237.221	72.5
237.455	68.5
237.689	76.5
237.922	83.5
238.156	76.5
238.39	81.5
238.624	88.5
238.858	66.5
239.091	75.5
239.325	66.5
239.559	66.5
239.793	70.5
240.027	77.5
240.26	84.5
240.494	79.5
240.728	68.5
240.961	77.5
241.195	72.5
241.429	68.5
241.662	81.5
241.896	82.5
242.13	67.5
242.363	83.5
242.597	81.5
242.83	77.5
243.064	77.5
243.298	74.5
243.531	85.5
243.765	81.5
243.998	70.5
244.232	76.5
244.465	72.5
244.699	84.5
244.932	81.5
245.166	80.5
245.399	89.5
245.633	86.5
245.866	75.5
246.099	87.5
246.333	75.5
246.566	71.5
246.8	81.5
247.033	88.5
247.266	83.5
247.5	80.5
247.733	74.5
247.966	85.5
248.2	87.5
248.433	86.5
248.666	81.5
248.899	80.5
249.133	92.5
249.366	79.5
249.599	83.5
249.832	89.5
250.066	88.5
250.299	72.5
250.532	73.5
250.765	80.5
250.998	75.5
251.231	80.5
251.465	66.5
251.698	82.5
251.931	72.5
252.164	75.5
252.397	67.5
252.63	73.5
252.863	84.5
253.096	86.5
253.329	86.5
253.562	87.5
253.795	83.5
254.028	75.5
254.261	78.5
254.494	87.5
254.727	83.5
254.96	72.5
255.193	65.5
255.426	88.5
255.659	84.5
255.892	76.5
256.124	68.5
256.357	66.5
256.59	77.5
256.823	87.5
257.056	82.5
257.289	81.5
257.521	69.5
257.754	82.5
257.987	59.5
258.22	82.5
258.452	82.5
258.685	77.5
258.918	72.5
259.151	72.5
259.383	87.5
259.616	82.5
259.849	77.5
260.081	72.5
260.314	84.5
260.547	82.5
260.779	83.5
261.012	82.5
261.244	85.5
261.477	81.5
261.71	81.5
261.942	94.5
262.175	78.5
262.407	70.5
262.64	74.5
262.872	77.5
263.105	73.5
263.337	81.5
263.57	86.5
263.802	79.5
264.035	83.5
264.267	83.5
264.499	75.5
264.732	80.5
264.964	84.5
265.197	91.5
265.429	86.5
265.661	77.5
265.894	66.5
266.126	85.5
266.358	94.5
266.591	58.5
266.823	84.5
267.055	75.5
267.287	86.5
267.52	79.5
267.752	81.5
267.984	74.5
268.216	72.5
268.448	79.5
268.681	82.5
268.913	92.5
269.145	78.5
269.377	83.5
269.609	83.5
269.841	80.5
270.073	74.5
270.306	90.5
270.538	78.5
270.77	77.5
271.002	72.5
271.234	88.5
271.466	69.5
271.698	79.5
271.93	92.5
272.162	83.5
272.394	90.5
272.626	83.5
272.858	84.5
273.09	97.5
273.322	89.5
273.553	76.5
273.785	76.5
274.017	79.5
274.249	73.5
274.481	77.5
274.713	81.5
274.945	86.5
275.176	76.5
275.408	85.5
275.64	70.5
275.872	78.5
276.104	81.5
276.335	77.5
276.567	90.5
276.799	75.5
277.031	86.5
277.262	94.5
277.494	76.5
277.726	84.5
277.957	90.5
278.189	86.5
278.421	70.5
278.652	72.5
278.884	86.5
279.115	84.5
279.347	86.5
279.579	90.5
279.81	73.5
280.042	84.5
280.273	83.5
280.505	98.5
280.736	86.5
280.968	72.5
281.199	91.5
281.431	86.5
281.662	73.5
281.894	74.5
282.125	80.5
282.356	84.5
282.588	62.5
282.819	80.5
283.051	75.5
283.282	82.5
283.513	99.5
283.745	70.5
283.976	91.5
284.207	95.5
284.439	89.5
284.67	83.5
284.901	81.5
285.132	82.5
285.364	87.5
285.595	84.5
285.826	76.5
286.057	84.5
286.288	73.5
286.52	83.5
286.751	80.5
286.982	87.5
287.213	92.5
287.444	94.5
287.675	70.5
287.906	78.5
288.138	76.5
288.369	76.5
288.6	73.5
288.831	94.5
289.062	86.5
289.293	79.5
289.524	87.5
289.755	81.5
289.986	96.5
290.217	85.5
290.448	72.5
290.679	80.5
290.91	82.5
291.141	92.5
291.371	81.5
291.602	92.5
291.833	82.5
292.064	83.5
292.295	94.5
292.526	87.5
292.757	86.5
292.987	97.5
293.218	76.5
293.449	76.5
293.68	89.5
293.91	98.5
294.141	89.5
294.372	88.5
294.603	86.5
294.833	88.5
295.064	92.5
295.295	87.5
295.525	79.5
295.756	86.5
295.987	78.5
296.217	81.5
296.448	82.5
296.679	86.5
296.909	98.5
297.14	98.5
297.37	86.5
297.601	82.5
297.831	78.5
298.062	91.5
298.292	85.5
298.523	79.5
298.753	79.5
298.984	67.5
299.214	104.5
299.445	88.5
299.675	98.5
299.905	97.5
300.136	85.5
300.366	89.5
300.597	99.5
300.827	102.5
301.057	102.5
301.288	101.5
301.518	77.5
301.748	79.5
301.979	86.5
302.209	91.5
302.439	77.5
302.669	94.5
302.9	75.5
303.13	82.5
303.36	81.5
303.59	84.5
303.82	87.5
304.051	92.5
304.281	96.5
304.511	92.5
304.741	77.5
304.971	80.5
305.201	81.5
305.431	87.5
305.661	83.5
305.891	74.5
306.121	84.5
306.352	84.5
306.582	100.5
306.812	86.5
307.042	89.5
307.272	89.5
307.502	88.5
307.731	85.5
307.961	94.5
308.191	90.5
308.421	89.5
308.651	86.5
308.881	96.5
309.111	103.5
309.341	97.5
309.571	104.5
309.8	86.5
310.03	67.5
310.26	82.5
310.49	88.5
310.72	82.5
310.949	103.5
311.179	89.5
311.409	83.5
311.639	80.5
311.868	84.5
312.098	86.5
312.328	78.5
312.557	81.5
312.787	93.5
313.017	94.5
313.246	96.5
313.476	95.5
313.706	91.5
313.935	88.5
314.165	87.5
314.394	85.5
314.624	82.5
314.853	84.5
315.083	85.5
315.312	91.5
315.542	95.5
315.771	105.5
316.001	110.5
316.23	83.5
316.46	86.5
316.689	94.5
316.919	89.5
317.148	87.5
317.377	95.5
317.607	95.5
317.836	89.5
318.065	113.5
318.295	94.5
318.524	88.5
318.753	73.5
318.983	94.5
319.212	95.5
319.441	86.5
319.67	74.5
319.9	78.5
320.129	91.5
320.358	87.5
320.587	79.5
320.816	98.5
321.046	78.5
321.275	99.5
321.504	84.5
321.733	94.5
321.962	89.5
322.191	73.5
322.42	98.5
322.649	85.5
322.878	83.5
323.108	91.5
323.337	85.5
323.566	72.5
323.795	79.5
324.024	92.5
324.253	87.5
324.482	84.5
324.71	84.5
324.939	82.5
325.168	82.5
325.397	83.5
325.626	93.5
325.855	81.5
326.084	76.5
326.313	90.5
326.542	86.5
326.77	79.5
326.999	98.5
327.228	90.5
327.457	89.5
327.686	66.5
327.914	76.5
328.143	87.5
328.372	79.5
328.6	81.5
328.829	81.5
329.058	88.5
329.287	92.5
329.515	92.5
329.744	86.5
329.972	85.5
330.201	103.5
330.43	87.5
330.658	80.5
330.887	87.5
331.115	87.5
331.344	103.5
331.572	87.5
331.801	80.5
332.03	80.5
332.258	97.5
332.486	84.5
332.715	88.5
332.943	88.5
333.172	79.5
333.4	90.5
333.629	91.5
333.857	83.5
334.085	92.5
334.314	91.5
334.542	91.5
334.771	98.5
334.999	110.5
335.227	105.5
335.455	97.5
335.684	99.5
335.912	109.5
336.14	106.5
336.369	111.5
336.597	84.5
336.825	101.5
337.053	89.5
337.281	96.5
337.51	77.5
337.738	85.5
337.966	92.5
338.194	96.5
338.422	81.5
338.65	102.5
338.878	94.5
339.106	82.5
339.334	100.5
339.562	98.5
339.79	79.5
340.018	75.5
340.246	82.5
340.474	80.5
340.702	91.5
340.93	82.5
341.158	80.5
341.386	76.5
341.614	88.5
341.842	96.5
342.07	84.5
342.298	89.5
342.526	71.5
342.754	82.5
342.981	77.5
343.209	86.5
343.437	104.5
343.665	80.5
343.893	88.5
344.12	85.5
344.348	95.5
344.576	95.5
344.804	101.5
345.031	91.5
345.259	84.5
345.487	90.5
345.714	79.5
345.942	87.5
346.17	92.5
346.397	85.5
346.625	98.5
346.853	80.5
347.08	83.5
347.308	104.5
347.535	94.5
347.763	84.5
347.99	93.5
348.218	91.5
348.445	78.5
348.673	93.5
348.9	100.5
349.128	86.5
349.355	88.5
349.583	98.5
349.81	86.5
350.037	91.5
350.265	92.5
350.492	82.5
350.72	83.5
350.947	79.5
351.174	90.5
351.402	68.5
351.629	85.5
351.856	88.5
352.083	90.5
352.311	85.5
352.538	88.5
352.765	75.5
352.992	94.5
353.22	88.5
353.447	93.5
353.674	85.5
353.901	82.5
354.128	99.5
354.355	76.5
354.583	72.5
354.81	76.5
355.037	80.5
355.264	81.5
355.491	77.5
355.718	89.5
355.945	83.5
356.172	83.5
356.399	104.5
356.626	88.5
356.853	75.5
357.08	94.5
357.307	89.5
357.534	83.5
357.761	86.5
357.988	106.5
358.215	97.5
358.441	97.5
358.668	84.5
358.895	78.5
359.122	92.5
359.349	94.5
359.576	84.5
359.802	91.5
360.029	92.5
360.256	94.5
360.483	99.5
360.709	72.5
360.936	78.5
361.163	96.5
361.39	84.5
361.616	100.5
361.843	92.5
362.07	97.5
362.296	114.5
362.523	122.5
362.749	106.5
362.976	131.5
363.203	142.5
363.429	108.5
363.656	97.5
363.882	106.5
364.109	136.5
364.335	150.5
364.562	161.5
364.788	135.5
365.015	114.5
365.241	101.5
365.468	86.5
365.694	91.5
365.92	90.5
366.147	91.5
366.373	75.5
366.599	96.5
366.826	90.5
367.052	88.5
367.278	104.5
367.505	87.5
367.731	89.5
367.957	69.5
368.184	79.5
368.41	83.5
368.636	102.5
368.862	100.5
369.089	88.5
369.315	67.5
369.541	94.5
369.767	82.5
369.993	86.5
370.219	106.5
370.445	95.5
370.672	116.5
370.898	92.5
371.124	86.5
371.35	84.5
371.576	86.5
371.802	90.5
372.028	104.5
372.254	97.5
372.48	83.5
372.706	87.5
372.932	86.5
373.158	94.5
373.384	101.5
373.61	110.5
373.835	115.5
374.061	90.5
374.287	89.5
374.513	99.5
374.739	100.5
374.965	76.5
375.191	102.5
375.416	101.5
375.642	88.5
375.868	101.5
376.094	84.5
376.319	94.5
376.545	79.5
376.771	90.5
376.997	97.5
377.222	89.5
377.448	87.5
377.674	89.5
377.899	94.5
378.125	90.5
378.35	91.5
378.576	90.5
378.802	104.5
379.027	88.5
379.253	80.5
379.478	89.5
379.704	94.5
379.929	91.5
380.155	82.5
380.38	64.5
380.606	75.5
380.831	114.5
381.057	100.5
381.282	95.5
381.507	83.5
381.733	85.5
381.958	104.5
382.184	103.5
382.409	95.5
382.634	102.5
382.86	105.5
383.085	99.5
383.31	91.5
383.535	99.5
383.761	94.5
383.986	94.5
384.211	80.5
384.436	78.5
384.662	95.5
384.887	88.5
385.112	94.5
385.337	96.5
385.562	88.5
385.787	83.5
386.013	104.5
386.238	99.5
386.463	97.5
386.688	110.5
386.913	104.5
387.138	88.5
387.363	103.5
387.588	95.5
387.813	100.5
388.038	104.5
388.263	99.5
388.488	84.5
388.713	108.5
388.938	91.5
389.163	94.5
389.387	72.5
389.612	90.5
389.837	68.5
390.062	90.5
390.287	93.5
390.512	85.5
390.736	94.5
390.961	97.5
391.186	84.5
391.411	86.5
391.636	100.5
391.86	88.5
392.085	101.5
392.31	114.5
392.534	128.5
392.759	157.5
392.984	224.5
393.208	372.5
393.433	551.5
393.658	441.5
393.882	174.5
394.107	139.5
394.331	129.5
394.556	144.5
394.78	107.5
395.005	107.5
395.229	105.5
395.454	113.5
395.678	116.5
395.903	127.5
396.127	159.5
396.352	204.5
396.576	249.5
396.801	390.5
397.025	451.5
397.249	246.5
397.474	155.5
397.698	120.5
397.922	90.5
398.147	97.5
398.371	90.5
398.595	102.5
398.82	97.5
399.044	80.5
399.268	90.5
399.492	87.5
399.717	96.5
399.941	92.5
400.165	108.5
400.389	90.5
400.613	96.5
400.837	85.5
401.062	89.5
401.286	90.5
401.51	88.5
401.734	73.5
401.958	84.5
402.182	99.5
402.406	88.5
402.63	90.5
402.854	89.5
403.078	105.5
403.302	106.5
403.526	97.5
403.75	108.5
403.974	82.5
404.198	86.5
404.422	109.5
404.645	94.5
404.869	110.5
405.093	87.5
405.317	105.5
405.541	96.5
405.765	94.5
405.988	87.5
406.212	97.5
406.436	85.5
406.66	95.5
406.883	107.5
407.107	87.5
407.331	77.5
407.555	103.5
407.778	131.5
408.002	119.5
408.226	100.5
408.449	108.5
408.673	95.5
408.896	93.5
409.12	101.5
409.344	101.5
409.567	111.5
409.791	113.5
410.014	111.5
410.238	107.5
410.461	97.5
410.685	100.5
410.908	91.5
411.132	100.5
411.355	88.5
411.578	99.5
411.802	104.5
412.025	83.5
412.249	98.5
412.472	81.5
412.695	92.5
412.919	75.5
413.142	99.5
413.365	79.5
413.589	84.5
413.812	75.5
414.035	88.5
414.258	90.5
414.482	87.5
414.705	82.5
414.928	108.5
415.151	97.5
415.374	74.5
415.597	84.5
415.821	99.5
416.044	79.5
416.267	87.5
416.49	84.5
416.713	82.5
416.936	76.5
417.159	86.5
417.382	88.5
417.605	87.5
417.828	103.5
418.051	89.5
418.274	96.5
418.497	73.5
418.72	90.5
418.943	89.5
419.166	95.5
419.389	81.5
419.611	86.5
419.834	92.5
420.057	84.5
420.28	99.5
420.503	91.5
420.726	95.5
420.948	97.5
421.171	102.5
421.394	117.5
421.617	139.5
421.839	150.5
422.062	149.5
422.285	228.5
422.507	411.5
422.73	639.5
422.953	578.5
423.175	290.5
423.398	176.5
423.621	143.5
423.843	117.5
424.066	109.5
424.288	106.5
424.511	88.5
424.733	95.5
424.956	84.5
425.178	102.5
425.401	95.5
425.623	89.5
425.846	95.5
426.068	98.5
426.291	83.5
426.513	83.5
426.735	96.5
426.958	87.5
427.18	101.5
427.402	101.5
427.625	98.5
427.847	90.5
428.069	98.5
428.292	152.5
428.514	174.5
428.736	126.5
428.958	157.5
429.181	175.5
429.403	104.5
429.625	118.5
429.847	152.5
430.069	226.5
430.292	262.5
430.514	232.5
430.736	174.5
430.958	178.5
431.18	103.5
431.402	105.5
431.624	127.5
431.846	158.5
432.068	175.5
432.29	103.5
432.512	88.5
432.734	84.5
432.956	92.5
433.178	99.5
433.4	88.5
433.622	97.5
433.844	80.5
434.066	90.5
434.287	88.5
434.509	68.5
434.731	92.5
434.953	88.5
435.175	86.5
435.397	100.5
435.618	99.5
435.84	100.5
436.062	99.5
436.284	87.5
436.505	92.5
436.727	98.5
436.949	82.5
437.17	92.5
437.392	101.5
437.614	96.5
437.835	99.5
438.057	101.5
438.278	96.5
438.5	86.5
438.721	90.5
438.943	80.5
439.165	74.5
439.386	91.5
439.608	99.5
439.829	83.5
440.05	84.5
440.272	84.5
440.493	97.5
440.715	91.5
440.936	95.5
441.158	90.5
441.379	102.5
441.6	86.5
441.822	102.5
442.043	100.5
442.264	115.5
442.486	190.5
442.707	234.5
442.928	143.5
443.149	139.5
443.371	207.5
443.592	376.5
443.813	304.5
444.034	126.5
444.255	98.5
444.476	95.5
444.698	103.5
444.919	95.5
445.14	196.5
445.361	264.5
445.582	441.5
445.803	378.5
446.024	159.5
446.245	114.5
446.466	83.5
446.687	86.5
446.908	92.5
447.129	88.5
447.35	92.5
447.571	91.5
447.792	87.5
448.013	75.5
448.234	77.5
448.455	75.5
448.675	85.5
448.896	78.5
449.117	94.5
449.338	77.5
449.559	93.5
449.779	83.5
450	82.5
450.221	94.5
450.442	66.5
450.662	80.5
450.883	90.5
451.104	91.5
451.324	87.5
451.545	96.5
451.766	80.5
451.986	79.5
452.207	93.5
452.428	91.5
452.648	99.5
452.869	133.5
453.089	103.5
453.31	103.5
453.53	97.5
453.751	90.5
453.971	83.5
454.192	96.5
454.412	83.5
454.633	89.5
454.853	80.5
455.073	90.5
455.294	87.5
455.514	78.5
455.734	83.5
455.955	90.5
456.175	92.5
456.395	80.5
456.616	94.5
456.836	84.5
457.056	87.5
457.276	79.5
457.497	85.5
457.717	96.5
457.937	140.5
458.157	163.5
458.377	155.5
458.598	165.5
458.818	155.5
459.038	107.5
459.258	93.5
459.478	79.5
459.698	78.5
459.918	101.5
460.138	86.5
460.358	81.5
460.578	102.5
460.798	131.5
461.018	118.5
461.238	75.5
461.458	96.5
461.678	91.5
461.898	86.5
462.118	89.5
462.338	84.5
462.558	96.5
462.777	84.5
462.997	80.5
463.217	76.5
463.437	85.5
463.657	82.5
463.876	77.5
464.096	94.5
464.316	70.5
464.536	90.5
464.755	73.5
464.975	86.5
465.195	94.5
465.414	82.5
465.634	90.5
465.854	91.5
466.073	97.5
466.293	89.5
466.512	84.5
466.732	85.5
466.951	81.5
467.171	85.5
467.391	85.5
467.61	91.5
467.829	95.5
468.049	73.5
468.268	83.5
468.488	86.5
468.707	104.5
468.927	106.5
469.146	98.5
469.365	99.5
469.585	91.5
469.804	80.5
470.023	96.5
470.243	92.5
470.462	94.5
470.681	78.5
470.901	96.5
471.12	76.5
471.339	79.5
471.558	80.5
471.777	89.5
471.997	97.5
472.216	86.5
472.435	94.5
472.654	101.5
472.873	88.5
473.092	88.5
473.311	87.5
473.53	96.5
473.749	88.5
473.968	88.5
474.187	90.5
474.406	86.5
474.625	84.5
474.844	81.5
475.063	86.5
475.282	95.5
475.501	94.5
475.72	86.5
475.939	81.5
476.158	89.5
476.377	97.5
476.596	95.5
476.814	92.5
477.033	76.5
477.252	80.5
477.471	75.5
477.69	98.5
477.908	96.5
478.127	76.5
478.346	97.5
478.564	96.5
478.783	86.5
479.002	82.5
479.22	89.5
479.439	99.5
479.658	102.5
479.876	86.5
480.095	97.5
480.313	89.5
480.532	88.5
480.751	102.5
480.969	91.5
481.188	88.5
481.406	106.5
481.624	78.5
481.843	93.5
482.061	101.5
482.28	67.5
482.498	101.5
482.717	92.5
482.935	89.5
483.153	99.5
483.372	90.5
483.59	96.5
483.808	88.5
484.027	87.5
484.245	98.5
484.463	86.5
484.681	98.5
484.9	114.5
485.118	91.5
485.336	84.5
485.554	76.5
485.772	101.5
485.99	96.5
486.209	83.5
486.427	89.5
486.645	86.5
486.863	96.5
487.081	94.5
487.299	100.5
487.517	102.5
487.735	148.5
487.953	251.5
488.171	206.5
488.389	119.5
488.607	89.5
488.825	99.5
489.043	88.5
489.261	93.5
489.479	104.5
489.696	98.5
489.914	98.5
490.132	84.5
490.35	101.5
490.568	88.5
490.786	85.5
491.003	98.5
491.221	106.5
491.439	87.5
491.657	95.5
491.874	87.5
492.092	95.5
492.31	104.5
492.527	86.5
492.745	92.5
492.963	99.5
493.18	94.5
493.398	89.5
493.615	93.5
493.833	97.5
494.05	94.5
494.268	87.5
494.485	91.5
494.703	90.5
494.92	82.5
495.138	86.5
495.355	110.5
495.573	79.5
495.79	84.5
496.008	94.5
496.225	96.5
496.442	91.5
496.66	82.5
496.877	89.5
497.094	88.5
497.312	80.5
497.529	92.5
497.746	85.5
497.963	94.5
498.181	99.5
498.398	97.5
498.615	102.5
498.832	78.5
499.049	83.5
499.267	104.5
499.484	96.5
499.701	93.5
499.918	88.5
500.135	89.5
500.352	84.5
500.569	104.5
500.786	75.5
501.003	81.5
501.22	81.5
501.437	81.5
501.654	92.5
501.871	97.5
502.088	87.5
502.305	88.5
502.522	105.5
502.739	90.5
502.956	96.5
503.172	88.5
503.389	105.5
503.606	96.5
503.823	95.5
504.04	100.5
504.256	186.5
504.473	187.5
504.69	108.5
504.907	101.5
505.123	91.5
505.34	104.5
505.557	82.5
505.773	79.5
505.99	104.5
506.207	94.5
506.423	87.5
506.64	90.5
506.856	72.5
507.073	86.5
507.289	87.5
507.506	87.5
507.722	89.5
507.939	71.5
508.155	98.5
508.372	79.5
508.588	91.5
508.805	100.5
509.021	93.5
509.238	77.5
509.454	82.5
509.67	87.5
509.887	96.5
510.103	93.5
510.319	96.5
510.536	109.5
510.752	93.5
510.968	87.5
511.184	91.5
511.401	96.5
511.617	99.5
511.833	91.5
512.049	85.5
512.265	88.5
512.481	107.5
512.698	86.5
512.914	82.5
513.13	85.5
513.346	86.5
513.562	94.5
513.778	100.5
513.994	89.5
514.21	94.5
514.426	76.5
514.642	94.5
514.858	71.5
515.074	69.5
515.29	88.5
515.506	96.5
515.721	88.5
515.937	91.5
516.153	80.5
516.369	80.5
516.585	97.5
516.801	100.5
517.016	103.5
517.232	101.5
517.448	90.5
517.664	88.5
517.879	97.5
518.095	102.5
518.311	103.5
518.527	113.5
518.742	116.5
518.958	228.5
519.173	269.5
519.389	120.5
519.605	106.5
519.82	98.5
520.036	90.5
520.251	86.5
520.467	81.5
520.682	91.5
520.898	103.5
521.113	87.5
521.329	97.5
521.544	94.5
521.76	83.5
521.975	88.5
522.19	101.5
522.406	101.5
522.621	94.5
522.836	99.5
523.052	82.5
523.267	97.5
523.482	100.5
523.698	92.5
523.913	102.5
524.128	96.5
524.343	94.5
524.559	92.5
524.774	93.5
524.989	97.5
525.204	106.5
525.419	100.5
525.634	120.5
525.849	108.5
526.064	156.5
526.28	330.5
526.495	490.5
526.71	545.5
526.925	344.5
527.14	463.5
527.355	388.5
527.57	129.5
527.785	100.5
527.999	91.5
528.214	96.5
528.429	102.5
528.644	104.5
528.859	98.5
529.074	91.5
529.289	90.5
529.503	109.5
529.718	97.5
529.933	108.5
530.148	93.5
530.363	100.5
530.577	96.5
530.792	97.5
531.007	84.5
531.221	107.5
531.436	82.5
531.651	92.5
531.865	97.5
532.08	85.5
532.295	90.5
532.509	114.5
532.724	107.5
532.938	114.5
533.153	99.5
533.367	112.5
533.582	96.5
533.796	100.5
534.011	88.5
534.225	102.5
534.44	112.5
534.654	116.5
534.868	115.5
535.083	234.5
535.297	198.5
535.511	117.5
535.726	115.5
535.94	108.5
536.154	120.5
536.369	88.5
