Data from CBS_3_HRD10591_00027.txt Node
Date: Mon Jan 19 14:05:52 EST 2026
User: Yrep
Spectrometer: HR+D1059
Trigger mode: 1
Integration Time (sec): 1.000000E-1
Scans to average: 1
Electric dark correction enabled: true
Nonlinearity correction enabled: false
Boxcar width: 0
XAxis mode: Wavelengths
Number of Pixels in Spectrum: 2048
>>>>>Begin Spectral Data<<<<<
223.165	-9.19
223.4	-9.19
223.635	-9.19
223.869	-27.19
224.104	-17.19
224.338	-20.19
224.573	-15.19
224.808	-3.19
225.042	-10.19
225.277	-0.19
225.511	-3.19
225.746	6.81
225.98	5.81
226.215	14.81
226.449	15.81
226.683	13.81
226.918	30.81
227.152	17.81
227.387	19.81
227.621	46.81
227.856	42.81
228.09	56.81
228.324	51.81
228.559	62.81
228.793	42.81
229.027	64.81
229.262	67.81
229.496	64.81
229.73	68.81
229.964	70.81
230.199	63.81
230.433	73.81
230.667	70.81
230.901	78.81
231.136	75.81
231.37	75.81
231.604	71.81
231.838	71.81
232.072	74.81
232.306	82.81
232.541	67.81
232.775	78.81
233.009	74.81
233.243	67.81
233.477	80.81
233.711	92.81
233.945	78.81
234.179	91.81
234.413	94.81
234.647	76.81
234.881	70.81
235.115	83.81
235.349	71.81
235.583	83.81
235.817	76.81
236.051	77.81
236.285	75.81
236.519	78.81
236.753	70.81
236.987	70.81
237.221	66.81
237.455	76.81
237.689	76.81
237.922	77.81
238.156	69.81
238.39	80.81
238.624	73.81
238.858	76.81
239.091	77.81
239.325	67.81
239.559	73.81
239.793	68.81
240.027	76.81
240.26	74.81
240.494	54.81
240.728	78.81
240.961	62.81
241.195	81.81
241.429	76.81
241.662	82.81
241.896	87.81
242.13	66.81
242.363	70.81
242.597	72.81
242.83	76.81
243.064	80.81
243.298	85.81
243.531	81.81
243.765	69.81
243.998	74.81
244.232	64.81
244.465	63.81
244.699	71.81
244.932	83.81
245.166	65.81
245.399	80.81
245.633	70.81
245.866	66.81
246.099	86.81
246.333	82.81
246.566	82.81
246.8	88.81
247.033	73.81
247.266	68.81
247.5	79.81
247.733	63.81
247.966	77.81
248.2	80.81
248.433	75.81
248.666	74.81
248.899	83.81
249.133	77.81
249.366	86.81
249.599	88.81
249.832	61.81
250.066	73.81
250.299	78.81
250.532	72.81
250.765	69.81
250.998	68.81
251.231	68.81
251.465	59.81
251.698	64.81
251.931	80.81
252.164	66.81
252.397	57.81
252.63	72.81
252.863	88.81
253.096	94.81
253.329	94.81
253.562	71.81
253.795	62.81
254.028	78.81
254.261	84.81
254.494	65.81
254.727	78.81
254.96	84.81
255.193	76.81
255.426	90.81
255.659	82.81
255.892	62.81
256.124	76.81
256.357	69.81
256.59	80.81
256.823	71.81
257.056	75.81
257.289	84.81
257.521	72.81
257.754	80.81
257.987	74.81
258.22	80.81
258.452	70.81
258.685	81.81
258.918	79.81
259.151	59.81
259.383	66.81
259.616	79.81
259.849	72.81
260.081	84.81
260.314	91.81
260.547	78.81
260.779	73.81
261.012	71.81
261.244	72.81
261.477	79.81
261.71	75.81
261.942	79.81
262.175	78.81
262.407	86.81
262.64	90.81
262.872	91.81
263.105	81.81
263.337	69.81
263.57	76.81
263.802	83.81
264.035	76.81
264.267	77.81
264.499	74.81
264.732	71.81
264.964	87.81
265.197	80.81
265.429	85.81
265.661	75.81
265.894	75.81
266.126	84.81
266.358	82.81
266.591	84.81
266.823	78.81
267.055	72.81
267.287	80.81
267.52	72.81
267.752	96.81
267.984	71.81
268.216	82.81
268.448	87.81
268.681	85.81
268.913	76.81
269.145	85.81
269.377	78.81
269.609	73.81
269.841	84.81
270.073	80.81
270.306	85.81
270.538	81.81
270.77	78.81
271.002	81.81
271.234	86.81
271.466	82.81
271.698	65.81
271.93	74.81
272.162	67.81
272.394	70.81
272.626	80.81
272.858	88.81
273.09	78.81
273.322	89.81
273.553	73.81
273.785	83.81
274.017	71.81
274.249	81.81
274.481	78.81
274.713	86.81
274.945	94.81
275.176	90.81
275.408	78.81
275.64	68.81
275.872	76.81
276.104	72.81
276.335	85.81
276.567	84.81
276.799	86.81
277.031	64.81
277.262	75.81
277.494	90.81
277.726	85.81
277.957	74.81
278.189	72.81
278.421	79.81
278.652	79.81
278.884	78.81
279.115	73.81
279.347	70.81
279.579	71.81
279.81	75.81
280.042	75.81
280.273	68.81
280.505	80.81
280.736	91.81
280.968	88.81
281.199	80.81
281.431	68.81
281.662	78.81
281.894	80.81
282.125	77.81
282.356	77.81
282.588	76.81
282.819	80.81
283.051	99.81
283.282	92.81
283.513	72.81
283.745	81.81
283.976	76.81
284.207	87.81
284.439	71.81
284.67	93.81
284.901	73.81
285.132	79.81
285.364	76.81
285.595	87.81
285.826	86.81
286.057	80.81
286.288	82.81
286.52	80.81
286.751	76.81
286.982	81.81
287.213	75.81
287.444	83.81
287.675	85.81
287.906	107.81
288.138	78.81
288.369	94.81
288.6	78.81
288.831	77.81
289.062	81.81
289.293	83.81
289.524	69.81
289.755	81.81
289.986	74.81
290.217	94.81
290.448	74.81
290.679	72.81
290.91	78.81
291.141	86.81
291.371	83.81
291.602	76.81
291.833	82.81
292.064	86.81
292.295	74.81
292.526	69.81
292.757	78.81
292.987	82.81
293.218	84.81
293.449	91.81
293.68	90.81
293.91	77.81
294.141	77.81
294.372	92.81
294.603	93.81
294.833	85.81
295.064	67.81
295.295	81.81
295.525	76.81
295.756	86.81
295.987	86.81
296.217	78.81
296.448	70.81
296.679	78.81
296.909	105.81
297.14	82.81
297.37	88.81
297.601	79.81
297.831	78.81
298.062	78.81
298.292	73.81
298.523	78.81
298.753	85.81
298.984	80.81
299.214	74.81
299.445	87.81
299.675	97.81
299.905	88.81
300.136	86.81
300.366	66.81
300.597	78.81
300.827	79.81
301.057	87.81
301.288	72.81
301.518	92.81
301.748	88.81
301.979	84.81
302.209	81.81
302.439	81.81
302.669	83.81
302.9	65.81
303.13	73.81
303.36	62.81
303.59	77.81
303.82	76.81
304.051	78.81
304.281	70.81
304.511	84.81
304.741	80.81
304.971	75.81
305.201	83.81
305.431	71.81
305.661	90.81
305.891	90.81
306.121	89.81
306.352	93.81
306.582	97.81
306.812	82.81
307.042	71.81
307.272	92.81
307.502	81.81
307.731	71.81
307.961	67.81
308.191	78.81
308.421	82.81
308.651	81.81
308.881	83.81
309.111	80.81
309.341	74.81
309.571	62.81
309.8	88.81
310.03	82.81
310.26	79.81
310.49	92.81
310.72	85.81
310.949	81.81
311.179	81.81
311.409	81.81
311.639	80.81
311.868	69.81
312.098	84.81
312.328	92.81
312.557	87.81
312.787	83.81
313.017	93.81
313.246	85.81
313.476	71.81
313.706	73.81
313.935	92.81
314.165	81.81
314.394	79.81
314.624	93.81
314.853	87.81
315.083	87.81
315.312	99.81
315.542	80.81
315.771	90.81
316.001	85.81
316.23	86.81
316.46	80.81
316.689	75.81
316.919	76.81
317.148	77.81
317.377	92.81
317.607	89.81
317.836	82.81
318.065	83.81
318.295	79.81
318.524	91.81
318.753	96.81
318.983	86.81
319.212	74.81
319.441	73.81
319.67	95.81
319.9	81.81
320.129	78.81
320.358	70.81
320.587	88.81
320.816	71.81
321.046	73.81
321.275	93.81
321.504	85.81
321.733	87.81
321.962	91.81
322.191	68.81
322.42	85.81
322.649	82.81
322.878	86.81
323.108	78.81
323.337	78.81
323.566	87.81
323.795	77.81
324.024	71.81
324.253	86.81
324.482	86.81
324.71	87.81
324.939	102.81
325.168	75.81
325.397	70.81
325.626	79.81
325.855	85.81
326.084	77.81
326.313	87.81
326.542	78.81
326.77	78.81
326.999	70.81
327.228	81.81
327.457	85.81
327.686	79.81
327.914	79.81
328.143	88.81
328.372	97.81
328.6	78.81
328.829	72.81
329.058	79.81
329.287	90.81
329.515	83.81
329.744	95.81
329.972	74.81
330.201	85.81
330.43	85.81
330.658	68.81
330.887	86.81
331.115	76.81
331.344	62.81
331.572	87.81
331.801	76.81
332.03	66.81
332.258	88.81
332.486	92.81
332.715	87.81
332.943	76.81
333.172	73.81
333.4	73.81
333.629	76.81
333.857	92.81
334.085	71.81
334.314	77.81
334.542	87.81
334.771	75.81
334.999	86.81
335.227	88.81
335.455	82.81
335.684	83.81
335.912	79.81
336.14	87.81
336.369	78.81
336.597	92.81
336.825	87.81
337.053	78.81
337.281	106.81
337.51	80.81
337.738	74.81
337.966	77.81
338.194	91.81
338.422	83.81
338.65	81.81
338.878	96.81
339.106	76.81
339.334	87.81
339.562	80.81
339.79	68.81
340.018	74.81
340.246	73.81
340.474	82.81
340.702	88.81
340.93	91.81
341.158	85.81
341.386	96.81
341.614	86.81
341.842	85.81
342.07	73.81
342.298	86.81
342.526	91.81
342.754	58.81
342.981	84.81
343.209	81.81
343.437	94.81
343.665	83.81
343.893	83.81
344.12	80.81
344.348	82.81
344.576	81.81
344.804	82.81
345.031	79.81
345.259	93.81
345.487	81.81
345.714	81.81
345.942	91.81
346.17	71.81
346.397	86.81
346.625	92.81
346.853	74.81
347.08	85.81
347.308	78.81
347.535	92.81
347.763	86.81
347.99	82.81
348.218	69.81
348.445	86.81
348.673	86.81
348.9	91.81
349.128	88.81
349.355	86.81
349.583	91.81
349.81	73.81
350.037	79.81
350.265	87.81
350.492	86.81
350.72	77.81
350.947	70.81
351.174	66.81
351.402	84.81
351.629	84.81
351.856	79.81
352.083	94.81
352.311	85.81
352.538	77.81
352.765	80.81
352.992	82.81
353.22	92.81
353.447	72.81
353.674	76.81
353.901	76.81
354.128	74.81
354.355	80.81
354.583	75.81
354.81	100.81
355.037	86.81
355.264	80.81
355.491	81.81
355.718	67.81
355.945	71.81
356.172	92.81
356.399	85.81
356.626	92.81
356.853	71.81
357.08	88.81
357.307	88.81
357.534	79.81
357.761	85.81
357.988	87.81
358.215	88.81
358.441	85.81
358.668	92.81
358.895	77.81
359.122	95.81
359.349	80.81
359.576	87.81
359.802	78.81
360.029	92.81
360.256	82.81
360.483	67.81
360.709	66.81
360.936	72.81
361.163	74.81
361.39	95.81
361.616	79.81
361.843	88.81
362.07	98.81
362.296	90.81
362.523	75.81
362.749	81.81
362.976	100.81
363.203	94.81
363.429	86.81
363.656	78.81
363.882	79.81
364.109	85.81
364.335	108.81
364.562	96.81
364.788	94.81
365.015	89.81
365.241	84.81
365.468	86.81
365.694	79.81
365.92	72.81
366.147	89.81
366.373	81.81
366.599	74.81
366.826	72.81
367.052	72.81
367.278	83.81
367.505	97.81
367.731	86.81
367.957	96.81
368.184	85.81
368.41	78.81
368.636	71.81
368.862	78.81
369.089	71.81
369.315	79.81
369.541	80.81
369.767	80.81
369.993	70.81
370.219	76.81
370.445	87.81
370.672	89.81
370.898	69.81
371.124	76.81
371.35	72.81
371.576	94.81
371.802	70.81
372.028	80.81
372.254	92.81
372.48	82.81
372.706	69.81
372.932	87.81
373.158	67.81
373.384	89.81
373.61	82.81
373.835	94.81
374.061	72.81
374.287	78.81
374.513	95.81
374.739	92.81
374.965	96.81
375.191	85.81
375.416	74.81
375.642	80.81
375.868	87.81
376.094	90.81
376.319	77.81
376.545	86.81
376.771	77.81
376.997	80.81
377.222	78.81
377.448	87.81
377.674	87.81
377.899	91.81
378.125	76.81
378.35	88.81
378.576	80.81
378.802	85.81
379.027	79.81
379.253	82.81
379.478	67.81
379.704	90.81
379.929	76.81
380.155	76.81
380.38	91.81
380.606	78.81
380.831	72.81
381.057	93.81
381.282	84.81
381.507	78.81
381.733	80.81
381.958	93.81
382.184	82.81
382.409	94.81
382.634	83.81
382.86	89.81
383.085	78.81
383.31	74.81
383.535	72.81
383.761	84.81
383.986	83.81
384.211	77.81
384.436	96.81
384.662	84.81
384.887	81.81
385.112	80.81
385.337	86.81
385.562	86.81
385.787	78.81
386.013	78.81
386.238	79.81
386.463	91.81
386.688	102.81
386.913	76.81
387.138	88.81
387.363	81.81
387.588	88.81
387.813	87.81
388.038	79.81
388.263	90.81
388.488	72.81
388.713	84.81
388.938	87.81
389.163	76.81
389.387	82.81
389.612	77.81
389.837	89.81
390.062	86.81
390.287	82.81
390.512	77.81
390.736	93.81
390.961	80.81
391.186	83.81
391.411	83.81
391.636	84.81
391.86	76.81
392.085	84.81
392.31	90.81
392.534	79.81
392.759	98.81
392.984	128.81
393.208	152.81
393.433	217.81
393.658	176.81
393.882	95.81
394.107	84.81
394.331	91.81
394.556	105.81
394.78	87.81
395.005	73.81
395.229	91.81
395.454	85.81
395.678	74.81
395.903	103.81
396.127	106.81
396.352	107.81
396.576	126.81
396.801	144.81
397.025	180.81
397.249	125.81
397.474	100.81
397.698	96.81
397.922	94.81
398.147	83.81
398.371	82.81
398.595	80.81
398.82	71.81
399.044	82.81
399.268	82.81
399.492	85.81
399.717	68.81
399.941	83.81
400.165	73.81
400.389	81.81
400.613	70.81
400.837	66.81
401.062	78.81
401.286	71.81
401.51	88.81
401.734	88.81
401.958	89.81
402.182	78.81
402.406	95.81
402.63	74.81
402.854	78.81
403.078	85.81
403.302	68.81
403.526	74.81
403.75	82.81
403.974	76.81
404.198	91.81
404.422	88.81
404.645	85.81
404.869	74.81
405.093	78.81
405.317	83.81
405.541	70.81
405.765	78.81
405.988	70.81
406.212	83.81
406.436	80.81
406.66	74.81
406.883	78.81
407.107	65.81
407.331	74.81
407.555	80.81
407.778	107.81
408.002	102.81
408.226	88.81
408.449	87.81
408.673	84.81
408.896	74.81
409.12	93.81
409.344	75.81
409.567	90.81
409.791	85.81
410.014	82.81
410.238	80.81
410.461	83.81
410.685	72.81
410.908	72.81
411.132	95.81
411.355	69.81
411.578	79.81
411.802	90.81
412.025	82.81
412.249	76.81
412.472	86.81
412.695	70.81
412.919	65.81
413.142	68.81
413.365	82.81
413.589	71.81
413.812	88.81
414.035	91.81
414.258	72.81
414.482	70.81
414.705	92.81
414.928	76.81
415.151	84.81
415.374	91.81
415.597	83.81
415.821	88.81
416.044	82.81
416.267	77.81
416.49	68.81
416.713	76.81
416.936	88.81
417.159	99.81
417.382	69.81
417.605	79.81
417.828	70.81
418.051	68.81
418.274	77.81
418.497	83.81
418.72	90.81
418.943	85.81
419.166	74.81
419.389	87.81
419.611	85.81
419.834	77.81
420.057	80.81
420.28	77.81
420.503	98.81
420.726	78.81
420.948	73.81
421.171	72.81
421.394	71.81
421.617	95.81
421.839	86.81
422.062	95.81
422.285	111.81
422.507	183.81
422.73	241.81
422.953	227.81
423.175	154.81
423.398	90.81
423.621	90.81
423.843	84.81
424.066	85.81
424.288	90.81
424.511	88.81
424.733	76.81
424.956	87.81
425.178	84.81
425.401	66.81
425.623	84.81
425.846	90.81
426.068	78.81
426.291	90.81
426.513	92.81
426.735	86.81
426.958	86.81
427.18	72.81
427.402	74.81
427.625	85.81
427.847	87.81
428.069	79.81
428.292	93.81
428.514	117.81
428.736	87.81
428.958	104.81
429.181	108.81
429.403	92.81
429.625	92.81
429.847	94.81
430.069	119.81
430.292	128.81
430.514	132.81
430.736	101.81
430.958	108.81
431.18	82.81
431.402	65.81
431.624	86.81
431.846	98.81
432.068	109.81
432.29	90.81
432.512	78.81
432.734	83.81
432.956	84.81
433.178	87.81
433.4	83.81
433.622	75.81
433.844	85.81
434.066	87.81
434.287	78.81
434.509	76.81
434.731	93.81
434.953	77.81
435.175	79.81
435.397	72.81
435.618	78.81
435.84	88.81
436.062	72.81
436.284	86.81
436.505	84.81
436.727	79.81
436.949	86.81
437.17	71.81
437.392	88.81
437.614	82.81
437.835	69.81
438.057	77.81
438.278	86.81
438.5	83.81
438.721	83.81
438.943	89.81
439.165	80.81
439.386	92.81
439.608	80.81
439.829	81.81
440.05	74.81
440.272	80.81
440.493	95.81
440.715	80.81
440.936	73.81
441.158	90.81
441.379	72.81
441.6	79.81
441.822	74.81
442.043	78.81
442.264	85.81
442.486	96.81
442.707	121.81
442.928	100.81
443.149	81.81
443.371	114.81
443.592	162.81
443.813	147.81
444.034	95.81
444.255	79.81
444.476	93.81
444.698	70.81
444.919	78.81
445.14	159.81
445.361	150.81
445.582	188.81
445.803	156.81
446.024	101.81
446.245	95.81
446.466	78.81
446.687	79.81
446.908	78.81
447.129	83.81
447.35	79.81
447.571	77.81
447.792	83.81
448.013	77.81
448.234	82.81
448.455	94.81
448.675	69.81
448.896	70.81
449.117	69.81
449.338	72.81
449.559	86.81
449.779	79.81
450	66.81
450.221	68.81
450.442	69.81
450.662	81.81
450.883	68.81
451.104	65.81
451.324	79.81
451.545	77.81
451.766	85.81
451.986	86.81
452.207	98.81
452.428	73.81
452.648	90.81
452.869	88.81
453.089	84.81
453.31	77.81
453.53	98.81
453.751	87.81
453.971	75.81
454.192	69.81
454.412	84.81
454.633	74.81
454.853	66.81
455.073	92.81
455.294	87.81
455.514	91.81
455.734	73.81
455.955	82.81
456.175	94.81
456.395	73.81
456.616	70.81
456.836	90.81
457.056	86.81
457.276	70.81
457.497	87.81
457.717	73.81
457.937	92.81
458.157	99.81
458.377	95.81
458.598	91.81
458.818	108.81
459.038	87.81
459.258	87.81
459.478	65.81
459.698	88.81
459.918	79.81
460.138	87.81
460.358	83.81
460.578	68.81
460.798	100.81
461.018	97.81
461.238	86.81
461.458	80.81
461.678	68.81
461.898	85.81
462.118	80.81
462.338	82.81
462.558	84.81
462.777	93.81
462.997	92.81
463.217	79.81
463.437	68.81
463.657	92.81
463.876	84.81
464.096	74.81
464.316	86.81
464.536	88.81
464.755	76.81
464.975	78.81
465.195	82.81
465.414	86.81
465.634	62.81
465.854	87.81
466.073	94.81
466.293	77.81
466.512	73.81
466.732	69.81
466.951	79.81
467.171	70.81
467.391	74.81
467.61	78.81
467.829	90.81
468.049	88.81
468.268	89.81
468.488	78.81
468.707	88.81
468.927	104.81
469.146	80.81
469.365	85.81
469.585	61.81
469.804	70.81
470.023	72.81
470.243	69.81
470.462	69.81
470.681	78.81
470.901	78.81
471.12	71.81
471.339	74.81
471.558	94.81
471.777	68.81
471.997	74.81
472.216	71.81
472.435	82.81
472.654	78.81
472.873	75.81
473.092	77.81
473.311	86.81
473.53	83.81
473.749	83.81
473.968	78.81
474.187	86.81
474.406	79.81
474.625	76.81
474.844	85.81
475.063	74.81
475.282	66.81
475.501	64.81
475.72	100.81
475.939	70.81
476.158	73.81
476.377	77.81
476.596	94.81
476.814	86.81
477.033	82.81
477.252	91.81
477.471	78.81
477.69	80.81
477.908	79.81
478.127	75.81
478.346	80.81
478.564	73.81
478.783	73.81
479.002	93.81
479.22	71.81
479.439	66.81
479.658	78.81
479.876	75.81
480.095	79.81
480.313	87.81
480.532	72.81
480.751	92.81
480.969	93.81
481.188	88.81
481.406	77.81
481.624	82.81
481.843	72.81
482.061	79.81
482.28	78.81
482.498	81.81
482.717	85.81
482.935	78.81
483.153	75.81
483.372	68.81
483.59	87.81
483.808	84.81
484.027	87.81
484.245	72.81
484.463	86.81
484.681	80.81
484.9	86.81
485.118	83.81
485.336	76.81
485.554	78.81
485.772	77.81
485.99	91.81
486.209	88.81
486.427	77.81
486.645	77.81
486.863	82.81
487.081	70.81
487.299	60.81
487.517	88.81
487.735	84.81
487.953	112.81
488.171	108.81
488.389	75.81
488.607	76.81
488.825	79.81
489.043	83.81
489.261	78.81
489.479	81.81
489.696	82.81
489.914	82.81
490.132	90.81
490.35	83.81
490.568	84.81
490.786	75.81
491.003	66.81
491.221	83.81
491.439	86.81
491.657	73.81
491.874	76.81
492.092	89.81
492.31	92.81
492.527	84.81
492.745	72.81
492.963	93.81
493.18	78.81
493.398	79.81
493.615	85.81
493.833	66.81
494.05	67.81
494.268	80.81
494.485	80.81
494.703	90.81
494.92	88.81
495.138	74.81
495.355	81.81
495.573	83.81
495.79	79.81
496.008	88.81
496.225	65.81
496.442	88.81
496.66	74.81
496.877	87.81
497.094	85.81
497.312	88.81
497.529	91.81
497.746	72.81
497.963	83.81
498.181	90.81
498.398	80.81
498.615	87.81
498.832	82.81
499.049	72.81
499.267	88.81
499.484	87.81
499.701	95.81
499.918	64.81
500.135	67.81
500.352	72.81
500.569	85.81
500.786	82.81
501.003	87.81
501.22	83.81
501.437	84.81
501.654	91.81
501.871	85.81
502.088	87.81
502.305	81.81
502.522	85.81
502.739	73.81
502.956	71.81
503.172	90.81
503.389	64.81
503.606	80.81
503.823	82.81
504.04	94.81
504.256	123.81
504.473	103.81
504.69	83.81
504.907	76.81
505.123	75.81
505.34	76.81
505.557	90.81
505.773	80.81
505.99	70.81
506.207	99.81
506.423	69.81
506.64	79.81
506.856	73.81
507.073	78.81
507.289	82.81
507.506	82.81
507.722	76.81
507.939	82.81
508.155	98.81
508.372	76.81
508.588	72.81
508.805	85.81
509.021	92.81
509.238	79.81
509.454	86.81
509.67	86.81
509.887	95.81
510.103	84.81
510.319	91.81
510.536	85.81
510.752	80.81
510.968	84.81
511.184	84.81
511.401	89.81
511.617	88.81
511.833	67.81
512.049	67.81
512.265	64.81
512.481	77.81
512.698	87.81
512.914	77.81
513.13	87.81
513.346	86.81
513.562	76.81
513.778	79.81
513.994	72.81
514.21	76.81
514.426	92.81
514.642	82.81
514.858	91.81
515.074	68.81
515.29	83.81
515.506	64.81
515.721	76.81
515.937	84.81
516.153	86.81
516.369	73.81
516.585	79.81
516.801	82.81
517.016	89.81
517.232	90.81
517.448	86.81
517.664	72.81
517.879	66.81
518.095	76.81
518.311	84.81
518.527	80.81
518.742	78.81
518.958	125.81
519.173	128.81
519.389	89.81
519.605	83.81
