Data from CBS_3_HRD10591_00041.txt Node
Date: Mon Jan 19 14:05:59 EST 2026
User: Yrep
Spectrometer: HR+D1059
Trigger mode: 1
Integration Time (sec): 1.000000E-1
Scans to average: 1
Electric dark correction enabled: true
Nonlinearity correction enabled: false
Boxcar width: 0
XAxis mode: Wavelengths
Number of Pixels in Spectrum: 2048
>>>>>Begin Spectral Data<<<<<
223.165	-18.88
223.4	-18.88
223.635	-18.88
223.869	-18.88
224.104	-10.88
224.338	-12.88
224.573	-20.88
224.808	-5.88
225.042	-15.88
225.277	8.12
225.511	-11.88
225.746	3.12
225.98	4.12
226.215	10.12
226.449	19.12
226.683	16.12
226.918	16.12
227.152	39.12
227.387	26.12
227.621	29.12
227.856	53.12
228.09	53.12
228.324	36.12
228.559	54.12
228.793	56.12
229.027	83.12
229.262	72.12
229.496	75.12
229.73	68.12
229.964	54.12
230.199	54.12
230.433	72.12
230.667	64.12
230.901	71.12
231.136	88.12
231.37	71.12
231.604	73.12
231.838	88.12
232.072	96.12
232.306	82.12
232.541	77.12
232.775	72.12
233.009	86.12
233.243	78.12
233.477	72.12
233.711	68.12
233.945	68.12
234.179	81.12
234.413	78.12
234.647	85.12
234.881	67.12
235.115	80.12
235.349	76.12
235.583	71.12
235.817	70.12
236.051	75.12
236.285	76.12
236.519	79.12
236.753	84.12
236.987	79.12
237.221	87.12
237.455	89.12
237.689	79.12
237.922	70.12
238.156	61.12
238.39	64.12
238.624	64.12
238.858	69.12
239.091	80.12
239.325	80.12
239.559	74.12
239.793	78.12
240.027	87.12
240.26	74.12
240.494	62.12
240.728	73.12
240.961	67.12
241.195	89.12
241.429	83.12
241.662	82.12
241.896	82.12
242.13	78.12
242.363	76.12
242.597	70.12
242.83	70.12
243.064	88.12
243.298	72.12
243.531	80.12
243.765	78.12
243.998	79.12
244.232	79.12
244.465	78.12
244.699	80.12
244.932	73.12
245.166	84.12
245.399	74.12
245.633	64.12
245.866	79.12
246.099	93.12
246.333	86.12
246.566	66.12
246.8	83.12
247.033	73.12
247.266	68.12
247.5	73.12
247.733	76.12
247.966	91.12
248.2	90.12
248.433	68.12
248.666	88.12
248.899	74.12
249.133	83.12
249.366	77.12
249.599	81.12
249.832	57.12
250.066	86.12
250.299	94.12
250.532	88.12
250.765	86.12
250.998	64.12
251.231	80.12
251.465	73.12
251.698	74.12
251.931	71.12
252.164	78.12
252.397	73.12
252.63	75.12
252.863	66.12
253.096	74.12
253.329	84.12
253.562	71.12
253.795	64.12
254.028	81.12
254.261	83.12
254.494	66.12
254.727	88.12
254.96	65.12
255.193	72.12
255.426	82.12
255.659	96.12
255.892	79.12
256.124	80.12
256.357	78.12
256.59	77.12
256.823	70.12
257.056	93.12
257.289	71.12
257.521	84.12
257.754	82.12
257.987	80.12
258.22	75.12
258.452	73.12
258.685	73.12
258.918	86.12
259.151	70.12
259.383	82.12
259.616	83.12
259.849	73.12
260.081	73.12
260.314	86.12
260.547	74.12
260.779	72.12
261.012	68.12
261.244	82.12
261.477	84.12
261.71	64.12
261.942	81.12
262.175	90.12
262.407	83.12
262.64	74.12
262.872	89.12
263.105	95.12
263.337	94.12
263.57	76.12
263.802	88.12
264.035	74.12
264.267	80.12
264.499	73.12
264.732	89.12
264.964	80.12
265.197	84.12
265.429	78.12
265.661	82.12
265.894	90.12
266.126	92.12
266.358	85.12
266.591	100.12
266.823	82.12
267.055	72.12
267.287	75.12
267.52	80.12
267.752	73.12
267.984	98.12
268.216	81.12
268.448	87.12
268.681	71.12
268.913	84.12
269.145	73.12
269.377	84.12
269.609	88.12
269.841	78.12
270.073	81.12
270.306	70.12
270.538	64.12
270.77	78.12
271.002	80.12
271.234	90.12
271.466	96.12
271.698	98.12
271.93	79.12
272.162	74.12
272.394	84.12
272.626	74.12
272.858	69.12
273.09	91.12
273.322	80.12
273.553	89.12
273.785	86.12
274.017	79.12
274.249	88.12
274.481	87.12
274.713	96.12
274.945	79.12
275.176	72.12
275.408	82.12
275.64	84.12
275.872	82.12
276.104	72.12
276.335	67.12
276.567	90.12
276.799	73.12
277.031	81.12
277.262	87.12
277.494	76.12
277.726	87.12
277.957	99.12
278.189	79.12
278.421	62.12
278.652	77.12
278.884	88.12
279.115	80.12
279.347	97.12
279.579	86.12
279.81	98.12
280.042	84.12
280.273	75.12
280.505	79.12
280.736	72.12
280.968	79.12
281.199	88.12
281.431	80.12
281.662	74.12
281.894	84.12
282.125	88.12
282.356	88.12
282.588	78.12
282.819	72.12
283.051	87.12
283.282	87.12
283.513	84.12
283.745	82.12
283.976	83.12
284.207	87.12
284.439	67.12
284.67	74.12
284.901	78.12
285.132	87.12
285.364	85.12
285.595	85.12
285.826	87.12
286.057	75.12
286.288	79.12
286.52	81.12
286.751	80.12
286.982	81.12
287.213	82.12
287.444	92.12
287.675	82.12
287.906	87.12
288.138	79.12
288.369	90.12
288.6	88.12
288.831	81.12
289.062	82.12
289.293	67.12
289.524	73.12
289.755	99.12
289.986	74.12
290.217	76.12
290.448	82.12
290.679	92.12
290.91	86.12
291.141	80.12
291.371	67.12
291.602	84.12
291.833	89.12
292.064	88.12
292.295	94.12
292.526	73.12
292.757	86.12
292.987	85.12
293.218	83.12
293.449	81.12
293.68	74.12
293.91	81.12
294.141	78.12
294.372	74.12
294.603	83.12
294.833	90.12
295.064	92.12
295.295	86.12
295.525	87.12
295.756	82.12
295.987	86.12
296.217	93.12
296.448	89.12
296.679	80.12
296.909	86.12
297.14	88.12
297.37	74.12
297.601	91.12
297.831	101.12
298.062	80.12
298.292	79.12
298.523	88.12
298.753	88.12
298.984	84.12
299.214	84.12
299.445	86.12
299.675	77.12
299.905	77.12
300.136	93.12
300.366	79.12
300.597	84.12
300.827	98.12
301.057	69.12
301.288	89.12
301.518	88.12
301.748	91.12
301.979	96.12
302.209	84.12
302.439	86.12
302.669	84.12
302.9	90.12
303.13	89.12
303.36	98.12
303.59	91.12
303.82	84.12
304.051	91.12
304.281	90.12
304.511	78.12
304.741	77.12
304.971	92.12
305.201	72.12
305.431	84.12
305.661	88.12
305.891	82.12
306.121	83.12
306.352	80.12
306.582	93.12
306.812	93.12
307.042	80.12
307.272	86.12
307.502	91.12
307.731	87.12
307.961	102.12
308.191	86.12
308.421	89.12
308.651	77.12
308.881	78.12
309.111	77.12
309.341	88.12
309.571	93.12
309.8	87.12
310.03	75.12
310.26	91.12
310.49	86.12
310.72	94.12
310.949	82.12
311.179	95.12
311.409	88.12
311.639	78.12
311.868	83.12
312.098	94.12
312.328	73.12
312.557	94.12
312.787	90.12
313.017	80.12
313.246	78.12
313.476	77.12
313.706	92.12
313.935	86.12
314.165	91.12
314.394	81.12
314.624	84.12
314.853	92.12
315.083	92.12
315.312	84.12
315.542	86.12
315.771	85.12
316.001	81.12
316.23	90.12
316.46	78.12
316.689	79.12
316.919	84.12
317.148	89.12
317.377	89.12
317.607	88.12
317.836	81.12
318.065	92.12
318.295	80.12
318.524	78.12
318.753	62.12
318.983	84.12
319.212	82.12
319.441	88.12
319.67	88.12
319.9	98.12
320.129	83.12
320.358	70.12
320.587	77.12
320.816	82.12
321.046	90.12
321.275	93.12
321.504	89.12
321.733	87.12
321.962	75.12
322.191	83.12
322.42	85.12
322.649	97.12
322.878	92.12
323.108	89.12
323.337	93.12
323.566	83.12
323.795	68.12
324.024	80.12
324.253	80.12
324.482	89.12
324.71	84.12
324.939	89.12
325.168	85.12
325.397	82.12
325.626	81.12
325.855	71.12
326.084	97.12
326.313	99.12
326.542	63.12
326.77	81.12
326.999	85.12
327.228	87.12
327.457	80.12
327.686	76.12
327.914	75.12
328.143	97.12
328.372	81.12
328.6	91.12
328.829	90.12
329.058	82.12
329.287	79.12
329.515	81.12
329.744	108.12
329.972	92.12
330.201	70.12
330.43	87.12
330.658	89.12
330.887	84.12
331.115	80.12
331.344	77.12
331.572	91.12
331.801	85.12
332.03	79.12
332.258	70.12
332.486	90.12
332.715	71.12
332.943	84.12
333.172	78.12
333.4	82.12
333.629	95.12
333.857	75.12
334.085	79.12
334.314	88.12
334.542	91.12
334.771	83.12
334.999	78.12
335.227	83.12
335.455	89.12
335.684	83.12
335.912	97.12
336.14	84.12
336.369	80.12
336.597	72.12
336.825	78.12
337.053	68.12
337.281	71.12
337.51	72.12
337.738	58.12
337.966	78.12
338.194	96.12
338.422	82.12
338.65	81.12
338.878	94.12
339.106	69.12
339.334	73.12
339.562	86.12
339.79	67.12
340.018	86.12
340.246	85.12
340.474	92.12
340.702	93.12
340.93	81.12
341.158	85.12
341.386	98.12
341.614	94.12
341.842	81.12
342.07	93.12
342.298	73.12
342.526	88.12
342.754	80.12
342.981	77.12
343.209	82.12
343.437	92.12
343.665	83.12
343.893	86.12
344.12	95.12
344.348	88.12
344.576	78.12
344.804	96.12
345.031	75.12
345.259	74.12
345.487	74.12
345.714	83.12
345.942	92.12
346.17	93.12
346.397	71.12
346.625	84.12
346.853	73.12
347.08	81.12
347.308	86.12
347.535	73.12
347.763	91.12
347.99	84.12
348.218	89.12
348.445	80.12
348.673	84.12
348.9	94.12
349.128	99.12
349.355	93.12
349.583	87.12
349.81	81.12
350.037	85.12
350.265	82.12
350.492	73.12
350.72	89.12
350.947	80.12
351.174	87.12
351.402	83.12
351.629	91.12
351.856	89.12
352.083	78.12
352.311	90.12
352.538	86.12
352.765	80.12
352.992	93.12
353.22	80.12
353.447	84.12
353.674	82.12
353.901	88.12
354.128	94.12
354.355	79.12
354.583	82.12
354.81	82.12
355.037	80.12
355.264	82.12
355.491	93.12
355.718	92.12
355.945	95.12
356.172	71.12
356.399	87.12
356.626	76.12
356.853	80.12
357.08	88.12
357.307	95.12
357.534	90.12
357.761	94.12
357.988	89.12
358.215	100.12
358.441	90.12
358.668	89.12
358.895	93.12
359.122	92.12
359.349	69.12
359.576	71.12
359.802	92.12
360.029	77.12
360.256	82.12
360.483	92.12
360.709	74.12
360.936	85.12
361.163	84.12
361.39	88.12
361.616	88.12
361.843	88.12
362.07	74.12
362.296	89.12
362.523	89.12
362.749	84.12
362.976	91.12
363.203	97.12
363.429	89.12
363.656	78.12
363.882	88.12
364.109	95.12
364.335	92.12
364.562	96.12
364.788	79.12
365.015	85.12
365.241	88.12
365.468	93.12
365.694	84.12
365.92	71.12
366.147	84.12
366.373	73.12
366.599	72.12
366.826	100.12
367.052	83.12
367.278	98.12
367.505	92.12
367.731	87.12
367.957	82.12
368.184	89.12
368.41	66.12
368.636	64.12
368.862	79.12
369.089	75.12
369.315	87.12
369.541	76.12
369.767	78.12
369.993	86.12
370.219	87.12
370.445	78.12
370.672	78.12
370.898	87.12
371.124	90.12
371.35	77.12
371.576	86.12
371.802	83.12
372.028	87.12
372.254	81.12
372.48	82.12
372.706	92.12
372.932	58.12
373.158	92.12
373.384	89.12
373.61	83.12
373.835	86.12
374.061	86.12
374.287	81.12
374.513	78.12
374.739	72.12
374.965	81.12
375.191	74.12
375.416	84.12
375.642	96.12
375.868	84.12
376.094	86.12
376.319	92.12
376.545	92.12
376.771	87.12
376.997	85.12
377.222	90.12
377.448	85.12
377.674	67.12
377.899	80.12
378.125	75.12
378.35	91.12
378.576	94.12
378.802	83.12
379.027	92.12
379.253	84.12
379.478	90.12
379.704	82.12
379.929	85.12
380.155	73.12
380.38	78.12
380.606	88.12
380.831	68.12
381.057	81.12
381.282	96.12
381.507	71.12
381.733	77.12
381.958	100.12
382.184	87.12
382.409	81.12
382.634	76.12
382.86	72.12
383.085	80.12
383.31	80.12
383.535	87.12
383.761	77.12
383.986	86.12
384.211	83.12
384.436	80.12
384.662	84.12
384.887	69.12
385.112	78.12
385.337	78.12
385.562	81.12
385.787	78.12
386.013	96.12
386.238	98.12
386.463	74.12
386.688	95.12
386.913	80.12
387.138	75.12
387.363	78.12
387.588	84.12
387.813	80.12
388.038	74.12
388.263	91.12
388.488	90.12
388.713	75.12
388.938	80.12
389.163	70.12
389.387	88.12
389.612	80.12
389.837	83.12
390.062	86.12
390.287	67.12
390.512	81.12
390.736	77.12
390.961	83.12
391.186	68.12
391.411	86.12
391.636	81.12
391.86	88.12
392.085	84.12
392.31	88.12
392.534	98.12
392.759	89.12
392.984	92.12
393.208	144.12
393.433	180.12
393.658	145.12
393.882	99.12
394.107	97.12
394.331	92.12
394.556	96.12
394.78	94.12
395.005	77.12
395.229	82.12
395.454	94.12
395.678	89.12
395.903	75.12
396.127	94.12
396.352	98.12
396.576	116.12
396.801	156.12
397.025	164.12
397.249	117.12
397.474	100.12
397.698	97.12
397.922	80.12
398.147	86.12
398.371	70.12
398.595	78.12
398.82	95.12
399.044	70.12
399.268	81.12
399.492	89.12
399.717	89.12
399.941	82.12
400.165	86.12
400.389	81.12
400.613	78.12
400.837	89.12
401.062	92.12
401.286	78.12
401.51	71.12
401.734	82.12
401.958	74.12
402.182	81.12
402.406	72.12
402.63	79.12
402.854	73.12
403.078	75.12
403.302	77.12
403.526	86.12
403.75	72.12
403.974	76.12
404.198	96.12
404.422	86.12
404.645	88.12
404.869	90.12
405.093	80.12
405.317	84.12
405.541	83.12
405.765	83.12
405.988	73.12
406.212	75.12
406.436	76.12
406.66	88.12
406.883	87.12
407.107	74.12
407.331	88.12
407.555	86.12
407.778	81.12
408.002	88.12
408.226	82.12
408.449	71.12
408.673	97.12
408.896	78.12
409.12	85.12
409.344	88.12
409.567	83.12
409.791	77.12
410.014	81.12
410.238	91.12
410.461	87.12
410.685	90.12
410.908	98.12
411.132	81.12
411.355	85.12
411.578	88.12
411.802	72.12
412.025	67.12
412.249	69.12
412.472	81.12
412.695	81.12
412.919	86.12
413.142	88.12
413.365	80.12
413.589	73.12
413.812	79.12
414.035	77.12
414.258	84.12
414.482	82.12
414.705	88.12
414.928	80.12
415.151	80.12
415.374	72.12
415.597	74.12
415.821	74.12
416.044	85.12
416.267	71.12
416.49	82.12
416.713	82.12
416.936	88.12
417.159	77.12
417.382	70.12
417.605	82.12
417.828	73.12
418.051	88.12
418.274	92.12
418.497	90.12
418.72	83.12
418.943	83.12
419.166	74.12
419.389	83.12
419.611	74.12
419.834	80.12
420.057	88.12
420.28	80.12
420.503	84.12
420.726	88.12
420.948	86.12
421.171	79.12
421.394	86.12
421.617	97.12
421.839	90.12
422.062	106.12
422.285	112.12
422.507	134.12
422.73	199.12
422.953	182.12
423.175	126.12
423.398	87.12
423.621	68.12
423.843	85.12
424.066	82.12
424.288	84.12
424.511	85.12
424.733	74.12
424.956	81.12
425.178	92.12
425.401	84.12
425.623	89.12
425.846	93.12
426.068	88.12
426.291	80.12
426.513	73.12
426.735	83.12
426.958	86.12
427.18	92.12
427.402	82.12
427.625	74.12
427.847	88.12
428.069	93.12
428.292	90.12
428.514	100.12
428.736	85.12
428.958	108.12
429.181	95.12
429.403	90.12
429.625	79.12
429.847	90.12
430.069	110.12
430.292	128.12
430.514	104.12
430.736	101.12
430.958	110.12
431.18	85.12
431.402	82.12
431.624	80.12
431.846	90.12
432.068	108.12
432.29	84.12
432.512	74.12
432.734	83.12
432.956	86.12
433.178	81.12
433.4	87.12
433.622	95.12
433.844	69.12
434.066	74.12
434.287	89.12
434.509	80.12
434.731	77.12
434.953	80.12
435.175	94.12
435.397	85.12
435.618	80.12
435.84	81.12
436.062	78.12
436.284	76.12
436.505	92.12
436.727	75.12
436.949	80.12
437.17	76.12
437.392	69.12
437.614	88.12
437.835	67.12
438.057	80.12
438.278	73.12
438.5	90.12
438.721	84.12
438.943	84.12
439.165	85.12
439.386	82.12
439.608	80.12
439.829	90.12
440.05	84.12
440.272	65.12
440.493	84.12
440.715	92.12
440.936	89.12
441.158	85.12
441.379	75.12
441.6	76.12
441.822	94.12
442.043	74.12
442.264	81.12
442.486	90.12
442.707	114.12
442.928	94.12
443.149	90.12
443.371	106.12
443.592	129.12
443.813	131.12
444.034	70.12
444.255	69.12
444.476	84.12
444.698	96.12
444.919	96.12
445.14	175.12
445.361	140.12
445.582	146.12
445.803	129.12
446.024	82.12
446.245	86.12
446.466	72.12
446.687	78.12
446.908	89.12
447.129	88.12
447.35	94.12
447.571	77.12
447.792	61.12
448.013	82.12
448.234	64.12
448.455	87.12
448.675	78.12
448.896	84.12
449.117	76.12
449.338	81.12
449.559	92.12
449.779	84.12
450	82.12
450.221	68.12
450.442	75.12
450.662	81.12
450.883	98.12
451.104	93.12
451.324	84.12
451.545	77.12
451.766	80.12
451.986	84.12
452.207	73.12
452.428	60.12
452.648	86.12
452.869	80.12
453.089	86.12
453.31	67.12
453.53	84.12
453.751	73.12
453.971	79.12
454.192	81.12
454.412	77.12
454.633	81.12
454.853	85.12
455.073	73.12
455.294	78.12
455.514	75.12
455.734	71.12
455.955	78.12
456.175	88.12
456.395	84.12
456.616	66.12
456.836	85.12
457.056	96.12
457.276	87.12
457.497	87.12
457.717	72.12
457.937	83.12
458.157	84.12
458.377	89.12
458.598	88.12
458.818	84.12
459.038	90.12
459.258	76.12
459.478	81.12
459.698	80.12
459.918	87.12
460.138	72.12
460.358	89.12
460.578	81.12
460.798	90.12
461.018	95.12
461.238	72.12
461.458	76.12
461.678	82.12
461.898	74.12
462.118	70.12
462.338	89.12
462.558	91.12
462.777	95.12
462.997	86.12
463.217	84.12
463.437	84.12
463.657	82.12
463.876	82.12
464.096	79.12
464.316	84.12
464.536	74.12
464.755	71.12
464.975	72.12
465.195	78.12
465.414	71.12
465.634	88.12
465.854	84.12
466.073	75.12
466.293	84.12
466.512	78.12
466.732	77.12
466.951	90.12
467.171	75.12
467.391	84.12
467.61	84.12
467.829	90.12
468.049	84.12
468.268	75.12
468.488	82.12
468.707	81.12
468.927	68.12
469.146	70.12
469.365	77.12
469.585	80.12
469.804	74.12
470.023	78.12
470.243	79.12
470.462	85.12
470.681	93.12
470.901	84.12
471.12	88.12
471.339	86.12
471.558	86.12
471.777	84.12
471.997	72.12
472.216	82.12
472.435	72.12
472.654	79.12
472.873	81.12
473.092	73.12
473.311	75.12
473.53	84.12
473.749	84.12
473.968	85.12
474.187	83.12
474.406	78.12
474.625	92.12
474.844	81.12
475.063	78.12
475.282	78.12
475.501	83.12
475.72	88.12
475.939	96.12
476.158	71.12
476.377	70.12
476.596	73.12
476.814	52.12
477.033	82.12
477.252	89.12
477.471	78.12
477.69	78.12
477.908	90.12
478.127	64.12
478.346	81.12
478.564	76.12
478.783	78.12
479.002	81.12
479.22	83.12
479.439	84.12
479.658	86.12
479.876	86.12
480.095	90.12
480.313	85.12
480.532	73.12
480.751	86.12
480.969	81.12
481.188	81.12
481.406	73.12
481.624	73.12
481.843	93.12
482.061	96.12
482.28	88.12
482.498	77.12
482.717	85.12
482.935	88.12
483.153	90.12
483.372	104.12
483.59	60.12
483.808	72.12
484.027	80.12
484.245	88.12
484.463	87.12
484.681	79.12
484.9	74.12
485.118	82.12
485.336	87.12
485.554	94.12
485.772	85.12
485.99	95.12
486.209	88.12
486.427	84.12
486.645	70.12
486.863	80.12
487.081	78.12
487.299	85.12
487.517	81.12
487.735	75.12
487.953	114.12
488.171	87.12
488.389	84.12
488.607	82.12
488.825	80.12
489.043	82.12
489.261	75.12
489.479	77.12
489.696	96.12
489.914	83.12
490.132	86.12
490.35	94.12
490.568	83.12
490.786	79.12
491.003	103.12
491.221	96.12
491.439	82.12
491.657	80.12
491.874	77.12
492.092	85.12
492.31	90.12
492.527	85.12
492.745	93.12
492.963	74.12
493.18	69.12
493.398	88.12
493.615	72.12
493.833	74.12
494.05	88.12
494.268	76.12
494.485	84.12
494.703	86.12
494.92	88.12
495.138	101.12
495.355	83.12
495.573	82.12
495.79	70.12
496.008	81.12
496.225	91.12
496.442	79.12
496.66	81.12
496.877	87.12
497.094	92.12
497.312	80.12
497.529	78.12
497.746	82.12
497.963	79.12
498.181	69.12
498.398	88.12
498.615	75.12
498.832	69.12
499.049	75.12
499.267	92.12
499.484	87.12
499.701	82.12
499.918	82.12
500.135	90.12
500.352	93.12
500.569	60.12
500.786	89.12
501.003	82.12
501.22	80.12
501.437	88.12
501.654	80.12
501.871	80.12
502.088	87.12
502.305	83.12
502.522	99.12
502.739	68.12
502.956	82.12
503.172	77.12
503.389	88.12
503.606	80.12
503.823	75.12
504.04	94.12
504.256	96.12
504.473	89.12
504.69	81.12
504.907	87.12
505.123	83.12
505.34	93.12
505.557	86.12
505.773	82.12
505.99	80.12
506.207	69.12
506.423	80.12
506.64	78.12
506.856	87.12
507.073	82.12
507.289	80.12
507.506	86.12
507.722	87.12
507.939	74.12
508.155	100.12
508.372	85.12
508.588	86.12
508.805	81.12
509.021	76.12
509.238	75.12
509.454	78.12
509.67	86.12
509.887	79.12
510.103	76.12
510.319	82.12
510.536	85.12
510.752	85.12
510.968	95.12
511.184	78.12
511.401	78.12
511.617	84.12
511.833	72.12
512.049	86.12
512.265	80.12
512.481	74.12
512.698	77.12
512.914	80.12
513.13	88.12
513.346	91.12
513.562	84.12
513.778	93.12
513.994	80.12
514.21	87.12
514.426	75.12
514.642	95.12
514.858	78.12
515.074	82.12
515.29	89.12
515.506	87.12
515.721	83.12
515.937	75.12
516.153	89.12
516.369	83.12
516.585	82.12
516.801	98.12
517.016	96.12
517.232	79.12
517.448	84.12
517.664	77.12
517.879	85.12
518.095	99.12
518.311	64.12
518.527	62.12
518.742	75.12
518.958	95.12
519.173	95.12
519.389	99.12
519.605	73.12
519.82	80.12
