Data from CBS_3_HRD10591_00038.txt Node
Date: Mon Jan 19 14:05:57 EST 2026
User: Yrep
Spectrometer: HR+D1059
Trigger mode: 1
Integration Time (sec): 1.000000E-1
Scans to average: 1
Electric dark correction enabled: true
Nonlinearity correction enabled: false
Boxcar width: 0
XAxis mode: Wavelengths
Number of Pixels in Spectrum: 2048
>>>>>Begin Spectral Data<<<<<
223.165	-0.75
223.4	-0.75
223.635	-0.75
223.869	-11.75
224.104	-16.75
224.338	-23.75
224.573	-21.75
224.808	-4.75
225.042	-9.75
225.277	-6.75
225.511	-15.75
225.746	0.25
225.98	13.25
226.215	13.25
226.449	14.25
226.683	9.25
226.918	26.25
227.152	35.25
227.387	32.25
227.621	42.25
227.856	50.25
228.09	57.25
228.324	59.25
228.559	58.25
228.793	67.25
229.027	70.25
229.262	81.25
229.496	65.25
229.73	71.25
229.964	79.25
230.199	64.25
230.433	74.25
230.667	73.25
230.901	78.25
231.136	81.25
231.37	85.25
231.604	79.25
231.838	91.25
232.072	88.25
232.306	73.25
232.541	95.25
232.775	95.25
233.009	94.25
233.243	82.25
233.477	81.25
233.711	78.25
233.945	85.25
234.179	71.25
234.413	74.25
234.647	77.25
234.881	81.25
235.115	79.25
235.349	66.25
235.583	86.25
235.817	83.25
236.051	75.25
236.285	69.25
236.519	87.25
236.753	80.25
236.987	84.25
237.221	60.25
237.455	79.25
237.689	99.25
237.922	65.25
238.156	80.25
238.39	80.25
238.624	76.25
238.858	76.25
239.091	81.25
239.325	81.25
239.559	89.25
239.793	63.25
240.027	73.25
240.26	69.25
240.494	86.25
240.728	75.25
240.961	70.25
241.195	71.25
241.429	77.25
241.662	87.25
241.896	83.25
242.13	69.25
242.363	81.25
242.597	80.25
242.83	74.25
243.064	80.25
243.298	69.25
243.531	76.25
243.765	74.25
243.998	89.25
244.232	81.25
244.465	81.25
244.699	79.25
244.932	82.25
245.166	90.25
245.399	61.25
245.633	86.25
245.866	65.25
246.099	65.25
246.333	82.25
246.566	69.25
246.8	79.25
247.033	71.25
247.266	78.25
247.5	82.25
247.733	71.25
247.966	86.25
248.2	75.25
248.433	79.25
248.666	75.25
248.899	77.25
249.133	84.25
249.366	90.25
249.599	73.25
249.832	68.25
250.066	75.25
250.299	81.25
250.532	84.25
250.765	82.25
250.998	77.25
251.231	71.25
251.465	99.25
251.698	68.25
251.931	82.25
252.164	88.25
252.397	74.25
252.63	85.25
252.863	74.25
253.096	73.25
253.329	91.25
253.562	81.25
253.795	88.25
254.028	64.25
254.261	81.25
254.494	87.25
254.727	79.25
254.96	68.25
255.193	92.25
255.426	79.25
255.659	82.25
255.892	75.25
256.124	68.25
256.357	78.25
256.59	79.25
256.823	76.25
257.056	73.25
257.289	74.25
257.521	83.25
257.754	88.25
257.987	81.25
258.22	88.25
258.452	93.25
258.685	83.25
258.918	67.25
259.151	69.25
259.383	87.25
259.616	83.25
259.849	79.25
260.081	81.25
260.314	83.25
260.547	74.25
260.779	72.25
261.012	78.25
261.244	88.25
261.477	91.25
261.71	65.25
261.942	88.25
262.175	77.25
262.407	85.25
262.64	92.25
262.872	78.25
263.105	79.25
263.337	91.25
263.57	96.25
263.802	83.25
264.035	94.25
264.267	89.25
264.499	91.25
264.732	80.25
264.964	79.25
265.197	81.25
265.429	80.25
265.661	72.25
265.894	87.25
266.126	81.25
266.358	75.25
266.591	83.25
266.823	74.25
267.055	74.25
267.287	91.25
267.52	81.25
267.752	88.25
267.984	79.25
268.216	97.25
268.448	76.25
268.681	78.25
268.913	84.25
269.145	85.25
269.377	74.25
269.609	70.25
269.841	73.25
270.073	81.25
270.306	91.25
270.538	89.25
270.77	84.25
271.002	87.25
271.234	63.25
271.466	97.25
271.698	103.25
271.93	76.25
272.162	83.25
272.394	86.25
272.626	77.25
272.858	81.25
273.09	88.25
273.322	78.25
273.553	73.25
273.785	77.25
274.017	81.25
274.249	81.25
274.481	93.25
274.713	79.25
274.945	76.25
275.176	82.25
275.408	60.25
275.64	83.25
275.872	83.25
276.104	75.25
276.335	86.25
276.567	95.25
276.799	83.25
277.031	89.25
277.262	76.25
277.494	66.25
277.726	85.25
277.957	77.25
278.189	86.25
278.421	76.25
278.652	81.25
278.884	84.25
279.115	94.25
279.347	89.25
279.579	89.25
279.81	84.25
280.042	81.25
280.273	81.25
280.505	87.25
280.736	91.25
280.968	76.25
281.199	86.25
281.431	82.25
281.662	79.25
281.894	75.25
282.125	83.25
282.356	90.25
282.588	83.25
282.819	79.25
283.051	78.25
283.282	77.25
283.513	80.25
283.745	81.25
283.976	88.25
284.207	70.25
284.439	73.25
284.67	76.25
284.901	89.25
285.132	94.25
285.364	90.25
285.595	90.25
285.826	71.25
286.057	81.25
286.288	76.25
286.52	95.25
286.751	87.25
286.982	76.25
287.213	87.25
287.444	87.25
287.675	84.25
287.906	89.25
288.138	82.25
288.369	88.25
288.6	89.25
288.831	84.25
289.062	92.25
289.293	77.25
289.524	87.25
289.755	85.25
289.986	72.25
290.217	87.25
290.448	68.25
290.679	97.25
290.91	99.25
291.141	88.25
291.371	77.25
291.602	88.25
291.833	83.25
292.064	91.25
292.295	82.25
292.526	81.25
292.757	66.25
292.987	93.25
293.218	81.25
293.449	90.25
293.68	91.25
293.91	80.25
294.141	94.25
294.372	83.25
294.603	95.25
294.833	73.25
295.064	80.25
295.295	80.25
295.525	85.25
295.756	88.25
295.987	88.25
296.217	75.25
296.448	81.25
296.679	67.25
296.909	94.25
297.14	81.25
297.37	82.25
297.601	94.25
297.831	82.25
298.062	89.25
298.292	85.25
298.523	84.25
298.753	80.25
298.984	78.25
299.214	90.25
299.445	77.25
299.675	93.25
299.905	91.25
300.136	93.25
300.366	84.25
300.597	81.25
300.827	82.25
301.057	87.25
301.288	85.25
301.518	96.25
301.748	82.25
301.979	84.25
302.209	63.25
302.439	83.25
302.669	80.25
302.9	86.25
303.13	64.25
303.36	81.25
303.59	74.25
303.82	85.25
304.051	92.25
304.281	79.25
304.511	88.25
304.741	89.25
304.971	97.25
305.201	99.25
305.431	92.25
305.661	81.25
305.891	71.25
306.121	70.25
306.352	76.25
306.582	75.25
306.812	72.25
307.042	81.25
307.272	86.25
307.502	84.25
307.731	98.25
307.961	79.25
308.191	90.25
308.421	89.25
308.651	89.25
308.881	86.25
309.111	79.25
309.341	86.25
309.571	88.25
309.8	99.25
310.03	91.25
310.26	83.25
310.49	84.25
310.72	79.25
310.949	68.25
311.179	80.25
311.409	89.25
311.639	88.25
311.868	94.25
312.098	73.25
312.328	81.25
312.557	81.25
312.787	93.25
313.017	94.25
313.246	88.25
313.476	82.25
313.706	89.25
313.935	81.25
314.165	86.25
314.394	105.25
314.624	83.25
314.853	79.25
315.083	85.25
315.312	86.25
315.542	78.25
315.771	109.25
316.001	104.25
316.23	103.25
316.46	81.25
316.689	93.25
316.919	94.25
317.148	80.25
317.377	93.25
317.607	102.25
317.836	115.25
318.065	122.25
318.295	101.25
318.524	87.25
318.753	93.25
318.983	81.25
319.212	91.25
319.441	86.25
319.67	75.25
319.9	80.25
320.129	90.25
320.358	95.25
320.587	82.25
320.816	86.25
321.046	98.25
321.275	90.25
321.504	84.25
321.733	66.25
321.962	69.25
322.191	81.25
322.42	85.25
322.649	96.25
322.878	85.25
323.108	84.25
323.337	99.25
323.566	100.25
323.795	81.25
324.024	85.25
324.253	70.25
324.482	94.25
324.71	91.25
324.939	79.25
325.168	94.25
325.397	93.25
325.626	64.25
325.855	80.25
326.084	81.25
326.313	82.25
326.542	96.25
326.77	86.25
326.999	89.25
327.228	86.25
327.457	74.25
327.686	86.25
327.914	87.25
328.143	82.25
328.372	89.25
328.6	91.25
328.829	84.25
329.058	95.25
329.287	88.25
329.515	90.25
329.744	82.25
329.972	90.25
330.201	72.25
330.43	94.25
330.658	90.25
330.887	86.25
331.115	80.25
331.344	88.25
331.572	91.25
331.801	80.25
332.03	80.25
332.258	102.25
332.486	86.25
332.715	99.25
332.943	89.25
333.172	86.25
333.4	94.25
333.629	89.25
333.857	79.25
334.085	97.25
334.314	80.25
334.542	90.25
334.771	87.25
334.999	98.25
335.227	86.25
335.455	101.25
335.684	93.25
335.912	87.25
336.14	95.25
336.369	91.25
336.597	93.25
336.825	79.25
337.053	89.25
337.281	78.25
337.51	90.25
337.738	87.25
337.966	75.25
338.194	69.25
338.422	93.25
338.65	91.25
338.878	76.25
339.106	86.25
339.334	94.25
339.562	89.25
339.79	89.25
340.018	81.25
340.246	85.25
340.474	79.25
340.702	93.25
340.93	83.25
341.158	74.25
341.386	75.25
341.614	85.25
341.842	94.25
342.07	85.25
342.298	81.25
342.526	72.25
342.754	83.25
342.981	83.25
343.209	92.25
343.437	94.25
343.665	95.25
343.893	84.25
344.12	93.25
344.348	94.25
344.576	97.25
344.804	100.25
345.031	80.25
345.259	79.25
345.487	89.25
345.714	87.25
345.942	79.25
346.17	84.25
346.397	87.25
346.625	77.25
346.853	91.25
347.08	85.25
347.308	91.25
347.535	78.25
347.763	88.25
347.99	91.25
348.218	92.25
348.445	98.25
348.673	90.25
348.9	81.25
349.128	79.25
349.355	100.25
349.583	82.25
349.81	89.25
350.037	80.25
350.265	92.25
350.492	83.25
350.72	87.25
350.947	76.25
351.174	97.25
351.402	84.25
351.629	91.25
351.856	91.25
352.083	97.25
352.311	76.25
352.538	81.25
352.765	82.25
352.992	95.25
353.22	95.25
353.447	83.25
353.674	91.25
353.901	96.25
354.128	79.25
354.355	79.25
354.583	93.25
354.81	87.25
355.037	89.25
355.264	74.25
355.491	69.25
355.718	73.25
355.945	89.25
356.172	83.25
356.399	94.25
356.626	85.25
356.853	82.25
357.08	96.25
357.307	87.25
357.534	79.25
357.761	87.25
357.988	98.25
358.215	91.25
358.441	91.25
358.668	86.25
358.895	83.25
359.122	95.25
359.349	80.25
359.576	75.25
359.802	86.25
360.029	97.25
360.256	90.25
360.483	77.25
360.709	76.25
360.936	85.25
361.163	89.25
361.39	81.25
361.616	78.25
361.843	77.25
362.07	82.25
362.296	92.25
362.523	95.25
362.749	106.25
362.976	89.25
363.203	100.25
363.429	90.25
363.656	85.25
363.882	76.25
364.109	106.25
364.335	103.25
364.562	98.25
364.788	93.25
365.015	79.25
365.241	75.25
365.468	76.25
365.694	89.25
365.92	81.25
366.147	65.25
366.373	92.25
366.599	93.25
366.826	100.25
367.052	72.25
367.278	94.25
367.505	81.25
367.731	81.25
367.957	90.25
368.184	85.25
368.41	83.25
368.636	88.25
368.862	67.25
369.089	82.25
369.315	90.25
369.541	87.25
369.767	97.25
369.993	75.25
370.219	88.25
370.445	96.25
370.672	97.25
370.898	93.25
371.124	83.25
371.35	89.25
371.576	94.25
371.802	76.25
372.028	110.25
372.254	89.25
372.48	75.25
372.706	92.25
372.932	81.25
373.158	80.25
373.384	93.25
373.61	110.25
373.835	126.25
374.061	113.25
374.287	87.25
374.513	72.25
374.739	101.25
374.965	70.25
375.191	80.25
375.416	87.25
375.642	99.25
375.868	93.25
376.094	87.25
376.319	85.25
376.545	99.25
376.771	88.25
376.997	94.25
377.222	74.25
377.448	95.25
377.674	92.25
377.899	81.25
378.125	67.25
378.35	69.25
378.576	94.25
378.802	85.25
379.027	83.25
379.253	85.25
379.478	81.25
379.704	76.25
379.929	87.25
380.155	97.25
380.38	80.25
380.606	80.25
380.831	86.25
381.057	90.25
381.282	87.25
381.507	80.25
381.733	97.25
381.958	89.25
382.184	98.25
382.409	81.25
382.634	87.25
382.86	91.25
383.085	89.25
383.31	91.25
383.535	86.25
383.761	99.25
383.986	112.25
384.211	90.25
384.436	86.25
384.662	90.25
384.887	89.25
385.112	92.25
385.337	85.25
385.562	93.25
385.787	91.25
386.013	101.25
386.238	86.25
386.463	87.25
386.688	98.25
386.913	91.25
387.138	93.25
387.363	97.25
387.588	100.25
387.813	83.25
388.038	86.25
388.263	85.25
388.488	87.25
388.713	81.25
388.938	82.25
389.163	89.25
389.387	85.25
389.612	78.25
389.837	78.25
390.062	81.25
390.287	89.25
390.512	87.25
390.736	82.25
390.961	95.25
391.186	101.25
391.411	91.25
391.636	85.25
391.86	78.25
392.085	85.25
392.31	102.25
392.534	110.25
392.759	121.25
392.984	192.25
393.208	349.25
393.433	553.25
393.658	409.25
393.882	168.25
394.107	112.25
394.331	101.25
394.556	106.25
394.78	105.25
395.005	95.25
395.229	101.25
395.454	96.25
395.678	101.25
395.903	97.25
396.127	115.25
396.352	134.25
396.576	200.25
396.801	358.25
397.025	412.25
397.249	199.25
397.474	117.25
397.698	101.25
397.922	87.25
398.147	90.25
398.371	80.25
398.595	77.25
398.82	84.25
399.044	91.25
399.268	82.25
399.492	82.25
399.717	81.25
399.941	94.25
400.165	89.25
400.389	98.25
400.613	75.25
400.837	97.25
401.062	81.25
401.286	84.25
401.51	74.25
401.734	81.25
401.958	90.25
402.182	90.25
402.406	91.25
402.63	82.25
402.854	93.25
403.078	73.25
403.302	89.25
403.526	70.25
403.75	63.25
403.974	67.25
404.198	87.25
404.422	89.25
404.645	87.25
404.869	86.25
405.093	75.25
405.317	77.25
405.541	81.25
405.765	85.25
405.988	77.25
406.212	91.25
406.436	84.25
406.66	90.25
406.883	82.25
407.107	82.25
407.331	87.25
407.555	98.25
407.778	111.25
408.002	96.25
408.226	95.25
408.449	93.25
408.673	95.25
408.896	86.25
409.12	86.25
409.344	84.25
409.567	80.25
409.791	78.25
410.014	95.25
410.238	85.25
410.461	58.25
410.685	87.25
410.908	81.25
411.132	93.25
411.355	89.25
411.578	90.25
411.802	75.25
412.025	77.25
412.249	93.25
412.472	89.25
412.695	89.25
412.919	81.25
413.142	93.25
413.365	86.25
413.589	88.25
413.812	80.25
414.035	73.25
414.258	89.25
414.482	73.25
414.705	86.25
414.928	97.25
415.151	90.25
415.374	78.25
415.597	72.25
415.821	83.25
416.044	63.25
416.267	85.25
416.49	79.25
416.713	85.25
416.936	73.25
417.159	69.25
417.382	83.25
417.605	83.25
417.828	95.25
418.051	81.25
418.274	77.25
418.497	86.25
418.72	72.25
418.943	88.25
419.166	81.25
419.389	74.25
419.611	79.25
419.834	75.25
420.057	79.25
420.28	82.25
420.503	90.25
420.726	82.25
420.948	92.25
421.171	85.25
421.394	92.25
421.617	101.25
421.839	98.25
422.062	96.25
422.285	120.25
422.507	170.25
422.73	302.25
422.953	266.25
423.175	133.25
423.398	93.25
423.621	83.25
423.843	85.25
424.066	76.25
424.288	87.25
424.511	75.25
424.733	89.25
424.956	78.25
425.178	71.25
425.401	89.25
425.623	81.25
425.846	75.25
426.068	90.25
426.291	97.25
426.513	65.25
426.735	83.25
426.958	86.25
427.18	80.25
427.402	81.25
427.625	83.25
427.847	70.25
428.069	87.25
428.292	103.25
428.514	113.25
428.736	89.25
428.958	99.25
429.181	111.25
429.403	93.25
429.625	95.25
429.847	108.25
430.069	129.25
430.292	148.25
430.514	131.25
430.736	113.25
430.958	119.25
431.18	99.25
431.402	96.25
431.624	102.25
431.846	104.25
432.068	131.25
432.29	91.25
432.512	95.25
432.734	84.25
432.956	94.25
433.178	90.25
433.4	90.25
433.622	98.25
433.844	83.25
434.066	88.25
434.287	87.25
434.509	93.25
434.731	79.25
434.953	81.25
435.175	87.25
435.397	69.25
435.618	81.25
435.84	84.25
436.062	93.25
436.284	79.25
436.505	93.25
436.727	78.25
436.949	88.25
437.17	88.25
437.392	80.25
437.614	83.25
437.835	97.25
438.057	78.25
438.278	82.25
438.5	89.25
438.721	85.25
438.943	85.25
439.165	89.25
439.386	93.25
439.608	79.25
439.829	91.25
440.05	81.25
440.272	85.25
440.493	88.25
440.715	74.25
440.936	81.25
441.158	93.25
441.379	85.25
441.6	99.25
441.822	69.25
442.043	86.25
442.264	82.25
442.486	113.25
442.707	128.25
442.928	93.25
443.149	99.25
443.371	113.25
443.592	185.25
443.813	151.25
444.034	98.25
444.255	79.25
444.476	91.25
444.698	77.25
444.919	91.25
445.14	171.25
445.361	175.25
445.582	193.25
445.803	169.25
446.024	104.25
446.245	97.25
446.466	89.25
446.687	78.25
446.908	77.25
447.129	95.25
447.35	86.25
447.571	86.25
447.792	83.25
448.013	87.25
448.234	95.25
448.455	80.25
448.675	95.25
448.896	76.25
449.117	76.25
449.338	88.25
449.559	90.25
449.779	85.25
450	79.25
450.221	73.25
450.442	76.25
450.662	87.25
450.883	89.25
451.104	84.25
451.324	89.25
451.545	87.25
451.766	77.25
451.986	85.25
452.207	73.25
452.428	96.25
452.648	98.25
452.869	90.25
453.089	83.25
453.31	91.25
453.53	80.25
453.751	95.25
453.971	90.25
454.192	94.25
454.412	73.25
454.633	86.25
454.853	77.25
455.073	68.25
455.294	84.25
455.514	71.25
455.734	86.25
455.955	78.25
456.175	83.25
456.395	73.25
456.616	84.25
456.836	77.25
457.056	82.25
457.276	79.25
457.497	85.25
457.717	89.25
457.937	81.25
458.157	83.25
458.377	103.25
458.598	96.25
458.818	110.25
459.038	84.25
459.258	87.25
459.478	81.25
459.698	83.25
459.918	91.25
460.138	81.25
460.358	90.25
460.578	98.25
460.798	91.25
461.018	98.25
461.238	69.25
461.458	73.25
461.678	107.25
461.898	85.25
462.118	103.25
462.338	89.25
462.558	88.25
462.777	83.25
462.997	90.25
463.217	72.25
463.437	89.25
463.657	91.25
463.876	84.25
464.096	96.25
464.316	87.25
464.536	100.25
464.755	91.25
464.975	87.25
465.195	97.25
465.414	84.25
465.634	87.25
465.854	76.25
466.073	89.25
466.293	87.25
466.512	86.25
466.732	88.25
466.951	84.25
467.171	85.25
467.391	85.25
467.61	85.25
467.829	75.25
468.049	83.25
468.268	105.25
468.488	93.25
468.707	85.25
468.927	61.25
469.146	72.25
469.365	77.25
469.585	78.25
469.804	90.25
470.023	85.25
470.243	85.25
470.462	103.25
470.681	79.25
470.901	75.25
471.12	99.25
471.339	74.25
471.558	87.25
471.777	79.25
471.997	92.25
472.216	107.25
472.435	97.25
472.654	73.25
472.873	88.25
473.092	73.25
473.311	77.25
473.53	83.25
473.749	93.25
473.968	72.25
474.187	81.25
474.406	81.25
474.625	79.25
474.844	89.25
475.063	80.25
475.282	73.25
475.501	80.25
475.72	75.25
475.939	81.25
476.158	97.25
476.377	88.25
476.596	77.25
476.814	94.25
477.033	85.25
477.252	81.25
477.471	89.25
477.69	87.25
477.908	83.25
478.127	85.25
478.346	85.25
478.564	86.25
478.783	85.25
479.002	88.25
479.22	87.25
479.439	89.25
479.658	72.25
479.876	83.25
480.095	77.25
480.313	74.25
480.532	74.25
480.751	90.25
480.969	84.25
481.188	75.25
481.406	81.25
481.624	82.25
481.843	71.25
482.061	88.25
482.28	90.25
482.498	86.25
482.717	78.25
482.935	99.25
483.153	81.25
483.372	94.25
483.59	96.25
483.808	93.25
484.027	79.25
484.245	93.25
484.463	80.25
484.681	92.25
484.9	72.25
485.118	95.25
485.336	89.25
485.554	83.25
485.772	86.25
485.99	88.25
486.209	86.25
486.427	73.25
486.645	67.25
486.863	73.25
487.081	99.25
487.299	88.25
487.517	83.25
487.735	99.25
487.953	116.25
488.171	90.25
488.389	80.25
488.607	74.25
488.825	79.25
489.043	93.25
489.261	90.25
489.479	91.25
489.696	93.25
489.914	91.25
490.132	81.25
490.35	76.25
490.568	78.25
490.786	76.25
491.003	63.25
491.221	83.25
491.439	86.25
491.657	85.25
491.874	94.25
492.092	74.25
492.31	92.25
492.527	85.25
492.745	75.25
492.963	84.25
493.18	81.25
493.398	93.25
493.615	82.25
493.833	73.25
494.05	85.25
494.268	100.25
494.485	85.25
494.703	85.25
494.92	82.25
495.138	67.25
495.355	80.25
495.573	93.25
495.79	88.25
496.008	88.25
496.225	95.25
496.442	97.25
496.66	88.25
496.877	87.25
497.094	89.25
497.312	77.25
497.529	85.25
497.746	75.25
497.963	81.25
498.181	87.25
498.398	85.25
498.615	72.25
498.832	102.25
499.049	95.25
499.267	91.25
499.484	67.25
499.701	86.25
499.918	89.25
500.135	91.25
500.352	79.25
500.569	86.25
500.786	81.25
501.003	81.25
501.22	91.25
501.437	87.25
501.654	89.25
501.871	85.25
502.088	88.25
502.305	100.25
502.522	95.25
502.739	88.25
502.956	88.25
503.172	86.25
503.389	85.25
503.606	83.25
503.823	104.25
504.04	109.25
504.256	96.25
504.473	92.25
504.69	111.25
504.907	77.25
505.123	74.25
505.34	95.25
505.557	94.25
505.773	85.25
505.99	81.25
506.207	86.25
506.423	83.25
506.64	86.25
506.856	99.25
507.073	92.25
507.289	81.25
507.506	82.25
507.722	81.25
507.939	82.25
508.155	85.25
508.372	75.25
508.588	89.25
508.805	93.25
509.021	72.25
509.238	85.25
509.454	97.25
509.67	85.25
509.887	78.25
510.103	88.25
510.319	73.25
510.536	88.25
510.752	73.25
510.968	66.25
511.184	94.25
511.401	96.25
511.617	88.25
511.833	88.25
512.049	74.25
512.265	78.25
512.481	86.25
512.698	75.25
512.914	87.25
513.13	82.25
513.346	88.25
513.562	91.25
513.778	87.25
513.994	83.25
514.21	75.25
514.426	83.25
514.642	89.25
514.858	85.25
515.074	95.25
515.29	81.25
515.506	78.25
515.721	87.25
515.937	77.25
516.153	80.25
516.369	92.25
516.585	82.25
516.801	80.25
517.016	89.25
517.232	94.25
517.448	81.25
517.664	93.25
517.879	90.25
518.095	88.25
518.311	83.25
518.527	89.25
518.742	104.25
518.958	128.25
