Data from CBS_3_HRD10591_00048.txt Node
Date: Mon Jan 19 14:06:02 EST 2026
User: Yrep
Spectrometer: HR+D1059
Trigger mode: 1
Integration Time (sec): 1.000000E-1
Scans to average: 1
Electric dark correction enabled: true
Nonlinearity correction enabled: false
Boxcar width: 0
XAxis mode: Wavelengths
Number of Pixels in Spectrum: 2048
>>>>>Begin Spectral Data<<<<<
223.165	-28.69
223.4	-28.69
223.635	-28.69
223.869	-5.69
224.104	-16.69
224.338	-16.69
224.573	-14.69
224.808	-11.69
225.042	-9.69
225.277	-11.69
225.511	10.31
225.746	4.31
225.98	10.31
226.215	15.31
226.449	5.31
226.683	20.31
226.918	20.31
227.152	29.31
227.387	39.31
227.621	51.31
227.856	49.31
228.09	42.31
228.324	49.31
228.559	65.31
228.793	71.31
229.027	63.31
229.262	72.31
229.496	65.31
229.73	84.31
229.964	75.31
230.199	73.31
230.433	80.31
230.667	78.31
230.901	72.31
231.136	88.31
231.37	72.31
231.604	90.31
231.838	82.31
232.072	80.31
232.306	88.31
232.541	86.31
232.775	80.31
233.009	88.31
233.243	73.31
233.477	89.31
233.711	104.31
233.945	94.31
234.179	73.31
234.413	85.31
234.647	85.31
234.881	85.31
235.115	90.31
235.349	65.31
235.583	61.31
235.817	89.31
236.051	77.31
236.285	81.31
236.519	82.31
236.753	65.31
236.987	75.31
237.221	77.31
237.455	64.31
237.689	75.31
237.922	75.31
238.156	72.31
238.39	94.31
238.624	81.31
238.858	81.31
239.091	73.31
239.325	78.31
239.559	81.31
239.793	79.31
240.027	80.31
240.26	81.31
240.494	81.31
240.728	83.31
240.961	83.31
241.195	87.31
241.429	81.31
241.662	57.31
241.896	59.31
242.13	67.31
242.363	74.31
242.597	86.31
242.83	70.31
243.064	85.31
243.298	80.31
243.531	77.31
243.765	90.31
243.998	75.31
244.232	93.31
244.465	73.31
244.699	71.31
244.932	87.31
245.166	88.31
245.399	75.31
245.633	58.31
245.866	91.31
246.099	62.31
246.333	81.31
246.566	80.31
246.8	77.31
247.033	78.31
247.266	69.31
247.5	67.31
247.733	84.31
247.966	75.31
248.2	81.31
248.433	83.31
248.666	85.31
248.899	84.31
249.133	88.31
249.366	89.31
249.599	93.31
249.832	71.31
250.066	79.31
250.299	81.31
250.532	75.31
250.765	64.31
250.998	72.31
251.231	77.31
251.465	86.31
251.698	75.31
251.931	81.31
252.164	91.31
252.397	81.31
252.63	93.31
252.863	89.31
253.096	81.31
253.329	98.31
253.562	89.31
253.795	78.31
254.028	72.31
254.261	77.31
254.494	89.31
254.727	70.31
254.96	61.31
255.193	93.31
255.426	63.31
255.659	75.31
255.892	88.31
256.124	75.31
256.357	73.31
256.59	73.31
256.823	73.31
257.056	84.31
257.289	71.31
257.521	89.31
257.754	84.31
257.987	80.31
258.22	97.31
258.452	81.31
258.685	86.31
258.918	72.31
259.151	88.31
259.383	87.31
259.616	93.31
259.849	90.31
260.081	78.31
260.314	83.31
260.547	88.31
260.779	89.31
261.012	86.31
261.244	79.31
261.477	84.31
261.71	87.31
261.942	83.31
262.175	83.31
262.407	79.31
262.64	83.31
262.872	79.31
263.105	86.31
263.337	83.31
263.57	88.31
263.802	86.31
264.035	82.31
264.267	77.31
264.499	75.31
264.732	87.31
264.964	94.31
265.197	90.31
265.429	71.31
265.661	73.31
265.894	78.31
266.126	86.31
266.358	86.31
266.591	78.31
266.823	69.31
267.055	82.31
267.287	91.31
267.52	75.31
267.752	105.31
267.984	81.31
268.216	85.31
268.448	104.31
268.681	88.31
268.913	85.31
269.145	94.31
269.377	91.31
269.609	73.31
269.841	87.31
270.073	82.31
270.306	96.31
270.538	85.31
270.77	81.31
271.002	71.31
271.234	72.31
271.466	88.31
271.698	78.31
271.93	88.31
272.162	87.31
272.394	94.31
272.626	86.31
272.858	95.31
273.09	79.31
273.322	73.31
273.553	85.31
273.785	83.31
274.017	83.31
274.249	75.31
274.481	90.31
274.713	81.31
274.945	81.31
275.176	77.31
275.408	90.31
275.64	74.31
275.872	87.31
276.104	88.31
276.335	75.31
276.567	65.31
276.799	73.31
277.031	74.31
277.262	83.31
277.494	83.31
277.726	80.31
277.957	61.31
278.189	87.31
278.421	66.31
278.652	82.31
278.884	89.31
279.115	83.31
279.347	79.31
279.579	93.31
279.81	76.31
280.042	99.31
280.273	83.31
280.505	95.31
280.736	80.31
280.968	85.31
281.199	80.31
281.431	87.31
281.662	93.31
281.894	90.31
282.125	83.31
282.356	82.31
282.588	81.31
282.819	75.31
283.051	81.31
283.282	79.31
283.513	82.31
283.745	92.31
283.976	73.31
284.207	85.31
284.439	87.31
284.67	96.31
284.901	88.31
285.132	90.31
285.364	97.31
285.595	95.31
285.826	98.31
286.057	96.31
286.288	72.31
286.52	93.31
286.751	89.31
286.982	79.31
287.213	93.31
287.444	93.31
287.675	74.31
287.906	89.31
288.138	83.31
288.369	85.31
288.6	91.31
288.831	80.31
289.062	87.31
289.293	96.31
289.524	65.31
289.755	82.31
289.986	64.31
290.217	92.31
290.448	76.31
290.679	79.31
290.91	81.31
291.141	81.31
291.371	85.31
291.602	91.31
291.833	64.31
292.064	82.31
292.295	87.31
292.526	90.31
292.757	83.31
292.987	84.31
293.218	76.31
293.449	89.31
293.68	85.31
293.91	91.31
294.141	93.31
294.372	84.31
294.603	78.31
294.833	90.31
295.064	96.31
295.295	82.31
295.525	92.31
295.756	87.31
295.987	96.31
296.217	84.31
296.448	88.31
296.679	75.31
296.909	79.31
297.14	83.31
297.37	98.31
297.601	92.31
297.831	75.31
298.062	80.31
298.292	67.31
298.523	89.31
298.753	74.31
298.984	90.31
299.214	73.31
299.445	89.31
299.675	72.31
299.905	75.31
300.136	91.31
300.366	89.31
300.597	85.31
300.827	78.31
301.057	96.31
301.288	82.31
301.518	85.31
301.748	67.31
301.979	97.31
302.209	88.31
302.439	88.31
302.669	73.31
302.9	79.31
303.13	69.31
303.36	79.31
303.59	85.31
303.82	93.31
304.051	92.31
304.281	73.31
304.511	93.31
304.741	89.31
304.971	74.31
305.201	81.31
305.431	82.31
305.661	82.31
305.891	85.31
306.121	101.31
306.352	79.31
306.582	95.31
306.812	101.31
307.042	82.31
307.272	89.31
307.502	83.31
307.731	74.31
307.961	85.31
308.191	102.31
308.421	98.31
308.651	99.31
308.881	79.31
309.111	93.31
309.341	96.31
309.571	93.31
309.8	88.31
310.03	74.31
310.26	87.31
310.49	103.31
310.72	84.31
310.949	91.31
311.179	94.31
311.409	92.31
311.639	74.31
311.868	85.31
312.098	80.31
312.328	81.31
312.557	83.31
312.787	69.31
313.017	79.31
313.246	93.31
313.476	93.31
313.706	75.31
313.935	83.31
314.165	79.31
314.394	88.31
314.624	85.31
314.853	76.31
315.083	84.31
315.312	85.31
315.542	86.31
315.771	85.31
316.001	81.31
316.23	94.31
316.46	84.31
316.689	86.31
316.919	81.31
317.148	93.31
317.377	84.31
317.607	88.31
317.836	83.31
318.065	96.31
318.295	90.31
318.524	89.31
318.753	87.31
318.983	93.31
319.212	93.31
319.441	88.31
319.67	88.31
319.9	83.31
320.129	95.31
320.358	90.31
320.587	94.31
320.816	89.31
321.046	94.31
321.275	94.31
321.504	86.31
321.733	79.31
321.962	70.31
322.191	79.31
322.42	93.31
322.649	83.31
322.878	95.31
323.108	95.31
323.337	95.31
323.566	94.31
323.795	88.31
324.024	89.31
324.253	82.31
324.482	85.31
324.71	69.31
324.939	88.31
325.168	103.31
325.397	94.31
325.626	87.31
325.855	96.31
326.084	83.31
326.313	86.31
326.542	99.31
326.77	82.31
326.999	79.31
327.228	87.31
327.457	84.31
327.686	79.31
327.914	83.31
328.143	99.31
328.372	91.31
328.6	76.31
328.829	82.31
329.058	85.31
329.287	78.31
329.515	96.31
329.744	84.31
329.972	79.31
330.201	86.31
330.43	92.31
330.658	83.31
330.887	85.31
331.115	85.31
331.344	89.31
331.572	92.31
331.801	90.31
332.03	93.31
332.258	79.31
332.486	89.31
332.715	81.31
332.943	84.31
333.172	88.31
333.4	76.31
333.629	93.31
333.857	85.31
334.085	94.31
334.314	79.31
334.542	96.31
334.771	85.31
334.999	98.31
335.227	85.31
335.455	87.31
335.684	95.31
335.912	75.31
336.14	83.31
336.369	82.31
336.597	95.31
336.825	98.31
337.053	76.31
337.281	82.31
337.51	89.31
337.738	76.31
337.966	76.31
338.194	67.31
338.422	77.31
338.65	86.31
338.878	79.31
339.106	92.31
339.334	87.31
339.562	85.31
339.79	79.31
340.018	81.31
340.246	89.31
340.474	73.31
340.702	75.31
340.93	88.31
341.158	88.31
341.386	79.31
341.614	93.31
341.842	89.31
342.07	95.31
342.298	88.31
342.526	82.31
342.754	83.31
342.981	75.31
343.209	77.31
343.437	94.31
343.665	91.31
343.893	80.31
344.12	76.31
344.348	95.31
344.576	82.31
344.804	74.31
345.031	81.31
345.259	82.31
345.487	89.31
345.714	81.31
345.942	90.31
346.17	75.31
346.397	101.31
346.625	96.31
346.853	70.31
347.08	80.31
347.308	81.31
347.535	89.31
347.763	84.31
347.99	78.31
348.218	80.31
348.445	82.31
348.673	93.31
348.9	79.31
349.128	80.31
349.355	81.31
349.583	77.31
349.81	98.31
350.037	89.31
350.265	94.31
350.492	82.31
350.72	87.31
350.947	87.31
351.174	81.31
351.402	78.31
351.629	93.31
351.856	68.31
352.083	93.31
352.311	84.31
352.538	71.31
352.765	85.31
352.992	99.31
353.22	90.31
353.447	91.31
353.674	89.31
353.901	89.31
354.128	92.31
354.355	105.31
354.583	82.31
354.81	76.31
355.037	86.31
355.264	90.31
355.491	92.31
355.718	79.31
355.945	90.31
356.172	94.31
356.399	83.31
356.626	81.31
356.853	85.31
357.08	94.31
357.307	81.31
357.534	87.31
357.761	86.31
357.988	74.31
358.215	93.31
358.441	85.31
358.668	87.31
358.895	87.31
359.122	77.31
359.349	79.31
359.576	81.31
359.802	72.31
360.029	90.31
360.256	100.31
360.483	84.31
360.709	77.31
360.936	94.31
361.163	89.31
361.39	80.31
361.616	80.31
361.843	86.31
362.07	82.31
362.296	90.31
362.523	88.31
362.749	81.31
362.976	99.31
363.203	85.31
363.429	78.31
363.656	98.31
363.882	86.31
364.109	90.31
364.335	104.31
364.562	101.31
364.788	86.31
365.015	81.31
365.241	97.31
365.468	98.31
365.694	80.31
365.92	78.31
366.147	75.31
366.373	83.31
366.599	82.31
366.826	85.31
367.052	94.31
367.278	81.31
367.505	82.31
367.731	101.31
367.957	91.31
368.184	79.31
368.41	84.31
368.636	99.31
368.862	89.31
369.089	93.31
369.315	77.31
369.541	93.31
369.767	102.31
369.993	79.31
370.219	98.31
370.445	83.31
370.672	89.31
370.898	85.31
371.124	99.31
371.35	83.31
371.576	98.31
371.802	88.31
372.028	82.31
372.254	88.31
372.48	93.31
372.706	88.31
372.932	93.31
373.158	85.31
373.384	98.31
373.61	109.31
373.835	102.31
374.061	87.31
374.287	78.31
374.513	84.31
374.739	81.31
374.965	83.31
375.191	86.31
375.416	86.31
375.642	92.31
375.868	112.31
376.094	101.31
376.319	89.31
376.545	94.31
376.771	82.31
376.997	85.31
377.222	83.31
377.448	97.31
377.674	73.31
377.899	72.31
378.125	79.31
378.35	76.31
378.576	95.31
378.802	106.31
379.027	79.31
379.253	83.31
379.478	82.31
379.704	83.31
379.929	91.31
380.155	85.31
380.38	81.31
380.606	85.31
380.831	86.31
381.057	89.31
381.282	103.31
381.507	82.31
381.733	88.31
381.958	93.31
382.184	93.31
382.409	70.31
382.634	97.31
382.86	96.31
383.085	67.31
383.31	85.31
383.535	72.31
383.761	75.31
383.986	89.31
384.211	76.31
384.436	88.31
384.662	80.31
384.887	95.31
385.112	97.31
385.337	84.31
385.562	77.31
385.787	78.31
386.013	88.31
386.238	97.31
386.463	88.31
386.688	97.31
386.913	88.31
387.138	86.31
387.363	83.31
387.588	84.31
387.813	82.31
388.038	91.31
388.263	90.31
388.488	89.31
388.713	81.31
388.938	78.31
389.163	80.31
389.387	81.31
389.612	83.31
389.837	77.31
390.062	93.31
390.287	79.31
390.512	76.31
390.736	81.31
390.961	83.31
391.186	88.31
391.411	69.31
391.636	102.31
391.86	86.31
392.085	77.31
392.31	76.31
392.534	90.31
392.759	100.31
392.984	132.31
393.208	188.31
393.433	275.31
393.658	212.31
393.882	125.31
394.107	85.31
394.331	86.31
394.556	104.31
394.78	82.31
395.005	90.31
395.229	85.31
395.454	89.31
395.678	88.31
395.903	110.31
396.127	99.31
396.352	115.31
396.576	139.31
396.801	210.31
397.025	233.31
397.249	153.31
397.474	88.31
397.698	74.31
397.922	88.31
398.147	84.31
398.371	89.31
398.595	85.31
398.82	81.31
399.044	78.31
399.268	76.31
399.492	76.31
399.717	86.31
399.941	92.31
400.165	87.31
400.389	84.31
400.613	96.31
400.837	86.31
401.062	87.31
401.286	86.31
401.51	88.31
401.734	83.31
401.958	79.31
402.182	82.31
402.406	88.31
402.63	85.31
402.854	71.31
403.078	95.31
403.302	79.31
403.526	93.31
403.75	99.31
403.974	78.31
404.198	87.31
404.422	105.31
404.645	114.31
404.869	87.31
405.093	89.31
405.317	71.31
405.541	66.31
405.765	65.31
405.988	78.31
406.212	85.31
406.436	79.31
406.66	96.31
406.883	84.31
407.107	83.31
407.331	81.31
407.555	75.31
407.778	77.31
408.002	83.31
408.226	84.31
408.449	96.31
408.673	91.31
408.896	74.31
409.12	86.31
409.344	89.31
409.567	91.31
409.791	89.31
410.014	97.31
410.238	90.31
410.461	81.31
410.685	80.31
410.908	82.31
411.132	86.31
411.355	87.31
411.578	77.31
411.802	89.31
412.025	85.31
412.249	72.31
412.472	90.31
412.695	87.31
412.919	74.31
413.142	83.31
413.365	82.31
413.589	71.31
413.812	83.31
414.035	88.31
414.258	95.31
414.482	92.31
414.705	76.31
414.928	85.31
415.151	73.31
415.374	84.31
415.597	90.31
415.821	82.31
416.044	90.31
416.267	98.31
416.49	89.31
416.713	91.31
416.936	78.31
417.159	85.31
417.382	101.31
417.605	85.31
417.828	95.31
418.051	76.31
418.274	77.31
418.497	85.31
418.72	82.31
418.943	72.31
419.166	81.31
419.389	93.31
419.611	81.31
419.834	75.31
420.057	89.31
420.28	83.31
420.503	92.31
420.726	74.31
420.948	100.31
421.171	91.31
421.394	91.31
421.617	99.31
421.839	98.31
422.062	98.31
422.285	112.31
422.507	162.31
422.73	239.31
422.953	199.31
423.175	115.31
423.398	90.31
423.621	109.31
423.843	85.31
424.066	91.31
424.288	74.31
424.511	96.31
424.733	89.31
424.956	82.31
425.178	78.31
425.401	72.31
425.623	95.31
425.846	85.31
426.068	90.31
426.291	85.31
426.513	97.31
426.735	75.31
426.958	81.31
427.18	76.31
427.402	73.31
427.625	77.31
427.847	86.31
428.069	91.31
428.292	99.31
428.514	110.31
428.736	98.31
428.958	93.31
429.181	101.31
429.403	98.31
429.625	85.31
429.847	94.31
430.069	119.31
430.292	124.31
430.514	112.31
430.736	99.31
430.958	102.31
431.18	104.31
431.402	83.31
431.624	89.31
431.846	106.31
432.068	97.31
432.29	81.31
432.512	91.31
432.734	73.31
432.956	94.31
433.178	82.31
433.4	89.31
433.622	89.31
433.844	94.31
434.066	88.31
434.287	81.31
434.509	73.31
434.731	84.31
434.953	83.31
435.175	80.31
435.397	77.31
435.618	88.31
435.84	84.31
436.062	89.31
436.284	77.31
436.505	89.31
436.727	75.31
436.949	80.31
437.17	83.31
437.392	87.31
437.614	72.31
437.835	97.31
438.057	96.31
438.278	81.31
438.5	89.31
438.721	88.31
438.943	84.31
439.165	80.31
439.386	90.31
439.608	82.31
439.829	95.31
440.05	86.31
440.272	74.31
440.493	82.31
440.715	80.31
440.936	90.31
441.158	72.31
441.379	81.31
441.6	81.31
441.822	91.31
442.043	82.31
442.264	107.31
442.486	97.31
442.707	116.31
442.928	87.31
443.149	88.31
443.371	103.31
443.592	129.31
443.813	139.31
444.034	92.31
444.255	91.31
444.476	97.31
444.698	82.31
444.919	80.31
445.14	158.31
445.361	154.31
445.582	151.31
445.803	135.31
446.024	101.31
446.245	86.31
446.466	92.31
446.687	89.31
446.908	80.31
447.129	86.31
447.35	92.31
447.571	90.31
447.792	84.31
448.013	82.31
448.234	81.31
448.455	85.31
448.675	77.31
448.896	78.31
449.117	80.31
449.338	85.31
449.559	86.31
449.779	89.31
450	76.31
450.221	86.31
450.442	87.31
450.662	97.31
450.883	83.31
451.104	90.31
451.324	90.31
451.545	69.31
451.766	84.31
451.986	102.31
452.207	76.31
452.428	83.31
452.648	77.31
452.869	74.31
453.089	97.31
453.31	61.31
453.53	73.31
453.751	81.31
453.971	79.31
454.192	74.31
454.412	81.31
454.633	69.31
454.853	101.31
455.073	77.31
455.294	94.31
455.514	74.31
455.734	82.31
455.955	83.31
456.175	85.31
456.395	88.31
456.616	79.31
456.836	87.31
457.056	69.31
457.276	67.31
457.497	75.31
457.717	68.31
457.937	105.31
458.157	95.31
458.377	88.31
458.598	92.31
458.818	98.31
459.038	98.31
459.258	91.31
459.478	70.31
459.698	84.31
459.918	86.31
460.138	82.31
460.358	89.31
460.578	99.31
460.798	102.31
461.018	97.31
461.238	79.31
461.458	80.31
461.678	83.31
461.898	89.31
462.118	77.31
462.338	78.31
462.558	91.31
462.777	83.31
462.997	86.31
463.217	91.31
463.437	87.31
463.657	85.31
463.876	99.31
464.096	95.31
464.316	73.31
464.536	82.31
464.755	74.31
464.975	69.31
465.195	89.31
465.414	92.31
465.634	89.31
465.854	75.31
466.073	87.31
466.293	80.31
466.512	84.31
466.732	83.31
466.951	90.31
467.171	75.31
467.391	85.31
467.61	80.31
467.829	69.31
468.049	82.31
468.268	91.31
468.488	78.31
468.707	96.31
468.927	76.31
469.146	73.31
469.365	87.31
469.585	65.31
469.804	84.31
470.023	85.31
470.243	81.31
470.462	81.31
470.681	80.31
470.901	84.31
471.12	84.31
471.339	85.31
471.558	81.31
471.777	88.31
471.997	85.31
472.216	91.31
472.435	68.31
472.654	79.31
472.873	85.31
473.092	89.31
473.311	101.31
473.53	80.31
473.749	88.31
473.968	85.31
474.187	75.31
474.406	89.31
474.625	85.31
474.844	81.31
475.063	91.31
475.282	77.31
475.501	81.31
475.72	74.31
475.939	81.31
476.158	83.31
476.377	90.31
476.596	97.31
476.814	88.31
477.033	85.31
477.252	99.31
477.471	79.31
477.69	87.31
477.908	80.31
478.127	75.31
478.346	84.31
478.564	99.31
478.783	77.31
479.002	85.31
479.22	74.31
479.439	80.31
479.658	73.31
479.876	85.31
480.095	85.31
480.313	91.31
480.532	91.31
480.751	92.31
480.969	96.31
481.188	85.31
481.406	88.31
481.624	86.31
481.843	94.31
482.061	81.31
482.28	79.31
482.498	87.31
482.717	92.31
482.935	83.31
483.153	88.31
483.372	86.31
483.59	85.31
483.808	78.31
484.027	73.31
484.245	74.31
484.463	91.31
484.681	82.31
484.9	86.31
485.118	65.31
485.336	70.31
485.554	95.31
485.772	73.31
485.99	85.31
486.209	92.31
486.427	79.31
486.645	66.31
486.863	80.31
487.081	96.31
487.299	81.31
487.517	85.31
487.735	97.31
487.953	103.31
488.171	96.31
488.389	104.31
488.607	86.31
488.825	89.31
489.043	81.31
489.261	85.31
489.479	104.31
489.696	85.31
489.914	81.31
490.132	76.31
490.35	90.31
490.568	89.31
490.786	73.31
491.003	69.31
491.221	66.31
491.439	91.31
491.657	73.31
491.874	95.31
492.092	91.31
492.31	91.31
492.527	84.31
492.745	92.31
492.963	79.31
493.18	89.31
493.398	87.31
493.615	82.31
493.833	92.31
494.05	84.31
494.268	81.31
494.485	90.31
494.703	74.31
494.92	94.31
495.138	84.31
495.355	87.31
495.573	85.31
495.79	96.31
496.008	81.31
496.225	88.31
496.442	87.31
496.66	87.31
496.877	89.31
497.094	82.31
497.312	87.31
497.529	97.31
497.746	92.31
497.963	89.31
498.181	73.31
498.398	100.31
498.615	100.31
498.832	80.31
499.049	85.31
499.267	93.31
499.484	78.31
499.701	87.31
499.918	85.31
500.135	80.31
500.352	98.31
500.569	83.31
500.786	85.31
501.003	94.31
501.22	91.31
501.437	78.31
501.654	86.31
501.871	86.31
502.088	73.31
502.305	75.31
502.522	88.31
502.739	81.31
502.956	84.31
503.172	85.31
503.389	84.31
503.606	89.31
503.823	82.31
504.04	77.31
504.256	109.31
504.473	118.31
504.69	75.31
504.907	86.31
505.123	88.31
505.34	89.31
505.557	92.31
505.773	81.31
505.99	88.31
506.207	89.31
506.423	91.31
506.64	99.31
506.856	76.31
507.073	78.31
507.289	96.31
507.506	72.31
507.722	71.31
507.939	79.31
508.155	87.31
508.372	75.31
508.588	88.31
508.805	79.31
509.021	83.31
509.238	70.31
509.454	78.31
509.67	67.31
509.887	91.31
510.103	82.31
510.319	75.31
510.536	98.31
510.752	85.31
510.968	83.31
511.184	82.31
511.401	109.31
511.617	76.31
511.833	90.31
512.049	88.31
512.265	76.31
512.481	82.31
512.698	88.31
512.914	75.31
513.13	97.31
513.346	95.31
513.562	83.31
513.778	88.31
513.994	72.31
514.21	86.31
514.426	81.31
514.642	98.31
514.858	81.31
515.074	73.31
515.29	74.31
515.506	93.31
515.721	85.31
515.937	84.31
516.153	99.31
516.369	83.31
516.585	92.31
516.801	92.31
517.016	100.31
517.232	86.31
517.448	81.31
517.664	91.31
517.879	90.31
518.095	95.31
518.311	77.31
518.527	86.31
518.742	78.31
518.958	90.31
519.173	106.31
