Data from CBS_3_HRD10591_00029.txt Node
Date: Mon Jan 19 14:05:53 EST 2026
User: Yrep
Spectrometer: HR+D1059
Trigger mode: 1
Integration Time (sec): 1.000000E-1
Scans to average: 1
Electric dark correction enabled: true
Nonlinearity correction enabled: false
Boxcar width: 0
XAxis mode: Wavelengths
Number of Pixels in Spectrum: 2048
>>>>>Begin Spectral Data<<<<<
223.165	-30.56
223.4	-30.56
223.635	-30.56
223.869	-8.56
224.104	-23.56
224.338	-17.56
224.573	-10.56
224.808	-17.56
225.042	-10.56
225.277	1.44
225.511	-0.56
225.746	5.44
225.98	8.44
226.215	19.44
226.449	10.44
226.683	18.44
226.918	24.44
227.152	31.44
227.387	43.44
227.621	33.44
227.856	32.44
228.09	50.44
228.324	53.44
228.559	58.44
228.793	60.44
229.027	71.44
229.262	76.44
229.496	66.44
229.73	58.44
229.964	61.44
230.199	81.44
230.433	74.44
230.667	72.44
230.901	69.44
231.136	62.44
231.37	77.44
231.604	72.44
231.838	84.44
232.072	84.44
232.306	80.44
232.541	80.44
232.775	57.44
233.009	91.44
233.243	83.44
233.477	83.44
233.711	97.44
233.945	81.44
234.179	80.44
234.413	69.44
234.647	87.44
234.881	81.44
235.115	74.44
235.349	75.44
235.583	81.44
235.817	69.44
236.051	77.44
236.285	67.44
236.519	81.44
236.753	75.44
236.987	70.44
237.221	74.44
237.455	65.44
237.689	72.44
237.922	67.44
238.156	67.44
238.39	80.44
238.624	72.44
238.858	82.44
239.091	72.44
239.325	66.44
239.559	77.44
239.793	68.44
240.027	79.44
240.26	66.44
240.494	86.44
240.728	68.44
240.961	89.44
241.195	90.44
241.429	85.44
241.662	65.44
241.896	78.44
242.13	65.44
242.363	73.44
242.597	75.44
242.83	71.44
243.064	69.44
243.298	79.44
243.531	73.44
243.765	71.44
243.998	87.44
244.232	81.44
244.465	78.44
244.699	72.44
244.932	69.44
245.166	76.44
245.399	61.44
245.633	67.44
245.866	69.44
246.099	78.44
246.333	66.44
246.566	71.44
246.8	80.44
247.033	66.44
247.266	79.44
247.5	75.44
247.733	71.44
247.966	57.44
248.2	69.44
248.433	78.44
248.666	81.44
248.899	80.44
249.133	74.44
249.366	64.44
249.599	85.44
249.832	76.44
250.066	76.44
250.299	71.44
250.532	73.44
250.765	81.44
250.998	69.44
251.231	80.44
251.465	89.44
251.698	75.44
251.931	77.44
252.164	74.44
252.397	80.44
252.63	68.44
252.863	76.44
253.096	87.44
253.329	90.44
253.562	71.44
253.795	75.44
254.028	86.44
254.261	62.44
254.494	67.44
254.727	79.44
254.96	75.44
255.193	77.44
255.426	69.44
255.659	87.44
255.892	76.44
256.124	80.44
256.357	63.44
256.59	75.44
256.823	76.44
257.056	67.44
257.289	87.44
257.521	74.44
257.754	72.44
257.987	71.44
258.22	70.44
258.452	67.44
258.685	71.44
258.918	80.44
259.151	68.44
259.383	89.44
259.616	74.44
259.849	90.44
260.081	74.44
260.314	77.44
260.547	81.44
260.779	71.44
261.012	89.44
261.244	76.44
261.477	85.44
261.71	92.44
261.942	86.44
262.175	86.44
262.407	60.44
262.64	83.44
262.872	66.44
263.105	88.44
263.337	86.44
263.57	110.44
263.802	77.44
264.035	82.44
264.267	79.44
264.499	81.44
264.732	78.44
264.964	76.44
265.197	79.44
265.429	74.44
265.661	77.44
265.894	83.44
266.126	79.44
266.358	86.44
266.591	70.44
266.823	74.44
267.055	80.44
267.287	79.44
267.52	71.44
267.752	88.44
267.984	82.44
268.216	78.44
268.448	93.44
268.681	81.44
268.913	77.44
269.145	74.44
269.377	79.44
269.609	81.44
269.841	73.44
270.073	81.44
270.306	82.44
270.538	71.44
270.77	65.44
271.002	88.44
271.234	82.44
271.466	90.44
271.698	82.44
271.93	82.44
272.162	78.44
272.394	90.44
272.626	81.44
272.858	78.44
273.09	72.44
273.322	65.44
273.553	87.44
273.785	88.44
274.017	81.44
274.249	88.44
274.481	79.44
274.713	83.44
274.945	85.44
275.176	83.44
275.408	102.44
275.64	93.44
275.872	86.44
276.104	90.44
276.335	71.44
276.567	86.44
276.799	83.44
277.031	72.44
277.262	77.44
277.494	79.44
277.726	66.44
277.957	89.44
278.189	84.44
278.421	82.44
278.652	79.44
278.884	76.44
279.115	74.44
279.347	68.44
279.579	82.44
279.81	86.44
280.042	71.44
280.273	97.44
280.505	83.44
280.736	76.44
280.968	87.44
281.199	75.44
281.431	73.44
281.662	78.44
281.894	93.44
282.125	72.44
282.356	82.44
282.588	97.44
282.819	81.44
283.051	87.44
283.282	81.44
283.513	74.44
283.745	85.44
283.976	69.44
284.207	93.44
284.439	85.44
284.67	87.44
284.901	91.44
285.132	98.44
285.364	85.44
285.595	66.44
285.826	86.44
286.057	75.44
286.288	85.44
286.52	79.44
286.751	83.44
286.982	91.44
287.213	101.44
287.444	79.44
287.675	74.44
287.906	79.44
288.138	73.44
288.369	90.44
288.6	86.44
288.831	79.44
289.062	72.44
289.293	81.44
289.524	81.44
289.755	82.44
289.986	76.44
290.217	82.44
290.448	71.44
290.679	87.44
290.91	88.44
291.141	78.44
291.371	93.44
291.602	78.44
291.833	91.44
292.064	90.44
292.295	86.44
292.526	81.44
292.757	81.44
292.987	85.44
293.218	85.44
293.449	79.44
293.68	80.44
293.91	88.44
294.141	74.44
294.372	80.44
294.603	71.44
294.833	81.44
295.064	97.44
295.295	79.44
295.525	85.44
295.756	73.44
295.987	92.44
296.217	81.44
296.448	83.44
296.679	85.44
296.909	88.44
297.14	80.44
297.37	102.44
297.601	82.44
297.831	89.44
298.062	80.44
298.292	95.44
298.523	83.44
298.753	86.44
298.984	76.44
299.214	73.44
299.445	92.44
299.675	91.44
299.905	85.44
300.136	82.44
300.366	91.44
300.597	94.44
300.827	89.44
301.057	80.44
301.288	90.44
301.518	91.44
301.748	93.44
301.979	89.44
302.209	79.44
302.439	97.44
302.669	91.44
302.9	94.44
303.13	69.44
303.36	77.44
303.59	87.44
303.82	87.44
304.051	102.44
304.281	95.44
304.511	96.44
304.741	74.44
304.971	85.44
305.201	90.44
305.431	84.44
305.661	98.44
305.891	75.44
306.121	63.44
306.352	112.44
306.582	85.44
306.812	92.44
307.042	88.44
307.272	84.44
307.502	80.44
307.731	68.44
307.961	75.44
308.191	99.44
308.421	81.44
308.651	93.44
308.881	90.44
309.111	85.44
309.341	87.44
309.571	94.44
309.8	86.44
310.03	75.44
310.26	79.44
310.49	102.44
310.72	75.44
310.949	99.44
311.179	74.44
311.409	80.44
311.639	78.44
311.868	87.44
312.098	88.44
312.328	80.44
312.557	90.44
312.787	87.44
313.017	87.44
313.246	88.44
313.476	79.44
313.706	90.44
313.935	83.44
314.165	91.44
314.394	77.44
314.624	103.44
314.853	81.44
315.083	91.44
315.312	99.44
315.542	81.44
315.771	102.44
316.001	89.44
316.23	93.44
316.46	86.44
316.689	87.44
316.919	95.44
317.148	85.44
317.377	93.44
317.607	97.44
317.836	76.44
318.065	83.44
318.295	97.44
318.524	84.44
318.753	67.44
318.983	81.44
319.212	89.44
319.441	72.44
319.67	73.44
319.9	89.44
320.129	80.44
320.358	90.44
320.587	105.44
320.816	80.44
321.046	68.44
321.275	68.44
321.504	79.44
321.733	85.44
321.962	80.44
322.191	94.44
322.42	67.44
322.649	69.44
322.878	94.44
323.108	102.44
323.337	86.44
323.566	79.44
323.795	81.44
324.024	106.44
324.253	67.44
324.482	85.44
324.71	85.44
324.939	85.44
325.168	80.44
325.397	78.44
325.626	89.44
325.855	79.44
326.084	80.44
326.313	93.44
326.542	74.44
326.77	87.44
326.999	83.44
327.228	88.44
327.457	89.44
327.686	81.44
327.914	86.44
328.143	82.44
328.372	90.44
328.6	88.44
328.829	94.44
329.058	93.44
329.287	77.44
329.515	89.44
329.744	87.44
329.972	83.44
330.201	80.44
330.43	89.44
330.658	106.44
330.887	85.44
331.115	93.44
331.344	95.44
331.572	93.44
331.801	85.44
332.03	85.44
332.258	84.44
332.486	76.44
332.715	83.44
332.943	93.44
333.172	77.44
333.4	90.44
333.629	86.44
333.857	75.44
334.085	80.44
334.314	92.44
334.542	79.44
334.771	87.44
334.999	97.44
335.227	92.44
335.455	84.44
335.684	78.44
335.912	88.44
336.14	81.44
336.369	93.44
336.597	85.44
336.825	84.44
337.053	87.44
337.281	79.44
337.51	99.44
337.738	96.44
337.966	76.44
338.194	72.44
338.422	91.44
338.65	97.44
338.878	87.44
339.106	90.44
339.334	88.44
339.562	99.44
339.79	90.44
340.018	73.44
340.246	67.44
340.474	85.44
340.702	89.44
340.93	76.44
341.158	92.44
341.386	83.44
341.614	76.44
341.842	82.44
342.07	76.44
342.298	96.44
342.526	70.44
342.754	77.44
342.981	85.44
343.209	86.44
343.437	85.44
343.665	104.44
343.893	104.44
344.12	84.44
344.348	75.44
344.576	82.44
344.804	79.44
345.031	98.44
345.259	102.44
345.487	87.44
345.714	71.44
345.942	95.44
346.17	78.44
346.397	89.44
346.625	81.44
346.853	86.44
347.08	75.44
347.308	85.44
347.535	99.44
347.763	74.44
347.99	83.44
348.218	75.44
348.445	80.44
348.673	93.44
348.9	87.44
349.128	93.44
349.355	85.44
349.583	95.44
349.81	89.44
350.037	74.44
350.265	71.44
350.492	74.44
350.72	88.44
350.947	93.44
351.174	93.44
351.402	86.44
351.629	81.44
351.856	74.44
352.083	76.44
352.311	79.44
352.538	79.44
352.765	83.44
352.992	79.44
353.22	82.44
353.447	90.44
353.674	82.44
353.901	86.44
354.128	89.44
354.355	79.44
354.583	74.44
354.81	83.44
355.037	74.44
355.264	72.44
355.491	92.44
355.718	87.44
355.945	83.44
356.172	86.44
356.399	89.44
356.626	73.44
356.853	92.44
357.08	79.44
357.307	80.44
357.534	89.44
357.761	89.44
357.988	79.44
358.215	76.44
358.441	90.44
358.668	90.44
358.895	89.44
359.122	81.44
359.349	82.44
359.576	79.44
359.802	87.44
360.029	92.44
360.256	77.44
360.483	89.44
360.709	82.44
360.936	82.44
361.163	77.44
361.39	93.44
361.616	81.44
361.843	80.44
362.07	88.44
362.296	79.44
362.523	94.44
362.749	90.44
362.976	95.44
363.203	97.44
363.429	81.44
363.656	84.44
363.882	81.44
364.109	86.44
364.335	86.44
364.562	104.44
364.788	86.44
365.015	86.44
365.241	78.44
365.468	94.44
365.694	76.44
365.92	71.44
366.147	90.44
366.373	109.44
366.599	100.44
366.826	88.44
367.052	90.44
367.278	78.44
367.505	102.44
367.731	103.44
367.957	79.44
368.184	89.44
368.41	84.44
368.636	90.44
368.862	86.44
369.089	83.44
369.315	83.44
369.541	79.44
369.767	86.44
369.993	79.44
370.219	97.44
370.445	97.44
370.672	88.44
370.898	86.44
371.124	89.44
371.35	62.44
371.576	69.44
371.802	107.44
372.028	89.44
372.254	79.44
372.48	86.44
372.706	81.44
372.932	85.44
373.158	74.44
373.384	86.44
373.61	81.44
373.835	104.44
374.061	80.44
374.287	83.44
374.513	86.44
374.739	84.44
374.965	89.44
375.191	87.44
375.416	96.44
375.642	84.44
375.868	95.44
376.094	88.44
376.319	95.44
376.545	83.44
376.771	87.44
376.997	84.44
377.222	87.44
377.448	66.44
377.674	91.44
377.899	81.44
378.125	88.44
378.35	90.44
378.576	72.44
378.802	80.44
379.027	89.44
379.253	95.44
379.478	89.44
379.704	85.44
379.929	85.44
380.155	71.44
380.38	83.44
380.606	75.44
380.831	83.44
381.057	76.44
381.282	98.44
381.507	89.44
381.733	83.44
381.958	75.44
382.184	83.44
382.409	88.44
382.634	101.44
382.86	93.44
383.085	86.44
383.31	76.44
383.535	73.44
383.761	72.44
383.986	93.44
384.211	81.44
384.436	90.44
384.662	69.44
384.887	79.44
385.112	88.44
385.337	81.44
385.562	74.44
385.787	81.44
386.013	83.44
386.238	95.44
386.463	97.44
386.688	92.44
386.913	91.44
387.138	95.44
387.363	86.44
387.588	78.44
387.813	98.44
388.038	85.44
388.263	75.44
388.488	90.44
388.713	87.44
388.938	78.44
389.163	83.44
389.387	79.44
389.612	81.44
389.837	81.44
390.062	84.44
390.287	82.44
390.512	73.44
390.736	89.44
390.961	82.44
391.186	85.44
391.411	84.44
391.636	78.44
391.86	85.44
392.085	84.44
392.31	96.44
392.534	96.44
392.759	92.44
392.984	146.44
393.208	205.44
393.433	301.44
393.658	229.44
393.882	121.44
394.107	92.44
394.331	110.44
394.556	88.44
394.78	93.44
395.005	95.44
395.229	77.44
395.454	77.44
395.678	84.44
395.903	87.44
396.127	103.44
396.352	108.44
396.576	134.44
396.801	223.44
397.025	241.44
397.249	141.44
397.474	105.44
397.698	113.44
397.922	93.44
398.147	71.44
398.371	81.44
398.595	88.44
398.82	90.44
399.044	89.44
399.268	98.44
399.492	82.44
399.717	79.44
399.941	91.44
400.165	83.44
400.389	78.44
400.613	96.44
400.837	95.44
401.062	71.44
401.286	100.44
401.51	80.44
401.734	84.44
401.958	83.44
402.182	71.44
402.406	70.44
402.63	83.44
402.854	84.44
403.078	80.44
403.302	86.44
403.526	76.44
403.75	83.44
403.974	90.44
404.198	69.44
404.422	86.44
404.645	93.44
404.869	75.44
405.093	80.44
405.317	97.44
405.541	91.44
405.765	85.44
405.988	80.44
406.212	95.44
406.436	87.44
406.66	79.44
406.883	100.44
407.107	77.44
407.331	75.44
407.555	83.44
407.778	93.44
408.002	114.44
408.226	83.44
408.449	92.44
408.673	69.44
408.896	83.44
409.12	83.44
409.344	94.44
409.567	83.44
409.791	98.44
410.014	87.44
410.238	71.44
410.461	83.44
410.685	83.44
410.908	88.44
411.132	89.44
411.355	73.44
411.578	89.44
411.802	85.44
412.025	74.44
412.249	95.44
412.472	89.44
412.695	69.44
412.919	91.44
413.142	92.44
413.365	78.44
413.589	83.44
413.812	85.44
414.035	89.44
414.258	71.44
414.482	77.44
414.705	65.44
414.928	74.44
415.151	90.44
415.374	82.44
415.597	96.44
415.821	86.44
416.044	74.44
416.267	88.44
416.49	87.44
416.713	81.44
416.936	82.44
417.159	78.44
417.382	100.44
417.605	80.44
417.828	83.44
418.051	87.44
418.274	64.44
418.497	77.44
418.72	93.44
418.943	86.44
419.166	83.44
419.389	88.44
419.611	75.44
419.834	90.44
420.057	95.44
420.28	98.44
420.503	96.44
420.726	85.44
420.948	80.44
421.171	69.44
421.394	93.44
421.617	100.44
421.839	97.44
422.062	97.44
422.285	119.44
422.507	205.44
422.73	281.44
422.953	263.44
423.175	154.44
423.398	115.44
423.621	87.44
423.843	99.44
424.066	90.44
424.288	98.44
424.511	76.44
424.733	80.44
424.956	77.44
425.178	82.44
425.401	93.44
425.623	77.44
425.846	79.44
426.068	81.44
426.291	88.44
426.513	79.44
426.735	102.44
426.958	81.44
427.18	86.44
427.402	79.44
427.625	88.44
427.847	83.44
428.069	96.44
428.292	109.44
428.514	111.44
428.736	90.44
428.958	93.44
429.181	105.44
429.403	99.44
429.625	92.44
429.847	89.44
430.069	130.44
430.292	128.44
430.514	143.44
430.736	119.44
430.958	115.44
431.18	101.44
431.402	71.44
431.624	77.44
431.846	109.44
432.068	111.44
432.29	93.44
432.512	83.44
432.734	92.44
432.956	80.44
433.178	76.44
433.4	80.44
433.622	68.44
433.844	81.44
434.066	82.44
434.287	85.44
434.509	81.44
434.731	81.44
434.953	72.44
435.175	87.44
435.397	81.44
435.618	82.44
435.84	82.44
436.062	93.44
436.284	81.44
436.505	84.44
436.727	78.44
436.949	89.44
437.17	95.44
437.392	85.44
437.614	74.44
437.835	73.44
438.057	79.44
438.278	71.44
438.5	89.44
438.721	70.44
438.943	81.44
439.165	85.44
439.386	83.44
439.608	71.44
439.829	77.44
440.05	82.44
440.272	95.44
440.493	109.44
440.715	81.44
440.936	85.44
441.158	85.44
441.379	79.44
441.6	82.44
441.822	74.44
442.043	86.44
442.264	83.44
442.486	116.44
442.707	125.44
442.928	109.44
443.149	88.44
443.371	133.44
443.592	185.44
443.813	161.44
444.034	104.44
444.255	90.44
444.476	91.44
444.698	99.44
444.919	79.44
445.14	172.44
445.361	166.44
445.582	208.44
445.803	180.44
446.024	107.44
446.245	102.44
446.466	73.44
446.687	94.44
446.908	85.44
447.129	90.44
447.35	77.44
447.571	88.44
447.792	83.44
448.013	85.44
448.234	79.44
448.455	87.44
448.675	74.44
448.896	68.44
449.117	62.44
449.338	81.44
449.559	80.44
449.779	80.44
450	67.44
450.221	90.44
450.442	75.44
450.662	71.44
450.883	72.44
451.104	80.44
451.324	79.44
451.545	79.44
451.766	75.44
451.986	89.44
452.207	83.44
452.428	79.44
452.648	96.44
452.869	89.44
453.089	83.44
453.31	99.44
453.53	92.44
453.751	83.44
453.971	84.44
454.192	73.44
454.412	86.44
454.633	73.44
454.853	88.44
455.073	87.44
455.294	76.44
455.514	75.44
455.734	72.44
455.955	83.44
456.175	84.44
456.395	86.44
456.616	87.44
456.836	76.44
457.056	77.44
457.276	75.44
457.497	79.44
457.717	76.44
457.937	101.44
458.157	97.44
458.377	113.44
458.598	99.44
458.818	111.44
459.038	80.44
459.258	82.44
459.478	82.44
459.698	84.44
459.918	75.44
460.138	88.44
460.358	90.44
460.578	96.44
460.798	89.44
461.018	92.44
461.238	96.44
461.458	82.44
461.678	79.44
461.898	85.44
462.118	90.44
462.338	87.44
462.558	84.44
462.777	69.44
462.997	83.44
463.217	71.44
463.437	81.44
463.657	81.44
463.876	79.44
464.096	89.44
464.316	82.44
464.536	81.44
464.755	84.44
464.975	66.44
465.195	82.44
465.414	90.44
465.634	96.44
465.854	81.44
466.073	82.44
466.293	68.44
466.512	79.44
466.732	76.44
466.951	73.44
467.171	87.44
467.391	87.44
467.61	77.44
467.829	70.44
468.049	92.44
468.268	81.44
468.488	88.44
468.707	90.44
468.927	85.44
469.146	89.44
469.365	83.44
469.585	91.44
469.804	72.44
470.023	89.44
470.243	84.44
470.462	89.44
470.681	71.44
470.901	69.44
471.12	76.44
471.339	82.44
471.558	80.44
471.777	82.44
471.997	75.44
472.216	88.44
472.435	83.44
472.654	70.44
472.873	73.44
473.092	78.44
473.311	70.44
473.53	71.44
473.749	86.44
473.968	73.44
474.187	81.44
474.406	75.44
474.625	85.44
474.844	82.44
475.063	79.44
475.282	76.44
475.501	81.44
475.72	82.44
475.939	74.44
476.158	87.44
476.377	89.44
476.596	86.44
476.814	91.44
477.033	84.44
477.252	80.44
477.471	69.44
477.69	81.44
477.908	87.44
478.127	92.44
478.346	93.44
478.564	86.44
478.783	89.44
479.002	84.44
479.22	67.44
479.439	95.44
479.658	85.44
479.876	85.44
480.095	94.44
480.313	89.44
480.532	87.44
480.751	75.44
480.969	85.44
481.188	83.44
481.406	101.44
481.624	93.44
481.843	90.44
482.061	77.44
482.28	75.44
482.498	85.44
482.717	91.44
482.935	75.44
483.153	81.44
483.372	81.44
483.59	98.44
483.808	80.44
484.027	90.44
484.245	95.44
484.463	81.44
484.681	95.44
484.9	92.44
485.118	85.44
485.336	90.44
485.554	81.44
485.772	87.44
485.99	95.44
486.209	93.44
486.427	72.44
486.645	93.44
486.863	87.44
487.081	80.44
487.299	81.44
487.517	78.44
487.735	91.44
487.953	124.44
488.171	118.44
488.389	83.44
488.607	77.44
488.825	74.44
489.043	67.44
489.261	89.44
489.479	101.44
489.696	83.44
489.914	99.44
490.132	83.44
490.35	80.44
490.568	78.44
490.786	86.44
491.003	88.44
491.221	86.44
491.439	73.44
491.657	83.44
491.874	81.44
492.092	89.44
492.31	80.44
492.527	88.44
492.745	71.44
492.963	91.44
493.18	85.44
493.398	90.44
493.615	104.44
493.833	83.44
494.05	89.44
494.268	75.44
494.485	93.44
494.703	83.44
494.92	81.44
495.138	89.44
495.355	89.44
495.573	79.44
495.79	75.44
496.008	82.44
496.225	88.44
496.442	90.44
496.66	104.44
496.877	79.44
497.094	79.44
497.312	85.44
497.529	70.44
497.746	82.44
497.963	91.44
498.181	88.44
498.398	67.44
498.615	61.44
498.832	76.44
499.049	95.44
499.267	81.44
499.484	93.44
499.701	82.44
499.918	78.44
500.135	79.44
500.352	80.44
500.569	91.44
500.786	92.44
501.003	87.44
501.22	92.44
501.437	74.44
501.654	88.44
501.871	79.44
502.088	64.44
502.305	93.44
502.522	79.44
502.739	87.44
502.956	93.44
503.172	89.44
503.389	92.44
503.606	81.44
503.823	89.44
504.04	86.44
504.256	102.44
504.473	116.44
504.69	87.44
504.907	91.44
505.123	81.44
505.34	93.44
505.557	85.44
505.773	86.44
505.99	79.44
506.207	74.44
506.423	90.44
506.64	93.44
506.856	94.44
507.073	85.44
507.289	72.44
507.506	83.44
507.722	65.44
507.939	92.44
508.155	86.44
508.372	73.44
508.588	75.44
508.805	74.44
509.021	74.44
509.238	82.44
509.454	73.44
509.67	96.44
509.887	87.44
510.103	89.44
510.319	86.44
510.536	81.44
510.752	69.44
510.968	87.44
511.184	94.44
511.401	84.44
511.617	82.44
511.833	80.44
512.049	82.44
512.265	81.44
512.481	77.44
512.698	96.44
512.914	94.44
513.13	88.44
513.346	76.44
513.562	88.44
513.778	88.44
513.994	90.44
514.21	68.44
514.426	84.44
514.642	93.44
514.858	75.44
515.074	85.44
515.29	94.44
515.506	83.44
515.721	100.44
515.937	91.44
516.153	76.44
516.369	84.44
516.585	89.44
516.801	90.44
517.016	86.44
517.232	91.44
517.448	99.44
517.664	88.44
517.879	98.44
518.095	93.44
518.311	84.44
518.527	97.44
518.742	98.44
518.958	125.44
