Data from CBS_3_HRD10591_00039.txt Node
Date: Mon Jan 19 14:05:58 EST 2026
User: Yrep
Spectrometer: HR+D1059
Trigger mode: 1
Integration Time (sec): 1.000000E-1
Scans to average: 1
Electric dark correction enabled: true
Nonlinearity correction enabled: false
Boxcar width: 0
XAxis mode: Wavelengths
Number of Pixels in Spectrum: 2048
>>>>>Begin Spectral Data<<<<<
223.165	-1.19
223.4	-1.19
223.635	-1.19
223.869	-28.19
224.104	-27.19
224.338	-8.19
224.573	-24.19
224.808	-25.19
225.042	-8.19
225.277	9.81
225.511	7.81
225.746	3.81
225.98	7.81
226.215	7.81
226.449	21.81
226.683	24.81
226.918	17.81
227.152	20.81
227.387	43.81
227.621	39.81
227.856	47.81
228.09	59.81
228.324	52.81
228.559	49.81
228.793	53.81
229.027	64.81
229.262	44.81
229.496	71.81
229.73	64.81
229.964	64.81
230.199	56.81
230.433	65.81
230.667	69.81
230.901	85.81
231.136	71.81
231.37	87.81
231.604	73.81
231.838	84.81
232.072	85.81
232.306	82.81
232.541	81.81
232.775	88.81
233.009	83.81
233.243	82.81
233.477	63.81
233.711	73.81
233.945	79.81
234.179	81.81
234.413	79.81
234.647	73.81
234.881	85.81
235.115	84.81
235.349	79.81
235.583	62.81
235.817	83.81
236.051	70.81
236.285	79.81
236.519	77.81
236.753	87.81
236.987	74.81
237.221	92.81
237.455	74.81
237.689	72.81
237.922	74.81
238.156	64.81
238.39	81.81
238.624	65.81
238.858	61.81
239.091	63.81
239.325	66.81
239.559	74.81
239.793	79.81
240.027	81.81
240.26	66.81
240.494	77.81
240.728	80.81
240.961	73.81
241.195	81.81
241.429	65.81
241.662	66.81
241.896	60.81
242.13	81.81
242.363	78.81
242.597	82.81
242.83	67.81
243.064	72.81
243.298	80.81
243.531	67.81
243.765	70.81
243.998	78.81
244.232	85.81
244.465	63.81
244.699	73.81
244.932	71.81
245.166	77.81
245.399	95.81
245.633	77.81
245.866	79.81
246.099	92.81
246.333	65.81
246.566	68.81
246.8	71.81
247.033	79.81
247.266	82.81
247.5	68.81
247.733	78.81
247.966	79.81
248.2	72.81
248.433	81.81
248.666	83.81
248.899	72.81
249.133	71.81
249.366	66.81
249.599	79.81
249.832	78.81
250.066	80.81
250.299	85.81
250.532	96.81
250.765	79.81
250.998	77.81
251.231	78.81
251.465	68.81
251.698	74.81
251.931	73.81
252.164	72.81
252.397	81.81
252.63	61.81
252.863	72.81
253.096	77.81
253.329	74.81
253.562	84.81
253.795	92.81
254.028	83.81
254.261	89.81
254.494	76.81
254.727	84.81
254.96	69.81
255.193	79.81
255.426	79.81
255.659	71.81
255.892	84.81
256.124	90.81
256.357	83.81
256.59	80.81
256.823	74.81
257.056	77.81
257.289	73.81
257.521	80.81
257.754	77.81
257.987	94.81
258.22	79.81
258.452	85.81
258.685	73.81
258.918	79.81
259.151	74.81
259.383	79.81
259.616	70.81
259.849	63.81
260.081	81.81
260.314	105.81
260.547	69.81
260.779	77.81
261.012	92.81
261.244	69.81
261.477	76.81
261.71	74.81
261.942	68.81
262.175	69.81
262.407	66.81
262.64	77.81
262.872	72.81
263.105	91.81
263.337	75.81
263.57	80.81
263.802	77.81
264.035	97.81
264.267	101.81
264.499	79.81
264.732	87.81
264.964	84.81
265.197	73.81
265.429	64.81
265.661	72.81
265.894	74.81
266.126	86.81
266.358	87.81
266.591	73.81
266.823	88.81
267.055	87.81
267.287	71.81
267.52	70.81
267.752	83.81
267.984	72.81
268.216	71.81
268.448	85.81
268.681	83.81
268.913	86.81
269.145	76.81
269.377	75.81
269.609	72.81
269.841	85.81
270.073	77.81
270.306	75.81
270.538	92.81
270.77	82.81
271.002	83.81
271.234	76.81
271.466	76.81
271.698	91.81
271.93	80.81
272.162	89.81
272.394	83.81
272.626	85.81
272.858	84.81
273.09	77.81
273.322	83.81
273.553	74.81
273.785	73.81
274.017	87.81
274.249	70.81
274.481	87.81
274.713	93.81
274.945	81.81
275.176	73.81
275.408	79.81
275.64	79.81
275.872	92.81
276.104	83.81
276.335	73.81
276.567	74.81
276.799	75.81
277.031	95.81
277.262	76.81
277.494	83.81
277.726	90.81
277.957	86.81
278.189	78.81
278.421	82.81
278.652	84.81
278.884	66.81
279.115	87.81
279.347	96.81
279.579	93.81
279.81	79.81
280.042	74.81
280.273	86.81
280.505	92.81
280.736	86.81
280.968	88.81
281.199	76.81
281.431	84.81
281.662	93.81
281.894	70.81
282.125	71.81
282.356	74.81
282.588	73.81
282.819	73.81
283.051	82.81
283.282	73.81
283.513	76.81
283.745	99.81
283.976	63.81
284.207	75.81
284.439	73.81
284.67	73.81
284.901	81.81
285.132	82.81
285.364	92.81
285.595	82.81
285.826	71.81
286.057	82.81
286.288	72.81
286.52	86.81
286.751	67.81
286.982	87.81
287.213	92.81
287.444	90.81
287.675	85.81
287.906	87.81
288.138	71.81
288.369	91.81
288.6	82.81
288.831	72.81
289.062	72.81
289.293	80.81
289.524	80.81
289.755	86.81
289.986	80.81
290.217	61.81
290.448	78.81
290.679	77.81
290.91	90.81
291.141	94.81
291.371	80.81
291.602	82.81
291.833	94.81
292.064	75.81
292.295	82.81
292.526	86.81
292.757	88.81
292.987	70.81
293.218	83.81
293.449	71.81
293.68	85.81
293.91	86.81
294.141	87.81
294.372	84.81
294.603	85.81
294.833	100.81
295.064	86.81
295.295	87.81
295.525	81.81
295.756	85.81
295.987	72.81
296.217	71.81
296.448	75.81
296.679	76.81
296.909	84.81
297.14	83.81
297.37	83.81
297.601	83.81
297.831	92.81
298.062	82.81
298.292	74.81
298.523	69.81
298.753	84.81
298.984	85.81
299.214	76.81
299.445	81.81
299.675	92.81
299.905	92.81
300.136	91.81
300.366	98.81
300.597	93.81
300.827	93.81
301.057	92.81
301.288	68.81
301.518	80.81
301.748	80.81
301.979	98.81
302.209	93.81
302.439	79.81
302.669	87.81
302.9	91.81
303.13	95.81
303.36	76.81
303.59	85.81
303.82	79.81
304.051	84.81
304.281	81.81
304.511	84.81
304.741	95.81
304.971	87.81
305.201	79.81
305.431	73.81
305.661	86.81
305.891	94.81
306.121	101.81
306.352	86.81
306.582	81.81
306.812	73.81
307.042	76.81
307.272	77.81
307.502	68.81
307.731	79.81
307.961	71.81
308.191	96.81
308.421	97.81
308.651	99.81
308.881	99.81
309.111	86.81
309.341	95.81
309.571	84.81
309.8	75.81
310.03	75.81
310.26	94.81
310.49	85.81
310.72	84.81
310.949	93.81
311.179	72.81
311.409	93.81
311.639	71.81
311.868	86.81
312.098	77.81
312.328	90.81
312.557	82.81
312.787	73.81
313.017	84.81
313.246	90.81
313.476	77.81
313.706	87.81
313.935	68.81
314.165	69.81
314.394	84.81
314.624	92.81
314.853	71.81
315.083	81.81
315.312	86.81
315.542	75.81
315.771	101.81
316.001	110.81
316.23	95.81
316.46	77.81
316.689	88.81
316.919	84.81
317.148	92.81
317.377	104.81
317.607	88.81
317.836	100.81
318.065	109.81
318.295	91.81
318.524	79.81
318.753	95.81
318.983	94.81
319.212	86.81
319.441	88.81
319.67	73.81
319.9	86.81
320.129	91.81
320.358	79.81
320.587	92.81
320.816	73.81
321.046	82.81
321.275	73.81
321.504	79.81
321.733	78.81
321.962	81.81
322.191	64.81
322.42	91.81
322.649	103.81
322.878	92.81
323.108	78.81
323.337	91.81
323.566	89.81
323.795	86.81
324.024	83.81
324.253	83.81
324.482	71.81
324.71	98.81
324.939	92.81
325.168	95.81
325.397	86.81
325.626	85.81
325.855	83.81
326.084	85.81
326.313	72.81
326.542	95.81
326.77	95.81
326.999	99.81
327.228	77.81
327.457	83.81
327.686	92.81
327.914	78.81
328.143	87.81
328.372	67.81
328.6	82.81
328.829	78.81
329.058	91.81
329.287	83.81
329.515	95.81
329.744	74.81
329.972	90.81
330.201	96.81
330.43	91.81
330.658	76.81
330.887	91.81
331.115	83.81
331.344	76.81
331.572	76.81
331.801	73.81
332.03	94.81
332.258	90.81
332.486	85.81
332.715	79.81
332.943	85.81
333.172	94.81
333.4	95.81
333.629	78.81
333.857	75.81
334.085	84.81
334.314	81.81
334.542	83.81
334.771	98.81
334.999	99.81
335.227	84.81
335.455	80.81
335.684	103.81
335.912	102.81
336.14	100.81
336.369	91.81
336.597	86.81
336.825	91.81
337.053	85.81
337.281	85.81
337.51	89.81
337.738	92.81
337.966	84.81
338.194	89.81
338.422	77.81
338.65	80.81
338.878	63.81
339.106	81.81
339.334	86.81
339.562	78.81
339.79	80.81
340.018	81.81
340.246	86.81
340.474	88.81
340.702	82.81
340.93	93.81
341.158	79.81
341.386	79.81
341.614	93.81
341.842	83.81
342.07	81.81
342.298	70.81
342.526	83.81
342.754	83.81
342.981	92.81
343.209	79.81
343.437	103.81
343.665	93.81
343.893	93.81
344.12	80.81
344.348	92.81
344.576	94.81
344.804	85.81
345.031	78.81
345.259	69.81
345.487	69.81
345.714	86.81
345.942	87.81
346.17	89.81
346.397	69.81
346.625	79.81
346.853	89.81
347.08	73.81
347.308	83.81
347.535	75.81
347.763	74.81
347.99	71.81
348.218	71.81
348.445	85.81
348.673	87.81
348.9	93.81
349.128	79.81
349.355	91.81
349.583	87.81
349.81	73.81
350.037	83.81
350.265	94.81
350.492	73.81
350.72	77.81
350.947	83.81
351.174	86.81
351.402	80.81
351.629	72.81
351.856	83.81
352.083	87.81
352.311	84.81
352.538	91.81
352.765	96.81
352.992	77.81
353.22	83.81
353.447	88.81
353.674	76.81
353.901	87.81
354.128	79.81
354.355	77.81
354.583	89.81
354.81	92.81
355.037	82.81
355.264	79.81
355.491	80.81
355.718	78.81
355.945	84.81
356.172	76.81
356.399	86.81
356.626	95.81
356.853	103.81
357.08	75.81
357.307	81.81
357.534	82.81
357.761	87.81
357.988	95.81
358.215	97.81
358.441	87.81
358.668	82.81
358.895	88.81
359.122	87.81
359.349	85.81
359.576	88.81
359.802	72.81
360.029	86.81
360.256	86.81
360.483	91.81
360.709	90.81
360.936	89.81
361.163	93.81
361.39	81.81
361.616	63.81
361.843	83.81
362.07	100.81
362.296	114.81
362.523	110.81
362.749	121.81
362.976	138.81
363.203	141.81
363.429	108.81
363.656	102.81
363.882	95.81
364.109	121.81
364.335	157.81
364.562	165.81
364.788	120.81
365.015	100.81
365.241	83.81
365.468	86.81
365.694	82.81
365.92	91.81
366.147	93.81
366.373	81.81
366.599	88.81
366.826	82.81
367.052	90.81
367.278	83.81
367.505	87.81
367.731	80.81
367.957	78.81
368.184	88.81
368.41	96.81
368.636	71.81
368.862	91.81
369.089	88.81
369.315	99.81
369.541	94.81
369.767	85.81
369.993	90.81
370.219	89.81
370.445	86.81
370.672	107.81
370.898	102.81
371.124	99.81
371.35	77.81
371.576	100.81
371.802	91.81
372.028	77.81
372.254	88.81
372.48	82.81
372.706	85.81
372.932	87.81
373.158	97.81
373.384	103.81
373.61	113.81
373.835	124.81
374.061	98.81
374.287	100.81
374.513	87.81
374.739	82.81
374.965	114.81
375.191	82.81
375.416	95.81
375.642	95.81
375.868	92.81
376.094	86.81
376.319	89.81
376.545	85.81
376.771	74.81
376.997	77.81
377.222	86.81
377.448	84.81
377.674	81.81
377.899	72.81
378.125	80.81
378.35	96.81
378.576	69.81
378.802	87.81
379.027	78.81
379.253	99.81
379.478	77.81
379.704	101.81
379.929	95.81
380.155	69.81
380.38	79.81
380.606	79.81
380.831	84.81
381.057	91.81
381.282	92.81
381.507	96.81
381.733	99.81
381.958	99.81
382.184	96.81
382.409	89.81
382.634	99.81
382.86	92.81
383.085	98.81
383.31	100.81
383.535	104.81
383.761	103.81
383.986	87.81
384.211	99.81
384.436	74.81
384.662	94.81
384.887	85.81
385.112	93.81
385.337	89.81
385.562	88.81
385.787	108.81
386.013	101.81
386.238	87.81
386.463	94.81
386.688	113.81
386.913	90.81
387.138	94.81
387.363	85.81
387.588	93.81
387.813	102.81
388.038	107.81
388.263	100.81
388.488	85.81
388.713	92.81
388.938	99.81
389.163	90.81
389.387	91.81
389.612	80.81
389.837	86.81
390.062	83.81
390.287	84.81
390.512	94.81
390.736	83.81
390.961	101.81
391.186	85.81
391.411	100.81
391.636	96.81
391.86	92.81
392.085	112.81
392.31	104.81
392.534	136.81
392.759	151.81
392.984	268.81
393.208	528.81
393.433	708.81
393.658	541.81
393.882	217.81
394.107	132.81
394.331	149.81
394.556	148.81
394.78	125.81
395.005	93.81
395.229	110.81
395.454	113.81
395.678	118.81
395.903	154.81
396.127	175.81
396.352	229.81
396.576	281.81
396.801	487.81
397.025	575.81
397.249	300.81
397.474	155.81
397.698	109.81
397.922	96.81
398.147	102.81
398.371	87.81
398.595	89.81
398.82	98.81
399.044	94.81
399.268	86.81
399.492	88.81
399.717	87.81
399.941	92.81
400.165	81.81
400.389	89.81
400.613	79.81
400.837	84.81
401.062	81.81
401.286	87.81
401.51	94.81
401.734	92.81
401.958	104.81
402.182	86.81
402.406	85.81
402.63	81.81
402.854	76.81
403.078	101.81
403.302	98.81
403.526	92.81
403.75	103.81
403.974	91.81
404.198	89.81
404.422	103.81
404.645	124.81
404.869	100.81
405.093	86.81
405.317	95.81
405.541	83.81
405.765	85.81
405.988	87.81
406.212	70.81
406.436	91.81
406.66	71.81
406.883	84.81
407.107	76.81
407.331	91.81
407.555	113.81
407.778	131.81
408.002	124.81
408.226	83.81
408.449	79.81
408.673	94.81
408.896	92.81
409.12	89.81
409.344	97.81
409.567	105.81
409.791	114.81
410.014	121.81
410.238	109.81
410.461	87.81
410.685	84.81
410.908	81.81
411.132	87.81
411.355	78.81
411.578	79.81
411.802	93.81
412.025	82.81
412.249	92.81
412.472	84.81
412.695	87.81
412.919	72.81
413.142	101.81
413.365	74.81
413.589	73.81
413.812	83.81
414.035	76.81
414.258	80.81
414.482	87.81
414.705	91.81
414.928	79.81
415.151	77.81
415.374	88.81
415.597	71.81
415.821	95.81
416.044	96.81
416.267	78.81
416.49	100.81
416.713	84.81
416.936	84.81
417.159	87.81
417.382	76.81
417.605	82.81
417.828	93.81
418.051	82.81
418.274	79.81
418.497	74.81
418.72	68.81
418.943	77.81
419.166	88.81
419.389	93.81
419.611	95.81
419.834	92.81
420.057	77.81
420.28	83.81
420.503	99.81
420.726	92.81
420.948	89.81
421.171	105.81
421.394	114.81
421.617	154.81
421.839	128.81
422.062	142.81
422.285	209.81
422.507	383.81
422.73	627.81
422.953	540.81
423.175	267.81
423.398	138.81
423.621	123.81
423.843	101.81
424.066	105.81
424.288	95.81
424.511	99.81
424.733	88.81
424.956	93.81
425.178	94.81
425.401	102.81
425.623	85.81
425.846	98.81
426.068	87.81
426.291	83.81
426.513	87.81
426.735	94.81
426.958	81.81
427.18	73.81
427.402	92.81
427.625	87.81
427.847	105.81
428.069	97.81
428.292	152.81
428.514	180.81
428.736	141.81
428.958	174.81
429.181	174.81
429.403	95.81
429.625	118.81
429.847	153.81
430.069	227.81
430.292	270.81
430.514	230.81
430.736	185.81
430.958	198.81
431.18	119.81
431.402	95.81
431.624	107.81
431.846	152.81
432.068	165.81
432.29	115.81
432.512	102.81
432.734	81.81
432.956	84.81
433.178	87.81
433.4	72.81
433.622	91.81
433.844	82.81
434.066	92.81
434.287	80.81
434.509	86.81
434.731	83.81
434.953	82.81
435.175	83.81
435.397	102.81
435.618	104.81
435.84	89.81
436.062	91.81
436.284	96.81
436.505	89.81
436.727	90.81
436.949	81.81
437.17	88.81
437.392	77.81
437.614	84.81
437.835	80.81
438.057	84.81
438.278	95.81
438.5	83.81
438.721	86.81
438.943	82.81
439.165	92.81
439.386	87.81
439.608	89.81
439.829	79.81
440.05	81.81
440.272	91.81
440.493	77.81
440.715	69.81
440.936	85.81
441.158	91.81
441.379	83.81
441.6	89.81
441.822	83.81
442.043	107.81
442.264	109.81
442.486	180.81
442.707	256.81
442.928	150.81
443.149	123.81
443.371	211.81
443.592	383.81
443.813	317.81
444.034	133.81
444.255	112.81
444.476	88.81
444.698	88.81
444.919	98.81
445.14	222.81
445.361	287.81
445.582	479.81
445.803	401.81
446.024	165.81
446.245	107.81
446.466	90.81
446.687	101.81
446.908	91.81
447.129	81.81
447.35	77.81
447.571	80.81
447.792	83.81
448.013	81.81
448.234	97.81
448.455	85.81
448.675	96.81
448.896	89.81
449.117	72.81
449.338	86.81
449.559	88.81
449.779	75.81
450	77.81
450.221	87.81
450.442	75.81
450.662	90.81
450.883	80.81
451.104	85.81
451.324	94.81
451.545	90.81
451.766	83.81
451.986	92.81
452.207	78.81
452.428	99.81
452.648	94.81
452.869	108.81
453.089	100.81
453.31	91.81
453.53	89.81
453.751	90.81
453.971	83.81
454.192	88.81
454.412	76.81
454.633	92.81
454.853	87.81
455.073	71.81
455.294	73.81
455.514	99.81
455.734	67.81
455.955	92.81
456.175	79.81
456.395	105.81
456.616	87.81
456.836	84.81
457.056	102.81
457.276	69.81
457.497	75.81
457.717	99.81
457.937	130.81
458.157	161.81
458.377	173.81
458.598	155.81
458.818	169.81
459.038	109.81
459.258	88.81
459.478	79.81
459.698	91.81
459.918	71.81
460.138	69.81
460.358	92.81
460.578	110.81
460.798	117.81
461.018	111.81
461.238	83.81
461.458	91.81
461.678	94.81
461.898	81.81
462.118	91.81
462.338	72.81
462.558	81.81
462.777	83.81
462.997	92.81
463.217	95.81
463.437	85.81
463.657	78.81
463.876	88.81
464.096	72.81
464.316	89.81
464.536	86.81
464.755	79.81
464.975	76.81
465.195	101.81
465.414	96.81
465.634	85.81
465.854	73.81
466.073	78.81
466.293	82.81
466.512	76.81
466.732	80.81
466.951	84.81
467.171	84.81
467.391	76.81
467.61	79.81
467.829	71.81
468.049	84.81
468.268	97.81
468.488	92.81
468.707	86.81
468.927	82.81
469.146	73.81
469.365	89.81
469.585	92.81
469.804	83.81
470.023	79.81
470.243	89.81
470.462	80.81
470.681	89.81
470.901	86.81
471.12	68.81
471.339	99.81
471.558	66.81
471.777	84.81
471.997	77.81
472.216	87.81
472.435	85.81
472.654	91.81
472.873	83.81
473.092	78.81
473.311	95.81
473.53	76.81
473.749	76.81
473.968	84.81
474.187	86.81
474.406	99.81
474.625	99.81
474.844	86.81
475.063	79.81
475.282	82.81
475.501	93.81
475.72	81.81
475.939	88.81
476.158	79.81
476.377	83.81
476.596	87.81
476.814	86.81
477.033	96.81
477.252	75.81
477.471	83.81
477.69	82.81
477.908	87.81
478.127	84.81
478.346	88.81
478.564	74.81
478.783	95.81
479.002	85.81
479.22	86.81
479.439	91.81
479.658	83.81
479.876	80.81
480.095	74.81
480.313	80.81
480.532	80.81
480.751	88.81
480.969	84.81
481.188	87.81
481.406	85.81
481.624	86.81
481.843	93.81
482.061	88.81
482.28	96.81
482.498	105.81
482.717	90.81
482.935	91.81
483.153	102.81
483.372	101.81
483.59	91.81
483.808	95.81
484.027	86.81
484.245	85.81
484.463	83.81
484.681	100.81
484.9	94.81
485.118	81.81
485.336	83.81
485.554	82.81
485.772	87.81
485.99	91.81
486.209	75.81
486.427	95.81
486.645	83.81
486.863	85.81
487.081	96.81
487.299	91.81
487.517	113.81
487.735	127.81
487.953	259.81
488.171	187.81
488.389	103.81
488.607	83.81
488.825	83.81
489.043	79.81
489.261	81.81
489.479	94.81
489.696	86.81
489.914	73.81
490.132	89.81
490.35	93.81
490.568	84.81
490.786	83.81
491.003	80.81
491.221	93.81
491.439	87.81
491.657	77.81
491.874	81.81
492.092	90.81
492.31	90.81
492.527	92.81
492.745	87.81
492.963	91.81
493.18	78.81
493.398	95.81
493.615	81.81
493.833	95.81
494.05	72.81
494.268	93.81
494.485	99.81
494.703	93.81
494.92	92.81
495.138	80.81
495.355	81.81
495.573	81.81
495.79	95.81
496.008	95.81
496.225	86.81
496.442	87.81
496.66	83.81
496.877	84.81
497.094	87.81
497.312	94.81
497.529	95.81
497.746	103.81
497.963	89.81
498.181	84.81
498.398	87.81
498.615	91.81
498.832	87.81
499.049	85.81
499.267	95.81
499.484	91.81
499.701	96.81
499.918	90.81
500.135	98.81
500.352	92.81
500.569	94.81
500.786	84.81
501.003	92.81
501.22	66.81
501.437	82.81
501.654	98.81
501.871	101.81
502.088	84.81
502.305	89.81
502.522	98.81
502.739	86.81
502.956	94.81
503.172	84.81
503.389	95.81
503.606	95.81
503.823	95.81
504.04	118.81
504.256	171.81
504.473	182.81
504.69	104.81
504.907	84.81
505.123	92.81
505.34	87.81
505.557	84.81
505.773	73.81
505.99	87.81
506.207	66.81
506.423	86.81
506.64	89.81
506.856	98.81
507.073	102.81
507.289	79.81
507.506	92.81
507.722	79.81
507.939	78.81
508.155	94.81
508.372	86.81
508.588	94.81
508.805	88.81
509.021	77.81
509.238	77.81
509.454	85.81
509.67	86.81
509.887	93.81
510.103	76.81
510.319	100.81
510.536	84.81
510.752	83.81
510.968	81.81
511.184	72.81
511.401	88.81
511.617	84.81
511.833	72.81
512.049	90.81
512.265	91.81
512.481	84.81
512.698	84.81
512.914	103.81
513.13	82.81
513.346	96.81
513.562	80.81
513.778	96.81
513.994	93.81
514.21	96.81
514.426	91.81
514.642	92.81
514.858	96.81
515.074	92.81
515.29	73.81
515.506	93.81
515.721	71.81
515.937	94.81
516.153	81.81
516.369	91.81
516.585	99.81
516.801	84.81
517.016	72.81
517.232	89.81
517.448	98.81
517.664	77.81
517.879	74.81
