Data from CBS_3_HRD10591_00006.txt Node
Date: Mon Jan 19 14:05:41 EST 2026
User: Yrep
Spectrometer: HR+D1059
Trigger mode: 1
Integration Time (sec): 1.000000E-1
Scans to average: 1
Electric dark correction enabled: true
Nonlinearity correction enabled: false
Boxcar width: 0
XAxis mode: Wavelengths
Number of Pixels in Spectrum: 2048
>>>>>Begin Spectral Data<<<<<
223.165	-16.88
223.4	-16.88
223.635	-16.88
223.869	-12.88
224.104	-28.88
224.338	-23.88
224.573	-17.88
224.808	-14.88
225.042	5.12
225.277	-16.88
225.511	-0.88
225.746	13.12
225.98	8.12
226.215	13.12
226.449	10.12
226.683	27.12
226.918	24.12
227.152	32.12
227.387	31.12
227.621	48.12
227.856	39.12
228.09	52.12
228.324	35.12
228.559	61.12
228.793	47.12
229.027	65.12
229.262	78.12
229.496	76.12
229.73	69.12
229.964	75.12
230.199	83.12
230.433	72.12
230.667	58.12
230.901	68.12
231.136	84.12
231.37	60.12
231.604	85.12
231.838	88.12
232.072	86.12
232.306	72.12
232.541	82.12
232.775	73.12
233.009	83.12
233.243	85.12
233.477	80.12
233.711	77.12
233.945	93.12
234.179	69.12
234.413	88.12
234.647	75.12
234.881	69.12
235.115	91.12
235.349	75.12
235.583	87.12
235.817	67.12
236.051	64.12
236.285	63.12
236.519	77.12
236.753	75.12
236.987	68.12
237.221	71.12
237.455	78.12
237.689	68.12
237.922	86.12
238.156	81.12
238.39	77.12
238.624	79.12
238.858	82.12
239.091	60.12
239.325	70.12
239.559	74.12
239.793	65.12
240.027	71.12
240.26	70.12
240.494	65.12
240.728	69.12
240.961	83.12
241.195	70.12
241.429	81.12
241.662	65.12
241.896	78.12
242.13	75.12
242.363	68.12
242.597	82.12
242.83	80.12
243.064	72.12
243.298	59.12
243.531	85.12
243.765	56.12
243.998	78.12
244.232	79.12
244.465	82.12
244.699	72.12
244.932	73.12
245.166	85.12
245.399	79.12
245.633	71.12
245.866	69.12
246.099	80.12
246.333	68.12
246.566	59.12
246.8	73.12
247.033	78.12
247.266	78.12
247.5	62.12
247.733	69.12
247.966	67.12
248.2	77.12
248.433	80.12
248.666	72.12
248.899	73.12
249.133	103.12
249.366	79.12
249.599	65.12
249.832	80.12
250.066	83.12
250.299	81.12
250.532	69.12
250.765	85.12
250.998	76.12
251.231	86.12
251.465	65.12
251.698	83.12
251.931	69.12
252.164	68.12
252.397	82.12
252.63	88.12
252.863	79.12
253.096	76.12
253.329	81.12
253.562	72.12
253.795	90.12
254.028	70.12
254.261	83.12
254.494	80.12
254.727	72.12
254.96	77.12
255.193	74.12
255.426	84.12
255.659	77.12
255.892	93.12
256.124	73.12
256.357	75.12
256.59	65.12
256.823	77.12
257.056	75.12
257.289	78.12
257.521	85.12
257.754	73.12
257.987	83.12
258.22	81.12
258.452	73.12
258.685	82.12
258.918	82.12
259.151	73.12
259.383	79.12
259.616	87.12
259.849	85.12
260.081	78.12
260.314	85.12
260.547	97.12
260.779	83.12
261.012	71.12
261.244	61.12
261.477	91.12
261.71	81.12
261.942	81.12
262.175	81.12
262.407	76.12
262.64	75.12
262.872	81.12
263.105	82.12
263.337	82.12
263.57	78.12
263.802	87.12
264.035	70.12
264.267	72.12
264.499	85.12
264.732	72.12
264.964	73.12
265.197	96.12
265.429	73.12
265.661	87.12
265.894	84.12
266.126	79.12
266.358	76.12
266.591	88.12
266.823	67.12
267.055	77.12
267.287	82.12
267.52	85.12
267.752	84.12
267.984	86.12
268.216	67.12
268.448	76.12
268.681	73.12
268.913	91.12
269.145	67.12
269.377	85.12
269.609	72.12
269.841	79.12
270.073	80.12
270.306	93.12
270.538	85.12
270.77	90.12
271.002	71.12
271.234	75.12
271.466	87.12
271.698	67.12
271.93	73.12
272.162	84.12
272.394	81.12
272.626	71.12
272.858	89.12
273.09	80.12
273.322	77.12
273.553	87.12
273.785	85.12
274.017	92.12
274.249	74.12
274.481	75.12
274.713	78.12
274.945	84.12
275.176	74.12
275.408	89.12
275.64	72.12
275.872	82.12
276.104	79.12
276.335	85.12
276.567	79.12
276.799	84.12
277.031	79.12
277.262	73.12
277.494	100.12
277.726	89.12
277.957	86.12
278.189	81.12
278.421	75.12
278.652	80.12
278.884	94.12
279.115	92.12
279.347	95.12
279.579	87.12
279.81	102.12
280.042	101.12
280.273	87.12
280.505	79.12
280.736	89.12
280.968	87.12
281.199	92.12
281.431	88.12
281.662	76.12
281.894	96.12
282.125	76.12
282.356	76.12
282.588	88.12
282.819	78.12
283.051	88.12
283.282	86.12
283.513	86.12
283.745	94.12
283.976	89.12
284.207	89.12
284.439	95.12
284.67	85.12
284.901	81.12
285.132	100.12
285.364	99.12
285.595	107.12
285.826	79.12
286.057	85.12
286.288	82.12
286.52	80.12
286.751	83.12
286.982	77.12
287.213	101.12
287.444	81.12
287.675	94.12
287.906	84.12
288.138	91.12
288.369	95.12
288.6	86.12
288.831	84.12
289.062	82.12
289.293	92.12
289.524	83.12
289.755	83.12
289.986	89.12
290.217	81.12
290.448	87.12
290.679	73.12
290.91	89.12
291.141	94.12
291.371	92.12
291.602	74.12
291.833	84.12
292.064	81.12
292.295	91.12
292.526	105.12
292.757	82.12
292.987	85.12
293.218	98.12
293.449	80.12
293.68	84.12
293.91	86.12
294.141	100.12
294.372	70.12
294.603	80.12
294.833	77.12
295.064	85.12
295.295	104.12
295.525	101.12
295.756	84.12
295.987	96.12
296.217	78.12
296.448	92.12
296.679	83.12
296.909	98.12
297.14	84.12
297.37	85.12
297.601	89.12
297.831	73.12
298.062	101.12
298.292	91.12
298.523	76.12
298.753	91.12
298.984	84.12
299.214	98.12
299.445	110.12
299.675	124.12
299.905	121.12
300.136	112.12
300.366	97.12
300.597	116.12
300.827	113.12
301.057	113.12
301.288	90.12
301.518	102.12
301.748	83.12
301.979	93.12
302.209	87.12
302.439	104.12
302.669	84.12
302.9	95.12
303.13	76.12
303.36	85.12
303.59	95.12
303.82	93.12
304.051	94.12
304.281	91.12
304.511	97.12
304.741	80.12
304.971	74.12
305.201	94.12
305.431	87.12
305.661	95.12
305.891	101.12
306.121	89.12
306.352	85.12
306.582	88.12
306.812	85.12
307.042	94.12
307.272	79.12
307.502	88.12
307.731	79.12
307.961	96.12
308.191	111.12
308.421	112.12
308.651	107.12
308.881	97.12
309.111	104.12
309.341	131.12
309.571	114.12
309.8	108.12
310.03	85.12
310.26	95.12
310.49	101.12
310.72	82.12
310.949	65.12
311.179	87.12
311.409	94.12
311.639	84.12
311.868	92.12
312.098	95.12
312.328	83.12
312.557	75.12
312.787	77.12
313.017	91.12
313.246	102.12
313.476	91.12
313.706	98.12
313.935	97.12
314.165	89.12
314.394	98.12
314.624	89.12
314.853	103.12
315.083	102.12
315.312	108.12
315.542	117.12
315.771	129.12
316.001	140.12
316.23	120.12
316.46	110.12
316.689	86.12
316.919	95.12
317.148	102.12
317.377	101.12
317.607	127.12
317.836	158.12
318.065	166.12
318.295	165.12
318.524	116.12
318.753	100.12
318.983	103.12
319.212	87.12
319.441	85.12
319.67	88.12
319.9	96.12
320.129	101.12
320.358	77.12
320.587	94.12
320.816	102.12
321.046	103.12
321.275	96.12
321.504	98.12
321.733	95.12
321.962	102.12
322.191	107.12
322.42	104.12
322.649	104.12
322.878	108.12
323.108	102.12
323.337	88.12
323.566	96.12
323.795	92.12
324.024	100.12
324.253	102.12
324.482	95.12
324.71	108.12
324.939	95.12
325.168	109.12
325.397	99.12
325.626	87.12
325.855	98.12
326.084	96.12
326.313	94.12
326.542	92.12
326.77	88.12
326.999	91.12
327.228	85.12
327.457	101.12
327.686	94.12
327.914	86.12
328.143	105.12
328.372	94.12
328.6	98.12
328.829	85.12
329.058	92.12
329.287	81.12
329.515	88.12
329.744	97.12
329.972	76.12
330.201	103.12
330.43	87.12
330.658	94.12
330.887	85.12
331.115	98.12
331.344	87.12
331.572	96.12
331.801	84.12
332.03	83.12
332.258	70.12
332.486	75.12
332.715	79.12
332.943	93.12
333.172	87.12
333.4	87.12
333.629	94.12
333.857	97.12
334.085	99.12
334.314	120.12
334.542	109.12
334.771	113.12
334.999	141.12
335.227	120.12
335.455	126.12
335.684	129.12
335.912	152.12
336.14	167.12
336.369	149.12
336.597	105.12
336.825	96.12
337.053	99.12
337.281	101.12
337.51	96.12
337.738	93.12
337.966	92.12
338.194	90.12
338.422	102.12
338.65	81.12
338.878	101.12
339.106	81.12
339.334	104.12
339.562	103.12
339.79	92.12
340.018	96.12
340.246	101.12
340.474	89.12
340.702	95.12
340.93	91.12
341.158	97.12
341.386	92.12
341.614	100.12
341.842	85.12
342.07	83.12
342.298	87.12
342.526	85.12
342.754	103.12
342.981	90.12
343.209	95.12
343.437	102.12
343.665	88.12
343.893	93.12
344.12	97.12
344.348	83.12
344.576	99.12
344.804	85.12
345.031	101.12
345.259	101.12
345.487	93.12
345.714	84.12
345.942	98.12
346.17	83.12
346.397	88.12
346.625	86.12
346.853	97.12
347.08	95.12
347.308	100.12
347.535	111.12
347.763	106.12
347.99	95.12
348.218	91.12
348.445	104.12
348.673	107.12
348.9	123.12
349.128	100.12
349.355	91.12
349.583	99.12
349.81	94.12
350.037	77.12
350.265	77.12
350.492	87.12
350.72	83.12
350.947	85.12
351.174	82.12
351.402	113.12
351.629	89.12
351.856	79.12
352.083	83.12
352.311	105.12
352.538	89.12
352.765	101.12
352.992	94.12
353.22	91.12
353.447	87.12
353.674	82.12
353.901	99.12
354.128	90.12
354.355	98.12
354.583	93.12
354.81	101.12
355.037	94.12
355.264	90.12
355.491	91.12
355.718	94.12
355.945	85.12
356.172	101.12
356.399	101.12
356.626	109.12
356.853	109.12
357.08	110.12
357.307	92.12
357.534	91.12
357.761	82.12
357.988	117.12
358.215	123.12
358.441	102.12
358.668	107.12
358.895	91.12
359.122	95.12
359.349	98.12
359.576	96.12
359.802	83.12
360.029	95.12
360.256	109.12
360.483	94.12
360.709	96.12
360.936	113.12
361.163	97.12
361.39	94.12
361.616	104.12
361.843	108.12
362.07	131.12
362.296	163.12
362.523	196.12
362.749	208.12
362.976	252.12
363.203	287.12
363.429	188.12
363.656	137.12
363.882	155.12
364.109	217.12
364.335	332.12
364.562	351.12
364.788	237.12
365.015	138.12
365.241	100.12
365.468	92.12
365.694	89.12
365.92	84.12
366.147	86.12
366.373	87.12
366.599	103.12
366.826	97.12
367.052	103.12
367.278	102.12
367.505	97.12
367.731	105.12
367.957	92.12
368.184	101.12
368.41	99.12
368.636	98.12
368.862	97.12
369.089	96.12
369.315	83.12
369.541	100.12
369.767	84.12
369.993	95.12
370.219	100.12
370.445	127.12
370.672	151.12
370.898	140.12
371.124	107.12
371.35	96.12
371.576	99.12
371.802	97.12
372.028	119.12
372.254	101.12
372.48	104.12
372.706	109.12
372.932	124.12
373.158	98.12
373.384	129.12
373.61	177.12
373.835	198.12
374.061	134.12
374.287	126.12
374.513	128.12
374.739	123.12
374.965	117.12
375.191	116.12
375.416	110.12
375.642	122.12
375.868	108.12
376.094	104.12
376.319	92.12
376.545	108.12
376.771	91.12
376.997	99.12
377.222	87.12
377.448	80.12
377.674	107.12
377.899	83.12
378.125	100.12
378.35	91.12
378.576	102.12
378.802	101.12
379.027	93.12
379.253	111.12
379.478	93.12
379.704	94.12
379.929	92.12
380.155	100.12
380.38	102.12
380.606	97.12
380.831	110.12
381.057	101.12
381.282	109.12
381.507	111.12
381.733	108.12
381.958	101.12
382.184	104.12
382.409	125.12
382.634	125.12
382.86	136.12
383.085	120.12
383.31	123.12
383.535	125.12
383.761	120.12
383.986	129.12
384.211	123.12
384.436	114.12
384.662	118.12
384.887	121.12
385.112	116.12
385.337	111.12
385.562	124.12
385.787	119.12
386.013	137.12
386.238	133.12
386.463	124.12
386.688	128.12
386.913	128.12
387.138	120.12
387.363	147.12
387.588	141.12
387.813	151.12
388.038	142.12
388.263	135.12
388.488	120.12
388.713	115.12
388.938	122.12
389.163	111.12
389.387	114.12
389.612	122.12
389.837	120.12
390.062	112.12
390.287	115.12
390.512	113.12
390.736	113.12
390.961	109.12
391.186	116.12
391.411	126.12
391.636	130.12
391.86	135.12
392.085	156.12
392.31	175.12
392.534	210.12
392.759	299.12
392.984	540.12
393.208	1101.12
393.433	1659.12
393.658	1200.12
393.882	485.12
394.107	257.12
394.331	243.12
394.556	256.12
394.78	202.12
395.005	158.12
395.229	159.12
395.454	166.12
395.678	174.12
395.903	281.12
396.127	325.12
396.352	429.12
396.576	599.12
396.801	1068.12
397.025	1243.12
397.249	617.12
397.474	322.12
397.698	214.12
397.922	139.12
398.147	125.12
398.371	131.12
398.595	115.12
398.82	115.12
399.044	104.12
399.268	113.12
399.492	96.12
399.717	111.12
399.941	96.12
400.165	99.12
400.389	95.12
400.613	102.12
400.837	102.12
401.062	103.12
401.286	115.12
401.51	86.12
401.734	103.12
401.958	100.12
402.182	100.12
402.406	104.12
402.63	102.12
402.854	99.12
403.078	102.12
403.302	127.12
403.526	124.12
403.75	103.12
403.974	100.12
404.198	86.12
404.422	99.12
404.645	107.12
404.869	114.12
405.093	109.12
405.317	107.12
405.541	84.12
405.765	103.12
405.988	95.12
406.212	116.12
406.436	127.12
406.66	120.12
406.883	107.12
407.107	119.12
407.331	123.12
407.555	147.12
407.778	195.12
408.002	217.12
408.226	107.12
408.449	95.12
408.673	109.12
408.896	111.12
409.12	125.12
409.344	140.12
409.567	191.12
409.791	181.12
410.014	191.12
410.238	152.12
410.461	120.12
410.685	121.12
410.908	123.12
411.132	118.12
411.355	108.12
411.578	121.12
411.802	97.12
412.025	94.12
412.249	107.12
412.472	109.12
412.695	93.12
412.919	93.12
413.142	107.12
413.365	92.12
413.589	90.12
413.812	104.12
414.035	100.12
414.258	101.12
414.482	107.12
414.705	97.12
414.928	111.12
415.151	84.12
415.374	95.12
415.597	103.12
415.821	103.12
416.044	85.12
416.267	94.12
416.49	103.12
416.713	94.12
416.936	95.12
417.159	94.12
417.382	105.12
417.605	97.12
417.828	95.12
418.051	97.12
418.274	93.12
418.497	102.12
418.72	100.12
418.943	98.12
419.166	103.12
419.389	96.12
419.611	104.12
419.834	130.12
420.057	124.12
420.28	109.12
420.503	117.12
420.726	123.12
420.948	127.12
421.171	156.12
421.394	201.12
421.617	262.12
421.839	288.12
422.062	332.12
422.285	553.12
422.507	1064.12
422.73	1788.12
422.953	1601.12
423.175	724.12
423.398	381.12
423.621	253.12
423.843	200.12
424.066	173.12
424.288	165.12
424.511	142.12
424.733	124.12
424.956	124.12
425.178	120.12
425.401	111.12
425.623	114.12
425.846	119.12
426.068	118.12
426.291	109.12
426.513	104.12
426.735	111.12
426.958	124.12
427.18	113.12
427.402	105.12
427.625	117.12
427.847	118.12
428.069	165.12
428.292	343.12
428.514	397.12
428.736	250.12
428.958	340.12
429.181	344.12
429.403	177.12
429.625	191.12
429.847	299.12
430.069	493.12
430.292	620.12
430.514	557.12
430.736	380.12
430.958	388.12
431.18	183.12
431.402	135.12
431.624	163.12
431.846	311.12
432.068	358.12
432.29	163.12
432.512	120.12
432.734	119.12
432.956	112.12
433.178	112.12
433.4	88.12
433.622	98.12
433.844	102.12
434.066	113.12
434.287	90.12
434.509	96.12
434.731	88.12
434.953	99.12
435.175	120.12
435.397	109.12
435.618	137.12
435.84	143.12
436.062	119.12
436.284	107.12
436.505	100.12
436.727	99.12
436.949	94.12
437.17	108.12
437.392	97.12
437.614	109.12
437.835	91.12
438.057	98.12
438.278	94.12
438.5	96.12
438.721	88.12
438.943	93.12
439.165	82.12
439.386	103.12
439.608	109.12
439.829	95.12
440.05	86.12
440.272	97.12
440.493	107.12
440.715	97.12
440.936	109.12
441.158	105.12
441.379	96.12
441.6	113.12
441.822	108.12
442.043	135.12
442.264	173.12
442.486	341.12
442.707	571.12
442.928	345.12
443.149	226.12
443.371	452.12
443.592	975.12
443.813	822.12
444.034	267.12
444.255	158.12
444.476	142.12
444.698	130.12
444.919	173.12
445.14	331.12
445.361	613.12
445.582	1214.12
445.803	1027.12
446.024	333.12
446.245	157.12
446.466	115.12
446.687	101.12
446.908	123.12
447.129	105.12
447.35	100.12
447.571	87.12
447.792	88.12
448.013	81.12
448.234	83.12
448.455	96.12
448.675	96.12
448.896	100.12
449.117	92.12
449.338	103.12
449.559	100.12
449.779	98.12
450	87.12
450.221	91.12
450.442	87.12
450.662	95.12
450.883	92.12
451.104	96.12
451.324	109.12
451.545	101.12
451.766	107.12
451.986	103.12
452.207	101.12
452.428	109.12
452.648	149.12
452.869	188.12
453.089	148.12
453.31	109.12
453.53	116.12
453.751	107.12
453.971	98.12
454.192	99.12
454.412	100.12
454.633	97.12
454.853	86.12
455.073	95.12
455.294	104.12
455.514	93.12
455.734	91.12
455.955	76.12
456.175	86.12
456.395	103.12
456.616	99.12
456.836	108.12
457.056	91.12
457.276	102.12
457.497	110.12
457.717	144.12
457.937	238.12
458.157	337.12
458.377	368.12
458.598	314.12
458.818	373.12
459.038	176.12
459.258	119.12
459.478	93.12
459.698	85.12
459.918	102.12
460.138	87.12
460.358	91.12
460.578	126.12
460.798	201.12
461.018	198.12
461.238	111.12
461.458	90.12
461.678	91.12
461.898	93.12
462.118	109.12
462.338	96.12
462.558	92.12
462.777	91.12
462.997	82.12
463.217	96.12
463.437	88.12
463.657	77.12
463.876	93.12
464.096	91.12
464.316	80.12
464.536	88.12
464.755	86.12
464.975	93.12
465.195	90.12
465.414	94.12
465.634	84.12
465.854	110.12
466.073	87.12
466.293	89.12
466.512	87.12
466.732	88.12
466.951	89.12
467.171	78.12
467.391	89.12
467.61	100.12
467.829	87.12
468.049	101.12
468.268	99.12
468.488	113.12
468.707	107.12
468.927	89.12
469.146	87.12
469.365	101.12
469.585	95.12
469.804	89.12
470.023	85.12
470.243	94.12
470.462	109.12
470.681	91.12
470.901	91.12
471.12	91.12
471.339	98.12
471.558	78.12
471.777	89.12
471.997	92.12
472.216	99.12
472.435	97.12
472.654	96.12
472.873	87.12
473.092	102.12
473.311	80.12
473.53	96.12
473.749	98.12
473.968	94.12
474.187	87.12
474.406	86.12
474.625	96.12
474.844	93.12
475.063	85.12
475.282	101.12
475.501	96.12
475.72	105.12
475.939	87.12
476.158	109.12
476.377	101.12
476.596	89.12
476.814	95.12
477.033	88.12
477.252	95.12
477.471	99.12
477.69	95.12
477.908	92.12
478.127	92.12
478.346	96.12
478.564	102.12
478.783	101.12
479.002	98.12
479.22	109.12
479.439	95.12
479.658	95.12
479.876	91.12
480.095	89.12
480.313	98.12
480.532	91.12
480.751	102.12
480.969	92.12
481.188	100.12
481.406	109.12
481.624	106.12
481.843	109.12
482.061	122.12
482.28	101.12
482.498	99.12
482.717	105.12
482.935	97.12
483.153	100.12
483.372	120.12
483.59	111.12
483.808	108.12
484.027	113.12
484.245	116.12
484.463	110.12
484.681	111.12
484.9	123.12
485.118	102.12
485.336	112.12
485.554	91.12
485.772	102.12
485.99	94.12
486.209	130.12
486.427	95.12
486.645	97.12
486.863	97.12
487.081	109.12
487.299	134.12
487.517	155.12
487.735	260.12
487.953	610.12
488.171	468.12
488.389	177.12
488.607	121.12
488.825	116.12
489.043	102.12
489.261	111.12
489.479	97.12
489.696	99.12
489.914	94.12
490.132	93.12
490.35	107.12
490.568	84.12
490.786	104.12
491.003	95.12
491.221	98.12
491.439	84.12
491.657	105.12
491.874	93.12
492.092	120.12
492.31	101.12
492.527	89.12
492.745	88.12
492.963	101.12
493.18	109.12
493.398	107.12
493.615	94.12
493.833	100.12
494.05	107.12
494.268	97.12
494.485	96.12
494.703	97.12
494.92	71.12
495.138	103.12
495.355	97.12
495.573	102.12
495.79	100.12
496.008	109.12
496.225	102.12
496.442	107.12
496.66	103.12
496.877	94.12
497.094	91.12
497.312	95.12
497.529	84.12
497.746	96.12
497.963	108.12
498.181	110.12
498.398	110.12
498.615	100.12
498.832	86.12
499.049	94.12
499.267	103.12
499.484	95.12
499.701	95.12
499.918	96.12
500.135	110.12
500.352	95.12
500.569	84.12
500.786	91.12
501.003	119.12
501.22	109.12
501.437	92.12
501.654	91.12
501.871	99.12
502.088	104.12
502.305	86.12
502.522	99.12
502.739	92.12
502.956	101.12
503.172	88.12
503.389	113.12
503.606	103.12
503.823	128.12
504.04	174.12
504.256	401.12
504.473	421.12
504.69	161.12
504.907	140.12
505.123	114.12
505.34	99.12
505.557	102.12
505.773	103.12
505.99	91.12
506.207	104.12
506.423	107.12
506.64	93.12
506.856	94.12
507.073	87.12
507.289	92.12
507.506	100.12
507.722	94.12
507.939	89.12
508.155	99.12
508.372	82.12
508.588	109.12
508.805	113.12
509.021	84.12
509.238	105.12
509.454	92.12
509.67	94.12
509.887	89.12
510.103	86.12
510.319	90.12
510.536	92.12
510.752	105.12
510.968	97.12
511.184	89.12
511.401	89.12
511.617	96.12
511.833	87.12
512.049	95.12
512.265	98.12
512.481	95.12
