Data from CBS_3_HRD10591_00004.txt Node
Date: Mon Jan 19 14:05:40 EST 2026
User: Yrep
Spectrometer: HR+D1059
Trigger mode: 1
Integration Time (sec): 1.000000E-1
Scans to average: 1
Electric dark correction enabled: true
Nonlinearity correction enabled: false
Boxcar width: 0
XAxis mode: Wavelengths
Number of Pixels in Spectrum: 2048
>>>>>Begin Spectral Data<<<<<
223.165	-22.12
223.4	-22.12
223.635	-22.12
223.869	-26.12
224.104	-23.12
224.338	-10.12
224.573	-26.12
224.808	1.88
225.042	1.88
225.277	0.88
225.511	7.88
225.746	-4.12
225.98	-10.12
226.215	9.88
226.449	17.88
226.683	14.88
226.918	29.88
227.152	36.88
227.387	36.88
227.621	41.88
227.856	51.88
228.09	38.88
228.324	49.88
228.559	67.88
228.793	65.88
229.027	64.88
229.262	72.88
229.496	60.88
229.73	55.88
229.964	45.88
230.199	78.88
230.433	71.88
230.667	66.88
230.901	82.88
231.136	76.88
231.37	71.88
231.604	69.88
231.838	75.88
232.072	72.88
232.306	76.88
232.541	83.88
232.775	70.88
233.009	71.88
233.243	65.88
233.477	81.88
233.711	80.88
233.945	82.88
234.179	70.88
234.413	78.88
234.647	82.88
234.881	84.88
235.115	69.88
235.349	78.88
235.583	81.88
235.817	80.88
236.051	94.88
236.285	78.88
236.519	86.88
236.753	70.88
236.987	71.88
237.221	70.88
237.455	85.88
237.689	79.88
237.922	95.88
238.156	76.88
238.39	73.88
238.624	90.88
238.858	80.88
239.091	76.88
239.325	81.88
239.559	90.88
239.793	80.88
240.027	75.88
240.26	73.88
240.494	78.88
240.728	64.88
240.961	78.88
241.195	87.88
241.429	79.88
241.662	86.88
241.896	81.88
242.13	78.88
242.363	83.88
242.597	80.88
242.83	75.88
243.064	83.88
243.298	63.88
243.531	87.88
243.765	69.88
243.998	74.88
244.232	85.88
244.465	71.88
244.699	62.88
244.932	67.88
245.166	69.88
245.399	74.88
245.633	81.88
245.866	75.88
246.099	85.88
246.333	81.88
246.566	82.88
246.8	75.88
247.033	76.88
247.266	76.88
247.5	78.88
247.733	88.88
247.966	77.88
248.2	86.88
248.433	95.88
248.666	64.88
248.899	71.88
249.133	69.88
249.366	77.88
249.599	87.88
249.832	87.88
250.066	69.88
250.299	71.88
250.532	87.88
250.765	62.88
250.998	70.88
251.231	74.88
251.465	78.88
251.698	84.88
251.931	89.88
252.164	93.88
252.397	81.88
252.63	82.88
252.863	90.88
253.096	76.88
253.329	88.88
253.562	70.88
253.795	85.88
254.028	75.88
254.261	79.88
254.494	78.88
254.727	83.88
254.96	81.88
255.193	76.88
255.426	91.88
255.659	71.88
255.892	77.88
256.124	74.88
256.357	78.88
256.59	81.88
256.823	71.88
257.056	74.88
257.289	91.88
257.521	83.88
257.754	78.88
257.987	76.88
258.22	79.88
258.452	83.88
258.685	71.88
258.918	75.88
259.151	72.88
259.383	71.88
259.616	89.88
259.849	74.88
260.081	84.88
260.314	81.88
260.547	79.88
260.779	73.88
261.012	69.88
261.244	85.88
261.477	80.88
261.71	83.88
261.942	92.88
262.175	61.88
262.407	78.88
262.64	80.88
262.872	79.88
263.105	81.88
263.337	91.88
263.57	83.88
263.802	84.88
264.035	70.88
264.267	77.88
264.499	83.88
264.732	88.88
264.964	78.88
265.197	86.88
265.429	79.88
265.661	82.88
265.894	84.88
266.126	82.88
266.358	72.88
266.591	78.88
266.823	87.88
267.055	79.88
267.287	67.88
267.52	84.88
267.752	83.88
267.984	91.88
268.216	71.88
268.448	77.88
268.681	79.88
268.913	81.88
269.145	73.88
269.377	72.88
269.609	92.88
269.841	92.88
270.073	76.88
270.306	93.88
270.538	74.88
270.77	72.88
271.002	81.88
271.234	81.88
271.466	71.88
271.698	87.88
271.93	93.88
272.162	88.88
272.394	76.88
272.626	85.88
272.858	73.88
273.09	77.88
273.322	87.88
273.553	80.88
273.785	83.88
274.017	81.88
274.249	82.88
274.481	81.88
274.713	62.88
274.945	89.88
275.176	87.88
275.408	70.88
275.64	62.88
275.872	84.88
276.104	89.88
276.335	83.88
276.567	90.88
276.799	76.88
277.031	87.88
277.262	85.88
277.494	89.88
277.726	95.88
277.957	87.88
278.189	83.88
278.421	87.88
278.652	69.88
278.884	83.88
279.115	77.88
279.347	88.88
279.579	75.88
279.81	86.88
280.042	89.88
280.273	98.88
280.505	82.88
280.736	81.88
280.968	95.88
281.199	101.88
281.431	84.88
281.662	80.88
281.894	77.88
282.125	86.88
282.356	97.88
282.588	83.88
282.819	66.88
283.051	73.88
283.282	88.88
283.513	92.88
283.745	94.88
283.976	82.88
284.207	65.88
284.439	81.88
284.67	85.88
284.901	75.88
285.132	103.88
285.364	102.88
285.595	81.88
285.826	83.88
286.057	66.88
286.288	96.88
286.52	86.88
286.751	99.88
286.982	93.88
287.213	88.88
287.444	98.88
287.675	89.88
287.906	77.88
288.138	91.88
288.369	88.88
288.6	82.88
288.831	85.88
289.062	90.88
289.293	75.88
289.524	83.88
289.755	90.88
289.986	80.88
290.217	90.88
290.448	87.88
290.679	85.88
290.91	88.88
291.141	82.88
291.371	86.88
291.602	83.88
291.833	82.88
292.064	81.88
292.295	73.88
292.526	97.88
292.757	77.88
292.987	74.88
293.218	69.88
293.449	84.88
293.68	95.88
293.91	97.88
294.141	72.88
294.372	90.88
294.603	95.88
294.833	83.88
295.064	82.88
295.295	87.88
295.525	90.88
295.756	95.88
295.987	92.88
296.217	83.88
296.448	80.88
296.679	74.88
296.909	99.88
297.14	85.88
297.37	103.88
297.601	104.88
297.831	88.88
298.062	87.88
298.292	94.88
298.523	92.88
298.753	89.88
298.984	89.88
299.214	96.88
299.445	84.88
299.675	99.88
299.905	97.88
300.136	98.88
300.366	84.88
300.597	99.88
300.827	110.88
301.057	96.88
301.288	87.88
301.518	103.88
301.748	86.88
301.979	102.88
302.209	110.88
302.439	92.88
302.669	96.88
302.9	83.88
303.13	97.88
303.36	91.88
303.59	84.88
303.82	71.88
304.051	85.88
304.281	80.88
304.511	97.88
304.741	80.88
304.971	79.88
305.201	90.88
305.431	90.88
305.661	86.88
305.891	79.88
306.121	79.88
306.352	88.88
306.582	82.88
306.812	87.88
307.042	76.88
307.272	93.88
307.502	88.88
307.731	72.88
307.961	100.88
308.191	96.88
308.421	101.88
308.651	80.88
308.881	84.88
309.111	87.88
309.341	97.88
309.571	86.88
309.8	82.88
310.03	78.88
310.26	89.88
310.49	95.88
310.72	81.88
310.949	84.88
311.179	79.88
311.409	90.88
311.639	88.88
311.868	94.88
312.098	99.88
312.328	89.88
312.557	88.88
312.787	93.88
313.017	87.88
313.246	81.88
313.476	88.88
313.706	83.88
313.935	105.88
314.165	99.88
314.394	88.88
314.624	88.88
314.853	89.88
315.083	84.88
315.312	82.88
315.542	97.88
315.771	103.88
316.001	96.88
316.23	101.88
316.46	85.88
316.689	79.88
316.919	93.88
317.148	81.88
317.377	87.88
317.607	95.88
317.836	118.88
318.065	113.88
318.295	102.88
318.524	89.88
318.753	90.88
318.983	87.88
319.212	89.88
319.441	91.88
319.67	86.88
319.9	89.88
320.129	95.88
320.358	97.88
320.587	85.88
320.816	100.88
321.046	101.88
321.275	89.88
321.504	108.88
321.733	89.88
321.962	112.88
322.191	96.88
322.42	85.88
322.649	101.88
322.878	101.88
323.108	99.88
323.337	97.88
323.566	76.88
323.795	88.88
324.024	94.88
324.253	83.88
324.482	79.88
324.71	98.88
324.939	94.88
325.168	99.88
325.397	83.88
325.626	84.88
325.855	87.88
326.084	78.88
326.313	106.88
326.542	80.88
326.77	106.88
326.999	101.88
327.228	95.88
327.457	91.88
327.686	95.88
327.914	100.88
328.143	102.88
328.372	101.88
328.6	86.88
328.829	97.88
329.058	93.88
329.287	87.88
329.515	74.88
329.744	91.88
329.972	98.88
330.201	85.88
330.43	87.88
330.658	85.88
330.887	74.88
331.115	87.88
331.344	86.88
331.572	87.88
331.801	88.88
332.03	83.88
332.258	84.88
332.486	74.88
332.715	82.88
332.943	81.88
333.172	97.88
333.4	86.88
333.629	75.88
333.857	86.88
334.085	103.88
334.314	100.88
334.542	99.88
334.771	115.88
334.999	121.88
335.227	113.88
335.455	98.88
335.684	109.88
335.912	137.88
336.14	120.88
336.369	109.88
336.597	92.88
336.825	86.88
337.053	87.88
337.281	101.88
337.51	96.88
337.738	91.88
337.966	94.88
338.194	89.88
338.422	99.88
338.65	89.88
338.878	84.88
339.106	85.88
339.334	85.88
339.562	95.88
339.79	81.88
340.018	93.88
340.246	82.88
340.474	78.88
340.702	90.88
340.93	103.88
341.158	84.88
341.386	95.88
341.614	74.88
341.842	94.88
342.07	89.88
342.298	85.88
342.526	95.88
342.754	86.88
342.981	74.88
343.209	71.88
343.437	94.88
343.665	101.88
343.893	80.88
344.12	99.88
344.348	94.88
344.576	95.88
344.804	103.88
345.031	96.88
345.259	91.88
345.487	78.88
345.714	91.88
345.942	77.88
346.17	102.88
346.397	78.88
346.625	80.88
346.853	84.88
347.08	101.88
347.308	100.88
347.535	91.88
347.763	102.88
347.99	97.88
348.218	99.88
348.445	93.88
348.673	91.88
348.9	101.88
349.128	121.88
349.355	81.88
349.583	96.88
349.81	86.88
350.037	106.88
350.265	98.88
350.492	80.88
350.72	82.88
350.947	90.88
351.174	88.88
351.402	98.88
351.629	89.88
351.856	88.88
352.083	87.88
352.311	91.88
352.538	84.88
352.765	88.88
352.992	79.88
353.22	98.88
353.447	98.88
353.674	89.88
353.901	89.88
354.128	90.88
354.355	101.88
354.583	90.88
354.81	89.88
355.037	91.88
355.264	93.88
355.491	83.88
355.718	90.88
355.945	91.88
356.172	96.88
356.399	83.88
356.626	77.88
356.853	109.88
357.08	83.88
357.307	86.88
357.534	96.88
357.761	91.88
357.988	111.88
358.215	101.88
358.441	95.88
358.668	105.88
358.895	109.88
359.122	88.88
359.349	98.88
359.576	88.88
359.802	87.88
360.029	105.88
360.256	98.88
360.483	99.88
360.709	95.88
360.936	110.88
361.163	101.88
361.39	97.88
361.616	112.88
361.843	101.88
362.07	126.88
362.296	137.88
362.523	160.88
362.749	147.88
362.976	187.88
363.203	194.88
363.429	134.88
363.656	121.88
363.882	128.88
364.109	141.88
364.335	226.88
364.562	243.88
364.788	152.88
365.015	106.88
365.241	100.88
365.468	108.88
365.694	86.88
365.92	98.88
366.147	95.88
366.373	106.88
366.599	102.88
366.826	94.88
367.052	101.88
367.278	93.88
367.505	97.88
367.731	113.88
367.957	92.88
368.184	106.88
368.41	104.88
368.636	104.88
368.862	91.88
369.089	101.88
369.315	84.88
369.541	90.88
369.767	88.88
369.993	96.88
370.219	97.88
370.445	98.88
370.672	109.88
370.898	116.88
371.124	95.88
371.35	86.88
371.576	87.88
371.802	109.88
372.028	119.88
372.254	91.88
372.48	105.88
372.706	90.88
372.932	98.88
373.158	104.88
373.384	110.88
373.61	125.88
373.835	132.88
374.061	115.88
374.287	94.88
374.513	94.88
374.739	98.88
374.965	107.88
375.191	102.88
375.416	97.88
375.642	97.88
375.868	110.88
376.094	111.88
376.319	104.88
376.545	106.88
376.771	91.88
376.997	98.88
377.222	88.88
377.448	88.88
377.674	93.88
377.899	109.88
378.125	87.88
378.35	87.88
378.576	103.88
378.802	95.88
379.027	101.88
379.253	102.88
379.478	85.88
379.704	87.88
379.929	99.88
380.155	99.88
380.38	101.88
380.606	90.88
380.831	98.88
381.057	106.88
381.282	94.88
381.507	90.88
381.733	95.88
381.958	99.88
382.184	91.88
382.409	104.88
382.634	103.88
382.86	109.88
383.085	97.88
383.31	101.88
383.535	95.88
383.761	110.88
383.986	113.88
384.211	100.88
384.436	97.88
384.662	107.88
384.887	95.88
385.112	87.88
385.337	101.88
385.562	89.88
385.787	104.88
386.013	113.88
386.238	98.88
386.463	115.88
386.688	129.88
386.913	121.88
387.138	99.88
387.363	111.88
387.588	122.88
387.813	121.88
388.038	118.88
388.263	93.88
388.488	109.88
388.713	103.88
388.938	117.88
389.163	113.88
389.387	92.88
389.612	99.88
389.837	85.88
390.062	96.88
390.287	103.88
390.512	103.88
390.736	123.88
390.961	107.88
391.186	99.88
391.411	94.88
391.636	111.88
391.86	125.88
392.085	115.88
392.31	111.88
392.534	140.88
392.759	162.88
392.984	278.88
393.208	517.88
393.433	778.88
393.658	594.88
393.882	240.88
394.107	153.88
394.331	158.88
394.556	149.88
394.78	140.88
395.005	129.88
395.229	109.88
395.454	104.88
395.678	145.88
395.903	161.88
396.127	193.88
396.352	234.88
396.576	305.88
396.801	532.88
397.025	634.88
397.249	319.88
397.474	207.88
397.698	148.88
397.922	130.88
398.147	103.88
398.371	101.88
398.595	106.88
398.82	100.88
399.044	99.88
399.268	98.88
399.492	98.88
399.717	102.88
399.941	104.88
400.165	100.88
400.389	97.88
400.613	111.88
400.837	95.88
401.062	99.88
401.286	116.88
401.51	93.88
401.734	101.88
401.958	99.88
402.182	97.88
402.406	95.88
402.63	104.88
402.854	93.88
403.078	104.88
403.302	109.88
403.526	106.88
403.75	97.88
403.974	85.88
404.198	102.88
404.422	103.88
404.645	109.88
404.869	94.88
405.093	107.88
405.317	99.88
405.541	94.88
405.765	95.88
405.988	87.88
406.212	104.88
406.436	112.88
406.66	85.88
406.883	101.88
407.107	86.88
407.331	103.88
407.555	100.88
407.778	141.88
408.002	130.88
408.226	110.88
408.449	97.88
408.673	107.88
408.896	105.88
409.12	101.88
409.344	132.88
409.567	150.88
409.791	159.88
410.014	138.88
410.238	120.88
410.461	109.88
410.685	128.88
410.908	103.88
411.132	109.88
411.355	97.88
411.578	95.88
411.802	98.88
412.025	97.88
412.249	93.88
412.472	101.88
412.695	92.88
412.919	95.88
413.142	105.88
413.365	113.88
413.589	98.88
413.812	106.88
414.035	102.88
414.258	88.88
414.482	101.88
414.705	87.88
414.928	90.88
415.151	106.88
415.374	86.88
415.597	88.88
415.821	87.88
416.044	90.88
416.267	90.88
416.49	91.88
416.713	95.88
416.936	80.88
417.159	81.88
417.382	101.88
417.605	93.88
417.828	86.88
418.051	75.88
418.274	78.88
418.497	91.88
418.72	96.88
418.943	95.88
419.166	94.88
419.389	105.88
419.611	109.88
419.834	107.88
420.057	105.88
420.28	107.88
420.503	115.88
420.726	102.88
420.948	115.88
421.171	129.88
421.394	169.88
421.617	190.88
421.839	232.88
422.062	249.88
422.285	377.88
422.507	686.88
422.73	1040.88
422.953	960.88
423.175	515.88
423.398	295.88
423.621	204.88
423.843	170.88
424.066	149.88
424.288	135.88
424.511	127.88
424.733	110.88
424.956	96.88
425.178	116.88
425.401	117.88
425.623	120.88
425.846	113.88
426.068	108.88
426.291	123.88
426.513	104.88
426.735	98.88
426.958	111.88
427.18	95.88
427.402	108.88
427.625	100.88
427.847	109.88
428.069	138.88
428.292	203.88
428.514	262.88
428.736	163.88
428.958	216.88
429.181	246.88
429.403	144.88
429.625	132.88
429.847	195.88
430.069	294.88
430.292	349.88
430.514	337.88
430.736	239.88
430.958	267.88
431.18	137.88
431.402	115.88
431.624	135.88
431.846	195.88
432.068	245.88
432.29	132.88
432.512	101.88
432.734	90.88
432.956	95.88
433.178	93.88
433.4	99.88
433.622	110.88
433.844	94.88
434.066	102.88
434.287	77.88
434.509	77.88
434.731	82.88
434.953	97.88
435.175	101.88
435.397	115.88
435.618	129.88
435.84	132.88
436.062	123.88
436.284	101.88
436.505	101.88
436.727	104.88
436.949	89.88
437.17	101.88
437.392	100.88
437.614	101.88
437.835	103.88
438.057	94.88
438.278	83.88
438.5	103.88
438.721	98.88
438.943	110.88
439.165	94.88
439.386	95.88
439.608	102.88
439.829	105.88
440.05	111.88
440.272	104.88
440.493	109.88
440.715	93.88
440.936	113.88
441.158	99.88
441.379	94.88
441.6	101.88
441.822	109.88
442.043	115.88
442.264	126.88
442.486	231.88
442.707	355.88
442.928	219.88
443.149	167.88
443.371	283.88
443.592	565.88
443.813	469.88
444.034	192.88
444.255	109.88
444.476	126.88
444.698	121.88
444.919	143.88
445.14	259.88
445.361	377.88
445.582	703.88
445.803	581.88
446.024	213.88
446.245	125.88
446.466	96.88
446.687	99.88
446.908	105.88
447.129	88.88
447.35	92.88
447.571	93.88
447.792	94.88
448.013	98.88
448.234	106.88
448.455	80.88
448.675	82.88
448.896	90.88
449.117	89.88
449.338	95.88
449.559	90.88
449.779	99.88
450	90.88
450.221	98.88
450.442	109.88
450.662	98.88
450.883	85.88
451.104	98.88
451.324	95.88
451.545	103.88
451.766	94.88
451.986	113.88
452.207	109.88
452.428	95.88
452.648	110.88
452.869	158.88
453.089	128.88
453.31	113.88
453.53	111.88
453.751	98.88
453.971	88.88
454.192	94.88
454.412	90.88
454.633	93.88
454.853	94.88
455.073	92.88
455.294	70.88
455.514	104.88
455.734	96.88
455.955	109.88
456.175	91.88
456.395	87.88
456.616	113.88
456.836	93.88
457.056	103.88
457.276	75.88
457.497	110.88
457.717	119.88
457.937	166.88
458.157	237.88
458.377	239.88
458.598	214.88
458.818	239.88
459.038	151.88
459.258	111.88
459.478	88.88
459.698	95.88
459.918	102.88
460.138	90.88
460.358	110.88
460.578	121.88
460.798	177.88
461.018	169.88
461.238	116.88
461.458	95.88
461.678	92.88
461.898	102.88
462.118	100.88
462.338	99.88
462.558	91.88
462.777	94.88
462.997	87.88
463.217	87.88
463.437	102.88
463.657	102.88
463.876	88.88
464.096	89.88
464.316	85.88
464.536	81.88
464.755	91.88
464.975	87.88
465.195	96.88
465.414	93.88
465.634	94.88
465.854	89.88
466.073	90.88
466.293	86.88
466.512	89.88
466.732	85.88
466.951	91.88
467.171	77.88
467.391	102.88
467.61	106.88
467.829	95.88
468.049	103.88
468.268	87.88
468.488	105.88
468.707	102.88
468.927	97.88
469.146	107.88
469.365	102.88
469.585	95.88
469.804	110.88
470.023	109.88
470.243	93.88
470.462	94.88
470.681	104.88
470.901	95.88
471.12	97.88
471.339	84.88
471.558	84.88
471.777	88.88
471.997	93.88
472.216	86.88
472.435	91.88
472.654	101.88
472.873	94.88
473.092	114.88
473.311	106.88
473.53	92.88
473.749	87.88
473.968	98.88
474.187	103.88
474.406	104.88
474.625	99.88
474.844	97.88
475.063	96.88
475.282	106.88
475.501	96.88
475.72	109.88
475.939	91.88
476.158	100.88
476.377	97.88
476.596	98.88
476.814	95.88
477.033	100.88
477.252	106.88
477.471	96.88
477.69	99.88
477.908	97.88
478.127	101.88
478.346	118.88
478.564	88.88
478.783	95.88
479.002	102.88
479.22	101.88
479.439	93.88
479.658	96.88
479.876	107.88
480.095	97.88
480.313	93.88
480.532	86.88
480.751	90.88
480.969	96.88
481.188	107.88
481.406	100.88
481.624	105.88
481.843	97.88
482.061	88.88
482.28	103.88
482.498	105.88
482.717	91.88
482.935	99.88
483.153	101.88
483.372	120.88
483.59	97.88
483.808	85.88
484.027	102.88
484.245	101.88
484.463	96.88
484.681	110.88
484.9	125.88
485.118	113.88
485.336	98.88
485.554	93.88
485.772	107.88
485.99	95.88
486.209	106.88
486.427	97.88
486.645	89.88
486.863	95.88
487.081	104.88
487.299	115.88
487.517	141.88
487.735	191.88
487.953	391.88
488.171	293.88
488.389	128.88
488.607	101.88
488.825	95.88
489.043	101.88
489.261	92.88
489.479	117.88
489.696	124.88
489.914	101.88
490.132	102.88
490.35	106.88
490.568	95.88
490.786	100.88
491.003	100.88
491.221	110.88
491.439	101.88
491.657	105.88
491.874	106.88
492.092	104.88
492.31	96.88
492.527	89.88
492.745	82.88
492.963	95.88
493.18	94.88
493.398	94.88
493.615	105.88
493.833	111.88
494.05	93.88
494.268	101.88
494.485	89.88
494.703	107.88
494.92	90.88
495.138	105.88
495.355	111.88
495.573	112.88
495.79	99.88
496.008	103.88
496.225	120.88
496.442	112.88
496.66	103.88
496.877	103.88
497.094	98.88
497.312	101.88
497.529	101.88
497.746	104.88
497.963	100.88
498.181	97.88
498.398	105.88
498.615	109.88
498.832	100.88
499.049	102.88
499.267	118.88
499.484	120.88
499.701	94.88
499.918	110.88
500.135	110.88
500.352	107.88
500.569	95.88
500.786	91.88
501.003	97.88
501.22	100.88
501.437	107.88
501.654	109.88
501.871	99.88
502.088	104.88
502.305	84.88
502.522	113.88
502.739	106.88
502.956	97.88
503.172	103.88
503.389	99.88
503.606	102.88
503.823	115.88
504.04	136.88
504.256	291.88
504.473	286.88
504.69	143.88
504.907	106.88
505.123	111.88
505.34	102.88
505.557	109.88
505.773	96.88
505.99	91.88
506.207	102.88
506.423	106.88
506.64	104.88
506.856	96.88
507.073	94.88
507.289	98.88
507.506	97.88
507.722	98.88
507.939	102.88
508.155	99.88
508.372	107.88
508.588	103.88
508.805	94.88
509.021	88.88
509.238	105.88
509.454	113.88
509.67	104.88
509.887	112.88
510.103	87.88
510.319	93.88
510.536	103.88
510.752	110.88
510.968	111.88
511.184	99.88
511.401	84.88
511.617	90.88
511.833	97.88
512.049	101.88
512.265	102.88
512.481	90.88
512.698	106.88
512.914	100.88
513.13	98.88
513.346	99.88
513.562	103.88
513.778	96.88
