Data from CBS_3_HRD10591_00014.txt Node
Date: Mon Jan 19 14:05:45 EST 2026
User: Yrep
Spectrometer: HR+D1059
Trigger mode: 1
Integration Time (sec): 1.000000E-1
Scans to average: 1
Electric dark correction enabled: true
Nonlinearity correction enabled: false
Boxcar width: 0
XAxis mode: Wavelengths
Number of Pixels in Spectrum: 2048
>>>>>Begin Spectral Data<<<<<
223.165	-12.44
223.4	-12.44
223.635	-12.44
223.869	-18.44
224.104	-27.44
224.338	-0.44
224.573	-13.44
224.808	-15.44
225.042	-13.44
225.277	-7.44
225.511	1.56
225.746	-2.44
225.98	2.56
226.215	18.56
226.449	14.56
226.683	31.56
226.918	23.56
227.152	18.56
227.387	31.56
227.621	30.56
227.856	40.56
228.09	47.56
228.324	56.56
228.559	53.56
228.793	59.56
229.027	48.56
229.262	55.56
229.496	59.56
229.73	70.56
229.964	74.56
230.199	77.56
230.433	82.56
230.667	76.56
230.901	75.56
231.136	84.56
231.37	79.56
231.604	72.56
231.838	96.56
232.072	89.56
232.306	88.56
232.541	78.56
232.775	87.56
233.009	92.56
233.243	76.56
233.477	86.56
233.711	72.56
233.945	73.56
234.179	81.56
234.413	81.56
234.647	85.56
234.881	77.56
235.115	86.56
235.349	81.56
235.583	81.56
235.817	79.56
236.051	80.56
236.285	75.56
236.519	87.56
236.753	75.56
236.987	67.56
237.221	80.56
237.455	72.56
237.689	65.56
237.922	69.56
238.156	64.56
238.39	76.56
238.624	77.56
238.858	83.56
239.091	73.56
239.325	82.56
239.559	72.56
239.793	83.56
240.027	77.56
240.26	74.56
240.494	78.56
240.728	82.56
240.961	81.56
241.195	84.56
241.429	76.56
241.662	67.56
241.896	69.56
242.13	81.56
242.363	71.56
242.597	77.56
242.83	55.56
243.064	84.56
243.298	84.56
243.531	78.56
243.765	82.56
243.998	72.56
244.232	96.56
244.465	68.56
244.699	70.56
244.932	81.56
245.166	89.56
245.399	77.56
245.633	72.56
245.866	80.56
246.099	70.56
246.333	84.56
246.566	75.56
246.8	52.56
247.033	84.56
247.266	73.56
247.5	66.56
247.733	73.56
247.966	75.56
248.2	80.56
248.433	65.56
248.666	73.56
248.899	84.56
249.133	68.56
249.366	77.56
249.599	79.56
249.832	84.56
250.066	85.56
250.299	81.56
250.532	75.56
250.765	78.56
250.998	78.56
251.231	76.56
251.465	81.56
251.698	72.56
251.931	70.56
252.164	74.56
252.397	74.56
252.63	81.56
252.863	79.56
253.096	88.56
253.329	77.56
253.562	72.56
253.795	80.56
254.028	78.56
254.261	87.56
254.494	79.56
254.727	90.56
254.96	88.56
255.193	73.56
255.426	70.56
255.659	74.56
255.892	85.56
256.124	82.56
256.357	81.56
256.59	83.56
256.823	84.56
257.056	75.56
257.289	74.56
257.521	88.56
257.754	74.56
257.987	80.56
258.22	80.56
258.452	101.56
258.685	88.56
258.918	89.56
259.151	78.56
259.383	73.56
259.616	91.56
259.849	81.56
260.081	88.56
260.314	78.56
260.547	73.56
260.779	84.56
261.012	61.56
261.244	70.56
261.477	79.56
261.71	74.56
261.942	88.56
262.175	73.56
262.407	69.56
262.64	74.56
262.872	71.56
263.105	78.56
263.337	82.56
263.57	73.56
263.802	75.56
264.035	80.56
264.267	66.56
264.499	74.56
264.732	85.56
264.964	82.56
265.197	82.56
265.429	72.56
265.661	69.56
265.894	83.56
266.126	89.56
266.358	79.56
266.591	82.56
266.823	71.56
267.055	95.56
267.287	83.56
267.52	68.56
267.752	70.56
267.984	84.56
268.216	87.56
268.448	79.56
268.681	91.56
268.913	89.56
269.145	86.56
269.377	89.56
269.609	77.56
269.841	80.56
270.073	73.56
270.306	81.56
270.538	86.56
270.77	77.56
271.002	74.56
271.234	82.56
271.466	81.56
271.698	76.56
271.93	84.56
272.162	77.56
272.394	63.56
272.626	70.56
272.858	80.56
273.09	82.56
273.322	76.56
273.553	80.56
273.785	86.56
274.017	77.56
274.249	82.56
274.481	83.56
274.713	84.56
274.945	70.56
275.176	84.56
275.408	86.56
275.64	75.56
275.872	84.56
276.104	84.56
276.335	76.56
276.567	76.56
276.799	82.56
277.031	89.56
277.262	80.56
277.494	69.56
277.726	94.56
277.957	69.56
278.189	84.56
278.421	82.56
278.652	80.56
278.884	80.56
279.115	91.56
279.347	86.56
279.579	89.56
279.81	86.56
280.042	74.56
280.273	72.56
280.505	80.56
280.736	85.56
280.968	76.56
281.199	76.56
281.431	82.56
281.662	84.56
281.894	84.56
282.125	81.56
282.356	97.56
282.588	86.56
282.819	80.56
283.051	86.56
283.282	86.56
283.513	92.56
283.745	88.56
283.976	95.56
284.207	82.56
284.439	77.56
284.67	82.56
284.901	85.56
285.132	97.56
285.364	100.56
285.595	98.56
285.826	92.56
286.057	80.56
286.288	84.56
286.52	80.56
286.751	80.56
286.982	83.56
287.213	62.56
287.444	87.56
287.675	87.56
287.906	91.56
288.138	93.56
288.369	78.56
288.6	92.56
288.831	68.56
289.062	92.56
289.293	80.56
289.524	88.56
289.755	86.56
289.986	86.56
290.217	91.56
290.448	82.56
290.679	84.56
290.91	89.56
291.141	90.56
291.371	90.56
291.602	97.56
291.833	84.56
292.064	74.56
292.295	64.56
292.526	84.56
292.757	79.56
292.987	85.56
293.218	75.56
293.449	86.56
293.68	92.56
293.91	80.56
294.141	83.56
294.372	79.56
294.603	89.56
294.833	85.56
295.064	95.56
295.295	82.56
295.525	94.56
295.756	79.56
295.987	88.56
296.217	85.56
296.448	78.56
296.679	85.56
296.909	68.56
297.14	72.56
297.37	72.56
297.601	89.56
297.831	79.56
298.062	85.56
298.292	85.56
298.523	80.56
298.753	80.56
298.984	80.56
299.214	79.56
299.445	79.56
299.675	83.56
299.905	92.56
300.136	92.56
300.366	94.56
300.597	91.56
300.827	84.56
301.057	83.56
301.288	72.56
301.518	82.56
301.748	66.56
301.979	85.56
302.209	88.56
302.439	86.56
302.669	86.56
302.9	89.56
303.13	71.56
303.36	84.56
303.59	80.56
303.82	84.56
304.051	90.56
304.281	93.56
304.511	89.56
304.741	72.56
304.971	78.56
305.201	95.56
305.431	88.56
305.661	87.56
305.891	96.56
306.121	76.56
306.352	79.56
306.582	82.56
306.812	94.56
307.042	89.56
307.272	84.56
307.502	82.56
307.731	88.56
307.961	80.56
308.191	90.56
308.421	89.56
308.651	84.56
308.881	94.56
309.111	93.56
309.341	86.56
309.571	78.56
309.8	93.56
310.03	76.56
310.26	78.56
310.49	92.56
310.72	89.56
310.949	95.56
311.179	94.56
311.409	74.56
311.639	70.56
311.868	74.56
312.098	74.56
312.328	79.56
312.557	96.56
312.787	81.56
313.017	84.56
313.246	96.56
313.476	89.56
313.706	81.56
313.935	77.56
314.165	97.56
314.394	98.56
314.624	81.56
314.853	86.56
315.083	93.56
315.312	80.56
315.542	88.56
315.771	85.56
316.001	110.56
316.23	101.56
316.46	100.56
316.689	95.56
316.919	97.56
317.148	81.56
317.377	112.56
317.607	99.56
317.836	106.56
318.065	118.56
318.295	108.56
318.524	98.56
318.753	89.56
318.983	94.56
319.212	101.56
319.441	64.56
319.67	76.56
319.9	74.56
320.129	86.56
320.358	86.56
320.587	111.56
320.816	101.56
321.046	88.56
321.275	86.56
321.504	95.56
321.733	86.56
321.962	83.56
322.191	82.56
322.42	98.56
322.649	84.56
322.878	85.56
323.108	94.56
323.337	82.56
323.566	79.56
323.795	90.56
324.024	77.56
324.253	89.56
324.482	100.56
324.71	96.56
324.939	72.56
325.168	89.56
325.397	90.56
325.626	85.56
325.855	89.56
326.084	80.56
326.313	92.56
326.542	73.56
326.77	83.56
326.999	96.56
327.228	93.56
327.457	88.56
327.686	97.56
327.914	79.56
328.143	85.56
328.372	84.56
328.6	96.56
328.829	88.56
329.058	82.56
329.287	89.56
329.515	74.56
329.744	97.56
329.972	92.56
330.201	90.56
330.43	104.56
330.658	68.56
330.887	92.56
331.115	77.56
331.344	80.56
331.572	90.56
331.801	90.56
332.03	81.56
332.258	86.56
332.486	63.56
332.715	80.56
332.943	74.56
333.172	88.56
333.4	103.56
333.629	90.56
333.857	82.56
334.085	93.56
334.314	94.56
334.542	97.56
334.771	106.56
334.999	96.56
335.227	102.56
335.455	101.56
335.684	97.56
335.912	101.56
336.14	97.56
336.369	94.56
336.597	83.56
336.825	86.56
337.053	93.56
337.281	75.56
337.51	103.56
337.738	90.56
337.966	84.56
338.194	80.56
338.422	96.56
338.65	82.56
338.878	87.56
339.106	82.56
339.334	102.56
339.562	78.56
339.79	81.56
340.018	97.56
340.246	91.56
340.474	82.56
340.702	86.56
340.93	89.56
341.158	80.56
341.386	76.56
341.614	81.56
341.842	90.56
342.07	79.56
342.298	84.56
342.526	83.56
342.754	90.56
342.981	80.56
343.209	80.56
343.437	79.56
343.665	85.56
343.893	84.56
344.12	84.56
344.348	95.56
344.576	82.56
344.804	77.56
345.031	68.56
345.259	90.56
345.487	92.56
345.714	73.56
345.942	81.56
346.17	86.56
346.397	90.56
346.625	80.56
346.853	88.56
347.08	93.56
347.308	97.56
347.535	102.56
347.763	92.56
347.99	93.56
348.218	97.56
348.445	87.56
348.673	85.56
348.9	85.56
349.128	93.56
349.355	85.56
349.583	79.56
349.81	89.56
350.037	88.56
350.265	96.56
350.492	87.56
350.72	88.56
350.947	88.56
351.174	76.56
351.402	76.56
351.629	85.56
351.856	86.56
352.083	97.56
352.311	98.56
352.538	89.56
352.765	84.56
352.992	90.56
353.22	79.56
353.447	85.56
353.674	81.56
353.901	99.56
354.128	91.56
354.355	88.56
354.583	95.56
354.81	87.56
355.037	98.56
355.264	90.56
355.491	85.56
355.718	85.56
355.945	84.56
356.172	95.56
356.399	89.56
356.626	72.56
356.853	96.56
357.08	90.56
357.307	73.56
357.534	84.56
357.761	97.56
357.988	85.56
358.215	99.56
358.441	83.56
358.668	83.56
358.895	90.56
359.122	94.56
359.349	70.56
359.576	97.56
359.802	88.56
360.029	79.56
360.256	92.56
360.483	92.56
360.709	91.56
360.936	98.56
361.163	95.56
361.39	95.56
361.616	93.56
361.843	84.56
362.07	83.56
362.296	103.56
362.523	102.56
362.749	108.56
362.976	132.56
363.203	128.56
363.429	108.56
363.656	96.56
363.882	85.56
364.109	120.56
364.335	143.56
364.562	169.56
364.788	133.56
365.015	91.56
365.241	90.56
365.468	82.56
365.694	72.56
365.92	87.56
366.147	80.56
366.373	88.56
366.599	82.56
366.826	99.56
367.052	86.56
367.278	85.56
367.505	98.56
367.731	101.56
367.957	78.56
368.184	95.56
368.41	79.56
368.636	90.56
368.862	86.56
369.089	90.56
369.315	92.56
369.541	86.56
369.767	82.56
369.993	101.56
370.219	95.56
370.445	95.56
370.672	90.56
370.898	106.56
371.124	94.56
371.35	85.56
371.576	72.56
371.802	84.56
372.028	97.56
372.254	102.56
372.48	81.56
372.706	77.56
372.932	84.56
373.158	74.56
373.384	116.56
373.61	112.56
373.835	120.56
374.061	105.56
374.287	92.56
374.513	89.56
374.739	98.56
374.965	101.56
375.191	82.56
375.416	104.56
375.642	84.56
375.868	79.56
376.094	83.56
376.319	89.56
376.545	86.56
376.771	86.56
376.997	79.56
377.222	91.56
377.448	75.56
377.674	80.56
377.899	92.56
378.125	83.56
378.35	79.56
378.576	100.56
378.802	78.56
379.027	85.56
379.253	92.56
379.478	80.56
379.704	89.56
379.929	94.56
380.155	72.56
380.38	94.56
380.606	106.56
380.831	87.56
381.057	94.56
381.282	87.56
381.507	87.56
381.733	90.56
381.958	101.56
382.184	80.56
382.409	100.56
382.634	88.56
382.86	94.56
383.085	121.56
383.31	97.56
383.535	108.56
383.761	85.56
383.986	103.56
384.211	96.56
384.436	88.56
384.662	102.56
384.887	85.56
385.112	86.56
385.337	99.56
385.562	97.56
385.787	98.56
386.013	101.56
386.238	107.56
386.463	113.56
386.688	102.56
386.913	93.56
387.138	88.56
387.363	105.56
387.588	100.56
387.813	96.56
388.038	91.56
388.263	104.56
388.488	93.56
388.713	106.56
388.938	88.56
389.163	95.56
389.387	86.56
389.612	87.56
389.837	90.56
390.062	90.56
390.287	99.56
390.512	94.56
390.736	98.56
390.961	95.56
391.186	94.56
391.411	88.56
391.636	102.56
391.86	105.56
392.085	113.56
392.31	106.56
392.534	124.56
392.759	130.56
392.984	223.56
393.208	460.56
393.433	710.56
393.658	539.56
393.882	184.56
394.107	132.56
394.331	141.56
394.556	134.56
394.78	109.56
395.005	107.56
395.229	96.56
395.454	119.56
395.678	102.56
395.903	131.56
396.127	165.56
396.352	199.56
396.576	247.56
396.801	458.56
397.025	559.56
397.249	256.56
397.474	162.56
397.698	117.56
397.922	104.56
398.147	87.56
398.371	82.56
398.595	81.56
398.82	99.56
399.044	98.56
399.268	80.56
399.492	94.56
399.717	86.56
399.941	82.56
400.165	94.56
400.389	95.56
400.613	96.56
400.837	98.56
401.062	66.56
401.286	73.56
401.51	77.56
401.734	72.56
401.958	95.56
402.182	78.56
402.406	87.56
402.63	92.56
402.854	79.56
403.078	93.56
403.302	102.56
403.526	89.56
403.75	92.56
403.974	93.56
404.198	87.56
404.422	93.56
404.645	78.56
404.869	90.56
405.093	90.56
405.317	79.56
405.541	86.56
405.765	92.56
405.988	87.56
406.212	98.56
406.436	81.56
406.66	80.56
406.883	79.56
407.107	109.56
407.331	92.56
407.555	101.56
407.778	125.56
408.002	150.56
408.226	113.56
408.449	85.56
408.673	75.56
408.896	98.56
409.12	84.56
409.344	105.56
409.567	118.56
409.791	118.56
410.014	109.56
410.238	96.56
410.461	94.56
410.685	101.56
410.908	96.56
411.132	99.56
411.355	81.56
411.578	82.56
411.802	89.56
412.025	86.56
412.249	88.56
412.472	92.56
412.695	74.56
412.919	86.56
413.142	86.56
413.365	96.56
413.589	80.56
413.812	86.56
414.035	84.56
414.258	82.56
414.482	89.56
414.705	75.56
414.928	89.56
415.151	101.56
415.374	88.56
415.597	75.56
415.821	83.56
416.044	89.56
416.267	96.56
416.49	72.56
416.713	71.56
416.936	84.56
417.159	87.56
417.382	81.56
417.605	86.56
417.828	84.56
418.051	88.56
418.274	92.56
418.497	78.56
418.72	86.56
418.943	76.56
419.166	90.56
419.389	82.56
419.611	89.56
419.834	97.56
420.057	90.56
420.28	90.56
420.503	89.56
420.726	100.56
420.948	93.56
421.171	93.56
421.394	117.56
421.617	147.56
421.839	157.56
422.062	173.56
422.285	240.56
422.507	445.56
422.73	718.56
422.953	621.56
423.175	288.56
423.398	159.56
423.621	138.56
423.843	114.56
424.066	95.56
424.288	111.56
424.511	103.56
424.733	98.56
424.956	83.56
425.178	79.56
425.401	94.56
425.623	87.56
425.846	100.56
426.068	98.56
426.291	96.56
426.513	102.56
426.735	98.56
426.958	83.56
427.18	82.56
427.402	88.56
427.625	95.56
427.847	101.56
428.069	125.56
428.292	158.56
428.514	194.56
428.736	139.56
428.958	156.56
429.181	172.56
429.403	102.56
429.625	109.56
429.847	164.56
430.069	233.56
430.292	260.56
430.514	226.56
430.736	174.56
430.958	200.56
431.18	109.56
431.402	112.56
431.624	118.56
431.846	152.56
432.068	185.56
432.29	120.56
432.512	94.56
432.734	86.56
432.956	86.56
433.178	86.56
433.4	93.56
433.622	104.56
433.844	78.56
434.066	93.56
434.287	81.56
434.509	90.56
434.731	93.56
434.953	90.56
435.175	81.56
435.397	88.56
435.618	100.56
435.84	92.56
436.062	88.56
436.284	84.56
436.505	84.56
436.727	79.56
436.949	93.56
437.17	93.56
437.392	73.56
437.614	87.56
437.835	81.56
438.057	98.56
438.278	90.56
438.5	78.56
438.721	80.56
438.943	82.56
439.165	103.56
439.386	88.56
439.608	99.56
439.829	85.56
440.05	78.56
440.272	95.56
440.493	87.56
440.715	96.56
440.936	84.56
441.158	84.56
441.379	83.56
441.6	101.56
441.822	94.56
442.043	85.56
442.264	106.56
442.486	162.56
442.707	233.56
442.928	131.56
443.149	124.56
443.371	177.56
443.592	369.56
443.813	331.56
444.034	136.56
444.255	115.56
444.476	92.56
444.698	82.56
444.919	94.56
445.14	215.56
445.361	268.56
445.582	452.56
445.803	382.56
446.024	147.56
446.245	114.56
446.466	94.56
446.687	103.56
446.908	91.56
447.129	88.56
447.35	95.56
447.571	75.56
447.792	80.56
448.013	82.56
448.234	71.56
448.455	89.56
448.675	81.56
448.896	74.56
449.117	76.56
449.338	87.56
449.559	88.56
449.779	86.56
450	74.56
450.221	91.56
450.442	86.56
450.662	88.56
450.883	88.56
451.104	81.56
451.324	84.56
451.545	74.56
451.766	87.56
451.986	98.56
452.207	88.56
452.428	88.56
452.648	89.56
452.869	92.56
453.089	94.56
453.31	80.56
453.53	92.56
453.751	83.56
453.971	97.56
454.192	79.56
454.412	92.56
454.633	82.56
454.853	89.56
455.073	95.56
455.294	71.56
455.514	101.56
455.734	83.56
455.955	88.56
456.175	81.56
456.395	79.56
456.616	87.56
456.836	92.56
457.056	69.56
457.276	76.56
457.497	72.56
457.717	99.56
457.937	112.56
458.157	130.56
458.377	145.56
458.598	141.56
458.818	149.56
459.038	91.56
459.258	82.56
459.478	82.56
459.698	82.56
459.918	97.56
460.138	73.56
460.358	94.56
460.578	95.56
460.798	144.56
461.018	127.56
461.238	88.56
461.458	92.56
461.678	88.56
461.898	71.56
462.118	89.56
462.338	78.56
462.558	108.56
462.777	81.56
462.997	94.56
463.217	64.56
463.437	98.56
463.657	94.56
463.876	69.56
464.096	81.56
464.316	91.56
464.536	76.56
464.755	68.56
464.975	80.56
465.195	88.56
465.414	83.56
465.634	79.56
465.854	86.56
466.073	76.56
466.293	77.56
466.512	80.56
466.732	86.56
466.951	92.56
467.171	80.56
467.391	81.56
467.61	88.56
467.829	82.56
468.049	81.56
468.268	72.56
468.488	94.56
468.707	95.56
468.927	76.56
469.146	68.56
469.365	90.56
469.585	89.56
469.804	84.56
470.023	105.56
470.243	83.56
470.462	84.56
470.681	103.56
470.901	83.56
471.12	84.56
471.339	95.56
471.558	82.56
471.777	87.56
471.997	88.56
472.216	84.56
472.435	98.56
472.654	81.56
472.873	82.56
473.092	82.56
473.311	89.56
473.53	98.56
473.749	95.56
473.968	85.56
474.187	92.56
474.406	80.56
474.625	88.56
474.844	78.56
475.063	73.56
475.282	86.56
475.501	84.56
475.72	92.56
475.939	83.56
476.158	90.56
476.377	91.56
476.596	98.56
476.814	91.56
477.033	94.56
477.252	79.56
477.471	80.56
477.69	90.56
477.908	67.56
478.127	98.56
478.346	78.56
478.564	88.56
478.783	89.56
479.002	77.56
479.22	83.56
479.439	87.56
479.658	86.56
479.876	93.56
480.095	88.56
480.313	79.56
480.532	87.56
480.751	90.56
480.969	91.56
481.188	83.56
481.406	94.56
481.624	89.56
481.843	87.56
482.061	88.56
482.28	97.56
482.498	100.56
482.717	88.56
482.935	93.56
483.153	100.56
483.372	80.56
483.59	88.56
483.808	90.56
484.027	81.56
484.245	86.56
484.463	88.56
484.681	92.56
484.9	93.56
485.118	101.56
485.336	94.56
485.554	96.56
485.772	86.56
485.99	92.56
486.209	96.56
486.427	94.56
486.645	87.56
486.863	94.56
487.081	94.56
487.299	97.56
487.517	96.56
487.735	134.56
487.953	236.56
488.171	181.56
488.389	92.56
488.607	93.56
488.825	90.56
489.043	88.56
489.261	86.56
489.479	88.56
489.696	79.56
489.914	87.56
490.132	97.56
490.35	95.56
490.568	85.56
490.786	86.56
491.003	86.56
491.221	85.56
491.439	82.56
491.657	85.56
491.874	74.56
492.092	87.56
492.31	86.56
492.527	95.56
492.745	77.56
492.963	88.56
493.18	78.56
493.398	98.56
493.615	83.56
493.833	89.56
494.05	94.56
494.268	84.56
494.485	94.56
494.703	98.56
494.92	97.56
495.138	89.56
495.355	102.56
495.573	87.56
495.79	92.56
496.008	86.56
496.225	96.56
496.442	96.56
496.66	97.56
496.877	81.56
497.094	86.56
497.312	86.56
497.529	84.56
497.746	96.56
497.963	92.56
498.181	80.56
498.398	101.56
498.615	100.56
498.832	86.56
499.049	96.56
499.267	85.56
499.484	94.56
499.701	92.56
499.918	102.56
500.135	78.56
500.352	83.56
500.569	89.56
500.786	90.56
501.003	91.56
501.22	92.56
501.437	92.56
501.654	92.56
501.871	79.56
502.088	86.56
502.305	83.56
502.522	86.56
502.739	94.56
502.956	101.56
503.172	90.56
503.389	74.56
503.606	90.56
503.823	95.56
504.04	99.56
504.256	175.56
504.473	163.56
504.69	99.56
504.907	104.56
505.123	96.56
505.34	97.56
505.557	83.56
505.773	84.56
505.99	79.56
506.207	87.56
506.423	89.56
506.64	96.56
506.856	96.56
507.073	84.56
507.289	101.56
507.506	92.56
507.722	100.56
507.939	92.56
508.155	97.56
508.372	86.56
508.588	83.56
508.805	79.56
509.021	98.56
509.238	94.56
509.454	90.56
509.67	84.56
509.887	89.56
510.103	92.56
510.319	92.56
510.536	95.56
510.752	89.56
510.968	88.56
511.184	84.56
511.401	76.56
511.617	93.56
511.833	95.56
512.049	101.56
512.265	86.56
512.481	80.56
512.698	96.56
512.914	100.56
513.13	82.56
513.346	100.56
513.562	93.56
513.778	88.56
513.994	94.56
514.21	90.56
514.426	101.56
514.642	96.56
514.858	92.56
515.074	87.56
515.29	89.56
515.506	86.56
515.721	92.56
515.937	95.56
516.153	98.56
516.369	86.56
516.585	97.56
516.801	85.56
517.016	83.56
517.232	96.56
517.448	98.56
517.664	88.56
