Data from CBS_3_HRD10591_00035.txt Node
Date: Mon Jan 19 14:05:56 EST 2026
User: Yrep
Spectrometer: HR+D1059
Trigger mode: 1
Integration Time (sec): 1.000000E-1
Scans to average: 1
Electric dark correction enabled: true
Nonlinearity correction enabled: false
Boxcar width: 0
XAxis mode: Wavelengths
Number of Pixels in Spectrum: 2048
>>>>>Begin Spectral Data<<<<<
223.165	-7.25
223.4	-7.25
223.635	-7.25
223.869	-23.25
224.104	-31.25
224.338	-27.25
224.573	-24.25
224.808	-16.25
225.042	-11.25
225.277	-7.25
225.511	2.75
225.746	4.75
225.98	11.75
226.215	27.75
226.449	19.75
226.683	31.75
226.918	25.75
227.152	23.75
227.387	38.75
227.621	38.75
227.856	49.75
228.09	51.75
228.324	44.75
228.559	50.75
228.793	55.75
229.027	71.75
229.262	79.75
229.496	56.75
229.73	60.75
229.964	53.75
230.199	63.75
230.433	67.75
230.667	75.75
230.901	78.75
231.136	77.75
231.37	87.75
231.604	78.75
231.838	81.75
232.072	74.75
232.306	82.75
232.541	72.75
232.775	82.75
233.009	62.75
233.243	60.75
233.477	72.75
233.711	71.75
233.945	78.75
234.179	72.75
234.413	91.75
234.647	88.75
234.881	65.75
235.115	73.75
235.349	70.75
235.583	75.75
235.817	65.75
236.051	79.75
236.285	87.75
236.519	84.75
236.753	68.75
236.987	73.75
237.221	84.75
237.455	69.75
237.689	76.75
237.922	82.75
238.156	69.75
238.39	65.75
238.624	76.75
238.858	69.75
239.091	71.75
239.325	61.75
239.559	77.75
239.793	67.75
240.027	71.75
240.26	65.75
240.494	71.75
240.728	75.75
240.961	68.75
241.195	76.75
241.429	69.75
241.662	78.75
241.896	61.75
242.13	77.75
242.363	68.75
242.597	83.75
242.83	72.75
243.064	64.75
243.298	65.75
243.531	78.75
243.765	78.75
243.998	90.75
244.232	79.75
244.465	82.75
244.699	67.75
244.932	74.75
245.166	66.75
245.399	83.75
245.633	72.75
245.866	80.75
246.099	66.75
246.333	72.75
246.566	69.75
246.8	75.75
247.033	76.75
247.266	94.75
247.5	81.75
247.733	72.75
247.966	80.75
248.2	74.75
248.433	62.75
248.666	73.75
248.899	83.75
249.133	79.75
249.366	88.75
249.599	73.75
249.832	82.75
250.066	73.75
250.299	76.75
250.532	91.75
250.765	75.75
250.998	71.75
251.231	76.75
251.465	64.75
251.698	80.75
251.931	79.75
252.164	76.75
252.397	96.75
252.63	90.75
252.863	74.75
253.096	69.75
253.329	76.75
253.562	84.75
253.795	85.75
254.028	73.75
254.261	69.75
254.494	76.75
254.727	79.75
254.96	74.75
255.193	74.75
255.426	88.75
255.659	85.75
255.892	96.75
256.124	81.75
256.357	71.75
256.59	87.75
256.823	87.75
257.056	77.75
257.289	84.75
257.521	86.75
257.754	83.75
257.987	68.75
258.22	83.75
258.452	63.75
258.685	82.75
258.918	76.75
259.151	72.75
259.383	89.75
259.616	64.75
259.849	77.75
260.081	77.75
260.314	73.75
260.547	55.75
260.779	78.75
261.012	65.75
261.244	85.75
261.477	78.75
261.71	66.75
261.942	80.75
262.175	68.75
262.407	68.75
262.64	84.75
262.872	87.75
263.105	91.75
263.337	63.75
263.57	82.75
263.802	83.75
264.035	85.75
264.267	90.75
264.499	68.75
264.732	78.75
264.964	71.75
265.197	70.75
265.429	81.75
265.661	85.75
265.894	82.75
266.126	77.75
266.358	99.75
266.591	79.75
266.823	83.75
267.055	60.75
267.287	82.75
267.52	91.75
267.752	82.75
267.984	78.75
268.216	73.75
268.448	82.75
268.681	95.75
268.913	75.75
269.145	83.75
269.377	73.75
269.609	86.75
269.841	88.75
270.073	88.75
270.306	83.75
270.538	88.75
270.77	78.75
271.002	72.75
271.234	84.75
271.466	79.75
271.698	77.75
271.93	67.75
272.162	86.75
272.394	81.75
272.626	68.75
272.858	69.75
273.09	66.75
273.322	70.75
273.553	70.75
273.785	74.75
274.017	84.75
274.249	81.75
274.481	82.75
274.713	87.75
274.945	79.75
275.176	66.75
275.408	74.75
275.64	63.75
275.872	68.75
276.104	83.75
276.335	84.75
276.567	71.75
276.799	80.75
277.031	77.75
277.262	81.75
277.494	88.75
277.726	92.75
277.957	87.75
278.189	89.75
278.421	82.75
278.652	63.75
278.884	85.75
279.115	94.75
279.347	82.75
279.579	81.75
279.81	83.75
280.042	84.75
280.273	83.75
280.505	77.75
280.736	78.75
280.968	84.75
281.199	79.75
281.431	80.75
281.662	76.75
281.894	71.75
282.125	94.75
282.356	82.75
282.588	78.75
282.819	98.75
283.051	75.75
283.282	72.75
283.513	94.75
283.745	90.75
283.976	71.75
284.207	85.75
284.439	72.75
284.67	73.75
284.901	82.75
285.132	72.75
285.364	87.75
285.595	83.75
285.826	72.75
286.057	78.75
286.288	68.75
286.52	81.75
286.751	74.75
286.982	78.75
287.213	90.75
287.444	79.75
287.675	76.75
287.906	80.75
288.138	68.75
288.369	84.75
288.6	61.75
288.831	85.75
289.062	80.75
289.293	71.75
289.524	76.75
289.755	73.75
289.986	76.75
290.217	68.75
290.448	85.75
290.679	99.75
290.91	85.75
291.141	72.75
291.371	86.75
291.602	82.75
291.833	82.75
292.064	93.75
292.295	72.75
292.526	84.75
292.757	82.75
292.987	82.75
293.218	80.75
293.449	80.75
293.68	77.75
293.91	87.75
294.141	76.75
294.372	84.75
294.603	81.75
294.833	92.75
295.064	77.75
295.295	82.75
295.525	84.75
295.756	78.75
295.987	92.75
296.217	70.75
296.448	65.75
296.679	79.75
296.909	82.75
297.14	90.75
297.37	74.75
297.601	92.75
297.831	84.75
298.062	85.75
298.292	82.75
298.523	94.75
298.753	100.75
298.984	74.75
299.214	84.75
299.445	80.75
299.675	86.75
299.905	83.75
300.136	80.75
300.366	82.75
300.597	88.75
300.827	73.75
301.057	74.75
301.288	73.75
301.518	79.75
301.748	87.75
301.979	87.75
302.209	101.75
302.439	83.75
302.669	75.75
302.9	96.75
303.13	90.75
303.36	75.75
303.59	63.75
303.82	84.75
304.051	88.75
304.281	72.75
304.511	87.75
304.741	69.75
304.971	77.75
305.201	67.75
305.431	69.75
305.661	78.75
305.891	70.75
306.121	83.75
306.352	90.75
306.582	73.75
306.812	83.75
307.042	90.75
307.272	81.75
307.502	82.75
307.731	68.75
307.961	84.75
308.191	72.75
308.421	90.75
308.651	78.75
308.881	71.75
309.111	88.75
309.341	80.75
309.571	78.75
309.8	78.75
310.03	85.75
310.26	86.75
310.49	79.75
310.72	76.75
310.949	81.75
311.179	88.75
311.409	65.75
311.639	88.75
311.868	77.75
312.098	85.75
312.328	87.75
312.557	78.75
312.787	72.75
313.017	86.75
313.246	78.75
313.476	85.75
313.706	72.75
313.935	73.75
314.165	79.75
314.394	75.75
314.624	82.75
314.853	85.75
315.083	80.75
315.312	87.75
315.542	85.75
315.771	86.75
316.001	84.75
316.23	83.75
316.46	96.75
316.689	91.75
316.919	91.75
317.148	80.75
317.377	97.75
317.607	82.75
317.836	83.75
318.065	81.75
318.295	97.75
318.524	79.75
318.753	74.75
318.983	80.75
319.212	83.75
319.441	99.75
319.67	87.75
319.9	83.75
320.129	81.75
320.358	83.75
320.587	74.75
320.816	87.75
321.046	78.75
321.275	79.75
321.504	83.75
321.733	81.75
321.962	81.75
322.191	81.75
322.42	77.75
322.649	75.75
322.878	81.75
323.108	95.75
323.337	80.75
323.566	79.75
323.795	63.75
324.024	78.75
324.253	76.75
324.482	66.75
324.71	96.75
324.939	99.75
325.168	82.75
325.397	82.75
325.626	68.75
325.855	77.75
326.084	84.75
326.313	92.75
326.542	78.75
326.77	83.75
326.999	94.75
327.228	83.75
327.457	83.75
327.686	82.75
327.914	72.75
328.143	77.75
328.372	80.75
328.6	81.75
328.829	84.75
329.058	85.75
329.287	71.75
329.515	76.75
329.744	84.75
329.972	71.75
330.201	78.75
330.43	97.75
330.658	80.75
330.887	81.75
331.115	68.75
331.344	80.75
331.572	95.75
331.801	71.75
332.03	78.75
332.258	80.75
332.486	77.75
332.715	99.75
332.943	106.75
333.172	65.75
333.4	80.75
333.629	78.75
333.857	75.75
334.085	75.75
334.314	80.75
334.542	95.75
334.771	83.75
334.999	83.75
335.227	84.75
335.455	71.75
335.684	94.75
335.912	75.75
336.14	85.75
336.369	78.75
336.597	87.75
336.825	94.75
337.053	92.75
337.281	81.75
337.51	92.75
337.738	89.75
337.966	72.75
338.194	84.75
338.422	62.75
338.65	80.75
338.878	80.75
339.106	88.75
339.334	87.75
339.562	85.75
339.79	87.75
340.018	80.75
340.246	72.75
340.474	80.75
340.702	78.75
340.93	79.75
341.158	74.75
341.386	84.75
341.614	97.75
341.842	76.75
342.07	70.75
342.298	76.75
342.526	74.75
342.754	82.75
342.981	78.75
343.209	92.75
343.437	94.75
343.665	77.75
343.893	65.75
344.12	73.75
344.348	80.75
344.576	71.75
344.804	84.75
345.031	75.75
345.259	82.75
345.487	77.75
345.714	78.75
345.942	85.75
346.17	78.75
346.397	87.75
346.625	81.75
346.853	70.75
347.08	64.75
347.308	60.75
347.535	100.75
347.763	85.75
347.99	80.75
348.218	58.75
348.445	78.75
348.673	72.75
348.9	88.75
349.128	78.75
349.355	82.75
349.583	76.75
349.81	86.75
350.037	80.75
350.265	73.75
350.492	78.75
350.72	94.75
350.947	93.75
351.174	96.75
351.402	72.75
351.629	85.75
351.856	90.75
352.083	81.75
352.311	84.75
352.538	75.75
352.765	67.75
352.992	87.75
353.22	68.75
353.447	91.75
353.674	79.75
353.901	95.75
354.128	78.75
354.355	89.75
354.583	83.75
354.81	75.75
355.037	83.75
355.264	79.75
355.491	84.75
355.718	79.75
355.945	83.75
356.172	83.75
356.399	88.75
356.626	76.75
356.853	86.75
357.08	86.75
357.307	78.75
357.534	91.75
357.761	83.75
357.988	90.75
358.215	82.75
358.441	62.75
358.668	74.75
358.895	75.75
359.122	76.75
359.349	61.75
359.576	75.75
359.802	69.75
360.029	85.75
360.256	80.75
360.483	76.75
360.709	78.75
360.936	81.75
361.163	88.75
361.39	80.75
361.616	69.75
361.843	88.75
362.07	81.75
362.296	77.75
362.523	83.75
362.749	86.75
362.976	81.75
363.203	92.75
363.429	75.75
363.656	87.75
363.882	87.75
364.109	93.75
364.335	99.75
364.562	95.75
364.788	98.75
365.015	71.75
365.241	73.75
365.468	68.75
365.694	89.75
365.92	91.75
366.147	97.75
366.373	88.75
366.599	87.75
366.826	91.75
367.052	79.75
367.278	78.75
367.505	75.75
367.731	95.75
367.957	77.75
368.184	82.75
368.41	83.75
368.636	78.75
368.862	81.75
369.089	92.75
369.315	88.75
369.541	72.75
369.767	88.75
369.993	76.75
370.219	78.75
370.445	76.75
370.672	78.75
370.898	81.75
371.124	80.75
371.35	80.75
371.576	91.75
371.802	72.75
372.028	78.75
372.254	76.75
372.48	70.75
372.706	82.75
372.932	74.75
373.158	90.75
373.384	85.75
373.61	93.75
373.835	70.75
374.061	78.75
374.287	79.75
374.513	83.75
374.739	66.75
374.965	82.75
375.191	87.75
375.416	76.75
375.642	71.75
375.868	88.75
376.094	88.75
376.319	76.75
376.545	78.75
376.771	79.75
376.997	78.75
377.222	83.75
377.448	81.75
377.674	92.75
377.899	87.75
378.125	80.75
378.35	83.75
378.576	85.75
378.802	73.75
379.027	90.75
379.253	75.75
379.478	76.75
379.704	83.75
379.929	75.75
380.155	76.75
380.38	65.75
380.606	86.75
380.831	78.75
381.057	99.75
381.282	74.75
381.507	82.75
381.733	75.75
381.958	80.75
382.184	86.75
382.409	85.75
382.634	64.75
382.86	91.75
383.085	84.75
383.31	82.75
383.535	78.75
383.761	81.75
383.986	80.75
384.211	90.75
384.436	77.75
384.662	70.75
384.887	96.75
385.112	67.75
385.337	68.75
385.562	84.75
385.787	83.75
386.013	77.75
386.238	80.75
386.463	80.75
386.688	92.75
386.913	82.75
387.138	80.75
387.363	72.75
387.588	71.75
387.813	101.75
388.038	88.75
388.263	82.75
388.488	76.75
388.713	76.75
388.938	69.75
389.163	90.75
389.387	68.75
389.612	80.75
389.837	75.75
390.062	85.75
390.287	86.75
390.512	84.75
390.736	87.75
390.961	79.75
391.186	80.75
391.411	83.75
391.636	76.75
391.86	85.75
392.085	78.75
392.31	88.75
392.534	83.75
392.759	96.75
392.984	94.75
393.208	139.75
393.433	178.75
393.658	136.75
393.882	100.75
394.107	83.75
394.331	72.75
394.556	69.75
394.78	78.75
395.005	90.75
395.229	92.75
395.454	81.75
395.678	77.75
395.903	87.75
396.127	83.75
396.352	92.75
396.576	93.75
396.801	140.75
397.025	144.75
397.249	117.75
397.474	97.75
397.698	79.75
397.922	78.75
398.147	67.75
398.371	76.75
398.595	78.75
398.82	91.75
399.044	86.75
399.268	84.75
399.492	80.75
399.717	91.75
399.941	80.75
400.165	77.75
400.389	90.75
400.613	83.75
400.837	82.75
401.062	87.75
401.286	88.75
401.51	94.75
401.734	87.75
401.958	66.75
402.182	69.75
402.406	80.75
402.63	87.75
402.854	86.75
403.078	85.75
403.302	87.75
403.526	88.75
403.75	80.75
403.974	76.75
404.198	84.75
404.422	72.75
404.645	88.75
404.869	83.75
405.093	88.75
405.317	69.75
405.541	77.75
405.765	70.75
405.988	62.75
406.212	86.75
406.436	91.75
406.66	78.75
406.883	76.75
407.107	61.75
407.331	78.75
407.555	73.75
407.778	90.75
408.002	83.75
408.226	71.75
408.449	72.75
408.673	78.75
408.896	83.75
409.12	80.75
409.344	78.75
409.567	87.75
409.791	84.75
410.014	92.75
410.238	83.75
410.461	78.75
410.685	76.75
410.908	87.75
411.132	88.75
411.355	71.75
411.578	76.75
411.802	98.75
412.025	65.75
412.249	72.75
412.472	75.75
412.695	72.75
412.919	72.75
413.142	75.75
413.365	84.75
413.589	82.75
413.812	67.75
414.035	72.75
414.258	83.75
414.482	66.75
414.705	68.75
414.928	73.75
415.151	68.75
415.374	80.75
415.597	80.75
415.821	83.75
416.044	86.75
416.267	73.75
416.49	67.75
416.713	67.75
416.936	64.75
417.159	78.75
417.382	68.75
417.605	79.75
417.828	84.75
418.051	77.75
418.274	88.75
418.497	73.75
418.72	78.75
418.943	83.75
419.166	73.75
419.389	72.75
419.611	74.75
419.834	65.75
420.057	67.75
420.28	70.75
420.503	78.75
420.726	61.75
420.948	79.75
421.171	82.75
421.394	78.75
421.617	81.75
421.839	98.75
422.062	89.75
422.285	97.75
422.507	143.75
422.73	187.75
422.953	160.75
423.175	104.75
423.398	94.75
423.621	99.75
423.843	98.75
424.066	83.75
424.288	75.75
424.511	96.75
424.733	86.75
424.956	86.75
425.178	82.75
425.401	73.75
425.623	72.75
425.846	71.75
426.068	68.75
426.291	79.75
426.513	76.75
426.735	84.75
426.958	90.75
427.18	83.75
427.402	79.75
427.625	66.75
427.847	72.75
428.069	85.75
428.292	90.75
428.514	95.75
428.736	84.75
428.958	93.75
429.181	93.75
429.403	89.75
429.625	73.75
429.847	97.75
430.069	84.75
430.292	97.75
430.514	96.75
430.736	95.75
430.958	80.75
431.18	79.75
431.402	92.75
431.624	84.75
431.846	95.75
432.068	104.75
432.29	89.75
432.512	95.75
432.734	79.75
432.956	65.75
433.178	82.75
433.4	74.75
433.622	82.75
433.844	65.75
434.066	77.75
434.287	74.75
434.509	85.75
434.731	82.75
434.953	70.75
435.175	91.75
435.397	78.75
435.618	81.75
435.84	81.75
436.062	85.75
436.284	93.75
436.505	71.75
436.727	63.75
436.949	66.75
437.17	78.75
437.392	63.75
437.614	82.75
437.835	79.75
438.057	74.75
438.278	75.75
438.5	75.75
438.721	71.75
438.943	84.75
439.165	88.75
439.386	76.75
439.608	77.75
439.829	81.75
440.05	83.75
440.272	86.75
440.493	79.75
440.715	72.75
440.936	77.75
441.158	76.75
441.379	70.75
441.6	75.75
441.822	82.75
442.043	79.75
442.264	86.75
442.486	81.75
442.707	98.75
442.928	88.75
443.149	83.75
443.371	114.75
443.592	134.75
443.813	119.75
444.034	86.75
444.255	90.75
444.476	94.75
444.698	79.75
444.919	82.75
445.14	154.75
445.361	147.75
445.582	146.75
445.803	120.75
446.024	78.75
446.245	91.75
446.466	63.75
446.687	73.75
446.908	74.75
447.129	80.75
447.35	80.75
447.571	88.75
447.792	78.75
448.013	63.75
448.234	79.75
448.455	81.75
448.675	81.75
448.896	94.75
449.117	74.75
449.338	73.75
449.559	69.75
449.779	78.75
450	68.75
450.221	74.75
450.442	74.75
450.662	85.75
450.883	83.75
451.104	70.75
451.324	65.75
451.545	76.75
451.766	78.75
451.986	78.75
452.207	82.75
452.428	82.75
452.648	78.75
452.869	84.75
453.089	76.75
453.31	72.75
453.53	73.75
453.751	87.75
453.971	79.75
454.192	75.75
454.412	87.75
454.633	89.75
454.853	82.75
455.073	68.75
455.294	80.75
455.514	72.75
455.734	72.75
455.955	77.75
456.175	80.75
456.395	67.75
456.616	78.75
456.836	72.75
457.056	69.75
457.276	88.75
457.497	83.75
457.717	74.75
457.937	87.75
458.157	97.75
458.377	91.75
458.598	90.75
458.818	85.75
459.038	81.75
459.258	76.75
459.478	63.75
459.698	73.75
459.918	87.75
460.138	82.75
460.358	76.75
460.578	72.75
460.798	89.75
461.018	94.75
461.238	82.75
461.458	72.75
461.678	67.75
461.898	67.75
462.118	76.75
462.338	87.75
462.558	85.75
462.777	71.75
462.997	67.75
463.217	80.75
463.437	60.75
463.657	70.75
463.876	73.75
464.096	77.75
464.316	78.75
464.536	77.75
464.755	71.75
464.975	84.75
465.195	82.75
465.414	72.75
465.634	80.75
465.854	93.75
466.073	81.75
466.293	64.75
466.512	75.75
466.732	73.75
466.951	76.75
467.171	74.75
467.391	82.75
467.61	63.75
467.829	77.75
468.049	79.75
468.268	82.75
468.488	82.75
468.707	67.75
468.927	74.75
469.146	71.75
469.365	77.75
469.585	77.75
469.804	83.75
470.023	61.75
470.243	80.75
470.462	80.75
470.681	80.75
470.901	70.75
471.12	77.75
471.339	74.75
471.558	79.75
471.777	75.75
471.997	82.75
472.216	80.75
472.435	75.75
472.654	85.75
472.873	81.75
473.092	80.75
473.311	90.75
473.53	65.75
473.749	81.75
473.968	83.75
474.187	77.75
474.406	85.75
474.625	85.75
474.844	74.75
475.063	73.75
475.282	67.75
475.501	77.75
475.72	76.75
475.939	93.75
476.158	71.75
476.377	80.75
476.596	66.75
476.814	66.75
477.033	81.75
477.252	59.75
477.471	77.75
477.69	76.75
477.908	90.75
478.127	81.75
478.346	68.75
478.564	71.75
478.783	86.75
479.002	76.75
479.22	63.75
479.439	70.75
479.658	85.75
479.876	82.75
480.095	74.75
480.313	92.75
480.532	75.75
480.751	76.75
480.969	75.75
481.188	76.75
481.406	81.75
481.624	80.75
481.843	84.75
482.061	76.75
482.28	75.75
482.498	79.75
482.717	77.75
482.935	74.75
483.153	76.75
483.372	81.75
483.59	83.75
483.808	79.75
484.027	76.75
484.245	75.75
484.463	85.75
484.681	78.75
484.9	87.75
485.118	82.75
485.336	60.75
485.554	64.75
485.772	87.75
485.99	72.75
486.209	81.75
486.427	78.75
486.645	83.75
486.863	82.75
487.081	80.75
487.299	74.75
487.517	79.75
487.735	68.75
487.953	108.75
488.171	101.75
488.389	98.75
488.607	85.75
488.825	86.75
489.043	91.75
489.261	91.75
489.479	81.75
489.696	85.75
489.914	69.75
490.132	76.75
490.35	76.75
490.568	83.75
490.786	88.75
491.003	70.75
491.221	61.75
491.439	76.75
491.657	83.75
491.874	83.75
492.092	89.75
492.31	83.75
492.527	80.75
492.745	81.75
492.963	79.75
493.18	69.75
493.398	86.75
493.615	62.75
493.833	84.75
494.05	82.75
494.268	79.75
494.485	99.75
494.703	84.75
494.92	68.75
495.138	78.75
495.355	82.75
495.573	70.75
495.79	80.75
496.008	87.75
496.225	79.75
496.442	73.75
496.66	91.75
496.877	64.75
497.094	85.75
497.312	76.75
497.529	79.75
497.746	80.75
497.963	92.75
498.181	76.75
498.398	66.75
498.615	77.75
498.832	80.75
499.049	67.75
499.267	72.75
499.484	87.75
499.701	74.75
499.918	82.75
500.135	70.75
500.352	73.75
500.569	82.75
500.786	81.75
501.003	81.75
501.22	90.75
501.437	69.75
501.654	90.75
501.871	91.75
502.088	88.75
502.305	75.75
502.522	86.75
502.739	90.75
502.956	92.75
503.172	84.75
503.389	89.75
503.606	68.75
503.823	83.75
504.04	74.75
504.256	99.75
504.473	87.75
504.69	68.75
504.907	77.75
505.123	71.75
505.34	84.75
505.557	75.75
505.773	87.75
505.99	79.75
506.207	77.75
506.423	69.75
506.64	84.75
506.856	87.75
507.073	83.75
507.289	64.75
507.506	86.75
507.722	76.75
507.939	76.75
508.155	77.75
508.372	88.75
508.588	77.75
508.805	86.75
509.021	76.75
509.238	91.75
509.454	75.75
509.67	76.75
509.887	69.75
510.103	72.75
510.319	73.75
510.536	73.75
510.752	81.75
510.968	79.75
511.184	65.75
511.401	76.75
511.617	82.75
511.833	102.75
512.049	91.75
512.265	88.75
512.481	70.75
512.698	64.75
512.914	81.75
513.13	83.75
513.346	89.75
513.562	77.75
513.778	84.75
513.994	77.75
514.21	84.75
514.426	83.75
514.642	80.75
514.858	76.75
515.074	78.75
515.29	76.75
515.506	69.75
515.721	84.75
515.937	79.75
516.153	87.75
516.369	79.75
516.585	83.75
516.801	76.75
517.016	78.75
517.232	84.75
517.448	73.75
517.664	67.75
517.879	77.75
518.095	77.75
518.311	78.75
518.527	72.75
518.742	79.75
518.958	96.75
519.173	102.75
519.389	89.75
519.605	97.75
519.82	82.75
520.036	75.75
