Data from CBS_3_HRD10591_00018.txt Node
Date: Mon Jan 19 14:05:47 EST 2026
User: Yrep
Spectrometer: HR+D1059
Trigger mode: 1
Integration Time (sec): 1.000000E-1
Scans to average: 1
Electric dark correction enabled: true
Nonlinearity correction enabled: false
Boxcar width: 0
XAxis mode: Wavelengths
Number of Pixels in Spectrum: 2048
>>>>>Begin Spectral Data<<<<<
223.165	-13.5
223.4	-13.5
223.635	-13.5
223.869	-22.5
224.104	-11.5
224.338	-7.5
224.573	-16.5
224.808	-17.5
225.042	-15.5
225.277	-1.5
225.511	-5.5
225.746	18.5
225.98	8.5
226.215	17.5
226.449	12.5
226.683	12.5
226.918	31.5
227.152	10.5
227.387	37.5
227.621	28.5
227.856	46.5
228.09	58.5
228.324	58.5
228.559	56.5
228.793	49.5
229.027	58.5
229.262	63.5
229.496	65.5
229.73	61.5
229.964	62.5
230.199	71.5
230.433	66.5
230.667	76.5
230.901	65.5
231.136	76.5
231.37	66.5
231.604	69.5
231.838	81.5
232.072	72.5
232.306	78.5
232.541	75.5
232.775	72.5
233.009	82.5
233.243	77.5
233.477	77.5
233.711	82.5
233.945	83.5
234.179	72.5
234.413	92.5
234.647	70.5
234.881	72.5
235.115	99.5
235.349	84.5
235.583	75.5
235.817	80.5
236.051	88.5
236.285	93.5
236.519	86.5
236.753	82.5
236.987	77.5
237.221	84.5
237.455	70.5
237.689	80.5
237.922	72.5
238.156	85.5
238.39	82.5
238.624	83.5
238.858	76.5
239.091	76.5
239.325	70.5
239.559	69.5
239.793	80.5
240.027	78.5
240.26	82.5
240.494	75.5
240.728	62.5
240.961	65.5
241.195	83.5
241.429	93.5
241.662	76.5
241.896	68.5
242.13	62.5
242.363	64.5
242.597	74.5
242.83	73.5
243.064	79.5
243.298	69.5
243.531	72.5
243.765	70.5
243.998	57.5
244.232	70.5
244.465	71.5
244.699	77.5
244.932	76.5
245.166	68.5
245.399	67.5
245.633	69.5
245.866	82.5
246.099	63.5
246.333	89.5
246.566	75.5
246.8	86.5
247.033	83.5
247.266	69.5
247.5	72.5
247.733	88.5
247.966	84.5
248.2	76.5
248.433	68.5
248.666	77.5
248.899	84.5
249.133	82.5
249.366	71.5
249.599	78.5
249.832	84.5
250.066	81.5
250.299	79.5
250.532	81.5
250.765	73.5
250.998	79.5
251.231	80.5
251.465	74.5
251.698	81.5
251.931	80.5
252.164	74.5
252.397	90.5
252.63	70.5
252.863	66.5
253.096	62.5
253.329	81.5
253.562	75.5
253.795	82.5
254.028	75.5
254.261	72.5
254.494	81.5
254.727	84.5
254.96	94.5
255.193	71.5
255.426	79.5
255.659	73.5
255.892	73.5
256.124	88.5
256.357	91.5
256.59	81.5
256.823	70.5
257.056	84.5
257.289	74.5
257.521	76.5
257.754	71.5
257.987	80.5
258.22	61.5
258.452	81.5
258.685	68.5
258.918	82.5
259.151	68.5
259.383	75.5
259.616	54.5
259.849	74.5
260.081	76.5
260.314	75.5
260.547	63.5
260.779	74.5
261.012	85.5
261.244	72.5
261.477	87.5
261.71	85.5
261.942	81.5
262.175	83.5
262.407	83.5
262.64	75.5
262.872	84.5
263.105	78.5
263.337	79.5
263.57	70.5
263.802	65.5
264.035	81.5
264.267	77.5
264.499	74.5
264.732	68.5
264.964	85.5
265.197	86.5
265.429	78.5
265.661	76.5
265.894	75.5
266.126	96.5
266.358	88.5
266.591	84.5
266.823	77.5
267.055	78.5
267.287	87.5
267.52	90.5
267.752	87.5
267.984	66.5
268.216	73.5
268.448	75.5
268.681	84.5
268.913	83.5
269.145	87.5
269.377	86.5
269.609	82.5
269.841	95.5
270.073	84.5
270.306	71.5
270.538	99.5
270.77	83.5
271.002	88.5
271.234	91.5
271.466	72.5
271.698	70.5
271.93	86.5
272.162	87.5
272.394	75.5
272.626	84.5
272.858	86.5
273.09	76.5
273.322	89.5
273.553	74.5
273.785	76.5
274.017	71.5
274.249	72.5
274.481	103.5
274.713	79.5
274.945	89.5
275.176	83.5
275.408	80.5
275.64	68.5
275.872	72.5
276.104	78.5
276.335	81.5
276.567	78.5
276.799	68.5
277.031	79.5
277.262	76.5
277.494	90.5
277.726	74.5
277.957	76.5
278.189	74.5
278.421	81.5
278.652	72.5
278.884	71.5
279.115	90.5
279.347	73.5
279.579	95.5
279.81	81.5
280.042	77.5
280.273	74.5
280.505	84.5
280.736	94.5
280.968	76.5
281.199	80.5
281.431	75.5
281.662	76.5
281.894	83.5
282.125	81.5
282.356	91.5
282.588	69.5
282.819	73.5
283.051	86.5
283.282	94.5
283.513	85.5
283.745	73.5
283.976	76.5
284.207	84.5
284.439	74.5
284.67	79.5
284.901	77.5
285.132	83.5
285.364	82.5
285.595	82.5
285.826	83.5
286.057	79.5
286.288	78.5
286.52	90.5
286.751	83.5
286.982	87.5
287.213	75.5
287.444	78.5
287.675	76.5
287.906	102.5
288.138	88.5
288.369	74.5
288.6	79.5
288.831	74.5
289.062	88.5
289.293	89.5
289.524	74.5
289.755	89.5
289.986	82.5
290.217	75.5
290.448	86.5
290.679	92.5
290.91	84.5
291.141	68.5
291.371	93.5
291.602	78.5
291.833	103.5
292.064	99.5
292.295	77.5
292.526	92.5
292.757	76.5
292.987	87.5
293.218	80.5
293.449	70.5
293.68	72.5
293.91	82.5
294.141	78.5
294.372	86.5
294.603	82.5
294.833	87.5
295.064	80.5
295.295	74.5
295.525	82.5
295.756	94.5
295.987	91.5
296.217	76.5
296.448	80.5
296.679	84.5
296.909	86.5
297.14	84.5
297.37	93.5
297.601	95.5
297.831	89.5
298.062	82.5
298.292	83.5
298.523	85.5
298.753	83.5
298.984	88.5
299.214	78.5
299.445	82.5
299.675	83.5
299.905	79.5
300.136	83.5
300.366	93.5
300.597	100.5
300.827	87.5
301.057	92.5
301.288	81.5
301.518	84.5
301.748	94.5
301.979	93.5
302.209	87.5
302.439	90.5
302.669	82.5
302.9	76.5
303.13	84.5
303.36	82.5
303.59	82.5
303.82	73.5
304.051	88.5
304.281	104.5
304.511	96.5
304.741	86.5
304.971	76.5
305.201	81.5
305.431	75.5
305.661	80.5
305.891	78.5
306.121	80.5
306.352	77.5
306.582	89.5
306.812	83.5
307.042	91.5
307.272	71.5
307.502	76.5
307.731	94.5
307.961	85.5
308.191	90.5
308.421	103.5
308.651	94.5
308.881	91.5
309.111	78.5
309.341	90.5
309.571	87.5
309.8	92.5
310.03	88.5
310.26	85.5
310.49	90.5
310.72	75.5
310.949	87.5
311.179	82.5
311.409	81.5
311.639	73.5
311.868	90.5
312.098	98.5
312.328	87.5
312.557	89.5
312.787	80.5
313.017	89.5
313.246	90.5
313.476	95.5
313.706	82.5
313.935	90.5
314.165	78.5
314.394	91.5
314.624	75.5
314.853	98.5
315.083	84.5
315.312	102.5
315.542	90.5
315.771	102.5
316.001	91.5
316.23	86.5
316.46	94.5
316.689	97.5
316.919	87.5
317.148	88.5
317.377	98.5
317.607	97.5
317.836	104.5
318.065	102.5
318.295	90.5
318.524	98.5
318.753	94.5
318.983	72.5
319.212	103.5
319.441	96.5
319.67	74.5
319.9	83.5
320.129	91.5
320.358	97.5
320.587	91.5
320.816	82.5
321.046	82.5
321.275	82.5
321.504	80.5
321.733	83.5
321.962	82.5
322.191	100.5
322.42	88.5
322.649	78.5
322.878	82.5
323.108	91.5
323.337	82.5
323.566	75.5
323.795	69.5
324.024	82.5
324.253	92.5
324.482	88.5
324.71	71.5
324.939	98.5
325.168	72.5
325.397	73.5
325.626	87.5
325.855	87.5
326.084	79.5
326.313	94.5
326.542	91.5
326.77	84.5
326.999	92.5
327.228	90.5
327.457	91.5
327.686	84.5
327.914	90.5
328.143	82.5
328.372	95.5
328.6	76.5
328.829	77.5
329.058	91.5
329.287	87.5
329.515	88.5
329.744	74.5
329.972	71.5
330.201	92.5
330.43	75.5
330.658	91.5
330.887	81.5
331.115	72.5
331.344	82.5
331.572	90.5
331.801	82.5
332.03	83.5
332.258	80.5
332.486	80.5
332.715	88.5
332.943	86.5
333.172	83.5
333.4	88.5
333.629	82.5
333.857	84.5
334.085	94.5
334.314	84.5
334.542	80.5
334.771	92.5
334.999	94.5
335.227	89.5
335.455	83.5
335.684	80.5
335.912	99.5
336.14	82.5
336.369	81.5
336.597	94.5
336.825	92.5
337.053	77.5
337.281	79.5
337.51	74.5
337.738	91.5
337.966	85.5
338.194	84.5
338.422	88.5
338.65	87.5
338.878	89.5
339.106	87.5
339.334	74.5
339.562	71.5
339.79	78.5
340.018	87.5
340.246	94.5
340.474	68.5
340.702	76.5
340.93	91.5
341.158	67.5
341.386	80.5
341.614	97.5
341.842	88.5
342.07	87.5
342.298	95.5
342.526	91.5
342.754	89.5
342.981	76.5
343.209	86.5
343.437	86.5
343.665	79.5
343.893	74.5
344.12	89.5
344.348	85.5
344.576	76.5
344.804	68.5
345.031	83.5
345.259	83.5
345.487	87.5
345.714	87.5
345.942	93.5
346.17	85.5
346.397	82.5
346.625	90.5
346.853	86.5
347.08	84.5
347.308	74.5
347.535	86.5
347.763	87.5
347.99	94.5
348.218	99.5
348.445	79.5
348.673	74.5
348.9	99.5
349.128	86.5
349.355	90.5
349.583	83.5
349.81	97.5
350.037	101.5
350.265	84.5
350.492	92.5
350.72	89.5
350.947	92.5
351.174	96.5
351.402	76.5
351.629	86.5
351.856	68.5
352.083	88.5
352.311	80.5
352.538	101.5
352.765	95.5
352.992	89.5
353.22	94.5
353.447	91.5
353.674	78.5
353.901	89.5
354.128	99.5
354.355	75.5
354.583	89.5
354.81	76.5
355.037	86.5
355.264	82.5
355.491	91.5
355.718	79.5
355.945	88.5
356.172	99.5
356.399	80.5
356.626	84.5
356.853	83.5
357.08	85.5
357.307	68.5
357.534	96.5
357.761	95.5
357.988	74.5
358.215	86.5
358.441	92.5
358.668	84.5
358.895	87.5
359.122	76.5
359.349	90.5
359.576	74.5
359.802	88.5
360.029	82.5
360.256	90.5
360.483	79.5
360.709	87.5
360.936	94.5
361.163	100.5
361.39	82.5
361.616	110.5
361.843	89.5
362.07	86.5
362.296	96.5
362.523	83.5
362.749	92.5
362.976	110.5
363.203	118.5
363.429	97.5
363.656	80.5
363.882	83.5
364.109	105.5
364.335	125.5
364.562	114.5
364.788	98.5
365.015	92.5
365.241	78.5
365.468	96.5
365.694	84.5
365.92	77.5
366.147	76.5
366.373	88.5
366.599	99.5
366.826	92.5
367.052	103.5
367.278	86.5
367.505	71.5
367.731	107.5
367.957	90.5
368.184	89.5
368.41	86.5
368.636	78.5
368.862	92.5
369.089	88.5
369.315	82.5
369.541	97.5
369.767	85.5
369.993	80.5
370.219	78.5
370.445	77.5
370.672	98.5
370.898	93.5
371.124	82.5
371.35	91.5
371.576	80.5
371.802	88.5
372.028	85.5
372.254	101.5
372.48	90.5
372.706	80.5
372.932	83.5
373.158	103.5
373.384	96.5
373.61	94.5
373.835	111.5
374.061	90.5
374.287	91.5
374.513	85.5
374.739	74.5
374.965	78.5
375.191	91.5
375.416	99.5
375.642	96.5
375.868	100.5
376.094	94.5
376.319	98.5
376.545	86.5
376.771	76.5
376.997	79.5
377.222	98.5
377.448	93.5
377.674	84.5
377.899	83.5
378.125	74.5
378.35	87.5
378.576	74.5
378.802	90.5
379.027	84.5
379.253	99.5
379.478	85.5
379.704	94.5
379.929	87.5
380.155	72.5
380.38	75.5
380.606	70.5
380.831	92.5
381.057	94.5
381.282	87.5
381.507	93.5
381.733	94.5
381.958	97.5
382.184	80.5
382.409	83.5
382.634	84.5
382.86	90.5
383.085	80.5
383.31	95.5
383.535	90.5
383.761	74.5
383.986	102.5
384.211	83.5
384.436	102.5
384.662	80.5
384.887	91.5
385.112	80.5
385.337	104.5
385.562	92.5
385.787	84.5
386.013	88.5
386.238	91.5
386.463	95.5
386.688	79.5
386.913	82.5
387.138	84.5
387.363	97.5
387.588	106.5
387.813	90.5
388.038	86.5
388.263	93.5
388.488	107.5
388.713	83.5
388.938	89.5
389.163	91.5
389.387	89.5
389.612	84.5
389.837	95.5
390.062	93.5
390.287	78.5
390.512	80.5
390.736	86.5
390.961	82.5
391.186	95.5
391.411	78.5
391.636	84.5
391.86	85.5
392.085	90.5
392.31	96.5
392.534	102.5
392.759	121.5
392.984	160.5
393.208	256.5
393.433	336.5
393.658	266.5
393.882	128.5
394.107	102.5
394.331	92.5
394.556	105.5
394.78	104.5
395.005	93.5
395.229	88.5
395.454	96.5
395.678	89.5
395.903	99.5
396.127	123.5
396.352	122.5
396.576	165.5
396.801	246.5
397.025	289.5
397.249	160.5
397.474	131.5
397.698	110.5
397.922	92.5
398.147	82.5
398.371	84.5
398.595	96.5
398.82	87.5
399.044	83.5
399.268	74.5
399.492	86.5
399.717	88.5
399.941	86.5
400.165	84.5
400.389	84.5
400.613	82.5
400.837	101.5
401.062	84.5
401.286	91.5
401.51	88.5
401.734	86.5
401.958	90.5
402.182	100.5
402.406	97.5
402.63	81.5
402.854	87.5
403.078	91.5
403.302	81.5
403.526	92.5
403.75	80.5
403.974	85.5
404.198	82.5
404.422	94.5
404.645	90.5
404.869	81.5
405.093	91.5
405.317	85.5
405.541	88.5
405.765	93.5
405.988	89.5
406.212	98.5
406.436	87.5
406.66	84.5
406.883	74.5
407.107	75.5
407.331	90.5
407.555	80.5
407.778	98.5
408.002	101.5
408.226	90.5
408.449	88.5
408.673	87.5
408.896	71.5
409.12	98.5
409.344	102.5
409.567	88.5
409.791	91.5
410.014	100.5
410.238	89.5
410.461	84.5
410.685	97.5
410.908	82.5
411.132	87.5
411.355	86.5
411.578	90.5
411.802	91.5
412.025	90.5
412.249	84.5
412.472	90.5
412.695	81.5
412.919	91.5
413.142	92.5
413.365	74.5
413.589	90.5
413.812	85.5
414.035	100.5
414.258	89.5
414.482	86.5
414.705	82.5
414.928	80.5
415.151	86.5
415.374	85.5
415.597	77.5
415.821	80.5
416.044	92.5
416.267	81.5
416.49	82.5
416.713	70.5
416.936	89.5
417.159	94.5
417.382	88.5
417.605	90.5
417.828	91.5
418.051	81.5
418.274	73.5
418.497	78.5
418.72	78.5
418.943	93.5
419.166	96.5
419.389	81.5
419.611	94.5
419.834	86.5
420.057	88.5
420.28	89.5
420.503	87.5
420.726	93.5
420.948	92.5
421.171	91.5
421.394	93.5
421.617	96.5
421.839	101.5
422.062	107.5
422.285	137.5
422.507	251.5
422.73	340.5
422.953	331.5
423.175	191.5
423.398	118.5
423.621	102.5
423.843	88.5
424.066	89.5
424.288	92.5
424.511	98.5
424.733	104.5
424.956	68.5
425.178	79.5
425.401	85.5
425.623	89.5
425.846	92.5
426.068	85.5
426.291	92.5
426.513	82.5
426.735	88.5
426.958	82.5
427.18	94.5
427.402	82.5
427.625	90.5
427.847	84.5
428.069	110.5
428.292	106.5
428.514	136.5
428.736	99.5
428.958	112.5
429.181	126.5
429.403	102.5
429.625	93.5
429.847	115.5
430.069	144.5
430.292	170.5
430.514	174.5
430.736	127.5
430.958	114.5
431.18	98.5
431.402	81.5
431.624	95.5
431.846	106.5
432.068	124.5
432.29	93.5
432.512	80.5
432.734	88.5
432.956	82.5
433.178	82.5
433.4	88.5
433.622	93.5
433.844	92.5
434.066	79.5
434.287	76.5
434.509	76.5
434.731	87.5
434.953	80.5
435.175	84.5
435.397	65.5
435.618	96.5
435.84	96.5
436.062	85.5
436.284	88.5
436.505	75.5
436.727	84.5
436.949	95.5
437.17	82.5
437.392	86.5
437.614	95.5
437.835	84.5
438.057	95.5
438.278	68.5
438.5	83.5
438.721	96.5
438.943	82.5
439.165	78.5
439.386	72.5
439.608	88.5
439.829	97.5
440.05	98.5
440.272	79.5
440.493	86.5
440.715	86.5
440.936	91.5
441.158	87.5
441.379	97.5
441.6	82.5
441.822	87.5
442.043	86.5
442.264	100.5
442.486	128.5
442.707	150.5
442.928	107.5
443.149	106.5
443.371	131.5
443.592	218.5
443.813	212.5
444.034	120.5
444.255	81.5
444.476	95.5
444.698	90.5
444.919	80.5
445.14	192.5
445.361	206.5
445.582	268.5
445.803	214.5
446.024	102.5
446.245	96.5
446.466	88.5
446.687	77.5
446.908	88.5
447.129	98.5
447.35	96.5
447.571	90.5
447.792	69.5
448.013	88.5
448.234	82.5
448.455	85.5
448.675	83.5
448.896	83.5
449.117	75.5
449.338	79.5
449.559	84.5
449.779	89.5
450	83.5
450.221	75.5
450.442	93.5
450.662	81.5
450.883	94.5
451.104	76.5
451.324	80.5
451.545	88.5
451.766	91.5
451.986	73.5
452.207	84.5
452.428	85.5
452.648	88.5
452.869	115.5
453.089	100.5
453.31	89.5
453.53	76.5
453.751	76.5
453.971	81.5
454.192	89.5
454.412	79.5
454.633	76.5
454.853	107.5
455.073	87.5
455.294	84.5
455.514	84.5
455.734	94.5
455.955	83.5
456.175	84.5
456.395	91.5
456.616	76.5
456.836	78.5
457.056	85.5
457.276	80.5
457.497	89.5
457.717	85.5
457.937	107.5
458.157	116.5
458.377	123.5
458.598	107.5
458.818	127.5
459.038	101.5
459.258	79.5
459.478	70.5
459.698	72.5
459.918	93.5
460.138	85.5
460.358	82.5
460.578	95.5
460.798	123.5
461.018	99.5
461.238	92.5
461.458	88.5
461.678	88.5
461.898	90.5
462.118	84.5
462.338	82.5
462.558	96.5
462.777	95.5
462.997	92.5
463.217	92.5
463.437	86.5
463.657	84.5
463.876	82.5
464.096	79.5
464.316	92.5
464.536	82.5
464.755	83.5
464.975	82.5
465.195	78.5
465.414	90.5
465.634	82.5
465.854	85.5
466.073	74.5
466.293	67.5
466.512	76.5
466.732	74.5
466.951	74.5
467.171	77.5
467.391	72.5
467.61	81.5
467.829	90.5
468.049	84.5
468.268	89.5
468.488	96.5
468.707	89.5
468.927	85.5
469.146	84.5
469.365	73.5
469.585	86.5
469.804	84.5
470.023	78.5
470.243	73.5
470.462	68.5
470.681	84.5
470.901	82.5
471.12	77.5
471.339	89.5
471.558	81.5
471.777	75.5
471.997	82.5
472.216	73.5
472.435	75.5
472.654	68.5
472.873	99.5
473.092	65.5
473.311	75.5
473.53	67.5
473.749	98.5
473.968	83.5
474.187	80.5
474.406	89.5
474.625	100.5
474.844	86.5
475.063	88.5
475.282	72.5
475.501	76.5
475.72	86.5
475.939	78.5
476.158	84.5
476.377	79.5
476.596	90.5
476.814	88.5
477.033	84.5
477.252	85.5
477.471	75.5
477.69	77.5
477.908	84.5
478.127	98.5
478.346	89.5
478.564	90.5
478.783	92.5
479.002	83.5
479.22	87.5
479.439	88.5
479.658	74.5
479.876	86.5
480.095	73.5
480.313	82.5
480.532	96.5
480.751	94.5
480.969	80.5
481.188	79.5
481.406	89.5
481.624	91.5
481.843	90.5
482.061	89.5
482.28	72.5
482.498	78.5
482.717	72.5
482.935	87.5
483.153	81.5
483.372	91.5
483.59	84.5
483.808	105.5
484.027	86.5
484.245	85.5
484.463	76.5
484.681	92.5
484.9	88.5
485.118	72.5
485.336	72.5
485.554	101.5
485.772	84.5
485.99	82.5
486.209	81.5
486.427	91.5
486.645	84.5
486.863	84.5
487.081	72.5
487.299	83.5
487.517	94.5
487.735	121.5
487.953	148.5
488.171	136.5
488.389	75.5
488.607	97.5
488.825	102.5
489.043	67.5
489.261	89.5
489.479	72.5
489.696	87.5
489.914	97.5
490.132	92.5
490.35	80.5
490.568	85.5
490.786	88.5
491.003	69.5
491.221	80.5
491.439	94.5
491.657	93.5
491.874	83.5
492.092	100.5
492.31	79.5
492.527	82.5
492.745	84.5
492.963	96.5
493.18	84.5
493.398	93.5
493.615	86.5
493.833	91.5
494.05	77.5
494.268	88.5
494.485	84.5
494.703	76.5
494.92	77.5
495.138	81.5
495.355	84.5
495.573	87.5
495.79	87.5
496.008	79.5
496.225	84.5
496.442	90.5
496.66	90.5
496.877	90.5
497.094	87.5
497.312	82.5
497.529	91.5
497.746	91.5
497.963	78.5
498.181	92.5
498.398	80.5
498.615	93.5
498.832	83.5
499.049	79.5
499.267	92.5
499.484	75.5
499.701	73.5
499.918	85.5
500.135	91.5
500.352	80.5
500.569	90.5
500.786	84.5
501.003	79.5
501.22	80.5
501.437	90.5
501.654	61.5
501.871	93.5
502.088	86.5
502.305	94.5
502.522	88.5
502.739	89.5
502.956	91.5
503.172	92.5
503.389	87.5
503.606	90.5
503.823	94.5
504.04	87.5
504.256	130.5
504.473	134.5
504.69	97.5
504.907	120.5
505.123	88.5
505.34	93.5
505.557	74.5
505.773	83.5
505.99	90.5
506.207	81.5
506.423	87.5
506.64	80.5
506.856	95.5
507.073	81.5
507.289	92.5
507.506	79.5
507.722	89.5
507.939	84.5
508.155	89.5
508.372	86.5
508.588	80.5
508.805	80.5
509.021	75.5
509.238	80.5
509.454	74.5
509.67	88.5
509.887	84.5
510.103	93.5
510.319	76.5
510.536	89.5
510.752	72.5
510.968	94.5
511.184	75.5
511.401	95.5
511.617	98.5
511.833	84.5
512.049	88.5
512.265	83.5
512.481	85.5
512.698	87.5
512.914	94.5
513.13	94.5
513.346	91.5
513.562	87.5
513.778	79.5
513.994	78.5
514.21	80.5
514.426	96.5
514.642	85.5
514.858	77.5
515.074	79.5
515.29	80.5
515.506	99.5
515.721	69.5
515.937	98.5
516.153	88.5
516.369	89.5
516.585	95.5
516.801	81.5
517.016	86.5
517.232	88.5
517.448	84.5
517.664	94.5
517.879	84.5
518.095	84.5
518.311	71.5
518.527	98.5
518.742	112.5
518.958	154.5
519.173	167.5
519.389	99.5
519.605	87.5
519.82	100.5
520.036	111.5
520.251	85.5
520.467	89.5
520.682	88.5
520.898	84.5
521.113	85.5
521.329	88.5
521.544	82.5
521.76	87.5
521.975	88.5
522.19	90.5
522.406	92.5
522.621	89.5
522.836	91.5
523.052	85.5
523.267	82.5
523.482	77.5
523.698	86.5
523.913	90.5
524.128	102.5
524.343	94.5
524.559	91.5
524.774	80.5
524.989	87.5
525.204	89.5
525.419	81.5
525.634	94.5
525.849	104.5
526.064	108.5
526.28	218.5
526.495	299.5
526.71	301.5
526.925	196.5
527.14	246.5
527.355	246.5
527.57	109.5
527.785	88.5
527.999	75.5
528.214	83.5
528.429	103.5
528.644	83.5
528.859	80.5
529.074	93.5
529.289	94.5
529.503	98.5
529.718	91.5
529.933	96.5
530.148	87.5
530.363	85.5
530.577	85.5
530.792	89.5
531.007	76.5
531.221	93.5
531.436	102.5
531.651	86.5
531.865	98.5
532.08	110.5
532.295	104.5
532.509	111.5
532.724	86.5
532.938	96.5
533.153	94.5
533.367	92.5
533.582	98.5
533.796	102.5
534.011	95.5
534.225	73.5
534.44	98.5
534.654	83.5
534.868	97.5
535.083	142.5
535.297	143.5
535.511	100.5
535.726	96.5
535.94	76.5
536.154	73.5
536.369	87.5
536.583	95.5
536.797	108.5
537.011	102.5
537.225	87.5
537.44	94.5
537.654	105.5
537.868	90.5
538.082	94.5
538.296	80.5
538.51	97.5
