Data from CBS_3_HRD10591_00040.txt Node
Date: Mon Jan 19 14:05:58 EST 2026
User: Yrep
Spectrometer: HR+D1059
Trigger mode: 1
Integration Time (sec): 1.000000E-1
Scans to average: 1
Electric dark correction enabled: true
Nonlinearity correction enabled: false
Boxcar width: 0
XAxis mode: Wavelengths
Number of Pixels in Spectrum: 2048
>>>>>Begin Spectral Data<<<<<
223.165	-14.69
223.4	-14.69
223.635	-14.69
223.869	-16.69
224.104	-7.69
224.338	-16.69
224.573	-10.69
224.808	-21.69
225.042	-15.69
225.277	-13.69
225.511	-1.69
225.746	5.31
225.98	1.31
226.215	0.31
226.449	6.31
226.683	33.31
226.918	42.31
227.152	30.31
227.387	29.31
227.621	42.31
227.856	44.31
228.09	54.31
228.324	62.31
228.559	60.31
228.793	58.31
229.027	49.31
229.262	66.31
229.496	52.31
229.73	69.31
229.964	62.31
230.199	71.31
230.433	68.31
230.667	83.31
230.901	87.31
231.136	76.31
231.37	76.31
231.604	72.31
231.838	83.31
232.072	75.31
232.306	77.31
232.541	81.31
232.775	78.31
233.009	90.31
233.243	68.31
233.477	76.31
233.711	87.31
233.945	87.31
234.179	74.31
234.413	69.31
234.647	78.31
234.881	78.31
235.115	95.31
235.349	77.31
235.583	77.31
235.817	73.31
236.051	69.31
236.285	85.31
236.519	72.31
236.753	70.31
236.987	71.31
237.221	64.31
237.455	64.31
237.689	64.31
237.922	87.31
238.156	84.31
238.39	84.31
238.624	73.31
238.858	80.31
239.091	75.31
239.325	77.31
239.559	85.31
239.793	83.31
240.027	65.31
240.26	71.31
240.494	83.31
240.728	85.31
240.961	70.31
241.195	78.31
241.429	75.31
241.662	72.31
241.896	71.31
242.13	64.31
242.363	84.31
242.597	68.31
242.83	82.31
243.064	82.31
243.298	78.31
243.531	85.31
243.765	83.31
243.998	76.31
244.232	69.31
244.465	75.31
244.699	82.31
244.932	77.31
245.166	75.31
245.399	87.31
245.633	62.31
245.866	59.31
246.099	81.31
246.333	74.31
246.566	70.31
246.8	65.31
247.033	80.31
247.266	70.31
247.5	73.31
247.733	84.31
247.966	75.31
248.2	69.31
248.433	77.31
248.666	88.31
248.899	74.31
249.133	83.31
249.366	79.31
249.599	78.31
249.832	80.31
250.066	82.31
250.299	83.31
250.532	83.31
250.765	97.31
250.998	72.31
251.231	75.31
251.465	88.31
251.698	79.31
251.931	74.31
252.164	82.31
252.397	85.31
252.63	81.31
252.863	90.31
253.096	80.31
253.329	92.31
253.562	80.31
253.795	84.31
254.028	68.31
254.261	64.31
254.494	73.31
254.727	89.31
254.96	79.31
255.193	73.31
255.426	82.31
255.659	80.31
255.892	86.31
256.124	85.31
256.357	94.31
256.59	88.31
256.823	75.31
257.056	88.31
257.289	83.31
257.521	90.31
257.754	67.31
257.987	80.31
258.22	89.31
258.452	84.31
258.685	74.31
258.918	86.31
259.151	77.31
259.383	70.31
259.616	86.31
259.849	86.31
260.081	79.31
260.314	77.31
260.547	89.31
260.779	90.31
261.012	88.31
261.244	83.31
261.477	90.31
261.71	87.31
261.942	80.31
262.175	75.31
262.407	84.31
262.64	82.31
262.872	84.31
263.105	83.31
263.337	92.31
263.57	84.31
263.802	71.31
264.035	91.31
264.267	74.31
264.499	93.31
264.732	92.31
264.964	92.31
265.197	83.31
265.429	71.31
265.661	88.31
265.894	77.31
266.126	89.31
266.358	64.31
266.591	86.31
266.823	78.31
267.055	78.31
267.287	75.31
267.52	84.31
267.752	85.31
267.984	94.31
268.216	87.31
268.448	76.31
268.681	82.31
268.913	84.31
269.145	88.31
269.377	75.31
269.609	68.31
269.841	98.31
270.073	91.31
270.306	82.31
270.538	76.31
270.77	86.31
271.002	70.31
271.234	74.31
271.466	81.31
271.698	79.31
271.93	69.31
272.162	69.31
272.394	88.31
272.626	80.31
272.858	81.31
273.09	78.31
273.322	77.31
273.553	66.31
273.785	90.31
274.017	80.31
274.249	91.31
274.481	83.31
274.713	68.31
274.945	78.31
275.176	83.31
275.408	81.31
275.64	86.31
275.872	68.31
276.104	76.31
276.335	82.31
276.567	80.31
276.799	78.31
277.031	85.31
277.262	81.31
277.494	75.31
277.726	84.31
277.957	73.31
278.189	82.31
278.421	106.31
278.652	82.31
278.884	82.31
279.115	94.31
279.347	84.31
279.579	74.31
279.81	78.31
280.042	90.31
280.273	82.31
280.505	84.31
280.736	84.31
280.968	88.31
281.199	88.31
281.431	72.31
281.662	87.31
281.894	88.31
282.125	88.31
282.356	78.31
282.588	78.31
282.819	74.31
283.051	79.31
283.282	83.31
283.513	76.31
283.745	87.31
283.976	84.31
284.207	79.31
284.439	89.31
284.67	95.31
284.901	100.31
285.132	92.31
285.364	70.31
285.595	91.31
285.826	73.31
286.057	76.31
286.288	85.31
286.52	75.31
286.751	86.31
286.982	75.31
287.213	73.31
287.444	86.31
287.675	78.31
287.906	84.31
288.138	85.31
288.369	99.31
288.6	77.31
288.831	85.31
289.062	99.31
289.293	73.31
289.524	88.31
289.755	80.31
289.986	84.31
290.217	99.31
290.448	92.31
290.679	95.31
290.91	84.31
291.141	85.31
291.371	93.31
291.602	96.31
291.833	85.31
292.064	88.31
292.295	92.31
292.526	91.31
292.757	90.31
292.987	76.31
293.218	81.31
293.449	81.31
293.68	86.31
293.91	83.31
294.141	90.31
294.372	89.31
294.603	90.31
294.833	79.31
295.064	87.31
295.295	67.31
295.525	78.31
295.756	73.31
295.987	77.31
296.217	96.31
296.448	89.31
296.679	87.31
296.909	86.31
297.14	95.31
297.37	92.31
297.601	89.31
297.831	68.31
298.062	82.31
298.292	96.31
298.523	80.31
298.753	79.31
298.984	90.31
299.214	79.31
299.445	76.31
299.675	86.31
299.905	95.31
300.136	94.31
300.366	83.31
300.597	89.31
300.827	90.31
301.057	93.31
301.288	83.31
301.518	90.31
301.748	77.31
301.979	93.31
302.209	81.31
302.439	79.31
302.669	72.31
302.9	95.31
303.13	92.31
303.36	87.31
303.59	81.31
303.82	86.31
304.051	88.31
304.281	82.31
304.511	90.31
304.741	73.31
304.971	88.31
305.201	96.31
305.431	82.31
305.661	86.31
305.891	90.31
306.121	73.31
306.352	75.31
306.582	82.31
306.812	83.31
307.042	74.31
307.272	82.31
307.502	78.31
307.731	95.31
307.961	105.31
308.191	90.31
308.421	100.31
308.651	74.31
308.881	88.31
309.111	98.31
309.341	104.31
309.571	110.31
309.8	79.31
310.03	88.31
310.26	88.31
310.49	79.31
310.72	75.31
310.949	83.31
311.179	88.31
311.409	82.31
311.639	94.31
311.868	85.31
312.098	78.31
312.328	85.31
312.557	85.31
312.787	81.31
313.017	93.31
313.246	92.31
313.476	97.31
313.706	82.31
313.935	81.31
314.165	99.31
314.394	90.31
314.624	70.31
314.853	81.31
315.083	79.31
315.312	94.31
315.542	82.31
315.771	90.31
316.001	83.31
316.23	100.31
316.46	82.31
316.689	87.31
316.919	94.31
317.148	80.31
317.377	91.31
317.607	96.31
317.836	104.31
318.065	102.31
318.295	85.31
318.524	83.31
318.753	86.31
318.983	77.31
319.212	84.31
319.441	84.31
319.67	90.31
319.9	76.31
320.129	91.31
320.358	84.31
320.587	80.31
320.816	88.31
321.046	82.31
321.275	83.31
321.504	95.31
321.733	92.31
321.962	83.31
322.191	93.31
322.42	91.31
322.649	74.31
322.878	88.31
323.108	84.31
323.337	90.31
323.566	89.31
323.795	85.31
324.024	80.31
324.253	90.31
324.482	88.31
324.71	72.31
324.939	75.31
325.168	89.31
325.397	92.31
325.626	86.31
325.855	78.31
326.084	95.31
326.313	79.31
326.542	89.31
326.77	92.31
326.999	87.31
327.228	108.31
327.457	84.31
327.686	87.31
327.914	92.31
328.143	89.31
328.372	84.31
328.6	93.31
328.829	97.31
329.058	86.31
329.287	88.31
329.515	84.31
329.744	80.31
329.972	74.31
330.201	98.31
330.43	75.31
330.658	94.31
330.887	102.31
331.115	90.31
331.344	89.31
331.572	77.31
331.801	86.31
332.03	93.31
332.258	90.31
332.486	57.31
332.715	86.31
332.943	91.31
333.172	82.31
333.4	80.31
333.629	81.31
333.857	88.31
334.085	94.31
334.314	87.31
334.542	91.31
334.771	81.31
334.999	96.31
335.227	92.31
335.455	82.31
335.684	88.31
335.912	83.31
336.14	107.31
336.369	77.31
336.597	96.31
336.825	74.31
337.053	76.31
337.281	88.31
337.51	88.31
337.738	64.31
337.966	72.31
338.194	77.31
338.422	71.31
338.65	94.31
338.878	88.31
339.106	90.31
339.334	82.31
339.562	94.31
339.79	90.31
340.018	88.31
340.246	87.31
340.474	82.31
340.702	90.31
340.93	80.31
341.158	90.31
341.386	79.31
341.614	94.31
341.842	75.31
342.07	84.31
342.298	76.31
342.526	84.31
342.754	85.31
342.981	96.31
343.209	95.31
343.437	82.31
343.665	87.31
343.893	74.31
344.12	93.31
344.348	88.31
344.576	75.31
344.804	94.31
345.031	88.31
345.259	75.31
345.487	92.31
345.714	80.31
345.942	77.31
346.17	84.31
346.397	91.31
346.625	92.31
346.853	71.31
347.08	88.31
347.308	93.31
347.535	95.31
347.763	87.31
347.99	75.31
348.218	80.31
348.445	87.31
348.673	79.31
348.9	94.31
349.128	99.31
349.355	79.31
349.583	85.31
349.81	80.31
350.037	74.31
350.265	88.31
350.492	67.31
350.72	83.31
350.947	92.31
351.174	94.31
351.402	94.31
351.629	85.31
351.856	81.31
352.083	75.31
352.311	82.31
352.538	70.31
352.765	81.31
352.992	91.31
353.22	98.31
353.447	71.31
353.674	78.31
353.901	90.31
354.128	82.31
354.355	82.31
354.583	78.31
354.81	89.31
355.037	90.31
355.264	74.31
355.491	66.31
355.718	77.31
355.945	85.31
356.172	83.31
356.399	92.31
356.626	89.31
356.853	89.31
357.08	90.31
357.307	88.31
357.534	82.31
357.761	80.31
357.988	93.31
358.215	93.31
358.441	80.31
358.668	73.31
358.895	97.31
359.122	94.31
359.349	90.31
359.576	82.31
359.802	88.31
360.029	91.31
360.256	73.31
360.483	76.31
360.709	66.31
360.936	77.31
361.163	83.31
361.39	94.31
361.616	76.31
361.843	93.31
362.07	96.31
362.296	92.31
362.523	119.31
362.749	107.31
362.976	103.31
363.203	110.31
363.429	91.31
363.656	95.31
363.882	105.31
364.109	120.31
364.335	129.31
364.562	126.31
364.788	95.31
365.015	95.31
365.241	81.31
365.468	85.31
365.694	89.31
365.92	91.31
366.147	83.31
366.373	82.31
366.599	86.31
366.826	86.31
367.052	90.31
367.278	82.31
367.505	93.31
367.731	97.31
367.957	79.31
368.184	79.31
368.41	74.31
368.636	89.31
368.862	84.31
369.089	96.31
369.315	74.31
369.541	107.31
369.767	83.31
369.993	87.31
370.219	88.31
370.445	91.31
370.672	95.31
370.898	98.31
371.124	91.31
371.35	86.31
371.576	75.31
371.802	73.31
372.028	97.31
372.254	108.31
372.48	92.31
372.706	91.31
372.932	91.31
373.158	82.31
373.384	88.31
373.61	111.31
373.835	123.31
374.061	96.31
374.287	89.31
374.513	91.31
374.739	88.31
374.965	90.31
375.191	80.31
375.416	90.31
375.642	97.31
375.868	94.31
376.094	81.31
376.319	87.31
376.545	82.31
376.771	85.31
376.997	74.31
377.222	76.31
377.448	76.31
377.674	91.31
377.899	92.31
378.125	94.31
378.35	77.31
378.576	83.31
378.802	85.31
379.027	88.31
379.253	92.31
379.478	96.31
379.704	91.31
379.929	87.31
380.155	80.31
380.38	91.31
380.606	78.31
380.831	83.31
381.057	95.31
381.282	88.31
381.507	93.31
381.733	89.31
381.958	73.31
382.184	75.31
382.409	93.31
382.634	87.31
382.86	99.31
383.085	80.31
383.31	97.31
383.535	87.31
383.761	82.31
383.986	81.31
384.211	85.31
384.436	78.31
384.662	88.31
384.887	107.31
385.112	66.31
385.337	80.31
385.562	97.31
385.787	94.31
386.013	98.31
386.238	92.31
386.463	86.31
386.688	113.31
386.913	102.31
387.138	81.31
387.363	94.31
387.588	104.31
387.813	86.31
388.038	96.31
388.263	103.31
388.488	100.31
388.713	82.31
388.938	79.31
389.163	88.31
389.387	74.31
389.612	94.31
389.837	88.31
390.062	94.31
390.287	96.31
390.512	86.31
390.736	102.31
390.961	95.31
391.186	96.31
391.411	78.31
391.636	89.31
391.86	97.31
392.085	108.31
392.31	108.31
392.534	123.31
392.759	134.31
392.984	171.31
393.208	315.31
393.433	432.31
393.658	345.31
393.882	165.31
394.107	116.31
394.331	116.31
394.556	113.31
394.78	120.31
395.005	96.31
395.229	91.31
395.454	98.31
395.678	96.31
395.903	118.31
396.127	143.31
396.352	136.31
396.576	190.31
396.801	305.31
397.025	362.31
397.249	208.31
397.474	124.31
397.698	104.31
397.922	93.31
398.147	92.31
398.371	94.31
398.595	92.31
398.82	90.31
399.044	91.31
399.268	85.31
399.492	77.31
399.717	74.31
399.941	92.31
400.165	84.31
400.389	79.31
400.613	76.31
400.837	75.31
401.062	91.31
401.286	67.31
401.51	79.31
401.734	78.31
401.958	95.31
402.182	92.31
402.406	73.31
402.63	82.31
402.854	94.31
403.078	100.31
403.302	95.31
403.526	95.31
403.75	90.31
403.974	96.31
404.198	90.31
404.422	107.31
404.645	104.31
404.869	98.31
405.093	96.31
405.317	76.31
405.541	94.31
405.765	90.31
405.988	80.31
406.212	96.31
406.436	87.31
406.66	91.31
406.883	73.31
407.107	91.31
407.331	101.31
407.555	98.31
407.778	112.31
408.002	118.31
408.226	89.31
408.449	82.31
408.673	87.31
408.896	104.31
409.12	87.31
409.344	105.31
409.567	105.31
409.791	91.31
410.014	120.31
410.238	97.31
410.461	90.31
410.685	91.31
410.908	99.31
411.132	82.31
411.355	88.31
411.578	85.31
411.802	79.31
412.025	96.31
412.249	94.31
412.472	73.31
412.695	90.31
412.919	85.31
413.142	94.31
413.365	100.31
413.589	91.31
413.812	83.31
414.035	91.31
414.258	87.31
414.482	93.31
414.705	93.31
414.928	76.31
415.151	87.31
415.374	77.31
415.597	84.31
415.821	70.31
416.044	86.31
416.267	85.31
416.49	87.31
416.713	86.31
416.936	97.31
417.159	83.31
417.382	94.31
417.605	103.31
417.828	87.31
418.051	94.31
418.274	82.31
418.497	95.31
418.72	86.31
418.943	89.31
419.166	82.31
419.389	97.31
419.611	91.31
419.834	82.31
420.057	95.31
420.28	84.31
420.503	99.31
420.726	92.31
420.948	91.31
421.171	94.31
421.394	116.31
421.617	119.31
421.839	119.31
422.062	128.31
422.285	171.31
422.507	298.31
422.73	439.31
422.953	374.31
423.175	201.31
423.398	134.31
423.621	114.31
423.843	93.31
424.066	99.31
424.288	111.31
424.511	96.31
424.733	95.31
424.956	98.31
425.178	85.31
425.401	97.31
425.623	80.31
425.846	88.31
426.068	81.31
426.291	99.31
426.513	94.31
426.735	95.31
426.958	96.31
427.18	97.31
427.402	104.31
427.625	80.31
427.847	85.31
428.069	108.31
428.292	133.31
428.514	151.31
428.736	108.31
428.958	123.31
429.181	136.31
429.403	99.31
429.625	106.31
429.847	129.31
430.069	171.31
430.292	194.31
430.514	186.31
430.736	148.31
430.958	164.31
431.18	104.31
431.402	81.31
431.624	87.31
431.846	122.31
432.068	142.31
432.29	94.31
432.512	90.31
432.734	82.31
432.956	89.31
433.178	82.31
433.4	81.31
433.622	106.31
433.844	82.31
434.066	82.31
434.287	103.31
434.509	82.31
434.731	90.31
434.953	82.31
435.175	73.31
435.397	80.31
435.618	100.31
435.84	98.31
436.062	88.31
436.284	93.31
436.505	82.31
436.727	84.31
436.949	84.31
437.17	91.31
437.392	80.31
437.614	80.31
437.835	80.31
438.057	87.31
438.278	91.31
438.5	92.31
438.721	89.31
438.943	91.31
439.165	81.31
439.386	92.31
439.608	87.31
439.829	75.31
440.05	85.31
440.272	74.31
440.493	91.31
440.715	87.31
440.936	87.31
441.158	85.31
441.379	87.31
441.6	92.31
441.822	99.31
442.043	83.31
442.264	81.31
442.486	139.31
442.707	187.31
442.928	134.31
443.149	121.31
443.371	164.31
443.592	271.31
443.813	241.31
444.034	110.31
444.255	100.31
444.476	99.31
444.698	96.31
444.919	95.31
445.14	194.31
445.361	232.31
445.582	314.31
445.803	286.31
446.024	122.31
446.245	84.31
446.466	82.31
446.687	90.31
446.908	81.31
447.129	87.31
447.35	84.31
447.571	91.31
447.792	74.31
448.013	83.31
448.234	88.31
448.455	83.31
448.675	79.31
448.896	93.31
449.117	82.31
449.338	72.31
449.559	75.31
449.779	83.31
450	84.31
450.221	73.31
450.442	95.31
450.662	84.31
450.883	92.31
451.104	82.31
451.324	92.31
451.545	85.31
451.766	82.31
451.986	102.31
452.207	77.31
452.428	90.31
452.648	103.31
452.869	104.31
453.089	82.31
453.31	74.31
453.53	93.31
453.751	94.31
453.971	99.31
454.192	70.31
454.412	95.31
454.633	76.31
454.853	80.31
455.073	84.31
455.294	79.31
455.514	91.31
455.734	90.31
455.955	74.31
456.175	75.31
456.395	80.31
456.616	85.31
456.836	80.31
457.056	85.31
457.276	90.31
457.497	91.31
457.717	112.31
457.937	90.31
458.157	124.31
458.377	114.31
458.598	134.31
458.818	137.31
459.038	104.31
459.258	90.31
459.478	95.31
459.698	97.31
459.918	84.31
460.138	87.31
460.358	82.31
460.578	96.31
460.798	117.31
461.018	112.31
461.238	89.31
461.458	82.31
461.678	77.31
461.898	83.31
462.118	83.31
462.338	96.31
462.558	91.31
462.777	76.31
462.997	82.31
463.217	89.31
463.437	79.31
463.657	79.31
463.876	75.31
464.096	86.31
464.316	92.31
464.536	87.31
464.755	73.31
464.975	88.31
465.195	82.31
465.414	88.31
465.634	84.31
465.854	80.31
466.073	74.31
466.293	76.31
466.512	84.31
466.732	83.31
466.951	79.31
467.171	102.31
467.391	83.31
467.61	95.31
467.829	76.31
468.049	91.31
468.268	78.31
468.488	82.31
468.707	83.31
468.927	82.31
469.146	98.31
469.365	97.31
469.585	83.31
469.804	82.31
470.023	83.31
470.243	74.31
470.462	89.31
470.681	74.31
470.901	83.31
471.12	77.31
471.339	84.31
471.558	84.31
471.777	92.31
471.997	77.31
472.216	86.31
472.435	88.31
472.654	84.31
472.873	94.31
473.092	88.31
473.311	90.31
473.53	93.31
473.749	80.31
473.968	80.31
474.187	90.31
474.406	76.31
474.625	81.31
474.844	70.31
475.063	85.31
475.282	88.31
475.501	90.31
475.72	81.31
475.939	72.31
476.158	90.31
476.377	68.31
476.596	86.31
476.814	97.31
477.033	89.31
477.252	88.31
477.471	86.31
477.69	81.31
477.908	66.31
478.127	91.31
478.346	84.31
478.564	83.31
478.783	80.31
479.002	88.31
479.22	83.31
479.439	76.31
479.658	101.31
479.876	85.31
480.095	87.31
480.313	88.31
480.532	96.31
480.751	77.31
480.969	89.31
481.188	84.31
481.406	76.31
481.624	70.31
481.843	89.31
482.061	86.31
482.28	91.31
482.498	90.31
482.717	97.31
482.935	80.31
483.153	89.31
483.372	85.31
483.59	95.31
483.808	74.31
484.027	92.31
484.245	88.31
484.463	87.31
484.681	91.31
484.9	86.31
485.118	88.31
485.336	100.31
485.554	86.31
485.772	99.31
485.99	71.31
486.209	87.31
486.427	80.31
486.645	96.31
486.863	92.31
487.081	81.31
487.299	84.31
487.517	101.31
487.735	118.31
487.953	184.31
488.171	135.31
488.389	101.31
488.607	88.31
488.825	77.31
489.043	82.31
489.261	84.31
489.479	82.31
489.696	83.31
489.914	99.31
490.132	86.31
490.35	79.31
490.568	81.31
490.786	82.31
491.003	94.31
491.221	94.31
491.439	82.31
491.657	88.31
491.874	75.31
492.092	67.31
492.31	87.31
492.527	82.31
492.745	95.31
492.963	78.31
493.18	89.31
493.398	86.31
493.615	82.31
493.833	86.31
494.05	89.31
494.268	95.31
494.485	91.31
494.703	94.31
494.92	84.31
495.138	87.31
495.355	87.31
495.573	96.31
495.79	82.31
496.008	85.31
496.225	84.31
496.442	90.31
496.66	89.31
496.877	71.31
497.094	71.31
497.312	94.31
497.529	88.31
497.746	93.31
497.963	76.31
498.181	82.31
498.398	88.31
498.615	96.31
498.832	104.31
499.049	83.31
499.267	102.31
499.484	87.31
499.701	85.31
499.918	94.31
500.135	73.31
500.352	74.31
500.569	69.31
500.786	91.31
501.003	96.31
501.22	91.31
501.437	91.31
501.654	99.31
501.871	92.31
502.088	90.31
502.305	82.31
502.522	78.31
502.739	84.31
502.956	83.31
503.172	92.31
503.389	86.31
503.606	95.31
503.823	107.31
504.04	96.31
504.256	144.31
504.473	132.31
504.69	95.31
504.907	77.31
505.123	107.31
505.34	94.31
505.557	100.31
505.773	91.31
505.99	91.31
506.207	87.31
506.423	86.31
506.64	87.31
506.856	87.31
507.073	88.31
507.289	84.31
507.506	97.31
507.722	84.31
507.939	82.31
508.155	83.31
508.372	80.31
508.588	92.31
508.805	86.31
509.021	76.31
509.238	81.31
509.454	84.31
509.67	84.31
509.887	93.31
510.103	100.31
510.319	90.31
510.536	82.31
510.752	87.31
510.968	91.31
511.184	81.31
511.401	94.31
511.617	94.31
511.833	85.31
512.049	72.31
512.265	96.31
512.481	88.31
512.698	92.31
512.914	67.31
513.13	95.31
513.346	91.31
513.562	78.31
513.778	88.31
513.994	90.31
514.21	95.31
514.426	81.31
514.642	84.31
514.858	84.31
515.074	83.31
515.29	82.31
515.506	92.31
515.721	74.31
515.937	89.31
516.153	93.31
516.369	86.31
516.585	89.31
516.801	89.31
517.016	112.31
517.232	86.31
517.448	79.31
517.664	92.31
517.879	97.31
518.095	90.31
518.311	91.31
