Data from CBS_3_HRD10591_00032.txt Node
Date: Mon Jan 19 14:05:54 EST 2026
User: Yrep
Spectrometer: HR+D1059
Trigger mode: 1
Integration Time (sec): 1.000000E-1
Scans to average: 1
Electric dark correction enabled: true
Nonlinearity correction enabled: false
Boxcar width: 0
XAxis mode: Wavelengths
Number of Pixels in Spectrum: 2048
>>>>>Begin Spectral Data<<<<<
223.165	-19.25
223.4	-19.25
223.635	-19.25
223.869	-16.25
224.104	-17.25
224.338	-24.25
224.573	-19.25
224.808	-11.25
225.042	-7.25
225.277	-3.25
225.511	14.75
225.746	3.75
225.98	8.75
226.215	19.75
226.449	14.75
226.683	24.75
226.918	6.75
227.152	24.75
227.387	41.75
227.621	39.75
227.856	48.75
228.09	54.75
228.324	44.75
228.559	53.75
228.793	63.75
229.027	57.75
229.262	70.75
229.496	60.75
229.73	69.75
229.964	68.75
230.199	62.75
230.433	85.75
230.667	78.75
230.901	83.75
231.136	92.75
231.37	72.75
231.604	80.75
231.838	68.75
232.072	82.75
232.306	82.75
232.541	81.75
232.775	88.75
233.009	77.75
233.243	74.75
233.477	76.75
233.711	70.75
233.945	71.75
234.179	69.75
234.413	80.75
234.647	82.75
234.881	80.75
235.115	72.75
235.349	75.75
235.583	73.75
235.817	90.75
236.051	69.75
236.285	73.75
236.519	86.75
236.753	67.75
236.987	83.75
237.221	76.75
237.455	71.75
237.689	71.75
237.922	79.75
238.156	71.75
238.39	66.75
238.624	64.75
238.858	79.75
239.091	71.75
239.325	65.75
239.559	65.75
239.793	73.75
240.027	77.75
240.26	85.75
240.494	77.75
240.728	85.75
240.961	74.75
241.195	73.75
241.429	72.75
241.662	84.75
241.896	82.75
242.13	67.75
242.363	62.75
242.597	77.75
242.83	68.75
243.064	75.75
243.298	69.75
243.531	71.75
243.765	75.75
243.998	78.75
244.232	88.75
244.465	76.75
244.699	82.75
244.932	76.75
245.166	64.75
245.399	79.75
245.633	82.75
245.866	78.75
246.099	89.75
246.333	78.75
246.566	87.75
246.8	75.75
247.033	72.75
247.266	84.75
247.5	90.75
247.733	78.75
247.966	77.75
248.2	85.75
248.433	76.75
248.666	66.75
248.899	78.75
249.133	70.75
249.366	75.75
249.599	82.75
249.832	82.75
250.066	93.75
250.299	77.75
250.532	77.75
250.765	78.75
250.998	86.75
251.231	80.75
251.465	70.75
251.698	82.75
251.931	71.75
252.164	80.75
252.397	71.75
252.63	86.75
252.863	73.75
253.096	86.75
253.329	75.75
253.562	70.75
253.795	80.75
254.028	76.75
254.261	70.75
254.494	57.75
254.727	79.75
254.96	81.75
255.193	80.75
255.426	62.75
255.659	78.75
255.892	77.75
256.124	86.75
256.357	95.75
256.59	76.75
256.823	72.75
257.056	75.75
257.289	80.75
257.521	72.75
257.754	73.75
257.987	81.75
258.22	81.75
258.452	77.75
258.685	65.75
258.918	60.75
259.151	78.75
259.383	65.75
259.616	79.75
259.849	78.75
260.081	82.75
260.314	75.75
260.547	80.75
260.779	72.75
261.012	70.75
261.244	81.75
261.477	79.75
261.71	81.75
261.942	79.75
262.175	78.75
262.407	73.75
262.64	78.75
262.872	63.75
263.105	71.75
263.337	82.75
263.57	103.75
263.802	80.75
264.035	79.75
264.267	88.75
264.499	78.75
264.732	73.75
264.964	62.75
265.197	81.75
265.429	84.75
265.661	80.75
265.894	70.75
266.126	73.75
266.358	86.75
266.591	64.75
266.823	74.75
267.055	76.75
267.287	73.75
267.52	85.75
267.752	70.75
267.984	88.75
268.216	87.75
268.448	88.75
268.681	94.75
268.913	83.75
269.145	86.75
269.377	71.75
269.609	75.75
269.841	85.75
270.073	83.75
270.306	83.75
270.538	70.75
270.77	83.75
271.002	73.75
271.234	88.75
271.466	88.75
271.698	66.75
271.93	78.75
272.162	73.75
272.394	78.75
272.626	83.75
272.858	80.75
273.09	82.75
273.322	87.75
273.553	87.75
273.785	74.75
274.017	90.75
274.249	84.75
274.481	65.75
274.713	65.75
274.945	79.75
275.176	75.75
275.408	87.75
275.64	91.75
275.872	71.75
276.104	94.75
276.335	80.75
276.567	65.75
276.799	86.75
277.031	83.75
277.262	75.75
277.494	97.75
277.726	90.75
277.957	77.75
278.189	76.75
278.421	85.75
278.652	86.75
278.884	86.75
279.115	78.75
279.347	82.75
279.579	81.75
279.81	82.75
280.042	82.75
280.273	93.75
280.505	69.75
280.736	76.75
280.968	66.75
281.199	87.75
281.431	79.75
281.662	92.75
281.894	87.75
282.125	84.75
282.356	75.75
282.588	76.75
282.819	81.75
283.051	83.75
283.282	94.75
283.513	90.75
283.745	78.75
283.976	88.75
284.207	78.75
284.439	91.75
284.67	73.75
284.901	83.75
285.132	76.75
285.364	66.75
285.595	92.75
285.826	81.75
286.057	82.75
286.288	80.75
286.52	94.75
286.751	69.75
286.982	81.75
287.213	83.75
287.444	105.75
287.675	89.75
287.906	83.75
288.138	80.75
288.369	89.75
288.6	85.75
288.831	94.75
289.062	78.75
289.293	93.75
289.524	100.75
289.755	80.75
289.986	92.75
290.217	85.75
290.448	93.75
290.679	82.75
290.91	90.75
291.141	91.75
291.371	83.75
291.602	93.75
291.833	92.75
292.064	80.75
292.295	71.75
292.526	88.75
292.757	85.75
292.987	77.75
293.218	86.75
293.449	86.75
293.68	83.75
293.91	96.75
294.141	81.75
294.372	75.75
294.603	85.75
294.833	77.75
295.064	96.75
295.295	90.75
295.525	90.75
295.756	84.75
295.987	86.75
296.217	72.75
296.448	82.75
296.679	84.75
296.909	84.75
297.14	68.75
297.37	81.75
297.601	88.75
297.831	89.75
298.062	82.75
298.292	94.75
298.523	97.75
298.753	96.75
298.984	87.75
299.214	94.75
299.445	85.75
299.675	80.75
299.905	88.75
300.136	81.75
300.366	76.75
300.597	86.75
300.827	96.75
301.057	100.75
301.288	79.75
301.518	86.75
301.748	75.75
301.979	98.75
302.209	89.75
302.439	82.75
302.669	65.75
302.9	71.75
303.13	93.75
303.36	88.75
303.59	92.75
303.82	81.75
304.051	81.75
304.281	100.75
304.511	100.75
304.741	83.75
304.971	92.75
305.201	89.75
305.431	94.75
305.661	93.75
305.891	82.75
306.121	95.75
306.352	78.75
306.582	69.75
306.812	66.75
307.042	91.75
307.272	82.75
307.502	76.75
307.731	85.75
307.961	80.75
308.191	78.75
308.421	94.75
308.651	71.75
308.881	89.75
309.111	86.75
309.341	91.75
309.571	67.75
309.8	100.75
310.03	74.75
310.26	72.75
310.49	71.75
310.72	98.75
310.949	70.75
311.179	81.75
311.409	78.75
311.639	84.75
311.868	80.75
312.098	72.75
312.328	87.75
312.557	82.75
312.787	69.75
313.017	71.75
313.246	86.75
313.476	85.75
313.706	78.75
313.935	84.75
314.165	71.75
314.394	72.75
314.624	90.75
314.853	85.75
315.083	84.75
315.312	76.75
315.542	82.75
315.771	94.75
316.001	77.75
316.23	69.75
316.46	98.75
316.689	78.75
316.919	77.75
317.148	74.75
317.377	98.75
317.607	87.75
317.836	83.75
318.065	100.75
318.295	78.75
318.524	95.75
318.753	84.75
318.983	80.75
319.212	88.75
319.441	88.75
319.67	70.75
319.9	80.75
320.129	76.75
320.358	70.75
320.587	96.75
320.816	82.75
321.046	74.75
321.275	84.75
321.504	89.75
321.733	80.75
321.962	82.75
322.191	79.75
322.42	83.75
322.649	74.75
322.878	73.75
323.108	78.75
323.337	87.75
323.566	91.75
323.795	78.75
324.024	92.75
324.253	76.75
324.482	78.75
324.71	82.75
324.939	87.75
325.168	84.75
325.397	103.75
325.626	93.75
325.855	74.75
326.084	78.75
326.313	78.75
326.542	86.75
326.77	80.75
326.999	84.75
327.228	80.75
327.457	97.75
327.686	90.75
327.914	85.75
328.143	95.75
328.372	87.75
328.6	83.75
328.829	77.75
329.058	89.75
329.287	71.75
329.515	92.75
329.744	94.75
329.972	95.75
330.201	92.75
330.43	89.75
330.658	89.75
330.887	70.75
331.115	72.75
331.344	86.75
331.572	99.75
331.801	88.75
332.03	91.75
332.258	87.75
332.486	81.75
332.715	92.75
332.943	78.75
333.172	89.75
333.4	76.75
333.629	104.75
333.857	88.75
334.085	94.75
334.314	90.75
334.542	81.75
334.771	86.75
334.999	90.75
335.227	81.75
335.455	94.75
335.684	79.75
335.912	73.75
336.14	82.75
336.369	95.75
336.597	90.75
336.825	85.75
337.053	85.75
337.281	98.75
337.51	89.75
337.738	89.75
337.966	91.75
338.194	70.75
338.422	72.75
338.65	94.75
338.878	73.75
339.106	75.75
339.334	85.75
339.562	79.75
339.79	86.75
340.018	94.75
340.246	77.75
340.474	81.75
340.702	82.75
340.93	78.75
341.158	80.75
341.386	75.75
341.614	82.75
341.842	87.75
342.07	86.75
342.298	80.75
342.526	73.75
342.754	82.75
342.981	72.75
343.209	84.75
343.437	92.75
343.665	83.75
343.893	75.75
344.12	99.75
344.348	78.75
344.576	87.75
344.804	77.75
345.031	84.75
345.259	74.75
345.487	92.75
345.714	74.75
345.942	88.75
346.17	78.75
346.397	85.75
346.625	93.75
346.853	72.75
347.08	76.75
347.308	71.75
347.535	84.75
347.763	87.75
347.99	86.75
348.218	98.75
348.445	89.75
348.673	103.75
348.9	93.75
349.128	94.75
349.355	97.75
349.583	74.75
349.81	72.75
350.037	82.75
350.265	96.75
350.492	84.75
350.72	69.75
350.947	85.75
351.174	79.75
351.402	85.75
351.629	86.75
351.856	87.75
352.083	80.75
352.311	87.75
352.538	87.75
352.765	91.75
352.992	101.75
353.22	80.75
353.447	80.75
353.674	82.75
353.901	73.75
354.128	80.75
354.355	95.75
354.583	97.75
354.81	81.75
355.037	83.75
355.264	80.75
355.491	72.75
355.718	70.75
355.945	83.75
356.172	62.75
356.399	85.75
356.626	69.75
356.853	66.75
357.08	83.75
357.307	82.75
357.534	84.75
357.761	65.75
357.988	85.75
358.215	80.75
358.441	80.75
358.668	91.75
358.895	95.75
359.122	88.75
359.349	84.75
359.576	84.75
359.802	75.75
360.029	84.75
360.256	86.75
360.483	85.75
360.709	93.75
360.936	89.75
361.163	82.75
361.39	92.75
361.616	76.75
361.843	79.75
362.07	94.75
362.296	85.75
362.523	87.75
362.749	108.75
362.976	100.75
363.203	102.75
363.429	95.75
363.656	87.75
363.882	84.75
364.109	89.75
364.335	92.75
364.562	108.75
364.788	99.75
365.015	84.75
365.241	80.75
365.468	73.75
365.694	74.75
365.92	93.75
366.147	84.75
366.373	85.75
366.599	75.75
366.826	84.75
367.052	65.75
367.278	70.75
367.505	80.75
367.731	86.75
367.957	84.75
368.184	81.75
368.41	86.75
368.636	92.75
368.862	94.75
369.089	83.75
369.315	91.75
369.541	84.75
369.767	79.75
369.993	84.75
370.219	83.75
370.445	83.75
370.672	92.75
370.898	85.75
371.124	83.75
371.35	72.75
371.576	92.75
371.802	80.75
372.028	85.75
372.254	62.75
372.48	71.75
372.706	95.75
372.932	72.75
373.158	88.75
373.384	87.75
373.61	81.75
373.835	98.75
374.061	84.75
374.287	93.75
374.513	86.75
374.739	84.75
374.965	82.75
375.191	73.75
375.416	79.75
375.642	85.75
375.868	96.75
376.094	78.75
376.319	70.75
376.545	80.75
376.771	92.75
376.997	92.75
377.222	93.75
377.448	78.75
377.674	79.75
377.899	83.75
378.125	82.75
378.35	85.75
378.576	70.75
378.802	64.75
379.027	81.75
379.253	74.75
379.478	79.75
379.704	93.75
379.929	86.75
380.155	75.75
380.38	64.75
380.606	79.75
380.831	89.75
381.057	97.75
381.282	75.75
381.507	89.75
381.733	93.75
381.958	84.75
382.184	88.75
382.409	93.75
382.634	76.75
382.86	96.75
383.085	83.75
383.31	79.75
383.535	88.75
383.761	83.75
383.986	86.75
384.211	78.75
384.436	88.75
384.662	72.75
384.887	70.75
385.112	85.75
385.337	90.75
385.562	82.75
385.787	86.75
386.013	81.75
386.238	87.75
386.463	74.75
386.688	112.75
386.913	87.75
387.138	80.75
387.363	88.75
387.588	84.75
387.813	81.75
388.038	90.75
388.263	95.75
388.488	85.75
388.713	71.75
388.938	88.75
389.163	79.75
389.387	83.75
389.612	84.75
389.837	78.75
390.062	82.75
390.287	94.75
390.512	82.75
390.736	90.75
390.961	85.75
391.186	97.75
391.411	77.75
391.636	101.75
391.86	93.75
392.085	89.75
392.31	87.75
392.534	92.75
392.759	100.75
392.984	133.75
393.208	197.75
393.433	257.75
393.658	201.75
393.882	111.75
394.107	108.75
394.331	98.75
394.556	91.75
394.78	96.75
395.005	78.75
395.229	88.75
395.454	93.75
395.678	104.75
395.903	112.75
396.127	110.75
396.352	119.75
396.576	129.75
396.801	192.75
397.025	194.75
397.249	125.75
397.474	124.75
397.698	99.75
397.922	79.75
398.147	93.75
398.371	82.75
398.595	94.75
398.82	85.75
399.044	100.75
399.268	90.75
399.492	91.75
399.717	84.75
399.941	83.75
400.165	77.75
400.389	90.75
400.613	96.75
400.837	84.75
401.062	74.75
401.286	69.75
401.51	75.75
401.734	78.75
401.958	82.75
402.182	70.75
402.406	68.75
402.63	79.75
402.854	70.75
403.078	88.75
403.302	93.75
403.526	90.75
403.75	81.75
403.974	78.75
404.198	77.75
404.422	91.75
404.645	82.75
404.869	75.75
405.093	89.75
405.317	66.75
405.541	76.75
405.765	81.75
405.988	96.75
406.212	95.75
406.436	84.75
406.66	74.75
406.883	83.75
407.107	80.75
407.331	78.75
407.555	90.75
407.778	91.75
408.002	99.75
408.226	84.75
408.449	81.75
408.673	65.75
408.896	67.75
409.12	77.75
409.344	82.75
409.567	83.75
409.791	91.75
410.014	85.75
410.238	102.75
410.461	85.75
410.685	87.75
410.908	85.75
411.132	88.75
411.355	69.75
411.578	86.75
411.802	81.75
412.025	83.75
412.249	74.75
412.472	88.75
412.695	88.75
412.919	84.75
413.142	77.75
413.365	85.75
413.589	85.75
413.812	75.75
414.035	88.75
414.258	85.75
414.482	87.75
414.705	83.75
414.928	75.75
415.151	95.75
415.374	77.75
415.597	86.75
415.821	95.75
416.044	80.75
416.267	87.75
416.49	87.75
416.713	71.75
416.936	73.75
417.159	82.75
417.382	69.75
417.605	68.75
417.828	78.75
418.051	78.75
418.274	81.75
418.497	71.75
418.72	78.75
418.943	90.75
419.166	88.75
419.389	68.75
419.611	75.75
419.834	86.75
420.057	89.75
420.28	68.75
420.503	86.75
420.726	72.75
420.948	75.75
421.171	86.75
421.394	93.75
421.617	104.75
421.839	98.75
422.062	103.75
422.285	111.75
422.507	190.75
422.73	266.75
422.953	243.75
423.175	135.75
423.398	114.75
423.621	97.75
423.843	85.75
424.066	93.75
424.288	88.75
424.511	84.75
424.733	79.75
424.956	74.75
425.178	72.75
425.401	84.75
425.623	90.75
425.846	83.75
426.068	80.75
426.291	80.75
426.513	82.75
426.735	68.75
426.958	75.75
427.18	80.75
427.402	88.75
427.625	82.75
427.847	89.75
428.069	95.75
428.292	106.75
428.514	112.75
428.736	98.75
428.958	90.75
429.181	127.75
429.403	94.75
429.625	83.75
429.847	97.75
430.069	129.75
430.292	131.75
430.514	129.75
430.736	111.75
430.958	119.75
431.18	79.75
431.402	78.75
431.624	82.75
431.846	91.75
432.068	105.75
432.29	100.75
432.512	78.75
432.734	68.75
432.956	86.75
433.178	81.75
433.4	77.75
433.622	86.75
433.844	93.75
434.066	86.75
434.287	83.75
434.509	78.75
434.731	77.75
434.953	75.75
435.175	72.75
435.397	74.75
435.618	89.75
435.84	84.75
436.062	89.75
436.284	85.75
436.505	81.75
436.727	86.75
436.949	85.75
437.17	88.75
437.392	91.75
437.614	78.75
437.835	75.75
438.057	72.75
438.278	87.75
438.5	81.75
438.721	87.75
438.943	85.75
439.165	82.75
439.386	88.75
439.608	72.75
439.829	88.75
440.05	80.75
440.272	88.75
440.493	73.75
440.715	85.75
440.936	97.75
441.158	90.75
441.379	85.75
441.6	75.75
441.822	75.75
442.043	87.75
442.264	92.75
442.486	93.75
442.707	118.75
442.928	96.75
443.149	92.75
443.371	129.75
443.592	169.75
443.813	155.75
444.034	100.75
444.255	73.75
444.476	96.75
444.698	86.75
444.919	94.75
445.14	168.75
445.361	170.75
445.582	206.75
445.803	191.75
446.024	92.75
446.245	95.75
446.466	86.75
446.687	72.75
446.908	83.75
447.129	71.75
447.35	72.75
447.571	77.75
447.792	74.75
448.013	86.75
448.234	81.75
448.455	82.75
448.675	85.75
448.896	96.75
449.117	89.75
449.338	80.75
449.559	103.75
449.779	73.75
450	80.75
450.221	81.75
450.442	87.75
450.662	88.75
450.883	90.75
451.104	88.75
451.324	75.75
451.545	73.75
451.766	59.75
451.986	89.75
452.207	79.75
452.428	80.75
452.648	72.75
452.869	90.75
453.089	100.75
453.31	79.75
453.53	84.75
453.751	72.75
453.971	70.75
454.192	72.75
454.412	80.75
454.633	73.75
454.853	83.75
455.073	89.75
455.294	95.75
455.514	85.75
455.734	71.75
455.955	78.75
456.175	82.75
456.395	84.75
456.616	70.75
456.836	79.75
457.056	96.75
457.276	86.75
457.497	66.75
457.717	78.75
457.937	93.75
458.157	103.75
458.377	99.75
458.598	103.75
458.818	114.75
459.038	66.75
459.258	85.75
459.478	80.75
459.698	82.75
459.918	86.75
460.138	92.75
460.358	73.75
460.578	88.75
460.798	86.75
461.018	84.75
461.238	77.75
461.458	71.75
461.678	78.75
461.898	72.75
462.118	84.75
462.338	78.75
462.558	78.75
462.777	77.75
462.997	88.75
463.217	82.75
463.437	86.75
463.657	73.75
463.876	99.75
464.096	88.75
464.316	84.75
464.536	83.75
464.755	88.75
464.975	70.75
465.195	86.75
465.414	79.75
465.634	77.75
465.854	71.75
466.073	72.75
466.293	74.75
466.512	97.75
466.732	75.75
466.951	85.75
467.171	76.75
467.391	89.75
467.61	84.75
467.829	93.75
468.049	74.75
468.268	87.75
468.488	72.75
468.707	82.75
468.927	77.75
469.146	91.75
469.365	72.75
469.585	75.75
469.804	96.75
470.023	78.75
470.243	74.75
470.462	78.75
470.681	80.75
470.901	72.75
471.12	82.75
471.339	77.75
471.558	88.75
471.777	84.75
471.997	86.75
472.216	97.75
472.435	80.75
472.654	90.75
472.873	94.75
473.092	90.75
473.311	75.75
473.53	88.75
473.749	74.75
473.968	83.75
474.187	81.75
474.406	77.75
474.625	84.75
474.844	75.75
475.063	71.75
475.282	85.75
475.501	75.75
475.72	93.75
475.939	89.75
476.158	86.75
476.377	74.75
476.596	89.75
476.814	88.75
477.033	68.75
477.252	67.75
477.471	70.75
477.69	78.75
477.908	80.75
478.127	76.75
478.346	86.75
478.564	85.75
478.783	75.75
479.002	75.75
479.22	81.75
479.439	88.75
479.658	71.75
479.876	85.75
480.095	84.75
480.313	81.75
480.532	82.75
480.751	85.75
480.969	97.75
481.188	94.75
481.406	72.75
481.624	82.75
481.843	89.75
482.061	96.75
482.28	92.75
482.498	86.75
482.717	73.75
482.935	85.75
483.153	84.75
483.372	95.75
483.59	81.75
483.808	80.75
484.027	81.75
484.245	103.75
484.463	86.75
484.681	88.75
484.9	74.75
485.118	60.75
485.336	74.75
485.554	82.75
485.772	105.75
485.99	87.75
486.209	81.75
486.427	84.75
486.645	76.75
486.863	83.75
487.081	88.75
487.299	75.75
487.517	94.75
487.735	94.75
487.953	128.75
488.171	126.75
488.389	83.75
488.607	92.75
488.825	87.75
489.043	68.75
489.261	85.75
489.479	84.75
489.696	97.75
489.914	95.75
490.132	80.75
490.35	78.75
490.568	83.75
490.786	79.75
491.003	89.75
491.221	70.75
491.439	71.75
491.657	70.75
491.874	82.75
492.092	86.75
492.31	74.75
492.527	78.75
492.745	85.75
492.963	73.75
493.18	82.75
493.398	76.75
493.615	72.75
493.833	80.75
494.05	70.75
494.268	74.75
494.485	84.75
494.703	85.75
494.92	89.75
495.138	73.75
495.355	78.75
495.573	72.75
495.79	93.75
496.008	89.75
496.225	85.75
496.442	91.75
496.66	81.75
496.877	71.75
497.094	78.75
497.312	70.75
497.529	87.75
497.746	96.75
497.963	90.75
498.181	85.75
498.398	80.75
498.615	77.75
498.832	76.75
499.049	85.75
499.267	91.75
499.484	74.75
499.701	78.75
499.918	81.75
500.135	82.75
500.352	84.75
500.569	82.75
500.786	85.75
501.003	79.75
501.22	80.75
501.437	80.75
501.654	80.75
501.871	100.75
502.088	81.75
502.305	81.75
502.522	74.75
502.739	92.75
502.956	95.75
503.172	83.75
503.389	66.75
503.606	91.75
503.823	96.75
504.04	95.75
504.256	114.75
504.473	120.75
504.69	86.75
504.907	95.75
505.123	80.75
505.34	74.75
505.557	80.75
505.773	95.75
505.99	80.75
506.207	64.75
506.423	94.75
506.64	85.75
506.856	76.75
507.073	86.75
507.289	63.75
507.506	70.75
507.722	83.75
507.939	99.75
508.155	87.75
508.372	73.75
508.588	81.75
508.805	85.75
509.021	84.75
509.238	69.75
509.454	67.75
509.67	71.75
509.887	77.75
510.103	92.75
510.319	73.75
510.536	80.75
510.752	77.75
510.968	82.75
511.184	72.75
511.401	78.75
511.617	98.75
511.833	74.75
512.049	90.75
512.265	87.75
512.481	85.75
512.698	90.75
512.914	93.75
513.13	82.75
513.346	86.75
513.562	77.75
513.778	81.75
513.994	87.75
514.21	74.75
514.426	88.75
514.642	75.75
514.858	85.75
515.074	74.75
515.29	91.75
515.506	91.75
515.721	80.75
515.937	87.75
516.153	106.75
516.369	89.75
516.585	80.75
516.801	85.75
517.016	85.75
517.232	84.75
517.448	80.75
517.664	80.75
517.879	71.75
518.095	86.75
518.311	91.75
518.527	100.75
518.742	93.75
518.958	134.75
519.173	126.75
