Data from CBS_3_HRD10591_00025.txt Node
Date: Mon Jan 19 14:05:51 EST 2026
User: Yrep
Spectrometer: HR+D1059
Trigger mode: 1
Integration Time (sec): 1.000000E-1
Scans to average: 1
Electric dark correction enabled: true
Nonlinearity correction enabled: false
Boxcar width: 0
XAxis mode: Wavelengths
Number of Pixels in Spectrum: 2048
>>>>>Begin Spectral Data<<<<<
223.165	-23.31
223.4	-23.31
223.635	-23.31
223.869	-18.31
224.104	-6.31
224.338	-16.31
224.573	-9.31
224.808	-4.31
225.042	-0.31
225.277	-9.31
225.511	5.69
225.746	11.69
225.98	3.69
226.215	-3.31
226.449	8.69
226.683	21.69
226.918	12.69
227.152	26.69
227.387	32.69
227.621	37.69
227.856	21.69
228.09	38.69
228.324	36.69
228.559	45.69
228.793	69.69
229.027	66.69
229.262	74.69
229.496	73.69
229.73	73.69
229.964	70.69
230.199	68.69
230.433	63.69
230.667	61.69
230.901	61.69
231.136	91.69
231.37	84.69
231.604	72.69
231.838	73.69
232.072	69.69
232.306	72.69
232.541	75.69
232.775	74.69
233.009	73.69
233.243	86.69
233.477	83.69
233.711	71.69
233.945	81.69
234.179	76.69
234.413	79.69
234.647	70.69
234.881	67.69
235.115	91.69
235.349	73.69
235.583	92.69
235.817	86.69
236.051	81.69
236.285	77.69
236.519	77.69
236.753	78.69
236.987	74.69
237.221	69.69
237.455	65.69
237.689	62.69
237.922	77.69
238.156	81.69
238.39	65.69
238.624	80.69
238.858	63.69
239.091	73.69
239.325	67.69
239.559	75.69
239.793	60.69
240.027	74.69
240.26	71.69
240.494	79.69
240.728	76.69
240.961	59.69
241.195	88.69
241.429	84.69
241.662	70.69
241.896	74.69
242.13	67.69
242.363	74.69
242.597	69.69
242.83	62.69
243.064	64.69
243.298	65.69
243.531	81.69
243.765	72.69
243.998	74.69
244.232	79.69
244.465	75.69
244.699	83.69
244.932	67.69
245.166	80.69
245.399	71.69
245.633	67.69
245.866	79.69
246.099	87.69
246.333	100.69
246.566	66.69
246.8	85.69
247.033	71.69
247.266	65.69
247.5	68.69
247.733	72.69
247.966	70.69
248.2	79.69
248.433	63.69
248.666	67.69
248.899	82.69
249.133	71.69
249.366	71.69
249.599	82.69
249.832	71.69
250.066	79.69
250.299	75.69
250.532	83.69
250.765	79.69
250.998	74.69
251.231	87.69
251.465	75.69
251.698	74.69
251.931	73.69
252.164	73.69
252.397	74.69
252.63	60.69
252.863	64.69
253.096	73.69
253.329	76.69
253.562	85.69
253.795	93.69
254.028	74.69
254.261	75.69
254.494	85.69
254.727	87.69
254.96	83.69
255.193	75.69
255.426	79.69
255.659	82.69
255.892	75.69
256.124	72.69
256.357	82.69
256.59	89.69
256.823	99.69
257.056	79.69
257.289	93.69
257.521	78.69
257.754	74.69
257.987	82.69
258.22	73.69
258.452	87.69
258.685	83.69
258.918	77.69
259.151	94.69
259.383	80.69
259.616	69.69
259.849	76.69
260.081	95.69
260.314	83.69
260.547	79.69
260.779	66.69
261.012	87.69
261.244	83.69
261.477	78.69
261.71	83.69
261.942	81.69
262.175	76.69
262.407	82.69
262.64	77.69
262.872	81.69
263.105	81.69
263.337	78.69
263.57	79.69
263.802	82.69
264.035	89.69
264.267	67.69
264.499	87.69
264.732	92.69
264.964	86.69
265.197	87.69
265.429	95.69
265.661	70.69
265.894	83.69
266.126	97.69
266.358	91.69
266.591	71.69
266.823	61.69
267.055	82.69
267.287	79.69
267.52	72.69
267.752	79.69
267.984	77.69
268.216	73.69
268.448	81.69
268.681	79.69
268.913	76.69
269.145	83.69
269.377	80.69
269.609	76.69
269.841	69.69
270.073	66.69
270.306	86.69
270.538	88.69
270.77	73.69
271.002	85.69
271.234	72.69
271.466	82.69
271.698	87.69
271.93	72.69
272.162	79.69
272.394	81.69
272.626	98.69
272.858	75.69
273.09	70.69
273.322	72.69
273.553	78.69
273.785	75.69
274.017	88.69
274.249	73.69
274.481	82.69
274.713	78.69
274.945	69.69
275.176	72.69
275.408	77.69
275.64	89.69
275.872	83.69
276.104	80.69
276.335	63.69
276.567	90.69
276.799	81.69
277.031	79.69
277.262	83.69
277.494	80.69
277.726	84.69
277.957	87.69
278.189	98.69
278.421	82.69
278.652	78.69
278.884	73.69
279.115	90.69
279.347	82.69
279.579	72.69
279.81	70.69
280.042	79.69
280.273	60.69
280.505	73.69
280.736	82.69
280.968	91.69
281.199	79.69
281.431	82.69
281.662	80.69
281.894	75.69
282.125	74.69
282.356	81.69
282.588	75.69
282.819	77.69
283.051	79.69
283.282	74.69
283.513	87.69
283.745	82.69
283.976	77.69
284.207	88.69
284.439	82.69
284.67	75.69
284.901	91.69
285.132	75.69
285.364	102.69
285.595	85.69
285.826	75.69
286.057	97.69
286.288	87.69
286.52	85.69
286.751	84.69
286.982	80.69
287.213	81.69
287.444	89.69
287.675	77.69
287.906	81.69
288.138	83.69
288.369	75.69
288.6	82.69
288.831	87.69
289.062	74.69
289.293	81.69
289.524	70.69
289.755	83.69
289.986	67.69
290.217	81.69
290.448	89.69
290.679	88.69
290.91	99.69
291.141	76.69
291.371	75.69
291.602	93.69
291.833	84.69
292.064	88.69
292.295	83.69
292.526	80.69
292.757	74.69
292.987	84.69
293.218	85.69
293.449	82.69
293.68	74.69
293.91	87.69
294.141	81.69
294.372	83.69
294.603	77.69
294.833	79.69
295.064	88.69
295.295	79.69
295.525	89.69
295.756	99.69
295.987	79.69
296.217	79.69
296.448	91.69
296.679	88.69
296.909	82.69
297.14	103.69
297.37	78.69
297.601	82.69
297.831	79.69
298.062	81.69
298.292	87.69
298.523	79.69
298.753	77.69
298.984	86.69
299.214	93.69
299.445	89.69
299.675	63.69
299.905	89.69
300.136	76.69
300.366	79.69
300.597	86.69
300.827	87.69
301.057	85.69
301.288	88.69
301.518	85.69
301.748	80.69
301.979	93.69
302.209	105.69
302.439	84.69
302.669	76.69
302.9	84.69
303.13	77.69
303.36	61.69
303.59	93.69
303.82	76.69
304.051	84.69
304.281	89.69
304.511	80.69
304.741	88.69
304.971	92.69
305.201	74.69
305.431	74.69
305.661	88.69
305.891	97.69
306.121	72.69
306.352	75.69
306.582	79.69
306.812	76.69
307.042	75.69
307.272	86.69
307.502	89.69
307.731	72.69
307.961	87.69
308.191	88.69
308.421	82.69
308.651	94.69
308.881	84.69
309.111	80.69
309.341	91.69
309.571	75.69
309.8	84.69
310.03	74.69
310.26	89.69
310.49	86.69
310.72	66.69
310.949	99.69
311.179	81.69
311.409	86.69
311.639	77.69
311.868	86.69
312.098	78.69
312.328	82.69
312.557	87.69
312.787	93.69
313.017	75.69
313.246	81.69
313.476	94.69
313.706	87.69
313.935	85.69
314.165	94.69
314.394	95.69
314.624	92.69
314.853	67.69
315.083	79.69
315.312	82.69
315.542	96.69
315.771	81.69
316.001	78.69
316.23	81.69
316.46	79.69
316.689	75.69
316.919	89.69
317.148	74.69
317.377	66.69
317.607	88.69
317.836	90.69
318.065	95.69
318.295	81.69
318.524	74.69
318.753	85.69
318.983	83.69
319.212	74.69
319.441	93.69
319.67	90.69
319.9	92.69
320.129	96.69
320.358	79.69
320.587	75.69
320.816	111.69
321.046	85.69
321.275	82.69
321.504	79.69
321.733	78.69
321.962	75.69
322.191	82.69
322.42	78.69
322.649	101.69
322.878	91.69
323.108	90.69
323.337	93.69
323.566	74.69
323.795	91.69
324.024	86.69
324.253	86.69
324.482	80.69
324.71	85.69
324.939	101.69
325.168	87.69
325.397	83.69
325.626	91.69
325.855	81.69
326.084	80.69
326.313	87.69
326.542	73.69
326.77	90.69
326.999	86.69
327.228	91.69
327.457	73.69
327.686	84.69
327.914	86.69
328.143	89.69
328.372	84.69
328.6	101.69
328.829	90.69
329.058	87.69
329.287	66.69
329.515	74.69
329.744	73.69
329.972	83.69
330.201	82.69
330.43	86.69
330.658	79.69
330.887	82.69
331.115	83.69
331.344	84.69
331.572	81.69
331.801	80.69
332.03	91.69
332.258	90.69
332.486	90.69
332.715	85.69
332.943	87.69
333.172	70.69
333.4	86.69
333.629	81.69
333.857	79.69
334.085	84.69
334.314	98.69
334.542	81.69
334.771	81.69
334.999	95.69
335.227	87.69
335.455	79.69
335.684	95.69
335.912	99.69
336.14	89.69
336.369	87.69
336.597	99.69
336.825	73.69
337.053	85.69
337.281	85.69
337.51	98.69
337.738	81.69
337.966	94.69
338.194	87.69
338.422	68.69
338.65	68.69
338.878	95.69
339.106	85.69
339.334	76.69
339.562	84.69
339.79	73.69
340.018	86.69
340.246	77.69
340.474	93.69
340.702	88.69
340.93	81.69
341.158	74.69
341.386	73.69
341.614	77.69
341.842	84.69
342.07	75.69
342.298	83.69
342.526	85.69
342.754	86.69
342.981	66.69
343.209	67.69
343.437	89.69
343.665	78.69
343.893	88.69
344.12	77.69
344.348	91.69
344.576	79.69
344.804	82.69
345.031	88.69
345.259	87.69
345.487	73.69
345.714	82.69
345.942	89.69
346.17	78.69
346.397	98.69
346.625	69.69
346.853	79.69
347.08	84.69
347.308	87.69
347.535	87.69
347.763	83.69
347.99	87.69
348.218	84.69
348.445	87.69
348.673	90.69
348.9	83.69
349.128	78.69
349.355	96.69
349.583	74.69
349.81	95.69
350.037	75.69
350.265	81.69
350.492	80.69
350.72	78.69
350.947	93.69
351.174	85.69
351.402	83.69
351.629	81.69
351.856	70.69
352.083	77.69
352.311	79.69
352.538	87.69
352.765	86.69
352.992	97.69
353.22	90.69
353.447	74.69
353.674	80.69
353.901	93.69
354.128	87.69
354.355	71.69
354.583	78.69
354.81	96.69
355.037	87.69
355.264	100.69
355.491	87.69
355.718	77.69
355.945	79.69
356.172	76.69
356.399	88.69
356.626	81.69
356.853	75.69
357.08	98.69
357.307	73.69
357.534	74.69
357.761	91.69
357.988	85.69
358.215	90.69
358.441	79.69
358.668	88.69
358.895	91.69
359.122	79.69
359.349	78.69
359.576	93.69
359.802	88.69
360.029	82.69
360.256	86.69
360.483	75.69
360.709	85.69
360.936	89.69
361.163	79.69
361.39	74.69
361.616	99.69
361.843	96.69
362.07	84.69
362.296	72.69
362.523	97.69
362.749	83.69
362.976	94.69
363.203	89.69
363.429	97.69
363.656	94.69
363.882	106.69
364.109	107.69
364.335	99.69
364.562	104.69
364.788	84.69
365.015	85.69
365.241	94.69
365.468	102.69
365.694	96.69
365.92	83.69
366.147	83.69
366.373	80.69
366.599	85.69
366.826	76.69
367.052	77.69
367.278	91.69
367.505	87.69
367.731	81.69
367.957	79.69
368.184	84.69
368.41	68.69
368.636	105.69
368.862	79.69
369.089	87.69
369.315	81.69
369.541	83.69
369.767	90.69
369.993	82.69
370.219	79.69
370.445	97.69
370.672	102.69
370.898	94.69
371.124	88.69
371.35	90.69
371.576	83.69
371.802	82.69
372.028	83.69
372.254	73.69
372.48	85.69
372.706	87.69
372.932	81.69
373.158	83.69
373.384	75.69
373.61	83.69
373.835	89.69
374.061	77.69
374.287	88.69
374.513	89.69
374.739	97.69
374.965	92.69
375.191	72.69
375.416	83.69
375.642	93.69
375.868	81.69
376.094	87.69
376.319	71.69
376.545	84.69
376.771	85.69
376.997	89.69
377.222	68.69
377.448	85.69
377.674	85.69
377.899	83.69
378.125	69.69
378.35	73.69
378.576	69.69
378.802	83.69
379.027	87.69
379.253	78.69
379.478	84.69
379.704	70.69
379.929	83.69
380.155	87.69
380.38	91.69
380.606	93.69
380.831	88.69
381.057	86.69
381.282	79.69
381.507	81.69
381.733	76.69
381.958	78.69
382.184	92.69
382.409	80.69
382.634	93.69
382.86	77.69
383.085	82.69
383.31	77.69
383.535	79.69
383.761	74.69
383.986	77.69
384.211	86.69
384.436	93.69
384.662	87.69
384.887	94.69
385.112	68.69
385.337	89.69
385.562	89.69
385.787	75.69
386.013	93.69
386.238	75.69
386.463	85.69
386.688	89.69
386.913	90.69
387.138	84.69
387.363	75.69
387.588	83.69
387.813	73.69
388.038	85.69
388.263	89.69
388.488	75.69
388.713	74.69
388.938	85.69
389.163	79.69
389.387	73.69
389.612	95.69
389.837	78.69
390.062	90.69
390.287	81.69
390.512	77.69
390.736	89.69
390.961	76.69
391.186	83.69
391.411	87.69
391.636	96.69
391.86	79.69
392.085	79.69
392.31	83.69
392.534	88.69
392.759	93.69
392.984	133.69
393.208	163.69
393.433	226.69
393.658	193.69
393.882	107.69
394.107	90.69
394.331	88.69
394.556	73.69
394.78	78.69
395.005	90.69
395.229	91.69
395.454	88.69
395.678	78.69
395.903	86.69
396.127	104.69
396.352	110.69
396.576	123.69
396.801	170.69
397.025	202.69
397.249	128.69
397.474	117.69
397.698	79.69
397.922	88.69
398.147	62.69
398.371	92.69
398.595	87.69
398.82	88.69
399.044	73.69
399.268	69.69
399.492	87.69
399.717	86.69
399.941	89.69
400.165	83.69
400.389	71.69
400.613	81.69
400.837	78.69
401.062	76.69
401.286	80.69
401.51	89.69
401.734	87.69
401.958	65.69
402.182	99.69
402.406	73.69
402.63	93.69
402.854	66.69
403.078	81.69
403.302	93.69
403.526	82.69
403.75	75.69
403.974	78.69
404.198	98.69
404.422	93.69
404.645	102.69
404.869	98.69
405.093	76.69
405.317	83.69
405.541	82.69
405.765	82.69
405.988	74.69
406.212	78.69
406.436	83.69
406.66	89.69
406.883	81.69
407.107	86.69
407.331	86.69
407.555	87.69
407.778	86.69
408.002	88.69
408.226	75.69
408.449	68.69
408.673	81.69
408.896	87.69
409.12	87.69
409.344	75.69
409.567	89.69
409.791	79.69
410.014	88.69
410.238	73.69
410.461	81.69
410.685	87.69
410.908	82.69
411.132	82.69
411.355	82.69
411.578	75.69
411.802	85.69
412.025	65.69
412.249	81.69
412.472	77.69
412.695	66.69
412.919	85.69
413.142	91.69
413.365	88.69
413.589	83.69
413.812	89.69
414.035	80.69
414.258	76.69
414.482	95.69
414.705	90.69
414.928	96.69
415.151	75.69
415.374	79.69
415.597	101.69
415.821	81.69
416.044	70.69
416.267	85.69
416.49	80.69
416.713	79.69
416.936	70.69
417.159	79.69
417.382	70.69
417.605	82.69
417.828	76.69
418.051	78.69
418.274	73.69
418.497	70.69
418.72	86.69
418.943	80.69
419.166	71.69
419.389	88.69
419.611	86.69
419.834	71.69
420.057	94.69
420.28	85.69
420.503	93.69
420.726	81.69
420.948	88.69
421.171	88.69
421.394	94.69
421.617	105.69
421.839	84.69
422.062	102.69
422.285	113.69
422.507	173.69
422.73	236.69
422.953	238.69
423.175	141.69
423.398	101.69
423.621	84.69
423.843	84.69
424.066	66.69
424.288	102.69
424.511	100.69
424.733	89.69
424.956	68.69
425.178	75.69
425.401	85.69
425.623	79.69
425.846	91.69
426.068	80.69
426.291	80.69
426.513	72.69
426.735	73.69
426.958	86.69
427.18	87.69
427.402	86.69
427.625	89.69
427.847	85.69
428.069	93.69
428.292	91.69
428.514	108.69
428.736	82.69
428.958	105.69
429.181	98.69
429.403	86.69
429.625	86.69
429.847	95.69
430.069	132.69
430.292	110.69
430.514	104.69
430.736	88.69
430.958	100.69
431.18	93.69
431.402	80.69
431.624	87.69
431.846	92.69
432.068	117.69
432.29	74.69
432.512	90.69
432.734	75.69
432.956	89.69
433.178	100.69
433.4	102.69
433.622	81.69
433.844	75.69
434.066	93.69
434.287	76.69
434.509	80.69
434.731	87.69
434.953	85.69
435.175	87.69
435.397	88.69
435.618	85.69
435.84	78.69
436.062	80.69
436.284	70.69
436.505	85.69
436.727	85.69
436.949	78.69
437.17	73.69
437.392	81.69
437.614	66.69
437.835	81.69
438.057	85.69
438.278	93.69
438.5	81.69
438.721	93.69
438.943	75.69
439.165	75.69
439.386	79.69
439.608	86.69
439.829	71.69
440.05	74.69
440.272	103.69
440.493	92.69
440.715	79.69
440.936	84.69
441.158	81.69
441.379	65.69
441.6	74.69
441.822	85.69
442.043	80.69
442.264	87.69
442.486	95.69
442.707	119.69
442.928	121.69
443.149	76.69
443.371	110.69
443.592	145.69
443.813	152.69
444.034	96.69
444.255	83.69
444.476	83.69
444.698	88.69
444.919	68.69
445.14	164.69
445.361	160.69
445.582	185.69
445.803	156.69
446.024	101.69
446.245	86.69
446.466	78.69
446.687	78.69
446.908	73.69
447.129	85.69
447.35	70.69
447.571	75.69
447.792	69.69
448.013	87.69
448.234	89.69
448.455	74.69
448.675	87.69
448.896	68.69
449.117	75.69
449.338	79.69
449.559	85.69
449.779	82.69
450	77.69
450.221	81.69
450.442	91.69
450.662	83.69
450.883	82.69
451.104	84.69
451.324	73.69
451.545	100.69
451.766	83.69
451.986	79.69
452.207	101.69
452.428	93.69
452.648	92.69
452.869	79.69
453.089	86.69
453.31	79.69
453.53	78.69
453.751	81.69
453.971	90.69
454.192	87.69
454.412	85.69
454.633	87.69
454.853	92.69
455.073	88.69
455.294	79.69
455.514	70.69
455.734	88.69
455.955	96.69
456.175	81.69
456.395	81.69
456.616	89.69
456.836	82.69
457.056	86.69
457.276	87.69
457.497	84.69
457.717	81.69
457.937	89.69
458.157	104.69
458.377	95.69
458.598	109.69
458.818	97.69
459.038	85.69
459.258	91.69
459.478	81.69
459.698	93.69
459.918	96.69
460.138	72.69
460.358	83.69
460.578	89.69
460.798	111.69
461.018	91.69
461.238	83.69
461.458	74.69
461.678	88.69
461.898	79.69
462.118	72.69
462.338	81.69
462.558	78.69
462.777	96.69
462.997	83.69
463.217	79.69
463.437	68.69
463.657	96.69
463.876	87.69
464.096	97.69
464.316	83.69
464.536	71.69
464.755	67.69
464.975	74.69
465.195	70.69
465.414	86.69
465.634	81.69
465.854	81.69
466.073	73.69
466.293	82.69
466.512	95.69
466.732	89.69
466.951	88.69
467.171	72.69
467.391	74.69
467.61	93.69
467.829	91.69
468.049	72.69
468.268	90.69
468.488	82.69
468.707	72.69
468.927	83.69
469.146	81.69
469.365	71.69
469.585	81.69
469.804	90.69
470.023	68.69
470.243	101.69
470.462	86.69
470.681	78.69
470.901	91.69
471.12	85.69
471.339	77.69
471.558	92.69
471.777	93.69
471.997	87.69
472.216	83.69
472.435	88.69
472.654	85.69
472.873	76.69
473.092	79.69
473.311	77.69
473.53	79.69
473.749	91.69
473.968	92.69
474.187	88.69
474.406	81.69
474.625	87.69
474.844	87.69
475.063	93.69
475.282	79.69
475.501	78.69
475.72	75.69
475.939	77.69
476.158	86.69
476.377	81.69
476.596	83.69
476.814	73.69
477.033	88.69
477.252	73.69
477.471	80.69
477.69	91.69
477.908	73.69
478.127	84.69
478.346	74.69
478.564	80.69
478.783	80.69
479.002	86.69
479.22	75.69
479.439	83.69
479.658	79.69
479.876	79.69
480.095	78.69
480.313	76.69
480.532	107.69
480.751	91.69
480.969	82.69
481.188	88.69
481.406	81.69
481.624	77.69
481.843	67.69
482.061	92.69
482.28	84.69
482.498	85.69
482.717	81.69
482.935	73.69
483.153	85.69
483.372	89.69
483.59	82.69
483.808	82.69
484.027	82.69
484.245	88.69
484.463	93.69
484.681	92.69
484.9	92.69
485.118	87.69
485.336	81.69
485.554	70.69
485.772	77.69
485.99	81.69
486.209	84.69
486.427	79.69
486.645	87.69
486.863	80.69
487.081	74.69
487.299	88.69
487.517	89.69
487.735	105.69
487.953	120.69
488.171	97.69
488.389	84.69
488.607	93.69
488.825	87.69
489.043	79.69
489.261	79.69
489.479	73.69
489.696	82.69
489.914	75.69
490.132	81.69
490.35	80.69
490.568	86.69
490.786	78.69
491.003	83.69
491.221	66.69
491.439	73.69
491.657	84.69
491.874	82.69
492.092	77.69
492.31	73.69
492.527	89.69
492.745	81.69
492.963	74.69
493.18	76.69
493.398	82.69
493.615	94.69
493.833	88.69
494.05	86.69
494.268	95.69
494.485	88.69
494.703	74.69
494.92	84.69
495.138	85.69
495.355	84.69
495.573	76.69
495.79	91.69
496.008	73.69
496.225	80.69
496.442	82.69
496.66	86.69
496.877	85.69
497.094	70.69
497.312	84.69
497.529	89.69
497.746	89.69
497.963	79.69
498.181	81.69
498.398	83.69
498.615	82.69
498.832	83.69
499.049	86.69
499.267	101.69
499.484	89.69
499.701	97.69
499.918	93.69
500.135	78.69
500.352	96.69
500.569	79.69
500.786	77.69
501.003	92.69
501.22	78.69
501.437	83.69
501.654	96.69
501.871	85.69
502.088	76.69
502.305	89.69
502.522	73.69
502.739	97.69
502.956	86.69
503.172	95.69
503.389	89.69
503.606	75.69
503.823	87.69
504.04	87.69
504.256	107.69
504.473	98.69
504.69	97.69
504.907	92.69
505.123	83.69
505.34	71.69
505.557	85.69
505.773	77.69
505.99	78.69
506.207	88.69
506.423	84.69
506.64	69.69
506.856	84.69
507.073	83.69
507.289	74.69
507.506	77.69
507.722	82.69
507.939	99.69
508.155	91.69
508.372	83.69
508.588	83.69
508.805	91.69
509.021	65.69
509.238	67.69
509.454	87.69
509.67	87.69
509.887	94.69
510.103	79.69
510.319	65.69
510.536	73.69
510.752	84.69
510.968	79.69
511.184	79.69
511.401	82.69
511.617	82.69
511.833	74.69
512.049	79.69
512.265	83.69
512.481	89.69
512.698	84.69
512.914	90.69
513.13	81.69
513.346	89.69
513.562	75.69
513.778	84.69
513.994	82.69
514.21	106.69
514.426	95.69
514.642	86.69
514.858	84.69
515.074	87.69
515.29	69.69
515.506	65.69
515.721	81.69
515.937	92.69
516.153	84.69
516.369	81.69
516.585	75.69
516.801	75.69
517.016	71.69
517.232	69.69
517.448	90.69
517.664	85.69
517.879	78.69
518.095	89.69
518.311	87.69
518.527	87.69
518.742	90.69
518.958	118.69
519.173	125.69
519.389	88.69
