Data from CBS_3_HRD10591_00003.txt Node
Date: Mon Jan 19 14:05:40 EST 2026
User: Yrep
Spectrometer: HR+D1059
Trigger mode: 1
Integration Time (sec): 1.000000E-1
Scans to average: 1
Electric dark correction enabled: true
Nonlinearity correction enabled: false
Boxcar width: 0
XAxis mode: Wavelengths
Number of Pixels in Spectrum: 2048
>>>>>Begin Spectral Data<<<<<
223.165	-20.94
223.4	-20.94
223.635	-20.94
223.869	-4.94
224.104	-31.94
224.338	-8.94
224.573	-18.94
224.808	-15.94
225.042	-13.94
225.277	-6.94
225.511	0.06
225.746	13.06
225.98	0.06
226.215	2.06
226.449	18.06
226.683	13.06
226.918	32.06
227.152	44.06
227.387	41.06
227.621	47.06
227.856	40.06
228.09	44.06
228.324	41.06
228.559	72.06
228.793	60.06
229.027	59.06
229.262	57.06
229.496	63.06
229.73	65.06
229.964	67.06
230.199	70.06
230.433	85.06
230.667	75.06
230.901	73.06
231.136	74.06
231.37	77.06
231.604	82.06
231.838	77.06
232.072	97.06
232.306	93.06
232.541	68.06
232.775	81.06
233.009	85.06
233.243	72.06
233.477	86.06
233.711	79.06
233.945	85.06
234.179	95.06
234.413	89.06
234.647	85.06
234.881	82.06
235.115	76.06
235.349	78.06
235.583	84.06
235.817	87.06
236.051	83.06
236.285	89.06
236.519	84.06
236.753	78.06
236.987	96.06
237.221	80.06
237.455	77.06
237.689	78.06
237.922	76.06
238.156	79.06
238.39	72.06
238.624	65.06
238.858	91.06
239.091	73.06
239.325	72.06
239.559	77.06
239.793	81.06
240.027	93.06
240.26	83.06
240.494	89.06
240.728	75.06
240.961	83.06
241.195	77.06
241.429	73.06
241.662	74.06
241.896	91.06
242.13	60.06
242.363	66.06
242.597	78.06
242.83	71.06
243.064	85.06
243.298	86.06
243.531	78.06
243.765	75.06
243.998	79.06
244.232	75.06
244.465	87.06
244.699	90.06
244.932	90.06
245.166	77.06
245.399	71.06
245.633	72.06
245.866	74.06
246.099	73.06
246.333	83.06
246.566	83.06
246.8	76.06
247.033	87.06
247.266	60.06
247.5	77.06
247.733	81.06
247.966	85.06
248.2	74.06
248.433	77.06
248.666	78.06
248.899	84.06
249.133	84.06
249.366	85.06
249.599	76.06
249.832	72.06
250.066	84.06
250.299	81.06
250.532	79.06
250.765	75.06
250.998	79.06
251.231	83.06
251.465	74.06
251.698	91.06
251.931	72.06
252.164	69.06
252.397	88.06
252.63	84.06
252.863	81.06
253.096	89.06
253.329	71.06
253.562	81.06
253.795	87.06
254.028	81.06
254.261	82.06
254.494	84.06
254.727	76.06
254.96	77.06
255.193	75.06
255.426	101.06
255.659	95.06
255.892	83.06
256.124	75.06
256.357	84.06
256.59	89.06
256.823	77.06
257.056	83.06
257.289	85.06
257.521	80.06
257.754	90.06
257.987	85.06
258.22	97.06
258.452	94.06
258.685	81.06
258.918	81.06
259.151	70.06
259.383	77.06
259.616	62.06
259.849	74.06
260.081	86.06
260.314	74.06
260.547	82.06
260.779	75.06
261.012	67.06
261.244	75.06
261.477	75.06
261.71	89.06
261.942	85.06
262.175	81.06
262.407	89.06
262.64	82.06
262.872	72.06
263.105	88.06
263.337	80.06
263.57	93.06
263.802	83.06
264.035	81.06
264.267	93.06
264.499	84.06
264.732	88.06
264.964	73.06
265.197	92.06
265.429	85.06
265.661	104.06
265.894	79.06
266.126	107.06
266.358	88.06
266.591	81.06
266.823	73.06
267.055	75.06
267.287	83.06
267.52	78.06
267.752	74.06
267.984	78.06
268.216	97.06
268.448	94.06
268.681	99.06
268.913	75.06
269.145	77.06
269.377	85.06
269.609	85.06
269.841	74.06
270.073	77.06
270.306	84.06
270.538	77.06
270.77	83.06
271.002	91.06
271.234	82.06
271.466	92.06
271.698	94.06
271.93	96.06
272.162	84.06
272.394	104.06
272.626	89.06
272.858	88.06
273.09	90.06
273.322	97.06
273.553	81.06
273.785	93.06
274.017	78.06
274.249	77.06
274.481	75.06
274.713	94.06
274.945	88.06
275.176	90.06
275.408	84.06
275.64	87.06
275.872	83.06
276.104	89.06
276.335	80.06
276.567	75.06
276.799	91.06
277.031	77.06
277.262	80.06
277.494	85.06
277.726	90.06
277.957	97.06
278.189	91.06
278.421	92.06
278.652	81.06
278.884	91.06
279.115	96.06
279.347	93.06
279.579	86.06
279.81	102.06
280.042	97.06
280.273	105.06
280.505	103.06
280.736	86.06
280.968	73.06
281.199	88.06
281.431	75.06
281.662	95.06
281.894	88.06
282.125	89.06
282.356	82.06
282.588	85.06
282.819	85.06
283.051	77.06
283.282	95.06
283.513	91.06
283.745	84.06
283.976	90.06
284.207	87.06
284.439	86.06
284.67	91.06
284.901	101.06
285.132	104.06
285.364	131.06
285.595	111.06
285.826	85.06
286.057	76.06
286.288	77.06
286.52	78.06
286.751	87.06
286.982	87.06
287.213	72.06
287.444	88.06
287.675	84.06
287.906	91.06
288.138	93.06
288.369	113.06
288.6	97.06
288.831	79.06
289.062	83.06
289.293	81.06
289.524	85.06
289.755	84.06
289.986	85.06
290.217	88.06
290.448	97.06
290.679	100.06
290.91	91.06
291.141	88.06
291.371	89.06
291.602	103.06
291.833	88.06
292.064	111.06
292.295	92.06
292.526	85.06
292.757	91.06
292.987	97.06
293.218	85.06
293.449	77.06
293.68	93.06
293.91	92.06
294.141	87.06
294.372	79.06
294.603	95.06
294.833	102.06
295.064	80.06
295.295	85.06
295.525	93.06
295.756	91.06
295.987	94.06
296.217	70.06
296.448	96.06
296.679	89.06
296.909	99.06
297.14	99.06
297.37	104.06
297.601	80.06
297.831	92.06
298.062	90.06
298.292	89.06
298.523	88.06
298.753	94.06
298.984	94.06
299.214	97.06
299.445	111.06
299.675	118.06
299.905	118.06
300.136	101.06
300.366	103.06
300.597	114.06
300.827	119.06
301.057	91.06
301.288	101.06
301.518	89.06
301.748	89.06
301.979	125.06
302.209	100.06
302.439	89.06
302.669	91.06
302.9	85.06
303.13	78.06
303.36	93.06
303.59	100.06
303.82	91.06
304.051	83.06
304.281	104.06
304.511	79.06
304.741	92.06
304.971	101.06
305.201	94.06
305.431	96.06
305.661	88.06
305.891	91.06
306.121	92.06
306.352	100.06
306.582	102.06
306.812	87.06
307.042	86.06
307.272	92.06
307.502	99.06
307.731	109.06
307.961	102.06
308.191	115.06
308.421	120.06
308.651	115.06
308.881	111.06
309.111	117.06
309.341	135.06
309.571	123.06
309.8	97.06
310.03	91.06
310.26	93.06
310.49	107.06
310.72	81.06
310.949	95.06
311.179	95.06
311.409	96.06
311.639	91.06
311.868	95.06
312.098	84.06
312.328	92.06
312.557	98.06
312.787	91.06
313.017	102.06
313.246	109.06
313.476	99.06
313.706	104.06
313.935	99.06
314.165	101.06
314.394	107.06
314.624	111.06
314.853	103.06
315.083	117.06
315.312	114.06
315.542	99.06
315.771	141.06
316.001	161.06
316.23	140.06
316.46	103.06
316.689	105.06
316.919	111.06
317.148	108.06
317.377	113.06
317.607	123.06
317.836	164.06
318.065	195.06
318.295	166.06
318.524	118.06
318.753	95.06
318.983	97.06
319.212	116.06
319.441	88.06
319.67	102.06
319.9	79.06
320.129	92.06
320.358	87.06
320.587	101.06
320.816	109.06
321.046	92.06
321.275	118.06
321.504	108.06
321.733	116.06
321.962	99.06
322.191	114.06
322.42	112.06
322.649	103.06
322.878	103.06
323.108	117.06
323.337	98.06
323.566	100.06
323.795	99.06
324.024	106.06
324.253	97.06
324.482	87.06
324.71	92.06
324.939	90.06
325.168	84.06
325.397	101.06
325.626	84.06
325.855	91.06
326.084	106.06
326.313	99.06
326.542	93.06
326.77	85.06
326.999	90.06
327.228	106.06
327.457	117.06
327.686	97.06
327.914	98.06
328.143	85.06
328.372	87.06
328.6	85.06
328.829	101.06
329.058	95.06
329.287	89.06
329.515	83.06
329.744	92.06
329.972	84.06
330.201	100.06
330.43	104.06
330.658	99.06
330.887	92.06
331.115	100.06
331.344	101.06
331.572	96.06
331.801	90.06
332.03	99.06
332.258	82.06
332.486	89.06
332.715	99.06
332.943	88.06
333.172	92.06
333.4	113.06
333.629	112.06
333.857	102.06
334.085	108.06
334.314	122.06
334.542	131.06
334.771	156.06
334.999	165.06
335.227	129.06
335.455	131.06
335.684	131.06
335.912	140.06
336.14	170.06
336.369	163.06
336.597	131.06
336.825	112.06
337.053	108.06
337.281	98.06
337.51	99.06
337.738	98.06
337.966	107.06
338.194	102.06
338.422	100.06
338.65	99.06
338.878	96.06
339.106	83.06
339.334	102.06
339.562	101.06
339.79	96.06
340.018	92.06
340.246	99.06
340.474	108.06
340.702	94.06
340.93	94.06
341.158	104.06
341.386	93.06
341.614	89.06
341.842	93.06
342.07	94.06
342.298	87.06
342.526	106.06
342.754	104.06
342.981	106.06
343.209	103.06
343.437	120.06
343.665	104.06
343.893	104.06
344.12	105.06
344.348	116.06
344.576	85.06
344.804	92.06
345.031	93.06
345.259	97.06
345.487	97.06
345.714	97.06
345.942	89.06
346.17	99.06
346.397	85.06
346.625	107.06
346.853	96.06
347.08	111.06
347.308	112.06
347.535	94.06
347.763	112.06
347.99	95.06
348.218	117.06
348.445	100.06
348.673	99.06
348.9	129.06
349.128	123.06
349.355	93.06
349.583	96.06
349.81	96.06
350.037	103.06
350.265	92.06
350.492	104.06
350.72	103.06
350.947	104.06
351.174	102.06
351.402	81.06
351.629	75.06
351.856	93.06
352.083	90.06
352.311	101.06
352.538	118.06
352.765	101.06
352.992	87.06
353.22	87.06
353.447	103.06
353.674	101.06
353.901	96.06
354.128	94.06
354.355	76.06
354.583	105.06
354.81	108.06
355.037	93.06
355.264	98.06
355.491	99.06
355.718	100.06
355.945	89.06
356.172	91.06
356.399	99.06
356.626	96.06
356.853	115.06
357.08	105.06
357.307	105.06
357.534	96.06
357.761	122.06
357.988	106.06
358.215	127.06
358.441	112.06
358.668	99.06
358.895	103.06
359.122	98.06
359.349	104.06
359.576	96.06
359.802	115.06
360.029	89.06
360.256	109.06
360.483	98.06
360.709	116.06
360.936	116.06
361.163	117.06
361.39	117.06
361.616	107.06
361.843	125.06
362.07	139.06
362.296	199.06
362.523	229.06
362.749	252.06
362.976	310.06
363.203	329.06
363.429	226.06
363.656	152.06
363.882	189.06
364.109	265.06
364.335	381.06
364.562	419.06
364.788	275.06
365.015	145.06
365.241	123.06
365.468	126.06
365.694	90.06
365.92	111.06
366.147	125.06
366.373	108.06
366.599	118.06
366.826	106.06
367.052	107.06
367.278	114.06
367.505	109.06
367.731	95.06
367.957	111.06
368.184	99.06
368.41	126.06
368.636	114.06
368.862	115.06
369.089	92.06
369.315	89.06
369.541	98.06
369.767	107.06
369.993	106.06
370.219	98.06
370.445	131.06
370.672	149.06
370.898	132.06
371.124	97.06
371.35	101.06
371.576	96.06
371.802	100.06
372.028	104.06
372.254	116.06
372.48	106.06
372.706	89.06
372.932	117.06
373.158	119.06
373.384	151.06
373.61	205.06
373.835	206.06
374.061	139.06
374.287	124.06
374.513	129.06
374.739	140.06
374.965	131.06
375.191	139.06
375.416	115.06
375.642	118.06
375.868	132.06
376.094	111.06
376.319	103.06
376.545	113.06
376.771	108.06
376.997	113.06
377.222	102.06
377.448	107.06
377.674	106.06
377.899	101.06
378.125	97.06
378.35	95.06
378.576	116.06
378.802	125.06
379.027	112.06
379.253	119.06
379.478	106.06
379.704	93.06
379.929	109.06
380.155	116.06
380.38	111.06
380.606	106.06
380.831	95.06
381.057	103.06
381.282	107.06
381.507	123.06
381.733	113.06
381.958	123.06
382.184	148.06
382.409	119.06
382.634	121.06
382.86	137.06
383.085	133.06
383.31	123.06
383.535	127.06
383.761	137.06
383.986	151.06
384.211	134.06
384.436	135.06
384.662	123.06
384.887	115.06
385.112	115.06
385.337	128.06
385.562	145.06
385.787	143.06
386.013	139.06
386.238	147.06
386.463	127.06
386.688	146.06
386.913	141.06
387.138	154.06
387.363	141.06
387.588	134.06
387.813	143.06
388.038	152.06
388.263	149.06
388.488	136.06
388.713	127.06
388.938	125.06
389.163	116.06
389.387	115.06
389.612	99.06
389.837	129.06
390.062	116.06
390.287	130.06
390.512	128.06
390.736	108.06
390.961	131.06
391.186	141.06
391.411	135.06
391.636	149.06
391.86	137.06
392.085	172.06
392.31	190.06
392.534	235.06
392.759	313.06
392.984	587.06
393.208	1192.06
393.433	1790.06
393.658	1322.06
393.882	522.06
394.107	295.06
394.331	259.06
394.556	279.06
394.78	207.06
395.005	186.06
395.229	191.06
395.454	181.06
395.678	231.06
395.903	307.06
396.127	361.06
396.352	467.06
396.576	639.06
396.801	1172.06
397.025	1397.06
397.249	693.06
397.474	380.06
397.698	248.06
397.922	164.06
398.147	119.06
398.371	128.06
398.595	124.06
398.82	114.06
399.044	116.06
399.268	127.06
399.492	115.06
399.717	113.06
399.941	112.06
400.165	105.06
400.389	103.06
400.613	121.06
400.837	106.06
401.062	115.06
401.286	103.06
401.51	97.06
401.734	108.06
401.958	107.06
402.182	99.06
402.406	96.06
402.63	101.06
402.854	114.06
403.078	121.06
403.302	136.06
403.526	128.06
403.75	129.06
403.974	122.06
404.198	113.06
404.422	125.06
404.645	125.06
404.869	109.06
405.093	109.06
405.317	114.06
405.541	109.06
405.765	116.06
405.988	118.06
406.212	112.06
406.436	111.06
406.66	95.06
406.883	120.06
407.107	115.06
407.331	124.06
407.555	157.06
407.778	213.06
408.002	243.06
408.226	141.06
408.449	101.06
408.673	99.06
408.896	120.06
409.12	139.06
409.344	165.06
409.567	221.06
409.791	220.06
410.014	229.06
410.238	198.06
410.461	145.06
410.685	129.06
410.908	120.06
411.132	124.06
411.355	101.06
411.578	119.06
411.802	105.06
412.025	107.06
412.249	121.06
412.472	119.06
412.695	116.06
412.919	121.06
413.142	99.06
413.365	103.06
413.589	111.06
413.812	116.06
414.035	106.06
414.258	107.06
414.482	110.06
414.705	99.06
414.928	96.06
415.151	111.06
415.374	124.06
415.597	121.06
415.821	108.06
416.044	88.06
416.267	85.06
416.49	99.06
416.713	115.06
416.936	106.06
417.159	102.06
417.382	103.06
417.605	112.06
417.828	99.06
418.051	104.06
418.274	104.06
418.497	112.06
418.72	102.06
418.943	97.06
419.166	100.06
419.389	121.06
419.611	104.06
419.834	118.06
420.057	129.06
420.28	143.06
420.503	114.06
420.726	139.06
420.948	151.06
421.171	163.06
421.394	215.06
421.617	319.06
421.839	325.06
422.062	404.06
422.285	618.06
422.507	1197.06
422.73	1937.06
422.953	1691.06
423.175	892.06
423.398	481.06
423.621	310.06
423.843	249.06
424.066	226.06
424.288	187.06
424.511	163.06
424.733	148.06
424.956	127.06
425.178	139.06
425.401	121.06
425.623	132.06
425.846	120.06
426.068	123.06
426.291	108.06
426.513	123.06
426.735	114.06
426.958	117.06
427.18	116.06
427.402	131.06
427.625	137.06
427.847	147.06
428.069	191.06
428.292	360.06
428.514	453.06
428.736	257.06
428.958	380.06
429.181	373.06
429.403	188.06
429.625	207.06
429.847	323.06
430.069	568.06
430.292	689.06
430.514	631.06
430.736	416.06
430.958	433.06
431.18	215.06
431.402	157.06
431.624	188.06
431.846	331.06
432.068	417.06
432.29	207.06
432.512	137.06
432.734	109.06
432.956	107.06
433.178	105.06
433.4	93.06
433.622	104.06
433.844	113.06
434.066	96.06
434.287	119.06
434.509	103.06
434.731	107.06
434.953	101.06
435.175	113.06
435.397	146.06
435.618	177.06
435.84	145.06
436.062	157.06
436.284	121.06
436.505	117.06
436.727	104.06
436.949	97.06
437.17	94.06
437.392	104.06
437.614	109.06
437.835	90.06
438.057	102.06
438.278	103.06
438.5	105.06
438.721	104.06
438.943	103.06
439.165	107.06
439.386	103.06
439.608	91.06
439.829	97.06
440.05	100.06
440.272	92.06
440.493	102.06
440.715	115.06
440.936	111.06
441.158	95.06
441.379	122.06
441.6	124.06
441.822	117.06
442.043	151.06
442.264	217.06
442.486	448.06
442.707	653.06
442.928	367.06
443.149	277.06
443.371	532.06
443.592	1137.06
443.813	963.06
444.034	307.06
444.255	159.06
444.476	140.06
444.698	146.06
444.919	184.06
445.14	360.06
445.361	687.06
445.582	1375.06
445.803	1169.06
446.024	378.06
446.245	179.06
446.466	136.06
446.687	118.06
446.908	115.06
447.129	104.06
447.35	102.06
447.571	100.06
447.792	75.06
448.013	104.06
448.234	103.06
448.455	102.06
448.675	104.06
448.896	101.06
449.117	96.06
449.338	108.06
449.559	109.06
449.779	103.06
450	96.06
450.221	117.06
450.442	102.06
450.662	104.06
450.883	112.06
451.104	117.06
451.324	101.06
451.545	108.06
451.766	102.06
451.986	114.06
452.207	110.06
452.428	128.06
452.648	177.06
452.869	211.06
453.089	167.06
453.31	115.06
453.53	111.06
453.751	123.06
453.971	100.06
454.192	92.06
454.412	101.06
454.633	93.06
454.853	92.06
455.073	114.06
455.294	89.06
455.514	103.06
455.734	95.06
455.955	106.06
456.175	109.06
456.395	105.06
456.616	113.06
456.836	108.06
457.056	113.06
457.276	100.06
457.497	132.06
457.717	148.06
457.937	292.06
458.157	410.06
458.377	435.06
458.598	367.06
458.818	448.06
459.038	221.06
459.258	127.06
459.478	109.06
459.698	111.06
459.918	107.06
460.138	115.06
460.358	122.06
460.578	139.06
460.798	255.06
461.018	240.06
461.238	116.06
461.458	100.06
461.678	105.06
461.898	90.06
462.118	92.06
462.338	101.06
462.558	118.06
462.777	86.06
462.997	103.06
463.217	98.06
463.437	98.06
463.657	86.06
463.876	93.06
464.096	88.06
464.316	99.06
464.536	93.06
464.755	95.06
464.975	97.06
465.195	92.06
465.414	100.06
465.634	103.06
465.854	94.06
466.073	91.06
466.293	106.06
466.512	101.06
466.732	97.06
466.951	101.06
467.171	107.06
467.391	100.06
467.61	96.06
467.829	97.06
468.049	112.06
468.268	108.06
468.488	133.06
468.707	135.06
468.927	124.06
469.146	90.06
469.365	95.06
469.585	115.06
469.804	97.06
470.023	109.06
470.243	105.06
470.462	104.06
470.681	93.06
470.901	93.06
471.12	99.06
471.339	96.06
471.558	99.06
471.777	115.06
471.997	89.06
472.216	84.06
472.435	106.06
472.654	106.06
472.873	97.06
473.092	111.06
473.311	105.06
473.53	98.06
473.749	115.06
473.968	97.06
474.187	100.06
474.406	90.06
474.625	111.06
474.844	104.06
475.063	104.06
475.282	97.06
475.501	106.06
475.72	99.06
475.939	109.06
476.158	109.06
476.377	98.06
476.596	123.06
476.814	107.06
477.033	98.06
477.252	99.06
477.471	93.06
477.69	92.06
477.908	99.06
478.127	101.06
478.346	109.06
478.564	113.06
478.783	94.06
479.002	106.06
479.22	93.06
479.439	107.06
479.658	113.06
479.876	87.06
480.095	97.06
480.313	88.06
480.532	109.06
480.751	117.06
480.969	106.06
481.188	107.06
481.406	119.06
481.624	107.06
481.843	115.06
482.061	108.06
482.28	119.06
482.498	113.06
482.717	122.06
482.935	111.06
483.153	122.06
483.372	125.06
483.59	131.06
483.808	111.06
484.027	105.06
484.245	109.06
484.463	105.06
484.681	127.06
484.9	134.06
485.118	115.06
485.336	111.06
485.554	112.06
485.772	101.06
485.99	115.06
486.209	97.06
486.427	125.06
486.645	102.06
486.863	117.06
487.081	125.06
487.299	149.06
487.517	176.06
487.735	327.06
487.953	765.06
488.171	597.06
488.389	189.06
488.607	132.06
488.825	99.06
489.043	108.06
489.261	116.06
489.479	115.06
489.696	108.06
489.914	116.06
490.132	117.06
490.35	115.06
490.568	106.06
490.786	108.06
491.003	99.06
491.221	106.06
491.439	121.06
491.657	99.06
491.874	102.06
492.092	99.06
492.31	88.06
492.527	114.06
492.745	110.06
492.963	106.06
493.18	115.06
493.398	108.06
493.615	86.06
493.833	100.06
494.05	95.06
494.268	118.06
494.485	95.06
494.703	107.06
494.92	103.06
495.138	106.06
495.355	108.06
495.573	93.06
495.79	97.06
496.008	114.06
496.225	114.06
496.442	123.06
496.66	122.06
496.877	103.06
497.094	109.06
497.312	104.06
497.529	92.06
497.746	106.06
497.963	106.06
498.181	123.06
498.398	131.06
498.615	100.06
498.832	99.06
499.049	108.06
499.267	125.06
499.484	93.06
499.701	109.06
499.918	119.06
500.135	138.06
500.352	118.06
500.569	106.06
500.786	128.06
501.003	117.06
501.22	120.06
501.437	109.06
501.654	115.06
501.871	119.06
502.088	106.06
502.305	91.06
502.522	97.06
502.739	119.06
502.956	113.06
503.172	113.06
503.389	114.06
503.606	143.06
503.823	165.06
504.04	196.06
504.256	454.06
504.473	489.06
504.69	209.06
504.907	132.06
505.123	113.06
505.34	115.06
505.557	100.06
505.773	125.06
505.99	112.06
506.207	116.06
506.423	114.06
506.64	106.06
506.856	93.06
507.073	108.06
507.289	107.06
507.506	98.06
507.722	113.06
507.939	108.06
508.155	91.06
508.372	108.06
508.588	91.06
508.805	101.06
509.021	82.06
509.238	97.06
509.454	99.06
509.67	111.06
509.887	89.06
