Data from CBS_3_HRD10591_00044.txt Node
Date: Mon Jan 19 14:06:00 EST 2026
User: Yrep
Spectrometer: HR+D1059
Trigger mode: 1
Integration Time (sec): 1.000000E-1
Scans to average: 1
Electric dark correction enabled: true
Nonlinearity correction enabled: false
Boxcar width: 0
XAxis mode: Wavelengths
Number of Pixels in Spectrum: 2048
>>>>>Begin Spectral Data<<<<<
223.165	-17.56
223.4	-17.56
223.635	-17.56
223.869	-15.56
224.104	-24.56
224.338	-28.56
224.573	-21.56
224.808	-3.56
225.042	-5.56
225.277	-2.56
225.511	2.44
225.746	13.44
225.98	6.44
226.215	8.44
226.449	14.44
226.683	14.44
226.918	37.44
227.152	22.44
227.387	42.44
227.621	36.44
227.856	49.44
228.09	54.44
228.324	50.44
228.559	45.44
228.793	57.44
229.027	54.44
229.262	62.44
229.496	70.44
229.73	80.44
229.964	70.44
230.199	72.44
230.433	65.44
230.667	68.44
230.901	71.44
231.136	74.44
231.37	81.44
231.604	74.44
231.838	78.44
232.072	75.44
232.306	86.44
232.541	78.44
232.775	90.44
233.009	68.44
233.243	68.44
233.477	68.44
233.711	71.44
233.945	82.44
234.179	64.44
234.413	69.44
234.647	73.44
234.881	81.44
235.115	65.44
235.349	84.44
235.583	72.44
235.817	68.44
236.051	62.44
236.285	66.44
236.519	81.44
236.753	54.44
236.987	62.44
237.221	63.44
237.455	63.44
237.689	73.44
237.922	71.44
238.156	77.44
238.39	77.44
238.624	75.44
238.858	83.44
239.091	67.44
239.325	66.44
239.559	73.44
239.793	88.44
240.027	83.44
240.26	75.44
240.494	82.44
240.728	69.44
240.961	73.44
241.195	68.44
241.429	82.44
241.662	69.44
241.896	78.44
242.13	72.44
242.363	70.44
242.597	66.44
242.83	66.44
243.064	72.44
243.298	78.44
243.531	83.44
243.765	78.44
243.998	78.44
244.232	74.44
244.465	76.44
244.699	83.44
244.932	71.44
245.166	60.44
245.399	73.44
245.633	82.44
245.866	69.44
246.099	75.44
246.333	67.44
246.566	69.44
246.8	76.44
247.033	84.44
247.266	72.44
247.5	80.44
247.733	71.44
247.966	70.44
248.2	77.44
248.433	66.44
248.666	66.44
248.899	80.44
249.133	71.44
249.366	86.44
249.599	71.44
249.832	72.44
250.066	58.44
250.299	66.44
250.532	85.44
250.765	62.44
250.998	77.44
251.231	72.44
251.465	90.44
251.698	80.44
251.931	65.44
252.164	68.44
252.397	68.44
252.63	79.44
252.863	76.44
253.096	68.44
253.329	82.44
253.562	78.44
253.795	72.44
254.028	75.44
254.261	84.44
254.494	77.44
254.727	74.44
254.96	86.44
255.193	68.44
255.426	61.44
255.659	71.44
255.892	77.44
256.124	76.44
256.357	73.44
256.59	73.44
256.823	70.44
257.056	77.44
257.289	83.44
257.521	60.44
257.754	70.44
257.987	79.44
258.22	68.44
258.452	70.44
258.685	83.44
258.918	76.44
259.151	70.44
259.383	92.44
259.616	87.44
259.849	69.44
260.081	70.44
260.314	67.44
260.547	71.44
260.779	68.44
261.012	78.44
261.244	78.44
261.477	91.44
261.71	68.44
261.942	76.44
262.175	80.44
262.407	77.44
262.64	77.44
262.872	66.44
263.105	71.44
263.337	85.44
263.57	73.44
263.802	79.44
264.035	72.44
264.267	85.44
264.499	72.44
264.732	78.44
264.964	89.44
265.197	73.44
265.429	70.44
265.661	68.44
265.894	76.44
266.126	83.44
266.358	86.44
266.591	81.44
266.823	59.44
267.055	78.44
267.287	68.44
267.52	72.44
267.752	70.44
267.984	78.44
268.216	58.44
268.448	90.44
268.681	91.44
268.913	68.44
269.145	74.44
269.377	72.44
269.609	73.44
269.841	79.44
270.073	74.44
270.306	84.44
270.538	86.44
270.77	78.44
271.002	71.44
271.234	72.44
271.466	66.44
271.698	75.44
271.93	82.44
272.162	67.44
272.394	83.44
272.626	90.44
272.858	92.44
273.09	68.44
273.322	71.44
273.553	56.44
273.785	85.44
274.017	74.44
274.249	79.44
274.481	90.44
274.713	73.44
274.945	77.44
275.176	68.44
275.408	79.44
275.64	77.44
275.872	71.44
276.104	72.44
276.335	68.44
276.567	86.44
276.799	76.44
277.031	84.44
277.262	89.44
277.494	74.44
277.726	83.44
277.957	78.44
278.189	72.44
278.421	85.44
278.652	65.44
278.884	84.44
279.115	80.44
279.347	92.44
279.579	104.44
279.81	83.44
280.042	76.44
280.273	78.44
280.505	72.44
280.736	84.44
280.968	82.44
281.199	79.44
281.431	88.44
281.662	78.44
281.894	77.44
282.125	70.44
282.356	78.44
282.588	68.44
282.819	84.44
283.051	76.44
283.282	79.44
283.513	84.44
283.745	74.44
283.976	80.44
284.207	84.44
284.439	74.44
284.67	68.44
284.901	80.44
285.132	89.44
285.364	88.44
285.595	86.44
285.826	82.44
286.057	83.44
286.288	87.44
286.52	86.44
286.751	72.44
286.982	77.44
287.213	78.44
287.444	79.44
287.675	94.44
287.906	96.44
288.138	85.44
288.369	90.44
288.6	75.44
288.831	81.44
289.062	85.44
289.293	70.44
289.524	94.44
289.755	90.44
289.986	73.44
290.217	72.44
290.448	85.44
290.679	94.44
290.91	80.44
291.141	79.44
291.371	83.44
291.602	91.44
291.833	85.44
292.064	78.44
292.295	80.44
292.526	79.44
292.757	71.44
292.987	78.44
293.218	82.44
293.449	72.44
293.68	82.44
293.91	78.44
294.141	70.44
294.372	68.44
294.603	77.44
294.833	87.44
295.064	81.44
295.295	83.44
295.525	88.44
295.756	82.44
295.987	84.44
296.217	88.44
296.448	87.44
296.679	88.44
296.909	75.44
297.14	77.44
297.37	88.44
297.601	84.44
297.831	88.44
298.062	89.44
298.292	86.44
298.523	84.44
298.753	91.44
298.984	91.44
299.214	87.44
299.445	103.44
299.675	84.44
299.905	86.44
300.136	83.44
300.366	83.44
300.597	79.44
300.827	81.44
301.057	81.44
301.288	94.44
301.518	84.44
301.748	85.44
301.979	100.44
302.209	85.44
302.439	76.44
302.669	95.44
302.9	80.44
303.13	88.44
303.36	83.44
303.59	70.44
303.82	80.44
304.051	79.44
304.281	80.44
304.511	99.44
304.741	82.44
304.971	78.44
305.201	73.44
305.431	89.44
305.661	90.44
305.891	86.44
306.121	80.44
306.352	88.44
306.582	78.44
306.812	73.44
307.042	76.44
307.272	83.44
307.502	82.44
307.731	79.44
307.961	79.44
308.191	70.44
308.421	78.44
308.651	76.44
308.881	82.44
309.111	78.44
309.341	73.44
309.571	68.44
309.8	80.44
310.03	81.44
310.26	84.44
310.49	80.44
310.72	68.44
310.949	82.44
311.179	77.44
311.409	77.44
311.639	80.44
311.868	90.44
312.098	68.44
312.328	96.44
312.557	80.44
312.787	95.44
313.017	82.44
313.246	79.44
313.476	81.44
313.706	91.44
313.935	84.44
314.165	73.44
314.394	69.44
314.624	69.44
314.853	76.44
315.083	81.44
315.312	76.44
315.542	99.44
315.771	85.44
316.001	110.44
316.23	92.44
316.46	88.44
316.689	79.44
316.919	83.44
317.148	90.44
317.377	81.44
317.607	108.44
317.836	95.44
318.065	106.44
318.295	104.44
318.524	78.44
318.753	88.44
318.983	82.44
319.212	76.44
319.441	78.44
319.67	78.44
319.9	76.44
320.129	84.44
320.358	73.44
320.587	80.44
320.816	88.44
321.046	79.44
321.275	84.44
321.504	85.44
321.733	82.44
321.962	80.44
322.191	80.44
322.42	78.44
322.649	76.44
322.878	66.44
323.108	66.44
323.337	86.44
323.566	77.44
323.795	80.44
324.024	88.44
324.253	78.44
324.482	68.44
324.71	86.44
324.939	79.44
325.168	76.44
325.397	90.44
325.626	91.44
325.855	83.44
326.084	82.44
326.313	75.44
326.542	70.44
326.77	84.44
326.999	74.44
327.228	80.44
327.457	85.44
327.686	82.44
327.914	84.44
328.143	92.44
328.372	72.44
328.6	66.44
328.829	80.44
329.058	79.44
329.287	98.44
329.515	81.44
329.744	76.44
329.972	71.44
330.201	78.44
330.43	70.44
330.658	84.44
330.887	82.44
331.115	71.44
331.344	85.44
331.572	87.44
331.801	74.44
332.03	67.44
332.258	74.44
332.486	72.44
332.715	75.44
332.943	81.44
333.172	72.44
333.4	86.44
333.629	91.44
333.857	81.44
334.085	74.44
334.314	78.44
334.542	82.44
334.771	74.44
334.999	86.44
335.227	87.44
335.455	84.44
335.684	87.44
335.912	92.44
336.14	82.44
336.369	90.44
336.597	76.44
336.825	69.44
337.053	72.44
337.281	77.44
337.51	74.44
337.738	78.44
337.966	79.44
338.194	86.44
338.422	88.44
338.65	92.44
338.878	89.44
339.106	76.44
339.334	77.44
339.562	81.44
339.79	84.44
340.018	91.44
340.246	93.44
340.474	91.44
340.702	55.44
340.93	81.44
341.158	79.44
341.386	72.44
341.614	65.44
341.842	86.44
342.07	71.44
342.298	86.44
342.526	90.44
342.754	82.44
342.981	72.44
343.209	74.44
343.437	92.44
343.665	74.44
343.893	76.44
344.12	91.44
344.348	86.44
344.576	76.44
344.804	82.44
345.031	79.44
345.259	66.44
345.487	70.44
345.714	63.44
345.942	88.44
346.17	70.44
346.397	85.44
346.625	66.44
346.853	79.44
347.08	68.44
347.308	78.44
347.535	84.44
347.763	83.44
347.99	80.44
348.218	88.44
348.445	83.44
348.673	70.44
348.9	57.44
349.128	82.44
349.355	64.44
349.583	90.44
349.81	91.44
350.037	89.44
350.265	82.44
350.492	83.44
350.72	68.44
350.947	95.44
351.174	82.44
351.402	77.44
351.629	67.44
351.856	82.44
352.083	82.44
352.311	71.44
352.538	89.44
352.765	78.44
352.992	78.44
353.22	71.44
353.447	78.44
353.674	83.44
353.901	88.44
354.128	83.44
354.355	82.44
354.583	76.44
354.81	83.44
355.037	79.44
355.264	80.44
355.491	68.44
355.718	76.44
355.945	84.44
356.172	83.44
356.399	65.44
356.626	84.44
356.853	82.44
357.08	82.44
357.307	91.44
357.534	79.44
357.761	94.44
357.988	81.44
358.215	71.44
358.441	78.44
358.668	75.44
358.895	75.44
359.122	67.44
359.349	87.44
359.576	74.44
359.802	80.44
360.029	82.44
360.256	82.44
360.483	76.44
360.709	82.44
360.936	81.44
361.163	86.44
361.39	77.44
361.616	86.44
361.843	94.44
362.07	78.44
362.296	78.44
362.523	81.44
362.749	82.44
362.976	90.44
363.203	91.44
363.429	83.44
363.656	84.44
363.882	88.44
364.109	87.44
364.335	74.44
364.562	96.44
364.788	99.44
365.015	72.44
365.241	99.44
365.468	94.44
365.694	75.44
365.92	78.44
366.147	88.44
366.373	71.44
366.599	72.44
366.826	85.44
367.052	72.44
367.278	98.44
367.505	82.44
367.731	81.44
367.957	78.44
368.184	77.44
368.41	75.44
368.636	78.44
368.862	95.44
369.089	78.44
369.315	86.44
369.541	96.44
369.767	71.44
369.993	90.44
370.219	94.44
370.445	103.44
370.672	95.44
370.898	89.44
371.124	81.44
371.35	80.44
371.576	82.44
371.802	78.44
372.028	83.44
372.254	74.44
372.48	80.44
372.706	85.44
372.932	90.44
373.158	82.44
373.384	85.44
373.61	95.44
373.835	111.44
374.061	96.44
374.287	91.44
374.513	66.44
374.739	85.44
374.965	90.44
375.191	87.44
375.416	58.44
375.642	79.44
375.868	78.44
376.094	74.44
376.319	78.44
376.545	80.44
376.771	91.44
376.997	72.44
377.222	83.44
377.448	78.44
377.674	95.44
377.899	93.44
378.125	89.44
378.35	83.44
378.576	75.44
378.802	89.44
379.027	84.44
379.253	84.44
379.478	84.44
379.704	76.44
379.929	65.44
380.155	86.44
380.38	74.44
380.606	80.44
380.831	92.44
381.057	81.44
381.282	72.44
381.507	79.44
381.733	77.44
381.958	81.44
382.184	86.44
382.409	83.44
382.634	83.44
382.86	93.44
383.085	86.44
383.31	84.44
383.535	77.44
383.761	82.44
383.986	76.44
384.211	83.44
384.436	81.44
384.662	77.44
384.887	81.44
385.112	79.44
385.337	94.44
385.562	78.44
385.787	95.44
386.013	74.44
386.238	84.44
386.463	72.44
386.688	88.44
386.913	79.44
387.138	84.44
387.363	75.44
387.588	91.44
387.813	83.44
388.038	86.44
388.263	82.44
388.488	90.44
388.713	83.44
388.938	70.44
389.163	82.44
389.387	86.44
389.612	95.44
389.837	86.44
390.062	72.44
390.287	85.44
390.512	69.44
390.736	86.44
390.961	84.44
391.186	74.44
391.411	82.44
391.636	93.44
391.86	80.44
392.085	95.44
392.31	82.44
392.534	114.44
392.759	126.44
392.984	190.44
393.208	372.44
393.433	599.44
393.658	438.44
393.882	156.44
394.107	95.44
394.331	83.44
394.556	100.44
394.78	86.44
395.005	78.44
395.229	80.44
395.454	92.44
395.678	95.44
395.903	99.44
396.127	111.44
396.352	143.44
396.576	188.44
396.801	356.44
397.025	432.44
397.249	208.44
397.474	118.44
397.698	78.44
397.922	95.44
398.147	80.44
398.371	79.44
398.595	86.44
398.82	94.44
399.044	79.44
399.268	77.44
399.492	76.44
399.717	83.44
399.941	78.44
400.165	81.44
400.389	87.44
400.613	72.44
400.837	62.44
401.062	78.44
401.286	64.44
401.51	76.44
401.734	67.44
401.958	74.44
402.182	72.44
402.406	77.44
402.63	76.44
402.854	77.44
403.078	76.44
403.302	104.44
403.526	83.44
403.75	90.44
403.974	83.44
404.198	80.44
404.422	83.44
404.645	78.44
404.869	90.44
405.093	85.44
405.317	76.44
405.541	89.44
405.765	95.44
405.988	83.44
406.212	75.44
406.436	84.44
406.66	89.44
406.883	90.44
407.107	88.44
407.331	87.44
407.555	89.44
407.778	110.44
408.002	102.44
408.226	64.44
408.449	80.44
408.673	72.44
408.896	89.44
409.12	90.44
409.344	65.44
409.567	69.44
409.791	79.44
410.014	90.44
410.238	84.44
410.461	83.44
410.685	72.44
410.908	77.44
411.132	86.44
411.355	68.44
411.578	90.44
411.802	70.44
412.025	62.44
412.249	75.44
412.472	69.44
412.695	88.44
412.919	68.44
413.142	79.44
413.365	82.44
413.589	75.44
413.812	73.44
414.035	84.44
414.258	96.44
414.482	90.44
414.705	82.44
414.928	86.44
415.151	82.44
415.374	71.44
415.597	70.44
415.821	70.44
416.044	70.44
416.267	91.44
416.49	64.44
416.713	76.44
416.936	78.44
417.159	87.44
417.382	75.44
417.605	86.44
417.828	93.44
418.051	74.44
418.274	76.44
418.497	79.44
418.72	74.44
418.943	88.44
419.166	79.44
419.389	75.44
419.611	78.44
419.834	75.44
420.057	93.44
420.28	85.44
420.503	81.44
420.726	75.44
420.948	82.44
421.171	78.44
421.394	84.44
421.617	103.44
421.839	93.44
422.062	85.44
422.285	130.44
422.507	163.44
422.73	312.44
422.953	278.44
423.175	120.44
423.398	87.44
423.621	90.44
423.843	71.44
424.066	68.44
424.288	86.44
424.511	79.44
424.733	78.44
424.956	89.44
425.178	79.44
425.401	85.44
425.623	69.44
425.846	71.44
426.068	76.44
426.291	89.44
426.513	82.44
426.735	80.44
426.958	90.44
427.18	82.44
427.402	83.44
427.625	83.44
427.847	85.44
428.069	64.44
428.292	106.44
428.514	118.44
428.736	89.44
428.958	120.44
429.181	108.44
429.403	79.44
429.625	90.44
429.847	88.44
430.069	129.44
430.292	135.44
430.514	136.44
430.736	103.44
430.958	115.44
431.18	102.44
431.402	78.44
431.624	80.44
431.846	109.44
432.068	101.44
432.29	79.44
432.512	84.44
432.734	75.44
432.956	76.44
433.178	99.44
433.4	83.44
433.622	84.44
433.844	81.44
434.066	77.44
434.287	84.44
434.509	69.44
434.731	88.44
434.953	88.44
435.175	84.44
435.397	75.44
435.618	88.44
435.84	70.44
436.062	79.44
436.284	83.44
436.505	71.44
436.727	81.44
436.949	66.44
437.17	76.44
437.392	79.44
437.614	78.44
437.835	84.44
438.057	83.44
438.278	90.44
438.5	95.44
438.721	96.44
438.943	92.44
439.165	82.44
439.386	74.44
439.608	82.44
439.829	76.44
440.05	85.44
440.272	87.44
440.493	75.44
440.715	79.44
440.936	84.44
441.158	80.44
441.379	74.44
441.6	76.44
441.822	71.44
442.043	84.44
442.264	86.44
442.486	100.44
442.707	110.44
442.928	88.44
443.149	87.44
443.371	106.44
443.592	151.44
443.813	127.44
444.034	85.44
444.255	89.44
444.476	85.44
444.698	73.44
444.919	91.44
445.14	157.44
445.361	155.44
445.582	190.44
445.803	166.44
446.024	87.44
446.245	102.44
446.466	84.44
446.687	83.44
446.908	78.44
447.129	76.44
447.35	66.44
447.571	88.44
447.792	82.44
448.013	62.44
448.234	74.44
448.455	93.44
448.675	71.44
448.896	82.44
449.117	70.44
449.338	80.44
449.559	82.44
449.779	87.44
450	88.44
450.221	79.44
450.442	78.44
450.662	78.44
450.883	86.44
451.104	83.44
451.324	70.44
451.545	72.44
451.766	80.44
451.986	86.44
452.207	91.44
452.428	80.44
452.648	80.44
452.869	96.44
453.089	86.44
453.31	62.44
453.53	83.44
453.751	78.44
453.971	70.44
454.192	63.44
454.412	70.44
454.633	70.44
454.853	77.44
455.073	71.44
455.294	90.44
455.514	88.44
455.734	86.44
455.955	83.44
456.175	75.44
456.395	81.44
456.616	94.44
456.836	68.44
457.056	76.44
457.276	94.44
457.497	78.44
457.717	70.44
457.937	94.44
458.157	92.44
458.377	100.44
458.598	101.44
458.818	80.44
459.038	76.44
459.258	83.44
459.478	81.44
459.698	78.44
459.918	80.44
460.138	73.44
460.358	80.44
460.578	70.44
460.798	100.44
461.018	92.44
461.238	68.44
461.458	81.44
461.678	65.44
461.898	79.44
462.118	66.44
462.338	72.44
462.558	76.44
462.777	73.44
462.997	82.44
463.217	90.44
463.437	86.44
463.657	82.44
463.876	85.44
464.096	82.44
464.316	73.44
464.536	63.44
464.755	86.44
464.975	82.44
465.195	85.44
465.414	83.44
465.634	94.44
465.854	83.44
466.073	81.44
466.293	77.44
466.512	77.44
466.732	89.44
466.951	62.44
467.171	80.44
467.391	73.44
467.61	69.44
467.829	62.44
468.049	76.44
468.268	80.44
468.488	72.44
468.707	78.44
468.927	94.44
469.146	91.44
469.365	82.44
469.585	92.44
469.804	92.44
470.023	76.44
470.243	91.44
470.462	90.44
470.681	71.44
470.901	79.44
471.12	88.44
471.339	68.44
471.558	65.44
471.777	81.44
471.997	88.44
472.216	79.44
472.435	99.44
472.654	97.44
472.873	77.44
473.092	87.44
473.311	78.44
473.53	78.44
473.749	78.44
473.968	71.44
474.187	84.44
474.406	77.44
474.625	72.44
474.844	73.44
475.063	84.44
475.282	68.44
475.501	82.44
475.72	80.44
475.939	78.44
476.158	78.44
476.377	69.44
476.596	71.44
476.814	70.44
477.033	62.44
477.252	91.44
477.471	78.44
477.69	93.44
477.908	91.44
478.127	89.44
478.346	84.44
478.564	73.44
478.783	95.44
479.002	80.44
479.22	73.44
479.439	70.44
479.658	83.44
479.876	76.44
480.095	74.44
480.313	75.44
480.532	79.44
480.751	71.44
480.969	80.44
481.188	74.44
481.406	80.44
481.624	92.44
481.843	78.44
482.061	76.44
482.28	79.44
482.498	92.44
482.717	85.44
482.935	73.44
483.153	74.44
483.372	87.44
483.59	77.44
483.808	67.44
484.027	65.44
484.245	86.44
484.463	68.44
484.681	84.44
484.9	84.44
485.118	87.44
485.336	84.44
485.554	81.44
485.772	67.44
485.99	97.44
486.209	74.44
486.427	83.44
486.645	83.44
486.863	78.44
487.081	87.44
487.299	87.44
487.517	84.44
487.735	95.44
487.953	110.44
488.171	100.44
488.389	70.44
488.607	93.44
488.825	86.44
489.043	78.44
489.261	90.44
489.479	83.44
489.696	82.44
489.914	72.44
490.132	80.44
490.35	90.44
490.568	87.44
490.786	74.44
491.003	94.44
491.221	81.44
491.439	68.44
491.657	84.44
491.874	91.44
492.092	92.44
492.31	91.44
492.527	74.44
492.745	93.44
492.963	87.44
493.18	88.44
493.398	77.44
493.615	92.44
493.833	73.44
494.05	71.44
494.268	93.44
494.485	81.44
494.703	78.44
494.92	102.44
495.138	76.44
495.355	90.44
495.573	76.44
495.79	91.44
496.008	80.44
496.225	78.44
496.442	81.44
496.66	97.44
496.877	89.44
497.094	77.44
497.312	66.44
497.529	88.44
497.746	78.44
497.963	80.44
498.181	99.44
498.398	84.44
498.615	86.44
498.832	78.44
499.049	76.44
499.267	88.44
499.484	87.44
499.701	89.44
499.918	91.44
500.135	82.44
500.352	76.44
500.569	102.44
500.786	78.44
501.003	93.44
501.22	86.44
501.437	62.44
501.654	89.44
501.871	81.44
502.088	89.44
502.305	93.44
502.522	75.44
502.739	80.44
502.956	81.44
503.172	86.44
503.389	78.44
503.606	66.44
503.823	84.44
504.04	90.44
504.256	103.44
504.473	101.44
504.69	77.44
504.907	83.44
505.123	75.44
505.34	71.44
505.557	78.44
505.773	75.44
505.99	67.44
506.207	83.44
506.423	86.44
506.64	80.44
506.856	66.44
507.073	88.44
507.289	83.44
507.506	86.44
507.722	82.44
507.939	84.44
508.155	76.44
508.372	70.44
508.588	82.44
508.805	85.44
509.021	68.44
509.238	74.44
509.454	78.44
509.67	107.44
509.887	87.44
510.103	88.44
510.319	74.44
510.536	94.44
510.752	89.44
510.968	87.44
511.184	70.44
511.401	88.44
511.617	73.44
511.833	76.44
512.049	87.44
512.265	90.44
512.481	95.44
512.698	88.44
512.914	87.44
513.13	80.44
513.346	83.44
513.562	83.44
513.778	86.44
513.994	71.44
514.21	80.44
514.426	90.44
514.642	78.44
514.858	72.44
515.074	83.44
515.29	78.44
515.506	63.44
515.721	91.44
515.937	85.44
516.153	87.44
516.369	87.44
516.585	85.44
516.801	72.44
517.016	80.44
517.232	65.44
517.448	88.44
517.664	83.44
517.879	70.44
518.095	80.44
518.311	79.44
518.527	83.44
518.742	84.44
518.958	103.44
519.173	106.44
519.389	73.44
