Data from CBS_3_HRD10591_00013.txt Node
Date: Mon Jan 19 14:05:45 EST 2026
User: Yrep
Spectrometer: HR+D1059
Trigger mode: 1
Integration Time (sec): 1.000000E-1
Scans to average: 1
Electric dark correction enabled: true
Nonlinearity correction enabled: false
Boxcar width: 0
XAxis mode: Wavelengths
Number of Pixels in Spectrum: 2048
>>>>>Begin Spectral Data<<<<<
223.165	-21.44
223.4	-21.44
223.635	-21.44
223.869	-23.44
224.104	-10.44
224.338	-19.44
224.573	-5.44
224.808	-4.44
225.042	-2.44
225.277	-7.44
225.511	2.56
225.746	-2.44
225.98	20.56
226.215	17.56
226.449	12.56
226.683	2.56
226.918	13.56
227.152	27.56
227.387	38.56
227.621	34.56
227.856	53.56
228.09	45.56
228.324	53.56
228.559	47.56
228.793	61.56
229.027	60.56
229.262	68.56
229.496	53.56
229.73	70.56
229.964	72.56
230.199	68.56
230.433	65.56
230.667	74.56
230.901	79.56
231.136	83.56
231.37	88.56
231.604	70.56
231.838	64.56
232.072	81.56
232.306	85.56
232.541	83.56
232.775	82.56
233.009	69.56
233.243	83.56
233.477	90.56
233.711	74.56
233.945	85.56
234.179	75.56
234.413	86.56
234.647	89.56
234.881	84.56
235.115	81.56
235.349	77.56
235.583	70.56
235.817	82.56
236.051	71.56
236.285	62.56
236.519	83.56
236.753	82.56
236.987	62.56
237.221	86.56
237.455	79.56
237.689	86.56
237.922	99.56
238.156	83.56
238.39	79.56
238.624	73.56
238.858	68.56
239.091	83.56
239.325	68.56
239.559	75.56
239.793	88.56
240.027	71.56
240.26	68.56
240.494	73.56
240.728	65.56
240.961	71.56
241.195	81.56
241.429	85.56
241.662	67.56
241.896	77.56
242.13	77.56
242.363	79.56
242.597	82.56
242.83	79.56
243.064	77.56
243.298	89.56
243.531	68.56
243.765	80.56
243.998	87.56
244.232	95.56
244.465	75.56
244.699	75.56
244.932	66.56
245.166	74.56
245.399	92.56
245.633	86.56
245.866	79.56
246.099	79.56
246.333	88.56
246.566	73.56
246.8	72.56
247.033	70.56
247.266	67.56
247.5	78.56
247.733	77.56
247.966	80.56
248.2	82.56
248.433	82.56
248.666	80.56
248.899	79.56
249.133	75.56
249.366	81.56
249.599	92.56
249.832	82.56
250.066	89.56
250.299	71.56
250.532	78.56
250.765	74.56
250.998	73.56
251.231	88.56
251.465	81.56
251.698	84.56
251.931	61.56
252.164	76.56
252.397	80.56
252.63	69.56
252.863	89.56
253.096	75.56
253.329	76.56
253.562	86.56
253.795	89.56
254.028	84.56
254.261	77.56
254.494	83.56
254.727	74.56
254.96	83.56
255.193	83.56
255.426	85.56
255.659	75.56
255.892	90.56
256.124	86.56
256.357	87.56
256.59	85.56
256.823	71.56
257.056	81.56
257.289	92.56
257.521	81.56
257.754	81.56
257.987	93.56
258.22	98.56
258.452	84.56
258.685	91.56
258.918	74.56
259.151	82.56
259.383	71.56
259.616	75.56
259.849	89.56
260.081	72.56
260.314	91.56
260.547	83.56
260.779	72.56
261.012	74.56
261.244	87.56
261.477	83.56
261.71	89.56
261.942	72.56
262.175	81.56
262.407	88.56
262.64	71.56
262.872	86.56
263.105	86.56
263.337	77.56
263.57	86.56
263.802	96.56
264.035	91.56
264.267	79.56
264.499	86.56
264.732	78.56
264.964	85.56
265.197	92.56
265.429	74.56
265.661	99.56
265.894	79.56
266.126	93.56
266.358	88.56
266.591	75.56
266.823	79.56
267.055	75.56
267.287	92.56
267.52	84.56
267.752	86.56
267.984	75.56
268.216	86.56
268.448	104.56
268.681	74.56
268.913	64.56
269.145	81.56
269.377	83.56
269.609	66.56
269.841	77.56
270.073	76.56
270.306	107.56
270.538	94.56
270.77	88.56
271.002	88.56
271.234	82.56
271.466	81.56
271.698	81.56
271.93	77.56
272.162	73.56
272.394	86.56
272.626	83.56
272.858	97.56
273.09	96.56
273.322	71.56
273.553	85.56
273.785	78.56
274.017	95.56
274.249	88.56
274.481	92.56
274.713	76.56
274.945	97.56
275.176	96.56
275.408	82.56
275.64	79.56
275.872	94.56
276.104	85.56
276.335	79.56
276.567	91.56
276.799	84.56
277.031	83.56
277.262	73.56
277.494	67.56
277.726	90.56
277.957	82.56
278.189	75.56
278.421	96.56
278.652	91.56
278.884	85.56
279.115	80.56
279.347	81.56
279.579	85.56
279.81	89.56
280.042	82.56
280.273	99.56
280.505	81.56
280.736	83.56
280.968	96.56
281.199	80.56
281.431	93.56
281.662	95.56
281.894	92.56
282.125	98.56
282.356	93.56
282.588	81.56
282.819	95.56
283.051	63.56
283.282	80.56
283.513	76.56
283.745	96.56
283.976	79.56
284.207	86.56
284.439	92.56
284.67	88.56
284.901	81.56
285.132	84.56
285.364	88.56
285.595	99.56
285.826	99.56
286.057	88.56
286.288	90.56
286.52	71.56
286.751	75.56
286.982	77.56
287.213	82.56
287.444	81.56
287.675	102.56
287.906	97.56
288.138	92.56
288.369	96.56
288.6	87.56
288.831	81.56
289.062	91.56
289.293	72.56
289.524	94.56
289.755	95.56
289.986	85.56
290.217	92.56
290.448	88.56
290.679	87.56
290.91	70.56
291.141	81.56
291.371	95.56
291.602	86.56
291.833	92.56
292.064	82.56
292.295	84.56
292.526	95.56
292.757	90.56
292.987	76.56
293.218	90.56
293.449	73.56
293.68	95.56
293.91	81.56
294.141	85.56
294.372	84.56
294.603	92.56
294.833	83.56
295.064	81.56
295.295	85.56
295.525	84.56
295.756	94.56
295.987	93.56
296.217	93.56
296.448	85.56
296.679	101.56
296.909	85.56
297.14	78.56
297.37	86.56
297.601	86.56
297.831	94.56
298.062	88.56
298.292	81.56
298.523	92.56
298.753	84.56
298.984	88.56
299.214	84.56
299.445	95.56
299.675	88.56
299.905	89.56
300.136	109.56
300.366	84.56
300.597	90.56
300.827	92.56
301.057	89.56
301.288	91.56
301.518	103.56
301.748	81.56
301.979	105.56
302.209	86.56
302.439	82.56
302.669	95.56
302.9	82.56
303.13	86.56
303.36	92.56
303.59	77.56
303.82	88.56
304.051	89.56
304.281	87.56
304.511	93.56
304.741	84.56
304.971	83.56
305.201	80.56
305.431	100.56
305.661	88.56
305.891	87.56
306.121	91.56
306.352	78.56
306.582	87.56
306.812	76.56
307.042	75.56
307.272	73.56
307.502	73.56
307.731	91.56
307.961	71.56
308.191	99.56
308.421	85.56
308.651	84.56
308.881	86.56
309.111	87.56
309.341	91.56
309.571	88.56
309.8	92.56
310.03	96.56
310.26	79.56
310.49	77.56
310.72	91.56
310.949	89.56
311.179	88.56
311.409	89.56
311.639	82.56
311.868	91.56
312.098	91.56
312.328	87.56
312.557	78.56
312.787	86.56
313.017	90.56
313.246	98.56
313.476	90.56
313.706	97.56
313.935	98.56
314.165	94.56
314.394	95.56
314.624	74.56
314.853	84.56
315.083	83.56
315.312	95.56
315.542	93.56
315.771	104.56
316.001	102.56
316.23	92.56
316.46	88.56
316.689	96.56
316.919	88.56
317.148	91.56
317.377	103.56
317.607	95.56
317.836	92.56
318.065	111.56
318.295	106.56
318.524	105.56
318.753	82.56
318.983	93.56
319.212	91.56
319.441	93.56
319.67	67.56
319.9	88.56
320.129	100.56
320.358	81.56
320.587	105.56
320.816	93.56
321.046	84.56
321.275	78.56
321.504	95.56
321.733	88.56
321.962	83.56
322.191	93.56
322.42	80.56
322.649	98.56
322.878	83.56
323.108	88.56
323.337	81.56
323.566	70.56
323.795	90.56
324.024	83.56
324.253	85.56
324.482	88.56
324.71	83.56
324.939	77.56
325.168	101.56
325.397	95.56
325.626	88.56
325.855	90.56
326.084	89.56
326.313	95.56
326.542	82.56
326.77	104.56
326.999	87.56
327.228	87.56
327.457	86.56
327.686	90.56
327.914	98.56
328.143	87.56
328.372	87.56
328.6	94.56
328.829	85.56
329.058	94.56
329.287	91.56
329.515	98.56
329.744	85.56
329.972	85.56
330.201	92.56
330.43	95.56
330.658	78.56
330.887	94.56
331.115	85.56
331.344	97.56
331.572	105.56
331.801	93.56
332.03	82.56
332.258	92.56
332.486	88.56
332.715	86.56
332.943	95.56
333.172	83.56
333.4	95.56
333.629	84.56
333.857	85.56
334.085	92.56
334.314	89.56
334.542	95.56
334.771	101.56
334.999	97.56
335.227	85.56
335.455	81.56
335.684	87.56
335.912	99.56
336.14	90.56
336.369	100.56
336.597	81.56
336.825	91.56
337.053	88.56
337.281	85.56
337.51	77.56
337.738	84.56
337.966	69.56
338.194	82.56
338.422	91.56
338.65	84.56
338.878	89.56
339.106	83.56
339.334	95.56
339.562	75.56
339.79	73.56
340.018	97.56
340.246	86.56
340.474	97.56
340.702	87.56
340.93	86.56
341.158	86.56
341.386	58.56
341.614	77.56
341.842	85.56
342.07	79.56
342.298	93.56
342.526	88.56
342.754	90.56
342.981	103.56
343.209	96.56
343.437	89.56
343.665	100.56
343.893	84.56
344.12	99.56
344.348	83.56
344.576	82.56
344.804	105.56
345.031	83.56
345.259	98.56
345.487	86.56
345.714	98.56
345.942	95.56
346.17	72.56
346.397	90.56
346.625	81.56
346.853	89.56
347.08	86.56
347.308	92.56
347.535	87.56
347.763	95.56
347.99	94.56
348.218	89.56
348.445	95.56
348.673	84.56
348.9	85.56
349.128	90.56
349.355	95.56
349.583	82.56
349.81	99.56
350.037	85.56
350.265	95.56
350.492	77.56
350.72	86.56
350.947	89.56
351.174	77.56
351.402	85.56
351.629	74.56
351.856	89.56
352.083	86.56
352.311	80.56
352.538	97.56
352.765	89.56
352.992	91.56
353.22	86.56
353.447	86.56
353.674	97.56
353.901	91.56
354.128	99.56
354.355	101.56
354.583	83.56
354.81	77.56
355.037	92.56
355.264	85.56
355.491	71.56
355.718	84.56
355.945	79.56
356.172	89.56
356.399	95.56
356.626	90.56
356.853	85.56
357.08	89.56
357.307	98.56
357.534	90.56
357.761	87.56
357.988	104.56
358.215	98.56
358.441	87.56
358.668	91.56
358.895	80.56
359.122	96.56
359.349	97.56
359.576	77.56
359.802	90.56
360.029	68.56
360.256	83.56
360.483	90.56
360.709	82.56
360.936	94.56
361.163	84.56
361.39	77.56
361.616	79.56
361.843	79.56
362.07	99.56
362.296	101.56
362.523	107.56
362.749	103.56
362.976	116.56
363.203	132.56
363.429	102.56
363.656	79.56
363.882	91.56
364.109	111.56
364.335	121.56
364.562	115.56
364.788	117.56
365.015	102.56
365.241	83.56
365.468	97.56
365.694	62.56
365.92	95.56
366.147	92.56
366.373	73.56
366.599	85.56
366.826	95.56
367.052	85.56
367.278	92.56
367.505	95.56
367.731	98.56
367.957	87.56
368.184	85.56
368.41	70.56
368.636	75.56
368.862	82.56
369.089	79.56
369.315	81.56
369.541	88.56
369.767	71.56
369.993	85.56
370.219	89.56
370.445	85.56
370.672	99.56
370.898	97.56
371.124	83.56
371.35	97.56
371.576	101.56
371.802	85.56
372.028	89.56
372.254	90.56
372.48	83.56
372.706	77.56
372.932	87.56
373.158	102.56
373.384	93.56
373.61	108.56
373.835	122.56
374.061	90.56
374.287	95.56
374.513	81.56
374.739	85.56
374.965	87.56
375.191	85.56
375.416	100.56
375.642	87.56
375.868	97.56
376.094	85.56
376.319	87.56
376.545	88.56
376.771	97.56
376.997	85.56
377.222	78.56
377.448	92.56
377.674	88.56
377.899	96.56
378.125	83.56
378.35	77.56
378.576	76.56
378.802	89.56
379.027	93.56
379.253	92.56
379.478	88.56
379.704	93.56
379.929	82.56
380.155	83.56
380.38	82.56
380.606	88.56
380.831	88.56
381.057	95.56
381.282	75.56
381.507	89.56
381.733	88.56
381.958	89.56
382.184	91.56
382.409	87.56
382.634	90.56
382.86	91.56
383.085	89.56
383.31	93.56
383.535	93.56
383.761	92.56
383.986	76.56
384.211	81.56
384.436	85.56
384.662	82.56
384.887	94.56
385.112	84.56
385.337	80.56
385.562	101.56
385.787	87.56
386.013	91.56
386.238	83.56
386.463	84.56
386.688	99.56
386.913	97.56
387.138	93.56
387.363	91.56
387.588	86.56
387.813	87.56
388.038	95.56
388.263	96.56
388.488	101.56
388.713	70.56
388.938	88.56
389.163	80.56
389.387	87.56
389.612	106.56
389.837	95.56
390.062	93.56
390.287	77.56
390.512	78.56
390.736	93.56
390.961	79.56
391.186	84.56
391.411	86.56
391.636	84.56
391.86	115.56
392.085	91.56
392.31	101.56
392.534	100.56
392.759	117.56
392.984	165.56
393.208	319.56
393.433	467.56
393.658	357.56
393.882	151.56
394.107	115.56
394.331	100.56
394.556	109.56
394.78	98.56
395.005	99.56
395.229	91.56
395.454	99.56
395.678	93.56
395.903	126.56
396.127	125.56
396.352	147.56
396.576	194.56
396.801	326.56
397.025	353.56
397.249	206.56
397.474	137.56
397.698	103.56
397.922	103.56
398.147	81.56
398.371	93.56
398.595	89.56
398.82	80.56
399.044	92.56
399.268	92.56
399.492	82.56
399.717	87.56
399.941	98.56
400.165	92.56
400.389	84.56
400.613	90.56
400.837	77.56
401.062	96.56
401.286	67.56
401.51	99.56
401.734	99.56
401.958	85.56
402.182	68.56
402.406	95.56
402.63	80.56
402.854	78.56
403.078	96.56
403.302	101.56
403.526	84.56
403.75	86.56
403.974	83.56
404.198	90.56
404.422	93.56
404.645	83.56
404.869	88.56
405.093	97.56
405.317	108.56
405.541	77.56
405.765	92.56
405.988	95.56
406.212	89.56
406.436	77.56
406.66	97.56
406.883	73.56
407.107	91.56
407.331	87.56
407.555	100.56
407.778	119.56
408.002	125.56
408.226	83.56
408.449	93.56
408.673	87.56
408.896	85.56
409.12	93.56
409.344	81.56
409.567	96.56
409.791	98.56
410.014	106.56
410.238	84.56
410.461	94.56
410.685	84.56
410.908	73.56
411.132	86.56
411.355	81.56
411.578	89.56
411.802	77.56
412.025	91.56
412.249	89.56
412.472	97.56
412.695	88.56
412.919	87.56
413.142	95.56
413.365	86.56
413.589	77.56
413.812	79.56
414.035	78.56
414.258	88.56
414.482	101.56
414.705	81.56
414.928	88.56
415.151	95.56
415.374	93.56
415.597	76.56
415.821	103.56
416.044	77.56
416.267	103.56
416.49	85.56
416.713	89.56
416.936	90.56
417.159	97.56
417.382	71.56
417.605	83.56
417.828	92.56
418.051	71.56
418.274	91.56
418.497	93.56
418.72	67.56
418.943	81.56
419.166	77.56
419.389	88.56
419.611	100.56
419.834	85.56
420.057	81.56
420.28	92.56
420.503	92.56
420.726	82.56
420.948	96.56
421.171	96.56
421.394	100.56
421.617	122.56
421.839	119.56
422.062	115.56
422.285	160.56
422.507	280.56
422.73	482.56
422.953	418.56
423.175	193.56
423.398	124.56
423.621	109.56
423.843	91.56
424.066	96.56
424.288	109.56
424.511	97.56
424.733	98.56
424.956	81.56
425.178	91.56
425.401	92.56
425.623	87.56
425.846	77.56
426.068	102.56
426.291	94.56
426.513	82.56
426.735	94.56
426.958	100.56
427.18	101.56
427.402	88.56
427.625	103.56
427.847	90.56
428.069	90.56
428.292	130.56
428.514	154.56
428.736	125.56
428.958	133.56
429.181	139.56
429.403	101.56
429.625	83.56
429.847	119.56
430.069	166.56
430.292	205.56
430.514	180.56
430.736	123.56
430.958	143.56
431.18	105.56
431.402	95.56
431.624	91.56
431.846	131.56
432.068	140.56
432.29	82.56
432.512	89.56
432.734	85.56
432.956	94.56
433.178	95.56
433.4	92.56
433.622	88.56
433.844	82.56
434.066	86.56
434.287	80.56
434.509	78.56
434.731	78.56
434.953	89.56
435.175	87.56
435.397	88.56
435.618	93.56
435.84	91.56
436.062	87.56
436.284	75.56
436.505	91.56
436.727	92.56
436.949	92.56
437.17	80.56
437.392	92.56
437.614	89.56
437.835	85.56
438.057	89.56
438.278	88.56
438.5	78.56
438.721	74.56
438.943	90.56
439.165	81.56
439.386	96.56
439.608	92.56
439.829	81.56
440.05	87.56
440.272	76.56
440.493	96.56
440.715	91.56
440.936	81.56
441.158	72.56
441.379	96.56
441.6	93.56
441.822	85.56
442.043	96.56
442.264	96.56
442.486	113.56
442.707	166.56
442.928	126.56
443.149	103.56
443.371	150.56
443.592	256.56
443.813	219.56
444.034	118.56
444.255	90.56
444.476	95.56
444.698	100.56
444.919	69.56
445.14	197.56
445.361	222.56
445.582	294.56
445.803	273.56
446.024	121.56
446.245	99.56
446.466	71.56
446.687	83.56
446.908	87.56
447.129	87.56
447.35	80.56
447.571	81.56
447.792	78.56
448.013	85.56
448.234	72.56
448.455	78.56
448.675	67.56
448.896	77.56
449.117	75.56
449.338	80.56
449.559	73.56
449.779	73.56
450	78.56
450.221	78.56
450.442	93.56
450.662	92.56
450.883	85.56
451.104	76.56
451.324	92.56
451.545	87.56
451.766	72.56
451.986	75.56
452.207	93.56
452.428	68.56
452.648	95.56
452.869	107.56
453.089	83.56
453.31	87.56
453.53	89.56
453.751	87.56
453.971	82.56
454.192	87.56
454.412	82.56
454.633	78.56
454.853	66.56
455.073	89.56
455.294	89.56
455.514	98.56
455.734	73.56
455.955	87.56
456.175	84.56
456.395	95.56
456.616	89.56
456.836	86.56
457.056	90.56
457.276	81.56
457.497	95.56
457.717	90.56
457.937	102.56
458.157	125.56
458.377	127.56
458.598	125.56
458.818	126.56
459.038	85.56
459.258	91.56
459.478	84.56
459.698	84.56
459.918	93.56
460.138	67.56
460.358	84.56
460.578	87.56
460.798	113.56
461.018	108.56
461.238	96.56
461.458	75.56
461.678	81.56
461.898	90.56
462.118	82.56
462.338	92.56
462.558	92.56
462.777	93.56
462.997	93.56
463.217	92.56
463.437	81.56
463.657	85.56
463.876	83.56
464.096	91.56
464.316	99.56
464.536	79.56
464.755	84.56
464.975	87.56
465.195	97.56
465.414	88.56
465.634	84.56
465.854	82.56
466.073	87.56
466.293	95.56
466.512	76.56
466.732	87.56
466.951	84.56
467.171	87.56
467.391	82.56
467.61	82.56
467.829	85.56
468.049	100.56
468.268	91.56
468.488	91.56
468.707	94.56
468.927	83.56
469.146	85.56
469.365	77.56
469.585	85.56
469.804	85.56
470.023	73.56
470.243	93.56
470.462	83.56
470.681	78.56
470.901	74.56
471.12	73.56
471.339	100.56
471.558	79.56
471.777	78.56
471.997	88.56
472.216	86.56
472.435	84.56
472.654	80.56
472.873	93.56
473.092	91.56
473.311	91.56
473.53	91.56
473.749	89.56
473.968	81.56
474.187	92.56
474.406	84.56
474.625	92.56
474.844	96.56
475.063	97.56
475.282	87.56
475.501	94.56
475.72	102.56
475.939	85.56
476.158	90.56
476.377	104.56
476.596	74.56
476.814	77.56
477.033	87.56
477.252	87.56
477.471	91.56
477.69	82.56
477.908	69.56
478.127	93.56
478.346	104.56
478.564	95.56
478.783	99.56
479.002	90.56
479.22	88.56
479.439	85.56
479.658	85.56
479.876	68.56
480.095	72.56
480.313	79.56
480.532	75.56
480.751	87.56
480.969	92.56
481.188	83.56
481.406	92.56
481.624	93.56
481.843	75.56
482.061	89.56
482.28	87.56
482.498	80.56
482.717	83.56
482.935	89.56
483.153	87.56
483.372	104.56
483.59	107.56
483.808	92.56
484.027	100.56
484.245	91.56
484.463	94.56
484.681	86.56
484.9	89.56
485.118	91.56
485.336	89.56
485.554	81.56
485.772	73.56
485.99	89.56
486.209	85.56
486.427	81.56
486.645	84.56
486.863	85.56
487.081	78.56
487.299	107.56
487.517	100.56
487.735	109.56
487.953	160.56
488.171	149.56
488.389	83.56
488.607	88.56
488.825	81.56
489.043	84.56
489.261	99.56
489.479	92.56
489.696	90.56
489.914	89.56
490.132	76.56
490.35	94.56
490.568	91.56
490.786	86.56
491.003	72.56
491.221	87.56
491.439	97.56
491.657	80.56
491.874	90.56
492.092	86.56
492.31	89.56
492.527	95.56
492.745	90.56
492.963	90.56
493.18	95.56
493.398	86.56
493.615	91.56
493.833	87.56
494.05	79.56
494.268	83.56
494.485	99.56
494.703	92.56
494.92	85.56
495.138	103.56
495.355	81.56
495.573	86.56
495.79	100.56
496.008	87.56
496.225	77.56
496.442	83.56
496.66	98.56
496.877	95.56
497.094	79.56
497.312	95.56
497.529	86.56
497.746	93.56
497.963	78.56
498.181	83.56
498.398	95.56
498.615	81.56
498.832	80.56
499.049	90.56
499.267	91.56
499.484	100.56
499.701	98.56
499.918	85.56
500.135	92.56
500.352	104.56
500.569	96.56
500.786	87.56
501.003	97.56
501.22	90.56
501.437	90.56
501.654	87.56
501.871	95.56
502.088	75.56
502.305	95.56
502.522	93.56
502.739	93.56
502.956	84.56
503.172	104.56
503.389	94.56
503.606	92.56
503.823	93.56
504.04	104.56
504.256	137.56
504.473	123.56
504.69	98.56
504.907	88.56
505.123	93.56
505.34	71.56
505.557	85.56
505.773	83.56
505.99	83.56
506.207	75.56
506.423	94.56
506.64	93.56
506.856	80.56
507.073	94.56
507.289	92.56
507.506	70.56
507.722	69.56
507.939	90.56
508.155	93.56
508.372	106.56
508.588	96.56
508.805	86.56
509.021	95.56
509.238	85.56
509.454	86.56
509.67	89.56
509.887	92.56
510.103	101.56
510.319	99.56
510.536	81.56
510.752	87.56
510.968	97.56
511.184	102.56
511.401	87.56
511.617	78.56
511.833	84.56
512.049	92.56
512.265	88.56
512.481	103.56
512.698	82.56
512.914	88.56
513.13	81.56
513.346	93.56
513.562	78.56
513.778	95.56
513.994	88.56
514.21	82.56
514.426	87.56
514.642	97.56
514.858	84.56
515.074	96.56
515.29	96.56
515.506	80.56
515.721	83.56
515.937	90.56
516.153	84.56
516.369	78.56
516.585	93.56
516.801	89.56
517.016	81.56
517.232	91.56
517.448	97.56
517.664	85.56
517.879	85.56
518.095	81.56
