Data from CBS_3_HRD10591_00042.txt Node
Date: Mon Jan 19 14:05:59 EST 2026
User: Yrep
Spectrometer: HR+D1059
Trigger mode: 1
Integration Time (sec): 1.000000E-1
Scans to average: 1
Electric dark correction enabled: true
Nonlinearity correction enabled: false
Boxcar width: 0
XAxis mode: Wavelengths
Number of Pixels in Spectrum: 2048
>>>>>Begin Spectral Data<<<<<
223.165	-8.75
223.4	-8.75
223.635	-8.75
223.869	-20.75
224.104	-21.75
224.338	-11.75
224.573	-10.75
224.808	-11.75
225.042	-12.75
225.277	-6.75
225.511	-4.75
225.746	-3.75
225.98	19.25
226.215	13.25
226.449	12.25
226.683	12.25
226.918	23.25
227.152	33.25
227.387	39.25
227.621	55.25
227.856	54.25
228.09	50.25
228.324	45.25
228.559	61.25
228.793	57.25
229.027	65.25
229.262	65.25
229.496	71.25
229.73	75.25
229.964	75.25
230.199	88.25
230.433	84.25
230.667	75.25
230.901	73.25
231.136	75.25
231.37	77.25
231.604	86.25
231.838	83.25
232.072	78.25
232.306	73.25
232.541	78.25
232.775	71.25
233.009	74.25
233.243	90.25
233.477	81.25
233.711	90.25
233.945	79.25
234.179	74.25
234.413	96.25
234.647	88.25
234.881	76.25
235.115	76.25
235.349	81.25
235.583	95.25
235.817	87.25
236.051	85.25
236.285	83.25
236.519	78.25
236.753	76.25
236.987	85.25
237.221	79.25
237.455	74.25
237.689	60.25
237.922	84.25
238.156	99.25
238.39	66.25
238.624	78.25
238.858	82.25
239.091	85.25
239.325	79.25
239.559	86.25
239.793	73.25
240.027	82.25
240.26	75.25
240.494	80.25
240.728	82.25
240.961	87.25
241.195	81.25
241.429	72.25
241.662	83.25
241.896	79.25
242.13	96.25
242.363	77.25
242.597	71.25
242.83	77.25
243.064	75.25
243.298	72.25
243.531	77.25
243.765	81.25
243.998	86.25
244.232	75.25
244.465	77.25
244.699	79.25
244.932	89.25
245.166	75.25
245.399	88.25
245.633	83.25
245.866	71.25
246.099	87.25
246.333	73.25
246.566	75.25
246.8	90.25
247.033	89.25
247.266	80.25
247.5	71.25
247.733	81.25
247.966	67.25
248.2	73.25
248.433	85.25
248.666	77.25
248.899	89.25
249.133	85.25
249.366	89.25
249.599	85.25
249.832	76.25
250.066	89.25
250.299	89.25
250.532	67.25
250.765	77.25
250.998	92.25
251.231	86.25
251.465	96.25
251.698	73.25
251.931	75.25
252.164	99.25
252.397	81.25
252.63	85.25
252.863	86.25
253.096	95.25
253.329	72.25
253.562	76.25
253.795	98.25
254.028	81.25
254.261	86.25
254.494	67.25
254.727	86.25
254.96	78.25
255.193	78.25
255.426	72.25
255.659	79.25
255.892	76.25
256.124	84.25
256.357	88.25
256.59	77.25
256.823	88.25
257.056	66.25
257.289	77.25
257.521	85.25
257.754	68.25
257.987	83.25
258.22	80.25
258.452	72.25
258.685	71.25
258.918	80.25
259.151	83.25
259.383	88.25
259.616	89.25
259.849	90.25
260.081	91.25
260.314	71.25
260.547	82.25
260.779	80.25
261.012	86.25
261.244	72.25
261.477	86.25
261.71	69.25
261.942	90.25
262.175	74.25
262.407	68.25
262.64	75.25
262.872	89.25
263.105	91.25
263.337	88.25
263.57	76.25
263.802	87.25
264.035	91.25
264.267	87.25
264.499	78.25
264.732	80.25
264.964	76.25
265.197	89.25
265.429	89.25
265.661	83.25
265.894	83.25
266.126	76.25
266.358	89.25
266.591	87.25
266.823	73.25
267.055	56.25
267.287	76.25
267.52	82.25
267.752	92.25
267.984	90.25
268.216	93.25
268.448	64.25
268.681	74.25
268.913	80.25
269.145	83.25
269.377	83.25
269.609	91.25
269.841	79.25
270.073	79.25
270.306	92.25
270.538	100.25
270.77	80.25
271.002	101.25
271.234	80.25
271.466	81.25
271.698	81.25
271.93	92.25
272.162	77.25
272.394	97.25
272.626	92.25
272.858	84.25
273.09	85.25
273.322	81.25
273.553	78.25
273.785	93.25
274.017	88.25
274.249	93.25
274.481	95.25
274.713	85.25
274.945	104.25
275.176	84.25
275.408	88.25
275.64	77.25
275.872	91.25
276.104	84.25
276.335	86.25
276.567	76.25
276.799	84.25
277.031	96.25
277.262	86.25
277.494	86.25
277.726	89.25
277.957	83.25
278.189	97.25
278.421	71.25
278.652	77.25
278.884	89.25
279.115	84.25
279.347	85.25
279.579	97.25
279.81	93.25
280.042	74.25
280.273	100.25
280.505	83.25
280.736	73.25
280.968	76.25
281.199	83.25
281.431	83.25
281.662	88.25
281.894	86.25
282.125	69.25
282.356	87.25
282.588	90.25
282.819	85.25
283.051	75.25
283.282	93.25
283.513	84.25
283.745	93.25
283.976	95.25
284.207	92.25
284.439	87.25
284.67	93.25
284.901	83.25
285.132	98.25
285.364	104.25
285.595	88.25
285.826	72.25
286.057	84.25
286.288	95.25
286.52	83.25
286.751	85.25
286.982	98.25
287.213	84.25
287.444	75.25
287.675	95.25
287.906	83.25
288.138	96.25
288.369	71.25
288.6	93.25
288.831	72.25
289.062	97.25
289.293	84.25
289.524	86.25
289.755	103.25
289.986	91.25
290.217	88.25
290.448	73.25
290.679	86.25
290.91	87.25
291.141	78.25
291.371	96.25
291.602	75.25
291.833	71.25
292.064	75.25
292.295	82.25
292.526	87.25
292.757	89.25
292.987	90.25
293.218	93.25
293.449	78.25
293.68	83.25
293.91	86.25
294.141	90.25
294.372	92.25
294.603	66.25
294.833	85.25
295.064	89.25
295.295	78.25
295.525	81.25
295.756	77.25
295.987	78.25
296.217	86.25
296.448	88.25
296.679	91.25
296.909	87.25
297.14	95.25
297.37	83.25
297.601	82.25
297.831	69.25
298.062	80.25
298.292	82.25
298.523	85.25
298.753	70.25
298.984	87.25
299.214	91.25
299.445	88.25
299.675	97.25
299.905	95.25
300.136	88.25
300.366	95.25
300.597	89.25
300.827	94.25
301.057	111.25
301.288	114.25
301.518	74.25
301.748	95.25
301.979	89.25
302.209	99.25
302.439	84.25
302.669	92.25
302.9	85.25
303.13	94.25
303.36	90.25
303.59	97.25
303.82	96.25
304.051	90.25
304.281	81.25
304.511	82.25
304.741	87.25
304.971	91.25
305.201	100.25
305.431	91.25
305.661	87.25
305.891	90.25
306.121	85.25
306.352	77.25
306.582	85.25
306.812	91.25
307.042	80.25
307.272	93.25
307.502	99.25
307.731	97.25
307.961	85.25
308.191	88.25
308.421	101.25
308.651	91.25
308.881	85.25
309.111	99.25
309.341	107.25
309.571	90.25
309.8	82.25
310.03	91.25
310.26	95.25
310.49	91.25
310.72	91.25
310.949	103.25
311.179	80.25
311.409	95.25
311.639	87.25
311.868	95.25
312.098	83.25
312.328	88.25
312.557	91.25
312.787	85.25
313.017	91.25
313.246	89.25
313.476	90.25
313.706	79.25
313.935	79.25
314.165	99.25
314.394	92.25
314.624	95.25
314.853	89.25
315.083	94.25
315.312	85.25
315.542	84.25
315.771	90.25
316.001	102.25
316.23	108.25
316.46	101.25
316.689	86.25
316.919	97.25
317.148	106.25
317.377	105.25
317.607	99.25
317.836	123.25
318.065	111.25
318.295	100.25
318.524	100.25
318.753	96.25
318.983	84.25
319.212	83.25
319.441	92.25
319.67	85.25
319.9	91.25
320.129	93.25
320.358	87.25
320.587	108.25
320.816	86.25
321.046	83.25
321.275	88.25
321.504	77.25
321.733	90.25
321.962	91.25
322.191	92.25
322.42	93.25
322.649	90.25
322.878	95.25
323.108	89.25
323.337	91.25
323.566	93.25
323.795	83.25
324.024	100.25
324.253	88.25
324.482	87.25
324.71	84.25
324.939	87.25
325.168	85.25
325.397	85.25
325.626	89.25
325.855	89.25
326.084	87.25
326.313	69.25
326.542	87.25
326.77	88.25
326.999	84.25
327.228	99.25
327.457	92.25
327.686	93.25
327.914	91.25
328.143	85.25
328.372	85.25
328.6	81.25
328.829	78.25
329.058	83.25
329.287	82.25
329.515	97.25
329.744	87.25
329.972	76.25
330.201	87.25
330.43	76.25
330.658	90.25
330.887	83.25
331.115	83.25
331.344	93.25
331.572	76.25
331.801	83.25
332.03	89.25
332.258	87.25
332.486	88.25
332.715	91.25
332.943	88.25
333.172	86.25
333.4	81.25
333.629	100.25
333.857	90.25
334.085	86.25
334.314	82.25
334.542	98.25
334.771	95.25
334.999	105.25
335.227	89.25
335.455	90.25
335.684	88.25
335.912	104.25
336.14	104.25
336.369	108.25
336.597	92.25
336.825	89.25
337.053	96.25
337.281	91.25
337.51	82.25
337.738	109.25
337.966	91.25
338.194	79.25
338.422	87.25
338.65	81.25
338.878	78.25
339.106	92.25
339.334	108.25
339.562	83.25
339.79	81.25
340.018	98.25
340.246	95.25
340.474	75.25
340.702	81.25
340.93	78.25
341.158	84.25
341.386	77.25
341.614	82.25
341.842	79.25
342.07	87.25
342.298	100.25
342.526	86.25
342.754	96.25
342.981	78.25
343.209	80.25
343.437	101.25
343.665	89.25
343.893	73.25
344.12	101.25
344.348	85.25
344.576	82.25
344.804	92.25
345.031	69.25
345.259	80.25
345.487	85.25
345.714	78.25
345.942	88.25
346.17	105.25
346.397	95.25
346.625	81.25
346.853	90.25
347.08	83.25
347.308	103.25
347.535	82.25
347.763	86.25
347.99	77.25
348.218	91.25
348.445	85.25
348.673	99.25
348.9	95.25
349.128	82.25
349.355	98.25
349.583	87.25
349.81	91.25
350.037	92.25
350.265	88.25
350.492	80.25
350.72	77.25
350.947	79.25
351.174	86.25
351.402	85.25
351.629	82.25
351.856	88.25
352.083	82.25
352.311	93.25
352.538	93.25
352.765	102.25
352.992	99.25
353.22	72.25
353.447	76.25
353.674	83.25
353.901	100.25
354.128	87.25
354.355	95.25
354.583	96.25
354.81	82.25
355.037	97.25
355.264	96.25
355.491	86.25
355.718	81.25
355.945	74.25
356.172	89.25
356.399	93.25
356.626	98.25
356.853	87.25
357.08	98.25
357.307	96.25
357.534	78.25
357.761	84.25
357.988	84.25
358.215	96.25
358.441	90.25
358.668	89.25
358.895	88.25
359.122	93.25
359.349	78.25
359.576	98.25
359.802	100.25
360.029	92.25
360.256	78.25
360.483	93.25
360.709	97.25
360.936	107.25
361.163	84.25
361.39	90.25
361.616	94.25
361.843	86.25
362.07	97.25
362.296	104.25
362.523	113.25
362.749	118.25
362.976	103.25
363.203	146.25
363.429	106.25
363.656	100.25
363.882	107.25
364.109	115.25
364.335	139.25
364.562	152.25
364.788	106.25
365.015	102.25
365.241	98.25
365.468	92.25
365.694	90.25
365.92	79.25
366.147	80.25
366.373	104.25
366.599	88.25
366.826	89.25
367.052	79.25
367.278	97.25
367.505	87.25
367.731	91.25
367.957	70.25
368.184	90.25
368.41	93.25
368.636	97.25
368.862	94.25
369.089	87.25
369.315	100.25
369.541	73.25
369.767	84.25
369.993	85.25
370.219	91.25
370.445	111.25
370.672	114.25
370.898	100.25
371.124	91.25
371.35	79.25
371.576	77.25
371.802	91.25
372.028	84.25
372.254	86.25
372.48	87.25
372.706	95.25
372.932	90.25
373.158	80.25
373.384	96.25
373.61	137.25
373.835	127.25
374.061	106.25
374.287	78.25
374.513	99.25
374.739	109.25
374.965	89.25
375.191	87.25
375.416	108.25
375.642	95.25
375.868	95.25
376.094	103.25
376.319	94.25
376.545	103.25
376.771	99.25
376.997	90.25
377.222	97.25
377.448	90.25
377.674	91.25
377.899	98.25
378.125	104.25
378.35	95.25
378.576	79.25
378.802	79.25
379.027	85.25
379.253	102.25
379.478	77.25
379.704	97.25
379.929	78.25
380.155	89.25
380.38	95.25
380.606	89.25
380.831	83.25
381.057	92.25
381.282	89.25
381.507	85.25
381.733	89.25
381.958	104.25
382.184	95.25
382.409	99.25
382.634	99.25
382.86	95.25
383.085	90.25
383.31	103.25
383.535	108.25
383.761	89.25
383.986	103.25
384.211	98.25
384.436	100.25
384.662	89.25
384.887	99.25
385.112	91.25
385.337	103.25
385.562	91.25
385.787	88.25
386.013	102.25
386.238	93.25
386.463	97.25
386.688	105.25
386.913	91.25
387.138	86.25
387.363	104.25
387.588	97.25
387.813	107.25
388.038	113.25
388.263	95.25
388.488	114.25
388.713	81.25
388.938	84.25
389.163	83.25
389.387	99.25
389.612	74.25
389.837	86.25
390.062	87.25
390.287	82.25
390.512	81.25
390.736	97.25
390.961	95.25
391.186	93.25
391.411	102.25
391.636	91.25
391.86	100.25
392.085	120.25
392.31	107.25
392.534	122.25
392.759	155.25
392.984	267.25
393.208	453.25
393.433	677.25
393.658	487.25
393.882	215.25
394.107	152.25
394.331	129.25
394.556	148.25
394.78	123.25
395.005	105.25
395.229	100.25
395.454	110.25
395.678	132.25
395.903	141.25
396.127	175.25
396.352	198.25
396.576	274.25
396.801	463.25
397.025	489.25
397.249	279.25
397.474	153.25
397.698	98.25
397.922	99.25
398.147	95.25
398.371	83.25
398.595	104.25
398.82	101.25
399.044	95.25
399.268	76.25
399.492	90.25
399.717	94.25
399.941	95.25
400.165	91.25
400.389	87.25
400.613	87.25
400.837	90.25
401.062	82.25
401.286	87.25
401.51	89.25
401.734	79.25
401.958	91.25
402.182	86.25
402.406	85.25
402.63	100.25
402.854	99.25
403.078	86.25
403.302	92.25
403.526	91.25
403.75	98.25
403.974	81.25
404.198	107.25
404.422	97.25
404.645	104.25
404.869	95.25
405.093	101.25
405.317	83.25
405.541	86.25
405.765	95.25
405.988	95.25
406.212	102.25
406.436	90.25
406.66	85.25
406.883	103.25
407.107	95.25
407.331	90.25
407.555	111.25
407.778	140.25
408.002	145.25
408.226	97.25
408.449	92.25
408.673	96.25
408.896	80.25
409.12	99.25
409.344	93.25
409.567	91.25
409.791	96.25
410.014	94.25
410.238	108.25
410.461	88.25
410.685	97.25
410.908	84.25
411.132	82.25
411.355	77.25
411.578	88.25
411.802	93.25
412.025	98.25
412.249	82.25
412.472	90.25
412.695	93.25
412.919	66.25
413.142	93.25
413.365	83.25
413.589	69.25
413.812	79.25
414.035	107.25
414.258	108.25
414.482	91.25
414.705	90.25
414.928	93.25
415.151	92.25
415.374	81.25
415.597	72.25
415.821	92.25
416.044	101.25
416.267	85.25
416.49	84.25
416.713	89.25
416.936	85.25
417.159	83.25
417.382	91.25
417.605	82.25
417.828	89.25
418.051	81.25
418.274	82.25
418.497	90.25
418.72	89.25
418.943	87.25
419.166	85.25
419.389	84.25
419.611	84.25
419.834	89.25
420.057	99.25
420.28	99.25
420.503	90.25
420.726	102.25
420.948	101.25
421.171	99.25
421.394	131.25
421.617	138.25
421.839	129.25
422.062	141.25
422.285	193.25
422.507	341.25
422.73	537.25
422.953	469.25
423.175	236.25
423.398	133.25
423.621	111.25
423.843	103.25
424.066	111.25
424.288	82.25
424.511	93.25
424.733	93.25
424.956	87.25
425.178	100.25
425.401	83.25
425.623	93.25
425.846	103.25
426.068	89.25
426.291	96.25
426.513	100.25
426.735	92.25
426.958	76.25
427.18	78.25
427.402	93.25
427.625	98.25
427.847	95.25
428.069	108.25
428.292	150.25
428.514	185.25
428.736	127.25
428.958	149.25
429.181	182.25
429.403	107.25
429.625	101.25
429.847	136.25
430.069	212.25
430.292	251.25
430.514	230.25
430.736	175.25
430.958	160.25
431.18	114.25
431.402	96.25
431.624	129.25
431.846	151.25
432.068	176.25
432.29	100.25
432.512	89.25
432.734	101.25
432.956	74.25
433.178	73.25
433.4	87.25
433.622	89.25
433.844	88.25
434.066	93.25
434.287	82.25
434.509	88.25
434.731	101.25
434.953	60.25
435.175	91.25
435.397	86.25
435.618	95.25
435.84	108.25
436.062	100.25
436.284	88.25
436.505	93.25
436.727	84.25
436.949	92.25
437.17	84.25
437.392	84.25
437.614	84.25
437.835	95.25
438.057	84.25
438.278	91.25
438.5	102.25
438.721	102.25
438.943	83.25
439.165	76.25
439.386	74.25
439.608	81.25
439.829	83.25
440.05	81.25
440.272	96.25
440.493	81.25
440.715	78.25
440.936	97.25
441.158	89.25
441.379	82.25
441.6	88.25
441.822	114.25
442.043	84.25
442.264	103.25
442.486	167.25
442.707	229.25
442.928	142.25
443.149	140.25
443.371	208.25
443.592	361.25
443.813	308.25
444.034	136.25
444.255	109.25
444.476	106.25
444.698	97.25
444.919	104.25
445.14	215.25
445.361	263.25
445.582	415.25
445.803	329.25
446.024	148.25
446.245	111.25
446.466	108.25
446.687	85.25
446.908	81.25
447.129	89.25
447.35	87.25
447.571	80.25
447.792	84.25
448.013	88.25
448.234	97.25
448.455	84.25
448.675	86.25
448.896	87.25
449.117	90.25
449.338	81.25
449.559	96.25
449.779	88.25
450	92.25
450.221	91.25
450.442	72.25
450.662	77.25
450.883	88.25
451.104	88.25
451.324	85.25
451.545	86.25
451.766	75.25
451.986	83.25
452.207	99.25
452.428	78.25
452.648	104.25
452.869	103.25
453.089	105.25
453.31	81.25
453.53	96.25
453.751	81.25
453.971	84.25
454.192	82.25
454.412	101.25
454.633	91.25
454.853	76.25
455.073	84.25
455.294	94.25
455.514	94.25
455.734	102.25
455.955	86.25
456.175	93.25
456.395	82.25
456.616	81.25
456.836	111.25
457.056	81.25
457.276	67.25
457.497	97.25
457.717	103.25
457.937	121.25
458.157	161.25
458.377	151.25
458.598	137.25
458.818	166.25
459.038	112.25
459.258	82.25
459.478	86.25
459.698	89.25
459.918	85.25
460.138	67.25
460.358	80.25
460.578	107.25
460.798	124.25
461.018	129.25
461.238	93.25
461.458	83.25
461.678	84.25
461.898	82.25
462.118	95.25
462.338	80.25
462.558	82.25
462.777	87.25
462.997	81.25
463.217	70.25
463.437	86.25
463.657	91.25
463.876	100.25
464.096	73.25
464.316	89.25
464.536	76.25
464.755	91.25
464.975	95.25
465.195	63.25
465.414	81.25
465.634	84.25
465.854	80.25
466.073	90.25
466.293	81.25
466.512	87.25
466.732	89.25
466.951	91.25
467.171	94.25
467.391	78.25
467.61	88.25
467.829	86.25
468.049	97.25
468.268	89.25
468.488	83.25
468.707	97.25
468.927	85.25
469.146	82.25
469.365	84.25
469.585	84.25
469.804	87.25
470.023	67.25
470.243	83.25
470.462	86.25
470.681	90.25
470.901	105.25
471.12	79.25
471.339	67.25
471.558	78.25
471.777	84.25
471.997	88.25
472.216	87.25
472.435	88.25
472.654	87.25
472.873	78.25
473.092	75.25
473.311	83.25
473.53	94.25
473.749	90.25
473.968	87.25
474.187	86.25
474.406	83.25
474.625	96.25
474.844	101.25
475.063	86.25
475.282	89.25
475.501	71.25
475.72	78.25
475.939	89.25
476.158	77.25
476.377	85.25
476.596	82.25
476.814	96.25
477.033	89.25
477.252	90.25
477.471	91.25
477.69	78.25
477.908	95.25
478.127	90.25
478.346	81.25
478.564	100.25
478.783	87.25
479.002	77.25
479.22	80.25
479.439	85.25
479.658	99.25
479.876	90.25
480.095	91.25
480.313	98.25
480.532	86.25
480.751	83.25
480.969	88.25
481.188	82.25
481.406	88.25
481.624	83.25
481.843	91.25
482.061	98.25
482.28	89.25
482.498	95.25
482.717	95.25
482.935	82.25
483.153	85.25
483.372	85.25
483.59	88.25
483.808	75.25
484.027	96.25
484.245	97.25
484.463	85.25
484.681	111.25
484.9	83.25
485.118	88.25
485.336	70.25
485.554	71.25
485.772	91.25
485.99	84.25
486.209	85.25
486.427	98.25
486.645	93.25
486.863	104.25
487.081	95.25
487.299	99.25
487.517	96.25
487.735	131.25
487.953	223.25
488.171	190.25
488.389	105.25
488.607	82.25
488.825	86.25
489.043	95.25
489.261	78.25
489.479	78.25
489.696	98.25
489.914	91.25
490.132	83.25
490.35	87.25
490.568	91.25
490.786	101.25
491.003	89.25
491.221	88.25
491.439	75.25
491.657	101.25
491.874	100.25
492.092	81.25
492.31	101.25
492.527	85.25
492.745	87.25
492.963	90.25
493.18	88.25
493.398	103.25
493.615	87.25
493.833	86.25
494.05	94.25
494.268	78.25
494.485	89.25
494.703	93.25
494.92	92.25
495.138	75.25
495.355	83.25
495.573	98.25
495.79	98.25
496.008	89.25
496.225	87.25
496.442	83.25
496.66	93.25
496.877	88.25
497.094	90.25
497.312	96.25
497.529	89.25
497.746	87.25
497.963	86.25
498.181	106.25
498.398	103.25
498.615	89.25
498.832	92.25
499.049	73.25
499.267	98.25
499.484	97.25
499.701	81.25
499.918	81.25
500.135	106.25
500.352	90.25
500.569	96.25
500.786	85.25
501.003	108.25
501.22	97.25
501.437	96.25
501.654	97.25
501.871	90.25
502.088	75.25
502.305	90.25
502.522	93.25
502.739	89.25
502.956	80.25
503.172	88.25
503.389	105.25
503.606	86.25
503.823	103.25
504.04	115.25
504.256	159.25
504.473	152.25
504.69	103.25
504.907	80.25
505.123	82.25
505.34	89.25
505.557	92.25
505.773	105.25
505.99	91.25
506.207	80.25
506.423	81.25
506.64	94.25
506.856	80.25
507.073	74.25
507.289	87.25
507.506	95.25
507.722	101.25
507.939	92.25
508.155	85.25
508.372	88.25
508.588	98.25
508.805	80.25
509.021	76.25
509.238	83.25
509.454	80.25
509.67	103.25
509.887	85.25
510.103	104.25
510.319	89.25
510.536	65.25
510.752	68.25
510.968	82.25
511.184	74.25
511.401	105.25
511.617	96.25
511.833	94.25
512.049	84.25
512.265	94.25
512.481	82.25
512.698	100.25
512.914	85.25
513.13	75.25
513.346	82.25
513.562	81.25
513.778	89.25
513.994	86.25
514.21	82.25
514.426	97.25
514.642	79.25
514.858	85.25
515.074	82.25
515.29	85.25
515.506	98.25
515.721	102.25
515.937	82.25
516.153	92.25
516.369	91.25
516.585	81.25
516.801	97.25
517.016	89.25
