Data from CBS_3_HRD10591_00002.txt Node
Date: Mon Jan 19 14:05:39 EST 2026
User: Yrep
Spectrometer: HR+D1059
Trigger mode: 1
Integration Time (sec): 1.000000E-1
Scans to average: 1
Electric dark correction enabled: true
Nonlinearity correction enabled: false
Boxcar width: 0
XAxis mode: Wavelengths
Number of Pixels in Spectrum: 2048
>>>>>Begin Spectral Data<<<<<
223.165	-22.12
223.4	-22.12
223.635	-22.12
223.869	-14.12
224.104	-17.12
224.338	-33.12
224.573	-17.12
224.808	-13.12
225.042	-3.12
225.277	-4.12
225.511	-13.12
225.746	2.88
225.98	12.88
226.215	12.88
226.449	21.88
226.683	32.88
226.918	19.88
227.152	33.88
227.387	48.88
227.621	38.88
227.856	34.88
228.09	40.88
228.324	46.88
228.559	64.88
228.793	66.88
229.027	67.88
229.262	58.88
229.496	70.88
229.73	70.88
229.964	65.88
230.199	60.88
230.433	87.88
230.667	83.88
230.901	77.88
231.136	68.88
231.37	83.88
231.604	84.88
231.838	67.88
232.072	79.88
232.306	82.88
232.541	90.88
232.775	74.88
233.009	87.88
233.243	94.88
233.477	83.88
233.711	78.88
233.945	66.88
234.179	72.88
234.413	87.88
234.647	100.88
234.881	95.88
235.115	92.88
235.349	82.88
235.583	76.88
235.817	69.88
236.051	68.88
236.285	68.88
236.519	91.88
236.753	66.88
236.987	83.88
237.221	89.88
237.455	70.88
237.689	79.88
237.922	85.88
238.156	63.88
238.39	78.88
238.624	68.88
238.858	74.88
239.091	76.88
239.325	84.88
239.559	88.88
239.793	72.88
240.027	85.88
240.26	68.88
240.494	78.88
240.728	72.88
240.961	74.88
241.195	75.88
241.429	63.88
241.662	71.88
241.896	92.88
242.13	78.88
242.363	57.88
242.597	66.88
242.83	73.88
243.064	84.88
243.298	86.88
243.531	88.88
243.765	75.88
243.998	91.88
244.232	67.88
244.465	80.88
244.699	74.88
244.932	70.88
245.166	72.88
245.399	83.88
245.633	86.88
245.866	68.88
246.099	82.88
246.333	78.88
246.566	85.88
246.8	70.88
247.033	70.88
247.266	76.88
247.5	78.88
247.733	62.88
247.966	71.88
248.2	76.88
248.433	81.88
248.666	80.88
248.899	71.88
249.133	89.88
249.366	89.88
249.599	93.88
249.832	82.88
250.066	75.88
250.299	82.88
250.532	68.88
250.765	71.88
250.998	84.88
251.231	77.88
251.465	72.88
251.698	72.88
251.931	83.88
252.164	82.88
252.397	82.88
252.63	75.88
252.863	95.88
253.096	76.88
253.329	78.88
253.562	80.88
253.795	86.88
254.028	83.88
254.261	96.88
254.494	90.88
254.727	88.88
254.96	83.88
255.193	75.88
255.426	67.88
255.659	86.88
255.892	82.88
256.124	80.88
256.357	78.88
256.59	84.88
256.823	90.88
257.056	83.88
257.289	86.88
257.521	84.88
257.754	88.88
257.987	77.88
258.22	74.88
258.452	84.88
258.685	86.88
258.918	84.88
259.151	81.88
259.383	86.88
259.616	89.88
259.849	81.88
260.081	77.88
260.314	90.88
260.547	79.88
260.779	86.88
261.012	68.88
261.244	91.88
261.477	87.88
261.71	68.88
261.942	78.88
262.175	66.88
262.407	83.88
262.64	77.88
262.872	96.88
263.105	70.88
263.337	84.88
263.57	77.88
263.802	87.88
264.035	86.88
264.267	96.88
264.499	82.88
264.732	94.88
264.964	93.88
265.197	95.88
265.429	83.88
265.661	92.88
265.894	87.88
266.126	78.88
266.358	91.88
266.591	89.88
266.823	99.88
267.055	81.88
267.287	94.88
267.52	84.88
267.752	95.88
267.984	85.88
268.216	66.88
268.448	101.88
268.681	79.88
268.913	80.88
269.145	81.88
269.377	77.88
269.609	91.88
269.841	92.88
270.073	91.88
270.306	82.88
270.538	72.88
270.77	94.88
271.002	81.88
271.234	87.88
271.466	81.88
271.698	82.88
271.93	79.88
272.162	84.88
272.394	83.88
272.626	97.88
272.858	89.88
273.09	76.88
273.322	72.88
273.553	95.88
273.785	78.88
274.017	71.88
274.249	72.88
274.481	91.88
274.713	90.88
274.945	95.88
275.176	84.88
275.408	88.88
275.64	80.88
275.872	81.88
276.104	74.88
276.335	84.88
276.567	78.88
276.799	83.88
277.031	77.88
277.262	94.88
277.494	88.88
277.726	90.88
277.957	83.88
278.189	93.88
278.421	82.88
278.652	104.88
278.884	85.88
279.115	74.88
279.347	84.88
279.579	99.88
279.81	81.88
280.042	89.88
280.273	100.88
280.505	88.88
280.736	98.88
280.968	90.88
281.199	86.88
281.431	76.88
281.662	86.88
281.894	86.88
282.125	83.88
282.356	91.88
282.588	76.88
282.819	60.88
283.051	76.88
283.282	85.88
283.513	95.88
283.745	89.88
283.976	73.88
284.207	92.88
284.439	84.88
284.67	76.88
284.901	87.88
285.132	105.88
285.364	104.88
285.595	96.88
285.826	82.88
286.057	95.88
286.288	81.88
286.52	86.88
286.751	99.88
286.982	97.88
287.213	79.88
287.444	96.88
287.675	89.88
287.906	77.88
288.138	82.88
288.369	89.88
288.6	90.88
288.831	87.88
289.062	97.88
289.293	81.88
289.524	79.88
289.755	83.88
289.986	77.88
290.217	91.88
290.448	86.88
290.679	84.88
290.91	91.88
291.141	75.88
291.371	79.88
291.602	67.88
291.833	92.88
292.064	90.88
292.295	82.88
292.526	84.88
292.757	90.88
292.987	91.88
293.218	72.88
293.449	92.88
293.68	82.88
293.91	95.88
294.141	82.88
294.372	82.88
294.603	90.88
294.833	82.88
295.064	84.88
295.295	91.88
295.525	93.88
295.756	82.88
295.987	92.88
296.217	86.88
296.448	84.88
296.679	99.88
296.909	100.88
297.14	90.88
297.37	102.88
297.601	92.88
297.831	97.88
298.062	92.88
298.292	101.88
298.523	90.88
298.753	82.88
298.984	87.88
299.214	86.88
299.445	91.88
299.675	96.88
299.905	98.88
300.136	101.88
300.366	98.88
300.597	99.88
300.827	106.88
301.057	107.88
301.288	82.88
301.518	79.88
301.748	88.88
301.979	108.88
302.209	94.88
302.439	87.88
302.669	102.88
302.9	89.88
303.13	95.88
303.36	86.88
303.59	101.88
303.82	91.88
304.051	96.88
304.281	110.88
304.511	94.88
304.741	90.88
304.971	94.88
305.201	88.88
305.431	97.88
305.661	94.88
305.891	83.88
306.121	83.88
306.352	72.88
306.582	94.88
306.812	80.88
307.042	106.88
307.272	99.88
307.502	84.88
307.731	94.88
307.961	89.88
308.191	100.88
308.421	107.88
308.651	89.88
308.881	96.88
309.111	119.88
309.341	110.88
309.571	98.88
309.8	82.88
310.03	71.88
310.26	82.88
310.49	90.88
310.72	98.88
310.949	71.88
311.179	96.88
311.409	86.88
311.639	100.88
311.868	98.88
312.098	78.88
312.328	78.88
312.557	94.88
312.787	98.88
313.017	89.88
313.246	79.88
313.476	82.88
313.706	93.88
313.935	88.88
314.165	91.88
314.394	101.88
314.624	92.88
314.853	90.88
315.083	87.88
315.312	105.88
315.542	112.88
315.771	100.88
316.001	116.88
316.23	97.88
316.46	90.88
316.689	105.88
316.919	91.88
317.148	106.88
317.377	96.88
317.607	113.88
317.836	131.88
318.065	130.88
318.295	128.88
318.524	89.88
318.753	92.88
318.983	98.88
319.212	92.88
319.441	86.88
319.67	99.88
319.9	95.88
320.129	95.88
320.358	83.88
320.587	105.88
320.816	96.88
321.046	103.88
321.275	104.88
321.504	98.88
321.733	99.88
321.962	95.88
322.191	102.88
322.42	103.88
322.649	93.88
322.878	101.88
323.108	99.88
323.337	89.88
323.566	102.88
323.795	84.88
324.024	94.88
324.253	94.88
324.482	83.88
324.71	84.88
324.939	97.88
325.168	77.88
325.397	86.88
325.626	88.88
325.855	91.88
326.084	89.88
326.313	79.88
326.542	85.88
326.77	90.88
326.999	88.88
327.228	93.88
327.457	97.88
327.686	82.88
327.914	96.88
328.143	104.88
328.372	94.88
328.6	103.88
328.829	90.88
329.058	80.88
329.287	95.88
329.515	88.88
329.744	96.88
329.972	100.88
330.201	94.88
330.43	89.88
330.658	91.88
330.887	102.88
331.115	90.88
331.344	106.88
331.572	92.88
331.801	91.88
332.03	88.88
332.258	94.88
332.486	100.88
332.715	86.88
332.943	99.88
333.172	103.88
333.4	98.88
333.629	90.88
333.857	99.88
334.085	107.88
334.314	120.88
334.542	114.88
334.771	117.88
334.999	134.88
335.227	103.88
335.455	107.88
335.684	112.88
335.912	132.88
336.14	137.88
336.369	134.88
336.597	111.88
336.825	98.88
337.053	104.88
337.281	115.88
337.51	99.88
337.738	95.88
337.966	104.88
338.194	94.88
338.422	110.88
338.65	96.88
338.878	96.88
339.106	98.88
339.334	93.88
339.562	103.88
339.79	104.88
340.018	88.88
340.246	91.88
340.474	105.88
340.702	90.88
340.93	97.88
341.158	88.88
341.386	72.88
341.614	98.88
341.842	98.88
342.07	95.88
342.298	93.88
342.526	86.88
342.754	89.88
342.981	90.88
343.209	94.88
343.437	95.88
343.665	92.88
343.893	95.88
344.12	98.88
344.348	90.88
344.576	101.88
344.804	91.88
345.031	90.88
345.259	86.88
345.487	86.88
345.714	87.88
345.942	86.88
346.17	97.88
346.397	91.88
346.625	82.88
346.853	95.88
347.08	115.88
347.308	106.88
347.535	102.88
347.763	100.88
347.99	91.88
348.218	100.88
348.445	92.88
348.673	111.88
348.9	95.88
349.128	103.88
349.355	102.88
349.583	87.88
349.81	86.88
350.037	92.88
350.265	94.88
350.492	90.88
350.72	96.88
350.947	90.88
351.174	90.88
351.402	89.88
351.629	81.88
351.856	83.88
352.083	90.88
352.311	94.88
352.538	93.88
352.765	87.88
352.992	94.88
353.22	84.88
353.447	105.88
353.674	86.88
353.901	84.88
354.128	98.88
354.355	95.88
354.583	92.88
354.81	105.88
355.037	84.88
355.264	86.88
355.491	90.88
355.718	94.88
355.945	96.88
356.172	87.88
356.399	90.88
356.626	99.88
356.853	97.88
357.08	95.88
357.307	111.88
357.534	91.88
357.761	104.88
357.988	98.88
358.215	92.88
358.441	99.88
358.668	94.88
358.895	106.88
359.122	96.88
359.349	80.88
359.576	92.88
359.802	111.88
360.029	93.88
360.256	95.88
360.483	108.88
360.709	91.88
360.936	102.88
361.163	101.88
361.39	103.88
361.616	91.88
361.843	102.88
362.07	127.88
362.296	164.88
362.523	180.88
362.749	188.88
362.976	220.88
363.203	258.88
363.429	161.88
363.656	150.88
363.882	152.88
364.109	184.88
364.335	259.88
364.562	281.88
364.788	184.88
365.015	138.88
365.241	114.88
365.468	93.88
365.694	110.88
365.92	108.88
366.147	111.88
366.373	90.88
366.599	102.88
366.826	91.88
367.052	90.88
367.278	100.88
367.505	90.88
367.731	99.88
367.957	94.88
368.184	85.88
368.41	85.88
368.636	108.88
368.862	98.88
369.089	100.88
369.315	105.88
369.541	100.88
369.767	90.88
369.993	93.88
370.219	95.88
370.445	103.88
370.672	104.88
370.898	110.88
371.124	100.88
371.35	99.88
371.576	102.88
371.802	100.88
372.028	87.88
372.254	122.88
372.48	99.88
372.706	93.88
372.932	98.88
373.158	103.88
373.384	125.88
373.61	150.88
373.835	163.88
374.061	126.88
374.287	107.88
374.513	96.88
374.739	110.88
374.965	110.88
375.191	117.88
375.416	108.88
375.642	98.88
375.868	103.88
376.094	103.88
376.319	102.88
376.545	98.88
376.771	111.88
376.997	110.88
377.222	82.88
377.448	103.88
377.674	107.88
377.899	90.88
378.125	96.88
378.35	100.88
378.576	87.88
378.802	101.88
379.027	104.88
379.253	99.88
379.478	97.88
379.704	113.88
379.929	88.88
380.155	98.88
380.38	80.88
380.606	87.88
380.831	95.88
381.057	106.88
381.282	92.88
381.507	84.88
381.733	107.88
381.958	112.88
382.184	117.88
382.409	113.88
382.634	103.88
382.86	110.88
383.085	114.88
383.31	116.88
383.535	116.88
383.761	116.88
383.986	111.88
384.211	114.88
384.436	107.88
384.662	108.88
384.887	113.88
385.112	93.88
385.337	103.88
385.562	125.88
385.787	115.88
386.013	125.88
386.238	128.88
386.463	133.88
386.688	123.88
386.913	122.88
387.138	121.88
387.363	103.88
387.588	136.88
387.813	140.88
388.038	138.88
388.263	115.88
388.488	102.88
388.713	98.88
388.938	96.88
389.163	91.88
389.387	92.88
389.612	100.88
389.837	114.88
390.062	112.88
390.287	120.88
390.512	105.88
390.736	118.88
390.961	118.88
391.186	96.88
391.411	112.88
391.636	113.88
391.86	115.88
392.085	152.88
392.31	147.88
392.534	180.88
392.759	226.88
392.984	359.88
393.208	660.88
393.433	942.88
393.658	728.88
393.882	328.88
394.107	192.88
394.331	187.88
394.556	199.88
394.78	167.88
395.005	164.88
395.229	136.88
395.454	154.88
395.678	178.88
395.903	216.88
396.127	254.88
396.352	306.88
396.576	404.88
396.801	658.88
397.025	771.88
397.249	395.88
397.474	268.88
397.698	178.88
397.922	130.88
398.147	121.88
398.371	100.88
398.595	101.88
398.82	114.88
399.044	110.88
399.268	99.88
399.492	107.88
399.717	103.88
399.941	95.88
400.165	113.88
400.389	108.88
400.613	110.88
400.837	103.88
401.062	98.88
401.286	107.88
401.51	94.88
401.734	101.88
401.958	84.88
402.182	103.88
402.406	96.88
402.63	103.88
402.854	120.88
403.078	111.88
403.302	107.88
403.526	117.88
403.75	112.88
403.974	100.88
404.198	97.88
404.422	117.88
404.645	108.88
404.869	108.88
405.093	105.88
405.317	110.88
405.541	95.88
405.765	86.88
405.988	110.88
406.212	97.88
406.436	110.88
406.66	103.88
406.883	94.88
407.107	105.88
407.331	107.88
407.555	136.88
407.778	171.88
408.002	158.88
408.226	118.88
408.449	99.88
408.673	110.88
408.896	98.88
409.12	108.88
409.344	130.88
409.567	148.88
409.791	175.88
410.014	178.88
410.238	138.88
410.461	123.88
410.685	106.88
410.908	116.88
411.132	119.88
411.355	98.88
411.578	110.88
411.802	98.88
412.025	103.88
412.249	85.88
412.472	103.88
412.695	95.88
412.919	100.88
413.142	82.88
413.365	86.88
413.589	96.88
413.812	98.88
414.035	100.88
414.258	96.88
414.482	97.88
414.705	96.88
414.928	92.88
415.151	105.88
415.374	90.88
415.597	86.88
415.821	82.88
416.044	97.88
416.267	84.88
416.49	93.88
416.713	92.88
416.936	100.88
417.159	96.88
417.382	87.88
417.605	82.88
417.828	102.88
418.051	103.88
418.274	82.88
418.497	100.88
418.72	91.88
418.943	98.88
419.166	97.88
419.389	89.88
419.611	111.88
419.834	104.88
420.057	86.88
420.28	98.88
420.503	118.88
420.726	124.88
420.948	127.88
421.171	146.88
421.394	166.88
421.617	222.88
421.839	264.88
422.062	320.88
422.285	494.88
422.507	889.88
422.73	1270.88
422.953	1183.88
423.175	662.88
423.398	352.88
423.621	244.88
423.843	210.88
424.066	173.88
424.288	155.88
424.511	146.88
424.733	117.88
424.956	131.88
425.178	111.88
425.401	110.88
425.623	103.88
425.846	114.88
426.068	114.88
426.291	107.88
426.513	116.88
426.735	102.88
426.958	116.88
427.18	98.88
427.402	99.88
427.625	116.88
427.847	117.88
428.069	159.88
428.292	261.88
428.514	307.88
428.736	210.88
428.958	258.88
429.181	275.88
429.403	143.88
429.625	140.88
429.847	246.88
430.069	403.88
430.292	484.88
430.514	428.88
430.736	298.88
430.958	316.88
431.18	167.88
431.402	126.88
431.624	149.88
431.846	250.88
432.068	268.88
432.29	155.88
432.512	106.88
432.734	83.88
432.956	116.88
433.178	100.88
433.4	84.88
433.622	107.88
433.844	100.88
434.066	98.88
434.287	95.88
434.509	83.88
434.731	100.88
434.953	100.88
435.175	96.88
435.397	116.88
435.618	119.88
435.84	116.88
436.062	122.88
436.284	108.88
436.505	99.88
436.727	110.88
436.949	101.88
437.17	93.88
437.392	96.88
437.614	104.88
437.835	109.88
438.057	98.88
438.278	91.88
438.5	104.88
438.721	102.88
438.943	114.88
439.165	98.88
439.386	108.88
439.608	96.88
439.829	86.88
440.05	110.88
440.272	104.88
440.493	100.88
440.715	90.88
440.936	110.88
441.158	106.88
441.379	110.88
441.6	119.88
441.822	113.88
442.043	108.88
442.264	163.88
442.486	297.88
442.707	470.88
442.928	269.88
443.149	213.88
443.371	393.88
443.592	747.88
443.813	632.88
444.034	224.88
444.255	150.88
444.476	115.88
444.698	144.88
444.919	144.88
445.14	310.88
445.361	510.88
445.582	902.88
445.803	779.88
446.024	284.88
446.245	158.88
446.466	115.88
446.687	105.88
446.908	110.88
447.129	92.88
447.35	100.88
447.571	95.88
447.792	83.88
448.013	87.88
448.234	95.88
448.455	94.88
448.675	94.88
448.896	89.88
449.117	90.88
449.338	92.88
449.559	87.88
449.779	109.88
450	106.88
450.221	72.88
450.442	102.88
450.662	91.88
450.883	102.88
451.104	111.88
451.324	89.88
451.545	99.88
451.766	102.88
451.986	93.88
452.207	111.88
452.428	97.88
452.648	137.88
452.869	156.88
453.089	146.88
453.31	115.88
453.53	110.88
453.751	98.88
453.971	93.88
454.192	104.88
454.412	86.88
454.633	86.88
454.853	98.88
455.073	94.88
455.294	94.88
455.514	92.88
455.734	90.88
455.955	92.88
456.175	92.88
456.395	97.88
456.616	103.88
456.836	90.88
457.056	95.88
457.276	99.88
457.497	111.88
457.717	125.88
457.937	211.88
458.157	269.88
458.377	304.88
458.598	269.88
458.818	326.88
459.038	186.88
459.258	110.88
459.478	108.88
459.698	105.88
459.918	100.88
460.138	96.88
460.358	100.88
460.578	111.88
460.798	171.88
461.018	166.88
461.238	105.88
461.458	91.88
461.678	76.88
461.898	88.88
462.118	92.88
462.338	86.88
462.558	90.88
462.777	85.88
462.997	82.88
463.217	74.88
463.437	86.88
463.657	90.88
463.876	95.88
464.096	94.88
464.316	95.88
464.536	93.88
464.755	94.88
464.975	85.88
465.195	90.88
465.414	100.88
465.634	108.88
465.854	94.88
466.073	82.88
466.293	94.88
466.512	81.88
466.732	99.88
466.951	96.88
467.171	95.88
467.391	103.88
467.61	96.88
467.829	94.88
468.049	94.88
468.268	106.88
468.488	106.88
468.707	111.88
468.927	104.88
469.146	85.88
469.365	75.88
469.585	92.88
469.804	95.88
470.023	70.88
470.243	106.88
470.462	97.88
470.681	98.88
470.901	92.88
471.12	107.88
471.339	91.88
471.558	91.88
471.777	82.88
471.997	92.88
472.216	102.88
472.435	90.88
472.654	104.88
472.873	89.88
473.092	104.88
473.311	84.88
473.53	83.88
473.749	100.88
473.968	102.88
474.187	90.88
474.406	95.88
474.625	88.88
474.844	95.88
475.063	99.88
475.282	104.88
475.501	96.88
475.72	88.88
475.939	85.88
476.158	92.88
476.377	114.88
476.596	102.88
476.814	88.88
477.033	101.88
477.252	87.88
477.471	91.88
477.69	83.88
477.908	85.88
478.127	107.88
478.346	96.88
478.564	88.88
478.783	98.88
479.002	97.88
479.22	103.88
479.439	94.88
479.658	94.88
479.876	97.88
480.095	107.88
480.313	101.88
480.532	93.88
480.751	106.88
480.969	91.88
481.188	96.88
481.406	96.88
481.624	92.88
481.843	94.88
482.061	96.88
482.28	111.88
482.498	96.88
482.717	107.88
482.935	100.88
483.153	101.88
483.372	114.88
483.59	107.88
483.808	98.88
484.027	101.88
484.245	92.88
484.463	98.88
484.681	120.88
484.9	120.88
485.118	101.88
485.336	99.88
485.554	97.88
485.772	99.88
485.99	112.88
486.209	98.88
486.427	107.88
486.645	101.88
486.863	103.88
487.081	104.88
487.299	123.88
487.517	140.88
487.735	210.88
487.953	498.88
488.171	410.88
488.389	163.88
488.607	112.88
488.825	110.88
489.043	105.88
489.261	98.88
489.479	111.88
489.696	101.88
489.914	100.88
490.132	102.88
490.35	105.88
490.568	101.88
490.786	99.88
491.003	90.88
491.221	103.88
491.439	98.88
491.657	92.88
491.874	114.88
492.092	110.88
492.31	104.88
492.527	97.88
492.745	96.88
492.963	101.88
493.18	94.88
493.398	107.88
493.615	98.88
493.833	100.88
494.05	90.88
494.268	103.88
494.485	88.88
494.703	100.88
494.92	103.88
495.138	98.88
495.355	91.88
495.573	89.88
495.79	109.88
496.008	108.88
496.225	105.88
496.442	107.88
496.66	116.88
496.877	100.88
497.094	88.88
497.312	98.88
497.529	97.88
497.746	115.88
497.963	104.88
498.181	114.88
498.398	107.88
498.615	100.88
498.832	99.88
499.049	90.88
499.267	97.88
499.484	91.88
499.701	102.88
499.918	82.88
500.135	96.88
500.352	110.88
500.569	91.88
500.786	110.88
501.003	110.88
501.22	104.88
501.437	103.88
501.654	99.88
501.871	111.88
502.088	102.88
502.305	100.88
502.522	104.88
502.739	105.88
502.956	84.88
503.172	100.88
503.389	111.88
503.606	100.88
503.823	115.88
504.04	160.88
504.256	311.88
504.473	342.88
504.69	154.88
504.907	107.88
505.123	106.88
505.34	98.88
505.557	96.88
505.773	91.88
505.99	96.88
506.207	100.88
506.423	104.88
506.64	92.88
506.856	94.88
507.073	96.88
507.289	93.88
507.506	89.88
507.722	101.88
507.939	91.88
508.155	97.88
508.372	89.88
508.588	91.88
508.805	95.88
509.021	99.88
509.238	90.88
509.454	102.88
509.67	104.88
509.887	99.88
510.103	95.88
510.319	101.88
510.536	100.88
510.752	91.88
510.968	112.88
511.184	102.88
511.401	82.88
511.617	100.88
511.833	100.88
512.049	99.88
512.265	91.88
512.481	98.88
512.698	102.88
512.914	114.88
