Data from CBS_3_HRD10591_00008.txt Node
Date: Mon Jan 19 14:05:42 EST 2026
User: Yrep
Spectrometer: HR+D1059
Trigger mode: 1
Integration Time (sec): 1.000000E-1
Scans to average: 1
Electric dark correction enabled: true
Nonlinearity correction enabled: false
Boxcar width: 0
XAxis mode: Wavelengths
Number of Pixels in Spectrum: 2048
>>>>>Begin Spectral Data<<<<<
223.165	-14.38
223.4	-14.38
223.635	-14.38
223.869	-13.38
224.104	-16.38
224.338	-23.38
224.573	-21.38
224.808	-9.38
225.042	-10.38
225.277	-6.38
225.511	-5.38
225.746	6.62
225.98	7.62
226.215	-5.38
226.449	23.62
226.683	27.62
226.918	39.62
227.152	20.62
227.387	25.62
227.621	42.62
227.856	32.62
228.09	29.62
228.324	41.62
228.559	62.62
228.793	49.62
229.027	52.62
229.262	55.62
229.496	49.62
229.73	64.62
229.964	57.62
230.199	76.62
230.433	77.62
230.667	92.62
230.901	83.62
231.136	71.62
231.37	85.62
231.604	94.62
231.838	78.62
232.072	65.62
232.306	81.62
232.541	77.62
232.775	85.62
233.009	74.62
233.243	78.62
233.477	81.62
233.711	82.62
233.945	71.62
234.179	81.62
234.413	90.62
234.647	67.62
234.881	82.62
235.115	82.62
235.349	82.62
235.583	77.62
235.817	61.62
236.051	62.62
236.285	73.62
236.519	73.62
236.753	67.62
236.987	61.62
237.221	67.62
237.455	79.62
237.689	78.62
237.922	67.62
238.156	74.62
238.39	68.62
238.624	73.62
238.858	83.62
239.091	70.62
239.325	72.62
239.559	78.62
239.793	70.62
240.027	73.62
240.26	52.62
240.494	78.62
240.728	67.62
240.961	86.62
241.195	81.62
241.429	84.62
241.662	64.62
241.896	77.62
242.13	74.62
242.363	56.62
242.597	68.62
242.83	66.62
243.064	76.62
243.298	75.62
243.531	82.62
243.765	72.62
243.998	80.62
244.232	72.62
244.465	82.62
244.699	79.62
244.932	76.62
245.166	75.62
245.399	64.62
245.633	83.62
245.866	72.62
246.099	78.62
246.333	76.62
246.566	72.62
246.8	66.62
247.033	71.62
247.266	76.62
247.5	75.62
247.733	79.62
247.966	78.62
248.2	77.62
248.433	64.62
248.666	70.62
248.899	75.62
249.133	88.62
249.366	86.62
249.599	81.62
249.832	73.62
250.066	80.62
250.299	84.62
250.532	86.62
250.765	75.62
250.998	79.62
251.231	84.62
251.465	90.62
251.698	81.62
251.931	74.62
252.164	78.62
252.397	73.62
252.63	72.62
252.863	65.62
253.096	85.62
253.329	82.62
253.562	72.62
253.795	66.62
254.028	81.62
254.261	64.62
254.494	68.62
254.727	82.62
254.96	75.62
255.193	69.62
255.426	81.62
255.659	76.62
255.892	79.62
256.124	79.62
256.357	82.62
256.59	74.62
256.823	65.62
257.056	86.62
257.289	84.62
257.521	78.62
257.754	77.62
257.987	82.62
258.22	76.62
258.452	82.62
258.685	81.62
258.918	75.62
259.151	75.62
259.383	72.62
259.616	71.62
259.849	76.62
260.081	80.62
260.314	82.62
260.547	79.62
260.779	54.62
261.012	88.62
261.244	64.62
261.477	76.62
261.71	85.62
261.942	89.62
262.175	66.62
262.407	70.62
262.64	87.62
262.872	64.62
263.105	80.62
263.337	82.62
263.57	79.62
263.802	61.62
264.035	78.62
264.267	82.62
264.499	69.62
264.732	82.62
264.964	86.62
265.197	70.62
265.429	72.62
265.661	86.62
265.894	78.62
266.126	80.62
266.358	86.62
266.591	71.62
266.823	68.62
267.055	65.62
267.287	88.62
267.52	69.62
267.752	84.62
267.984	91.62
268.216	80.62
268.448	74.62
268.681	86.62
268.913	87.62
269.145	87.62
269.377	82.62
269.609	68.62
269.841	92.62
270.073	76.62
270.306	78.62
270.538	73.62
270.77	74.62
271.002	82.62
271.234	87.62
271.466	84.62
271.698	74.62
271.93	81.62
272.162	89.62
272.394	75.62
272.626	86.62
272.858	84.62
273.09	80.62
273.322	82.62
273.553	77.62
273.785	57.62
274.017	66.62
274.249	75.62
274.481	82.62
274.713	80.62
274.945	80.62
275.176	79.62
275.408	97.62
275.64	82.62
275.872	94.62
276.104	70.62
276.335	72.62
276.567	87.62
276.799	84.62
277.031	79.62
277.262	86.62
277.494	89.62
277.726	79.62
277.957	78.62
278.189	66.62
278.421	68.62
278.652	89.62
278.884	94.62
279.115	76.62
279.347	89.62
279.579	90.62
279.81	87.62
280.042	83.62
280.273	78.62
280.505	80.62
280.736	85.62
280.968	75.62
281.199	82.62
281.431	74.62
281.662	94.62
281.894	84.62
282.125	84.62
282.356	79.62
282.588	73.62
282.819	91.62
283.051	83.62
283.282	78.62
283.513	85.62
283.745	87.62
283.976	80.62
284.207	89.62
284.439	83.62
284.67	76.62
284.901	84.62
285.132	89.62
285.364	85.62
285.595	80.62
285.826	80.62
286.057	68.62
286.288	78.62
286.52	77.62
286.751	91.62
286.982	84.62
287.213	72.62
287.444	84.62
287.675	84.62
287.906	93.62
288.138	81.62
288.369	88.62
288.6	75.62
288.831	85.62
289.062	74.62
289.293	71.62
289.524	82.62
289.755	80.62
289.986	79.62
290.217	89.62
290.448	84.62
290.679	81.62
290.91	80.62
291.141	82.62
291.371	87.62
291.602	81.62
291.833	94.62
292.064	79.62
292.295	73.62
292.526	78.62
292.757	88.62
292.987	90.62
293.218	97.62
293.449	86.62
293.68	86.62
293.91	90.62
294.141	84.62
294.372	80.62
294.603	89.62
294.833	79.62
295.064	79.62
295.295	79.62
295.525	77.62
295.756	100.62
295.987	87.62
296.217	83.62
296.448	76.62
296.679	88.62
296.909	74.62
297.14	96.62
297.37	70.62
297.601	91.62
297.831	84.62
298.062	109.62
298.292	79.62
298.523	91.62
298.753	81.62
298.984	85.62
299.214	73.62
299.445	74.62
299.675	80.62
299.905	77.62
300.136	98.62
300.366	90.62
300.597	86.62
300.827	73.62
301.057	81.62
301.288	72.62
301.518	82.62
301.748	78.62
301.979	90.62
302.209	88.62
302.439	90.62
302.669	84.62
302.9	85.62
303.13	90.62
303.36	81.62
303.59	92.62
303.82	95.62
304.051	70.62
304.281	70.62
304.511	81.62
304.741	91.62
304.971	81.62
305.201	87.62
305.431	60.62
305.661	74.62
305.891	75.62
306.121	99.62
306.352	93.62
306.582	75.62
306.812	73.62
307.042	71.62
307.272	80.62
307.502	75.62
307.731	88.62
307.961	92.62
308.191	83.62
308.421	79.62
308.651	93.62
308.881	82.62
309.111	83.62
309.341	75.62
309.571	82.62
309.8	97.62
310.03	74.62
310.26	80.62
310.49	85.62
310.72	78.62
310.949	81.62
311.179	89.62
311.409	90.62
311.639	78.62
311.868	85.62
312.098	78.62
312.328	88.62
312.557	80.62
312.787	77.62
313.017	82.62
313.246	78.62
313.476	96.62
313.706	64.62
313.935	80.62
314.165	87.62
314.394	75.62
314.624	76.62
314.853	83.62
315.083	81.62
315.312	92.62
315.542	81.62
315.771	89.62
316.001	101.62
316.23	92.62
316.46	94.62
316.689	76.62
316.919	82.62
317.148	82.62
317.377	73.62
317.607	99.62
317.836	96.62
318.065	73.62
318.295	105.62
318.524	79.62
318.753	81.62
318.983	84.62
319.212	82.62
319.441	72.62
319.67	93.62
319.9	81.62
320.129	85.62
320.358	81.62
320.587	74.62
320.816	90.62
321.046	88.62
321.275	89.62
321.504	79.62
321.733	83.62
321.962	85.62
322.191	90.62
322.42	104.62
322.649	90.62
322.878	85.62
323.108	88.62
323.337	92.62
323.566	58.62
323.795	94.62
324.024	96.62
324.253	90.62
324.482	64.62
324.71	85.62
324.939	74.62
325.168	91.62
325.397	84.62
325.626	86.62
325.855	74.62
326.084	67.62
326.313	86.62
326.542	84.62
326.77	70.62
326.999	81.62
327.228	81.62
327.457	85.62
327.686	78.62
327.914	101.62
328.143	96.62
328.372	86.62
328.6	89.62
328.829	92.62
329.058	78.62
329.287	86.62
329.515	81.62
329.744	84.62
329.972	78.62
330.201	86.62
330.43	93.62
330.658	88.62
330.887	85.62
331.115	68.62
331.344	88.62
331.572	83.62
331.801	84.62
332.03	66.62
332.258	76.62
332.486	83.62
332.715	86.62
332.943	77.62
333.172	91.62
333.4	78.62
333.629	77.62
333.857	88.62
334.085	98.62
334.314	88.62
334.542	88.62
334.771	72.62
334.999	96.62
335.227	80.62
335.455	87.62
335.684	93.62
335.912	82.62
336.14	95.62
336.369	99.62
336.597	104.62
336.825	86.62
337.053	92.62
337.281	75.62
337.51	79.62
337.738	87.62
337.966	89.62
338.194	83.62
338.422	92.62
338.65	84.62
338.878	85.62
339.106	78.62
339.334	80.62
339.562	84.62
339.79	94.62
340.018	95.62
340.246	72.62
340.474	90.62
340.702	76.62
340.93	70.62
341.158	72.62
341.386	75.62
341.614	83.62
341.842	83.62
342.07	90.62
342.298	69.62
342.526	85.62
342.754	82.62
342.981	71.62
343.209	89.62
343.437	98.62
343.665	78.62
343.893	81.62
344.12	81.62
344.348	75.62
344.576	78.62
344.804	81.62
345.031	71.62
345.259	79.62
345.487	75.62
345.714	74.62
345.942	73.62
346.17	94.62
346.397	93.62
346.625	91.62
346.853	92.62
347.08	83.62
347.308	84.62
347.535	85.62
347.763	86.62
347.99	81.62
348.218	77.62
348.445	86.62
348.673	67.62
348.9	76.62
349.128	80.62
349.355	71.62
349.583	93.62
349.81	87.62
350.037	79.62
350.265	86.62
350.492	82.62
350.72	92.62
350.947	70.62
351.174	81.62
351.402	81.62
351.629	68.62
351.856	78.62
352.083	95.62
352.311	90.62
352.538	92.62
352.765	92.62
352.992	86.62
353.22	77.62
353.447	83.62
353.674	78.62
353.901	84.62
354.128	78.62
354.355	83.62
354.583	77.62
354.81	93.62
355.037	73.62
355.264	85.62
355.491	88.62
355.718	77.62
355.945	92.62
356.172	82.62
356.399	84.62
356.626	87.62
356.853	86.62
357.08	74.62
357.307	92.62
357.534	91.62
357.761	84.62
357.988	86.62
358.215	81.62
358.441	88.62
358.668	78.62
358.895	80.62
359.122	71.62
359.349	85.62
359.576	85.62
359.802	84.62
360.029	78.62
360.256	69.62
360.483	82.62
360.709	77.62
360.936	76.62
361.163	77.62
361.39	74.62
361.616	79.62
361.843	84.62
362.07	88.62
362.296	100.62
362.523	87.62
362.749	98.62
362.976	115.62
363.203	100.62
363.429	82.62
363.656	98.62
363.882	69.62
364.109	96.62
364.335	112.62
364.562	96.62
364.788	101.62
365.015	84.62
365.241	90.62
365.468	93.62
365.694	81.62
365.92	86.62
366.147	84.62
366.373	84.62
366.599	85.62
366.826	78.62
367.052	81.62
367.278	81.62
367.505	94.62
367.731	78.62
367.957	92.62
368.184	95.62
368.41	73.62
368.636	78.62
368.862	73.62
369.089	90.62
369.315	83.62
369.541	79.62
369.767	89.62
369.993	84.62
370.219	86.62
370.445	75.62
370.672	83.62
370.898	74.62
371.124	88.62
371.35	83.62
371.576	95.62
371.802	85.62
372.028	91.62
372.254	86.62
372.48	82.62
372.706	80.62
372.932	74.62
373.158	86.62
373.384	101.62
373.61	90.62
373.835	92.62
374.061	85.62
374.287	92.62
374.513	93.62
374.739	86.62
374.965	86.62
375.191	87.62
375.416	79.62
375.642	74.62
375.868	95.62
376.094	70.62
376.319	86.62
376.545	88.62
376.771	100.62
376.997	77.62
377.222	83.62
377.448	94.62
377.674	86.62
377.899	73.62
378.125	72.62
378.35	73.62
378.576	92.62
378.802	86.62
379.027	96.62
379.253	90.62
379.478	77.62
379.704	87.62
379.929	77.62
380.155	65.62
380.38	70.62
380.606	90.62
380.831	90.62
381.057	73.62
381.282	80.62
381.507	84.62
381.733	87.62
381.958	88.62
382.184	82.62
382.409	76.62
382.634	90.62
382.86	84.62
383.085	87.62
383.31	88.62
383.535	81.62
383.761	90.62
383.986	92.62
384.211	73.62
384.436	78.62
384.662	74.62
384.887	74.62
385.112	82.62
385.337	89.62
385.562	78.62
385.787	73.62
386.013	79.62
386.238	88.62
386.463	75.62
386.688	96.62
386.913	82.62
387.138	90.62
387.363	94.62
387.588	100.62
387.813	81.62
388.038	87.62
388.263	90.62
388.488	79.62
388.713	69.62
388.938	86.62
389.163	79.62
389.387	84.62
389.612	79.62
389.837	78.62
390.062	78.62
390.287	79.62
390.512	85.62
390.736	82.62
390.961	96.62
391.186	82.62
391.411	82.62
391.636	83.62
391.86	84.62
392.085	90.62
392.31	73.62
392.534	92.62
392.759	94.62
392.984	114.62
393.208	150.62
393.433	207.62
393.658	175.62
393.882	112.62
394.107	94.62
394.331	97.62
394.556	92.62
394.78	101.62
395.005	89.62
395.229	89.62
395.454	84.62
395.678	92.62
395.903	82.62
396.127	99.62
396.352	104.62
396.576	117.62
396.801	162.62
397.025	179.62
397.249	129.62
397.474	116.62
397.698	96.62
397.922	80.62
398.147	78.62
398.371	85.62
398.595	71.62
398.82	79.62
399.044	89.62
399.268	89.62
399.492	75.62
399.717	100.62
399.941	79.62
400.165	85.62
400.389	84.62
400.613	82.62
400.837	73.62
401.062	74.62
401.286	87.62
401.51	94.62
401.734	69.62
401.958	89.62
402.182	80.62
402.406	80.62
402.63	75.62
402.854	77.62
403.078	75.62
403.302	83.62
403.526	77.62
403.75	80.62
403.974	85.62
404.198	77.62
404.422	96.62
404.645	85.62
404.869	82.62
405.093	74.62
405.317	84.62
405.541	79.62
405.765	81.62
405.988	96.62
406.212	94.62
406.436	83.62
406.66	76.62
406.883	73.62
407.107	87.62
407.331	71.62
407.555	89.62
407.778	104.62
408.002	96.62
408.226	79.62
408.449	83.62
408.673	86.62
408.896	80.62
409.12	93.62
409.344	80.62
409.567	89.62
409.791	86.62
410.014	94.62
410.238	90.62
410.461	81.62
410.685	88.62
410.908	80.62
411.132	86.62
411.355	77.62
411.578	90.62
411.802	75.62
412.025	89.62
412.249	64.62
412.472	78.62
412.695	65.62
412.919	75.62
413.142	97.62
413.365	84.62
413.589	86.62
413.812	88.62
414.035	95.62
414.258	80.62
414.482	78.62
414.705	86.62
414.928	71.62
415.151	74.62
415.374	70.62
415.597	84.62
415.821	92.62
416.044	94.62
416.267	84.62
416.49	79.62
416.713	85.62
416.936	88.62
417.159	79.62
417.382	84.62
417.605	78.62
417.828	101.62
418.051	80.62
418.274	94.62
418.497	81.62
418.72	87.62
418.943	94.62
419.166	81.62
419.389	87.62
419.611	81.62
419.834	96.62
420.057	71.62
420.28	90.62
420.503	86.62
420.726	78.62
420.948	82.62
421.171	88.62
421.394	103.62
421.617	102.62
421.839	112.62
422.062	112.62
422.285	152.62
422.507	213.62
422.73	281.62
422.953	250.62
423.175	175.62
423.398	127.62
423.621	95.62
423.843	95.62
424.066	89.62
424.288	83.62
424.511	100.62
424.733	96.62
424.956	86.62
425.178	84.62
425.401	87.62
425.623	73.62
425.846	90.62
426.068	90.62
426.291	93.62
426.513	73.62
426.735	85.62
426.958	88.62
427.18	87.62
427.402	87.62
427.625	73.62
427.847	81.62
428.069	86.62
428.292	108.62
428.514	119.62
428.736	105.62
428.958	115.62
429.181	100.62
429.403	94.62
429.625	90.62
429.847	102.62
430.069	134.62
430.292	143.62
430.514	148.62
430.736	112.62
430.958	113.62
431.18	96.62
431.402	84.62
431.624	98.62
431.846	100.62
432.068	105.62
432.29	88.62
432.512	80.62
432.734	72.62
432.956	75.62
433.178	95.62
433.4	87.62
433.622	90.62
433.844	80.62
434.066	82.62
434.287	83.62
434.509	70.62
434.731	77.62
434.953	85.62
435.175	77.62
435.397	97.62
435.618	98.62
435.84	87.62
436.062	79.62
436.284	93.62
436.505	84.62
436.727	80.62
436.949	84.62
437.17	85.62
437.392	72.62
437.614	88.62
437.835	88.62
438.057	93.62
438.278	94.62
438.5	89.62
438.721	70.62
438.943	78.62
439.165	92.62
439.386	77.62
439.608	77.62
439.829	81.62
440.05	87.62
440.272	71.62
440.493	65.62
440.715	85.62
440.936	94.62
441.158	94.62
441.379	88.62
441.6	74.62
441.822	80.62
442.043	73.62
442.264	102.62
442.486	122.62
442.707	147.62
442.928	122.62
443.149	101.62
443.371	134.62
443.592	188.62
443.813	166.62
444.034	84.62
444.255	105.62
444.476	96.62
444.698	102.62
444.919	90.62
445.14	167.62
445.361	159.62
445.582	220.62
445.803	193.62
446.024	108.62
446.245	86.62
446.466	85.62
446.687	71.62
446.908	87.62
447.129	89.62
447.35	87.62
447.571	98.62
447.792	82.62
448.013	82.62
448.234	89.62
448.455	71.62
448.675	90.62
448.896	78.62
449.117	97.62
449.338	88.62
449.559	97.62
449.779	93.62
450	78.62
450.221	85.62
450.442	75.62
450.662	76.62
450.883	71.62
451.104	81.62
451.324	90.62
451.545	79.62
451.766	87.62
451.986	69.62
452.207	97.62
452.428	92.62
452.648	84.62
452.869	98.62
453.089	97.62
453.31	78.62
453.53	86.62
453.751	83.62
453.971	86.62
454.192	88.62
454.412	82.62
454.633	89.62
454.853	87.62
455.073	86.62
455.294	86.62
455.514	68.62
455.734	79.62
455.955	78.62
456.175	89.62
456.395	97.62
456.616	92.62
456.836	86.62
457.056	85.62
457.276	73.62
457.497	84.62
457.717	92.62
457.937	103.62
458.157	111.62
458.377	111.62
458.598	95.62
458.818	130.62
459.038	88.62
459.258	94.62
459.478	92.62
459.698	73.62
459.918	107.62
460.138	93.62
460.358	89.62
460.578	84.62
460.798	119.62
461.018	97.62
461.238	86.62
461.458	70.62
461.678	69.62
461.898	63.62
462.118	73.62
462.338	77.62
462.558	72.62
462.777	86.62
462.997	75.62
463.217	80.62
463.437	82.62
463.657	81.62
463.876	78.62
464.096	81.62
464.316	83.62
464.536	84.62
464.755	81.62
464.975	81.62
465.195	72.62
465.414	79.62
465.634	78.62
465.854	108.62
466.073	75.62
466.293	93.62
466.512	72.62
466.732	89.62
466.951	85.62
467.171	72.62
467.391	80.62
467.61	72.62
467.829	84.62
468.049	72.62
468.268	84.62
468.488	103.62
468.707	98.62
468.927	87.62
469.146	86.62
469.365	95.62
469.585	88.62
469.804	84.62
470.023	86.62
470.243	80.62
470.462	62.62
470.681	89.62
470.901	82.62
471.12	81.62
471.339	75.62
471.558	79.62
471.777	70.62
471.997	78.62
472.216	82.62
472.435	70.62
472.654	78.62
472.873	68.62
473.092	88.62
473.311	91.62
473.53	70.62
473.749	84.62
473.968	73.62
474.187	88.62
474.406	95.62
474.625	86.62
474.844	84.62
475.063	82.62
475.282	80.62
475.501	66.62
475.72	94.62
475.939	81.62
476.158	87.62
476.377	85.62
476.596	72.62
476.814	89.62
477.033	72.62
477.252	74.62
477.471	90.62
477.69	87.62
477.908	96.62
478.127	83.62
478.346	78.62
478.564	88.62
478.783	83.62
479.002	91.62
479.22	78.62
479.439	77.62
479.658	77.62
479.876	78.62
480.095	69.62
480.313	82.62
480.532	80.62
480.751	79.62
480.969	89.62
481.188	92.62
481.406	87.62
481.624	86.62
481.843	80.62
482.061	73.62
482.28	85.62
482.498	79.62
482.717	81.62
482.935	84.62
483.153	92.62
483.372	79.62
483.59	89.62
483.808	88.62
484.027	94.62
484.245	88.62
484.463	80.62
484.681	89.62
484.9	81.62
485.118	100.62
485.336	86.62
485.554	85.62
485.772	88.62
485.99	83.62
486.209	76.62
486.427	104.62
486.645	86.62
486.863	81.62
487.081	96.62
487.299	89.62
487.517	79.62
487.735	122.62
487.953	148.62
488.171	141.62
488.389	85.62
488.607	74.62
488.825	90.62
489.043	85.62
489.261	93.62
489.479	79.62
489.696	79.62
489.914	78.62
490.132	78.62
490.35	79.62
490.568	74.62
490.786	84.62
491.003	87.62
491.221	93.62
491.439	88.62
491.657	89.62
491.874	85.62
492.092	79.62
492.31	92.62
492.527	74.62
492.745	85.62
492.963	80.62
493.18	81.62
493.398	86.62
493.615	85.62
493.833	82.62
494.05	77.62
494.268	85.62
494.485	84.62
494.703	80.62
494.92	84.62
495.138	82.62
495.355	86.62
495.573	80.62
495.79	87.62
496.008	87.62
496.225	87.62
496.442	75.62
496.66	81.62
496.877	84.62
497.094	74.62
497.312	80.62
497.529	86.62
497.746	78.62
497.963	87.62
498.181	91.62
498.398	84.62
498.615	74.62
498.832	86.62
499.049	89.62
499.267	90.62
499.484	76.62
499.701	80.62
499.918	93.62
500.135	95.62
500.352	82.62
500.569	81.62
500.786	73.62
501.003	80.62
501.22	77.62
501.437	76.62
501.654	90.62
501.871	94.62
502.088	86.62
502.305	89.62
502.522	85.62
502.739	89.62
502.956	86.62
503.172	92.62
503.389	83.62
503.606	96.62
503.823	82.62
504.04	93.62
504.256	127.62
504.473	124.62
504.69	92.62
504.907	90.62
505.123	84.62
505.34	93.62
505.557	82.62
505.773	101.62
505.99	78.62
506.207	74.62
506.423	98.62
506.64	81.62
506.856	84.62
507.073	78.62
507.289	83.62
507.506	76.62
507.722	83.62
507.939	78.62
508.155	85.62
508.372	78.62
508.588	69.62
508.805	76.62
509.021	83.62
509.238	67.62
509.454	71.62
509.67	93.62
509.887	93.62
510.103	81.62
510.319	82.62
510.536	80.62
510.752	84.62
510.968	89.62
511.184	80.62
511.401	88.62
511.617	80.62
511.833	94.62
512.049	86.62
512.265	89.62
512.481	95.62
512.698	80.62
512.914	90.62
513.13	80.62
513.346	86.62
513.562	80.62
513.778	96.62
513.994	85.62
514.21	82.62
514.426	85.62
514.642	84.62
514.858	89.62
515.074	74.62
515.29	114.62
515.506	94.62
515.721	88.62
515.937	92.62
516.153	97.62
516.369	78.62
516.585	77.62
516.801	77.62
517.016	85.62
517.232	85.62
517.448	87.62
517.664	100.62
517.879	87.62
518.095	78.62
518.311	70.62
518.527	86.62
518.742	109.62
518.958	133.62
