Data from CBS_3_HRD10591_00016.txt Node
Date: Mon Jan 19 14:05:46 EST 2026
User: Yrep
Spectrometer: HR+D1059
Trigger mode: 1
Integration Time (sec): 1.000000E-1
Scans to average: 1
Electric dark correction enabled: true
Nonlinearity correction enabled: false
Boxcar width: 0
XAxis mode: Wavelengths
Number of Pixels in Spectrum: 2048
>>>>>Begin Spectral Data<<<<<
223.165	-21.56
223.4	-21.56
223.635	-21.56
223.869	-8.56
224.104	-29.56
224.338	-12.56
224.573	-17.56
224.808	-8.56
225.042	-4.56
225.277	3.44
225.511	3.44
225.746	-5.56
225.98	-3.56
226.215	4.44
226.449	19.44
226.683	5.44
226.918	40.44
227.152	35.44
227.387	41.44
227.621	32.44
227.856	53.44
228.09	47.44
228.324	45.44
228.559	58.44
228.793	68.44
229.027	52.44
229.262	68.44
229.496	72.44
229.73	72.44
229.964	74.44
230.199	56.44
230.433	71.44
230.667	96.44
230.901	81.44
231.136	73.44
231.37	90.44
231.604	85.44
231.838	86.44
232.072	76.44
232.306	80.44
232.541	90.44
232.775	89.44
233.009	79.44
233.243	97.44
233.477	78.44
233.711	65.44
233.945	78.44
234.179	84.44
234.413	75.44
234.647	79.44
234.881	83.44
235.115	76.44
235.349	91.44
235.583	78.44
235.817	74.44
236.051	80.44
236.285	88.44
236.519	73.44
236.753	75.44
236.987	82.44
237.221	81.44
237.455	65.44
237.689	72.44
237.922	72.44
238.156	81.44
238.39	83.44
238.624	86.44
238.858	61.44
239.091	80.44
239.325	90.44
239.559	75.44
239.793	82.44
240.027	85.44
240.26	71.44
240.494	66.44
240.728	85.44
240.961	69.44
241.195	89.44
241.429	78.44
241.662	93.44
241.896	78.44
242.13	85.44
242.363	62.44
242.597	90.44
242.83	77.44
243.064	76.44
243.298	78.44
243.531	76.44
243.765	55.44
243.998	72.44
244.232	91.44
244.465	79.44
244.699	73.44
244.932	58.44
245.166	65.44
245.399	70.44
245.633	75.44
245.866	80.44
246.099	73.44
246.333	89.44
246.566	85.44
246.8	83.44
247.033	75.44
247.266	75.44
247.5	73.44
247.733	84.44
247.966	70.44
248.2	69.44
248.433	84.44
248.666	85.44
248.899	82.44
249.133	82.44
249.366	75.44
249.599	85.44
249.832	64.44
250.066	81.44
250.299	81.44
250.532	82.44
250.765	77.44
250.998	78.44
251.231	57.44
251.465	81.44
251.698	70.44
251.931	79.44
252.164	91.44
252.397	93.44
252.63	83.44
252.863	84.44
253.096	87.44
253.329	90.44
253.562	72.44
253.795	69.44
254.028	87.44
254.261	81.44
254.494	82.44
254.727	78.44
254.96	86.44
255.193	75.44
255.426	69.44
255.659	84.44
255.892	84.44
256.124	71.44
256.357	79.44
256.59	72.44
256.823	71.44
257.056	86.44
257.289	80.44
257.521	81.44
257.754	82.44
257.987	66.44
258.22	88.44
258.452	88.44
258.685	84.44
258.918	83.44
259.151	76.44
259.383	96.44
259.616	86.44
259.849	83.44
260.081	79.44
260.314	80.44
260.547	97.44
260.779	75.44
261.012	79.44
261.244	82.44
261.477	85.44
261.71	75.44
261.942	81.44
262.175	74.44
262.407	87.44
262.64	80.44
262.872	81.44
263.105	74.44
263.337	87.44
263.57	87.44
263.802	84.44
264.035	78.44
264.267	96.44
264.499	91.44
264.732	69.44
264.964	93.44
265.197	77.44
265.429	83.44
265.661	73.44
265.894	81.44
266.126	81.44
266.358	71.44
266.591	82.44
266.823	83.44
267.055	67.44
267.287	65.44
267.52	85.44
267.752	85.44
267.984	92.44
268.216	79.44
268.448	91.44
268.681	79.44
268.913	97.44
269.145	78.44
269.377	89.44
269.609	78.44
269.841	75.44
270.073	93.44
270.306	71.44
270.538	71.44
270.77	68.44
271.002	71.44
271.234	84.44
271.466	86.44
271.698	79.44
271.93	93.44
272.162	71.44
272.394	82.44
272.626	78.44
272.858	77.44
273.09	61.44
273.322	85.44
273.553	84.44
273.785	89.44
274.017	86.44
274.249	82.44
274.481	79.44
274.713	76.44
274.945	77.44
275.176	65.44
275.408	66.44
275.64	91.44
275.872	93.44
276.104	91.44
276.335	88.44
276.567	76.44
276.799	89.44
277.031	82.44
277.262	90.44
277.494	87.44
277.726	89.44
277.957	98.44
278.189	81.44
278.421	89.44
278.652	94.44
278.884	101.44
279.115	85.44
279.347	91.44
279.579	95.44
279.81	80.44
280.042	84.44
280.273	81.44
280.505	85.44
280.736	86.44
280.968	86.44
281.199	65.44
281.431	101.44
281.662	81.44
281.894	83.44
282.125	89.44
282.356	87.44
282.588	78.44
282.819	69.44
283.051	85.44
283.282	86.44
283.513	90.44
283.745	94.44
283.976	81.44
284.207	81.44
284.439	85.44
284.67	84.44
284.901	94.44
285.132	102.44
285.364	67.44
285.595	86.44
285.826	58.44
286.057	71.44
286.288	63.44
286.52	85.44
286.751	94.44
286.982	90.44
287.213	85.44
287.444	98.44
287.675	83.44
287.906	79.44
288.138	88.44
288.369	93.44
288.6	89.44
288.831	81.44
289.062	101.44
289.293	81.44
289.524	74.44
289.755	88.44
289.986	86.44
290.217	76.44
290.448	86.44
290.679	75.44
290.91	84.44
291.141	67.44
291.371	96.44
291.602	91.44
291.833	98.44
292.064	89.44
292.295	75.44
292.526	85.44
292.757	85.44
292.987	66.44
293.218	77.44
293.449	73.44
293.68	81.44
293.91	84.44
294.141	94.44
294.372	72.44
294.603	85.44
294.833	99.44
295.064	96.44
295.295	91.44
295.525	87.44
295.756	92.44
295.987	93.44
296.217	85.44
296.448	77.44
296.679	85.44
296.909	81.44
297.14	72.44
297.37	81.44
297.601	85.44
297.831	83.44
298.062	89.44
298.292	95.44
298.523	92.44
298.753	85.44
298.984	83.44
299.214	76.44
299.445	84.44
299.675	107.44
299.905	84.44
300.136	75.44
300.366	92.44
300.597	91.44
300.827	91.44
301.057	87.44
301.288	90.44
301.518	90.44
301.748	82.44
301.979	101.44
302.209	87.44
302.439	81.44
302.669	83.44
302.9	91.44
303.13	81.44
303.36	84.44
303.59	70.44
303.82	76.44
304.051	82.44
304.281	87.44
304.511	94.44
304.741	89.44
304.971	87.44
305.201	94.44
305.431	111.44
305.661	107.44
305.891	83.44
306.121	85.44
306.352	75.44
306.582	80.44
306.812	89.44
307.042	80.44
307.272	95.44
307.502	85.44
307.731	101.44
307.961	95.44
308.191	99.44
308.421	88.44
308.651	76.44
308.881	101.44
309.111	92.44
309.341	88.44
309.571	104.44
309.8	87.44
310.03	84.44
310.26	76.44
310.49	84.44
310.72	102.44
310.949	93.44
311.179	93.44
311.409	85.44
311.639	86.44
311.868	93.44
312.098	98.44
312.328	77.44
312.557	100.44
312.787	98.44
313.017	86.44
313.246	83.44
313.476	85.44
313.706	93.44
313.935	87.44
314.165	83.44
314.394	84.44
314.624	82.44
314.853	94.44
315.083	87.44
315.312	95.44
315.542	90.44
315.771	87.44
316.001	84.44
316.23	100.44
316.46	91.44
316.689	95.44
316.919	77.44
317.148	78.44
317.377	96.44
317.607	92.44
317.836	107.44
318.065	114.44
318.295	90.44
318.524	89.44
318.753	91.44
318.983	85.44
319.212	86.44
319.441	94.44
319.67	91.44
319.9	90.44
320.129	89.44
320.358	98.44
320.587	83.44
320.816	82.44
321.046	74.44
321.275	87.44
321.504	83.44
321.733	85.44
321.962	99.44
322.191	82.44
322.42	86.44
322.649	107.44
322.878	79.44
323.108	71.44
323.337	89.44
323.566	91.44
323.795	75.44
324.024	89.44
324.253	82.44
324.482	97.44
324.71	89.44
324.939	87.44
325.168	90.44
325.397	78.44
325.626	86.44
325.855	87.44
326.084	78.44
326.313	90.44
326.542	88.44
326.77	79.44
326.999	81.44
327.228	104.44
327.457	92.44
327.686	81.44
327.914	101.44
328.143	85.44
328.372	87.44
328.6	82.44
328.829	86.44
329.058	83.44
329.287	91.44
329.515	75.44
329.744	86.44
329.972	87.44
330.201	102.44
330.43	99.44
330.658	89.44
330.887	100.44
331.115	89.44
331.344	83.44
331.572	101.44
331.801	73.44
332.03	92.44
332.258	81.44
332.486	85.44
332.715	88.44
332.943	85.44
333.172	89.44
333.4	84.44
333.629	81.44
333.857	84.44
334.085	78.44
334.314	94.44
334.542	85.44
334.771	79.44
334.999	93.44
335.227	81.44
335.455	88.44
335.684	97.44
335.912	94.44
336.14	102.44
336.369	90.44
336.597	99.44
336.825	114.44
337.053	96.44
337.281	81.44
337.51	76.44
337.738	90.44
337.966	88.44
338.194	90.44
338.422	86.44
338.65	90.44
338.878	93.44
339.106	98.44
339.334	95.44
339.562	82.44
339.79	80.44
340.018	82.44
340.246	84.44
340.474	79.44
340.702	86.44
340.93	82.44
341.158	96.44
341.386	95.44
341.614	81.44
341.842	82.44
342.07	85.44
342.298	85.44
342.526	79.44
342.754	102.44
342.981	94.44
343.209	81.44
343.437	89.44
343.665	97.44
343.893	89.44
344.12	81.44
344.348	86.44
344.576	87.44
344.804	76.44
345.031	83.44
345.259	77.44
345.487	81.44
345.714	91.44
345.942	97.44
346.17	75.44
346.397	85.44
346.625	95.44
346.853	89.44
347.08	94.44
347.308	86.44
347.535	85.44
347.763	98.44
347.99	86.44
348.218	88.44
348.445	81.44
348.673	75.44
348.9	90.44
349.128	87.44
349.355	98.44
349.583	85.44
349.81	80.44
350.037	83.44
350.265	75.44
350.492	80.44
350.72	93.44
350.947	84.44
351.174	100.44
351.402	81.44
351.629	97.44
351.856	86.44
352.083	81.44
352.311	79.44
352.538	81.44
352.765	78.44
352.992	94.44
353.22	97.44
353.447	75.44
353.674	99.44
353.901	85.44
354.128	69.44
354.355	65.44
354.583	85.44
354.81	100.44
355.037	72.44
355.264	93.44
355.491	89.44
355.718	81.44
355.945	88.44
356.172	70.44
356.399	79.44
356.626	84.44
356.853	97.44
357.08	99.44
357.307	81.44
357.534	74.44
357.761	85.44
357.988	93.44
358.215	88.44
358.441	95.44
358.668	85.44
358.895	78.44
359.122	85.44
359.349	97.44
359.576	88.44
359.802	86.44
360.029	92.44
360.256	85.44
360.483	85.44
360.709	74.44
360.936	87.44
361.163	103.44
361.39	91.44
361.616	90.44
361.843	77.44
362.07	90.44
362.296	102.44
362.523	99.44
362.749	90.44
362.976	113.44
363.203	123.44
363.429	107.44
363.656	99.44
363.882	92.44
364.109	101.44
364.335	134.44
364.562	136.44
364.788	121.44
365.015	94.44
365.241	101.44
365.468	78.44
365.694	73.44
365.92	95.44
366.147	89.44
366.373	85.44
366.599	89.44
366.826	79.44
367.052	85.44
367.278	95.44
367.505	76.44
367.731	95.44
367.957	99.44
368.184	84.44
368.41	84.44
368.636	81.44
368.862	85.44
369.089	88.44
369.315	93.44
369.541	89.44
369.767	82.44
369.993	92.44
370.219	83.44
370.445	77.44
370.672	112.44
370.898	104.44
371.124	84.44
371.35	92.44
371.576	85.44
371.802	101.44
372.028	95.44
372.254	88.44
372.48	97.44
372.706	88.44
372.932	79.44
373.158	83.44
373.384	95.44
373.61	107.44
373.835	108.44
374.061	84.44
374.287	97.44
374.513	79.44
374.739	96.44
374.965	103.44
375.191	93.44
375.416	101.44
375.642	98.44
375.868	79.44
376.094	87.44
376.319	80.44
376.545	78.44
376.771	100.44
376.997	81.44
377.222	69.44
377.448	92.44
377.674	81.44
377.899	100.44
378.125	100.44
378.35	92.44
378.576	87.44
378.802	91.44
379.027	88.44
379.253	92.44
379.478	90.44
379.704	85.44
379.929	94.44
380.155	97.44
380.38	96.44
380.606	84.44
380.831	79.44
381.057	90.44
381.282	91.44
381.507	89.44
381.733	89.44
381.958	90.44
382.184	87.44
382.409	93.44
382.634	99.44
382.86	84.44
383.085	107.44
383.31	65.44
383.535	100.44
383.761	89.44
383.986	96.44
384.211	102.44
384.436	79.44
384.662	87.44
384.887	91.44
385.112	94.44
385.337	87.44
385.562	93.44
385.787	109.44
386.013	110.44
386.238	101.44
386.463	104.44
386.688	111.44
386.913	96.44
387.138	97.44
387.363	88.44
387.588	93.44
387.813	100.44
388.038	100.44
388.263	94.44
388.488	83.44
388.713	87.44
388.938	87.44
389.163	105.44
389.387	82.44
389.612	83.44
389.837	95.44
390.062	83.44
390.287	91.44
390.512	95.44
390.736	97.44
390.961	97.44
391.186	94.44
391.411	84.44
391.636	103.44
391.86	94.44
392.085	129.44
392.31	97.44
392.534	118.44
392.759	118.44
392.984	192.44
393.208	373.44
393.433	533.44
393.658	403.44
393.882	175.44
394.107	125.44
394.331	127.44
394.556	114.44
394.78	107.44
395.005	80.44
395.229	86.44
395.454	99.44
395.678	98.44
395.903	129.44
396.127	133.44
396.352	150.44
396.576	205.44
396.801	377.44
397.025	447.44
397.249	213.44
397.474	153.44
397.698	119.44
397.922	105.44
398.147	98.44
398.371	105.44
398.595	99.44
398.82	87.44
399.044	97.44
399.268	91.44
399.492	84.44
399.717	97.44
399.941	99.44
400.165	95.44
400.389	83.44
400.613	78.44
400.837	90.44
401.062	77.44
401.286	89.44
401.51	85.44
401.734	78.44
401.958	77.44
402.182	88.44
402.406	79.44
402.63	101.44
402.854	80.44
403.078	96.44
403.302	89.44
403.526	85.44
403.75	94.44
403.974	101.44
404.198	88.44
404.422	91.44
404.645	88.44
404.869	90.44
405.093	96.44
405.317	97.44
405.541	97.44
405.765	94.44
405.988	81.44
406.212	73.44
406.436	82.44
406.66	93.44
406.883	83.44
407.107	65.44
407.331	79.44
407.555	102.44
407.778	111.44
408.002	114.44
408.226	88.44
408.449	95.44
408.673	87.44
408.896	82.44
409.12	104.44
409.344	96.44
409.567	113.44
409.791	115.44
410.014	99.44
410.238	95.44
410.461	89.44
410.685	98.44
410.908	76.44
411.132	94.44
411.355	71.44
411.578	86.44
411.802	93.44
412.025	90.44
412.249	96.44
412.472	83.44
412.695	85.44
412.919	79.44
413.142	95.44
413.365	102.44
413.589	85.44
413.812	86.44
414.035	88.44
414.258	96.44
414.482	87.44
414.705	92.44
414.928	81.44
415.151	90.44
415.374	76.44
415.597	75.44
415.821	81.44
416.044	83.44
416.267	81.44
416.49	92.44
416.713	81.44
416.936	96.44
417.159	86.44
417.382	85.44
417.605	95.44
417.828	87.44
418.051	78.44
418.274	75.44
418.497	98.44
418.72	86.44
418.943	109.44
419.166	89.44
419.389	82.44
419.611	88.44
419.834	89.44
420.057	90.44
420.28	77.44
420.503	110.44
420.726	96.44
420.948	92.44
421.171	95.44
421.394	103.44
421.617	127.44
421.839	131.44
422.062	130.44
422.285	201.44
422.507	356.44
422.73	563.44
422.953	499.44
423.175	247.44
423.398	136.44
423.621	121.44
423.843	103.44
424.066	97.44
424.288	85.44
424.511	98.44
424.733	85.44
424.956	105.44
425.178	97.44
425.401	78.44
425.623	92.44
425.846	90.44
426.068	88.44
426.291	90.44
426.513	80.44
426.735	93.44
426.958	97.44
427.18	88.44
427.402	84.44
427.625	90.44
427.847	78.44
428.069	95.44
428.292	128.44
428.514	160.44
428.736	125.44
428.958	160.44
429.181	147.44
429.403	107.44
429.625	106.44
429.847	128.44
430.069	193.44
430.292	214.44
430.514	219.44
430.736	157.44
430.958	169.44
431.18	99.44
431.402	91.44
431.624	103.44
431.846	130.44
432.068	155.44
432.29	98.44
432.512	104.44
432.734	84.44
432.956	86.44
433.178	83.44
433.4	79.44
433.622	95.44
433.844	85.44
434.066	81.44
434.287	80.44
434.509	74.44
434.731	97.44
434.953	78.44
435.175	95.44
435.397	82.44
435.618	101.44
435.84	87.44
436.062	79.44
436.284	92.44
436.505	78.44
436.727	71.44
436.949	87.44
437.17	71.44
437.392	88.44
437.614	101.44
437.835	81.44
438.057	88.44
438.278	70.44
438.5	83.44
438.721	90.44
438.943	97.44
439.165	87.44
439.386	80.44
439.608	95.44
439.829	71.44
440.05	89.44
440.272	83.44
440.493	90.44
440.715	81.44
440.936	87.44
441.158	90.44
441.379	97.44
441.6	92.44
441.822	99.44
442.043	93.44
442.264	112.44
442.486	149.44
442.707	198.44
442.928	129.44
443.149	105.44
443.371	158.44
443.592	307.44
443.813	251.44
444.034	115.44
444.255	92.44
444.476	97.44
444.698	85.44
444.919	118.44
445.14	197.44
445.361	237.44
445.582	369.44
445.803	294.44
446.024	117.44
446.245	100.44
446.466	82.44
446.687	93.44
446.908	102.44
447.129	99.44
447.35	76.44
447.571	85.44
447.792	92.44
448.013	83.44
448.234	74.44
448.455	76.44
448.675	90.44
448.896	90.44
449.117	81.44
449.338	85.44
449.559	87.44
449.779	72.44
450	77.44
450.221	91.44
450.442	89.44
450.662	100.44
450.883	94.44
451.104	93.44
451.324	97.44
451.545	82.44
451.766	89.44
451.986	81.44
452.207	97.44
452.428	81.44
452.648	103.44
452.869	102.44
453.089	96.44
453.31	101.44
453.53	97.44
453.751	87.44
453.971	89.44
454.192	72.44
454.412	71.44
454.633	85.44
454.853	79.44
455.073	82.44
455.294	78.44
455.514	67.44
455.734	72.44
455.955	93.44
456.175	85.44
456.395	82.44
456.616	77.44
456.836	93.44
457.056	93.44
457.276	85.44
457.497	110.44
457.717	95.44
457.937	123.44
458.157	141.44
458.377	135.44
458.598	137.44
458.818	147.44
459.038	91.44
459.258	95.44
459.478	80.44
459.698	95.44
459.918	79.44
460.138	74.44
460.358	89.44
460.578	106.44
460.798	119.44
461.018	113.44
461.238	93.44
461.458	79.44
461.678	109.44
461.898	83.44
462.118	97.44
462.338	78.44
462.558	75.44
462.777	91.44
462.997	70.44
463.217	94.44
463.437	64.44
463.657	87.44
463.876	102.44
464.096	89.44
464.316	89.44
464.536	75.44
464.755	88.44
464.975	78.44
465.195	83.44
465.414	70.44
465.634	95.44
465.854	62.44
466.073	83.44
466.293	99.44
466.512	93.44
466.732	83.44
466.951	79.44
467.171	82.44
467.391	75.44
467.61	90.44
467.829	91.44
468.049	76.44
468.268	79.44
468.488	75.44
468.707	85.44
468.927	93.44
469.146	89.44
469.365	89.44
469.585	76.44
469.804	88.44
470.023	88.44
470.243	82.44
470.462	82.44
470.681	104.44
470.901	100.44
471.12	96.44
471.339	99.44
471.558	93.44
471.777	85.44
471.997	70.44
472.216	78.44
472.435	79.44
472.654	79.44
472.873	85.44
473.092	91.44
473.311	83.44
473.53	73.44
473.749	82.44
473.968	101.44
474.187	81.44
474.406	87.44
474.625	81.44
474.844	89.44
475.063	93.44
475.282	98.44
475.501	81.44
475.72	96.44
475.939	72.44
476.158	73.44
476.377	80.44
476.596	77.44
476.814	88.44
477.033	87.44
477.252	66.44
477.471	86.44
477.69	98.44
477.908	80.44
478.127	84.44
478.346	86.44
478.564	91.44
478.783	83.44
479.002	74.44
479.22	97.44
479.439	91.44
479.658	103.44
479.876	86.44
480.095	79.44
480.313	85.44
480.532	83.44
480.751	83.44
480.969	83.44
481.188	102.44
481.406	94.44
481.624	88.44
481.843	80.44
482.061	87.44
482.28	89.44
482.498	99.44
482.717	70.44
482.935	85.44
483.153	86.44
483.372	86.44
483.59	94.44
483.808	67.44
484.027	88.44
484.245	87.44
484.463	84.44
484.681	99.44
484.9	91.44
485.118	85.44
485.336	89.44
485.554	85.44
485.772	91.44
485.99	89.44
486.209	85.44
486.427	74.44
486.645	79.44
486.863	89.44
487.081	87.44
487.299	103.44
487.517	105.44
487.735	118.44
487.953	214.44
488.171	171.44
488.389	84.44
488.607	91.44
488.825	83.44
489.043	96.44
489.261	82.44
489.479	103.44
489.696	89.44
489.914	91.44
490.132	102.44
490.35	73.44
490.568	86.44
490.786	91.44
491.003	78.44
491.221	88.44
491.439	97.44
491.657	94.44
491.874	85.44
492.092	93.44
492.31	90.44
492.527	89.44
492.745	98.44
492.963	88.44
493.18	82.44
493.398	97.44
493.615	70.44
493.833	90.44
494.05	98.44
494.268	94.44
494.485	86.44
494.703	88.44
494.92	83.44
495.138	78.44
495.355	78.44
495.573	75.44
495.79	82.44
496.008	86.44
496.225	93.44
496.442	89.44
496.66	90.44
496.877	76.44
497.094	83.44
497.312	104.44
497.529	87.44
497.746	102.44
497.963	82.44
498.181	93.44
498.398	86.44
498.615	100.44
498.832	103.44
499.049	93.44
499.267	93.44
499.484	95.44
499.701	81.44
499.918	102.44
500.135	82.44
500.352	97.44
500.569	103.44
500.786	88.44
501.003	101.44
501.22	90.44
501.437	103.44
501.654	80.44
501.871	89.44
502.088	86.44
502.305	106.44
502.522	72.44
502.739	93.44
502.956	93.44
503.172	97.44
503.389	76.44
503.606	99.44
503.823	98.44
504.04	105.44
504.256	155.44
504.473	151.44
504.69	97.44
504.907	101.44
505.123	89.44
505.34	93.44
505.557	106.44
505.773	83.44
505.99	89.44
506.207	88.44
506.423	82.44
506.64	89.44
506.856	90.44
507.073	91.44
507.289	92.44
507.506	85.44
507.722	95.44
507.939	89.44
508.155	71.44
508.372	86.44
508.588	93.44
508.805	78.44
509.021	95.44
509.238	86.44
509.454	79.44
509.67	92.44
509.887	97.44
510.103	94.44
510.319	89.44
510.536	87.44
510.752	92.44
510.968	89.44
511.184	81.44
511.401	91.44
511.617	97.44
511.833	92.44
512.049	82.44
512.265	96.44
512.481	85.44
512.698	89.44
512.914	89.44
513.13	94.44
513.346	97.44
513.562	83.44
513.778	100.44
513.994	91.44
514.21	99.44
514.426	98.44
514.642	93.44
514.858	87.44
515.074	83.44
515.29	94.44
515.506	88.44
515.721	93.44
515.937	93.44
516.153	98.44
516.369	85.44
516.585	83.44
516.801	91.44
517.016	86.44
517.232	89.44
517.448	95.44
517.664	90.44
