Data from CBS_3_HRD10591_00050.txt Node
Date: Mon Jan 19 14:06:03 EST 2026
User: Yrep
Spectrometer: HR+D1059
Trigger mode: 1
Integration Time (sec): 1.000000E-1
Scans to average: 1
Electric dark correction enabled: true
Nonlinearity correction enabled: false
Boxcar width: 0
XAxis mode: Wavelengths
Number of Pixels in Spectrum: 2048
>>>>>Begin Spectral Data<<<<<
223.165	-11.88
223.4	-11.88
223.635	-11.88
223.869	-0.88
224.104	-29.88
224.338	-11.88
224.573	-26.88
224.808	-11.88
225.042	-17.88
225.277	-7.88
225.511	3.12
225.746	7.12
225.98	20.12
226.215	5.12
226.449	5.12
226.683	25.12
226.918	22.12
227.152	31.12
227.387	50.12
227.621	55.12
227.856	34.12
228.09	45.12
228.324	58.12
228.559	52.12
228.793	66.12
229.027	60.12
229.262	77.12
229.496	54.12
229.73	82.12
229.964	68.12
230.199	76.12
230.433	89.12
230.667	81.12
230.901	84.12
231.136	82.12
231.37	86.12
231.604	86.12
231.838	73.12
232.072	89.12
232.306	80.12
232.541	91.12
232.775	71.12
233.009	82.12
233.243	89.12
233.477	92.12
233.711	85.12
233.945	75.12
234.179	88.12
234.413	90.12
234.647	93.12
234.881	67.12
235.115	76.12
235.349	75.12
235.583	71.12
235.817	92.12
236.051	77.12
236.285	70.12
236.519	81.12
236.753	54.12
236.987	70.12
237.221	74.12
237.455	78.12
237.689	77.12
237.922	87.12
238.156	70.12
238.39	86.12
238.624	84.12
238.858	75.12
239.091	78.12
239.325	80.12
239.559	73.12
239.793	82.12
240.027	86.12
240.26	68.12
240.494	93.12
240.728	76.12
240.961	82.12
241.195	84.12
241.429	63.12
241.662	64.12
241.896	71.12
242.13	88.12
242.363	88.12
242.597	65.12
242.83	86.12
243.064	78.12
243.298	93.12
243.531	79.12
243.765	72.12
243.998	86.12
244.232	95.12
244.465	80.12
244.699	79.12
244.932	97.12
245.166	72.12
245.399	81.12
245.633	92.12
245.866	77.12
246.099	73.12
246.333	92.12
246.566	76.12
246.8	80.12
247.033	77.12
247.266	82.12
247.5	77.12
247.733	82.12
247.966	69.12
248.2	86.12
248.433	85.12
248.666	83.12
248.899	70.12
249.133	91.12
249.366	90.12
249.599	95.12
249.832	75.12
250.066	81.12
250.299	78.12
250.532	82.12
250.765	89.12
250.998	93.12
251.231	83.12
251.465	88.12
251.698	84.12
251.931	81.12
252.164	81.12
252.397	84.12
252.63	85.12
252.863	76.12
253.096	87.12
253.329	68.12
253.562	74.12
253.795	83.12
254.028	88.12
254.261	90.12
254.494	71.12
254.727	84.12
254.96	81.12
255.193	85.12
255.426	85.12
255.659	84.12
255.892	93.12
256.124	76.12
256.357	84.12
256.59	72.12
256.823	76.12
257.056	68.12
257.289	75.12
257.521	83.12
257.754	80.12
257.987	86.12
258.22	79.12
258.452	87.12
258.685	90.12
258.918	72.12
259.151	80.12
259.383	89.12
259.616	93.12
259.849	74.12
260.081	74.12
260.314	76.12
260.547	72.12
260.779	79.12
261.012	69.12
261.244	84.12
261.477	90.12
261.71	91.12
261.942	85.12
262.175	81.12
262.407	94.12
262.64	92.12
262.872	90.12
263.105	86.12
263.337	88.12
263.57	76.12
263.802	83.12
264.035	76.12
264.267	86.12
264.499	85.12
264.732	90.12
264.964	87.12
265.197	77.12
265.429	72.12
265.661	91.12
265.894	71.12
266.126	74.12
266.358	83.12
266.591	89.12
266.823	88.12
267.055	102.12
267.287	91.12
267.52	80.12
267.752	90.12
267.984	86.12
268.216	81.12
268.448	86.12
268.681	78.12
268.913	83.12
269.145	88.12
269.377	93.12
269.609	74.12
269.841	82.12
270.073	70.12
270.306	78.12
270.538	90.12
270.77	98.12
271.002	79.12
271.234	84.12
271.466	74.12
271.698	79.12
271.93	81.12
272.162	89.12
272.394	98.12
272.626	89.12
272.858	82.12
273.09	89.12
273.322	77.12
273.553	94.12
273.785	78.12
274.017	95.12
274.249	86.12
274.481	88.12
274.713	80.12
274.945	84.12
275.176	90.12
275.408	100.12
275.64	72.12
275.872	80.12
276.104	75.12
276.335	92.12
276.567	92.12
276.799	87.12
277.031	77.12
277.262	91.12
277.494	80.12
277.726	90.12
277.957	88.12
278.189	99.12
278.421	79.12
278.652	99.12
278.884	100.12
279.115	96.12
279.347	78.12
279.579	94.12
279.81	78.12
280.042	94.12
280.273	86.12
280.505	84.12
280.736	82.12
280.968	89.12
281.199	78.12
281.431	91.12
281.662	96.12
281.894	103.12
282.125	101.12
282.356	86.12
282.588	91.12
282.819	86.12
283.051	91.12
283.282	89.12
283.513	79.12
283.745	107.12
283.976	91.12
284.207	80.12
284.439	86.12
284.67	91.12
284.901	84.12
285.132	85.12
285.364	94.12
285.595	86.12
285.826	91.12
286.057	80.12
286.288	91.12
286.52	90.12
286.751	85.12
286.982	98.12
287.213	99.12
287.444	105.12
287.675	92.12
287.906	85.12
288.138	79.12
288.369	82.12
288.6	85.12
288.831	86.12
289.062	99.12
289.293	91.12
289.524	75.12
289.755	87.12
289.986	80.12
290.217	97.12
290.448	92.12
290.679	88.12
290.91	92.12
291.141	90.12
291.371	87.12
291.602	95.12
291.833	86.12
292.064	83.12
292.295	101.12
292.526	82.12
292.757	83.12
292.987	96.12
293.218	88.12
293.449	92.12
293.68	88.12
293.91	86.12
294.141	102.12
294.372	85.12
294.603	96.12
294.833	80.12
295.064	93.12
295.295	91.12
295.525	89.12
295.756	98.12
295.987	71.12
296.217	90.12
296.448	92.12
296.679	86.12
296.909	79.12
297.14	81.12
297.37	81.12
297.601	76.12
297.831	84.12
298.062	88.12
298.292	109.12
298.523	102.12
298.753	103.12
298.984	93.12
299.214	92.12
299.445	89.12
299.675	105.12
299.905	100.12
300.136	80.12
300.366	88.12
300.597	95.12
300.827	90.12
301.057	92.12
301.288	99.12
301.518	93.12
301.748	96.12
301.979	106.12
302.209	96.12
302.439	95.12
302.669	90.12
302.9	81.12
303.13	74.12
303.36	72.12
303.59	90.12
303.82	94.12
304.051	96.12
304.281	95.12
304.511	94.12
304.741	110.12
304.971	85.12
305.201	94.12
305.431	99.12
305.661	66.12
305.891	79.12
306.121	88.12
306.352	92.12
306.582	88.12
306.812	102.12
307.042	83.12
307.272	66.12
307.502	89.12
307.731	80.12
307.961	79.12
308.191	93.12
308.421	88.12
308.651	82.12
308.881	84.12
309.111	77.12
309.341	86.12
309.571	106.12
309.8	88.12
310.03	83.12
310.26	83.12
310.49	92.12
310.72	79.12
310.949	87.12
311.179	85.12
311.409	73.12
311.639	74.12
311.868	90.12
312.098	74.12
312.328	95.12
312.557	90.12
312.787	94.12
313.017	87.12
313.246	93.12
313.476	94.12
313.706	92.12
313.935	102.12
314.165	97.12
314.394	95.12
314.624	100.12
314.853	90.12
315.083	83.12
315.312	94.12
315.542	79.12
315.771	91.12
316.001	94.12
316.23	90.12
316.46	94.12
316.689	89.12
316.919	84.12
317.148	78.12
317.377	99.12
317.607	93.12
317.836	94.12
318.065	102.12
318.295	83.12
318.524	92.12
318.753	95.12
318.983	91.12
319.212	100.12
319.441	87.12
319.67	91.12
319.9	75.12
320.129	100.12
320.358	84.12
320.587	90.12
320.816	93.12
321.046	87.12
321.275	106.12
321.504	96.12
321.733	94.12
321.962	90.12
322.191	84.12
322.42	84.12
322.649	84.12
322.878	92.12
323.108	92.12
323.337	80.12
323.566	99.12
323.795	78.12
324.024	95.12
324.253	79.12
324.482	84.12
324.71	94.12
324.939	90.12
325.168	105.12
325.397	88.12
325.626	86.12
325.855	87.12
326.084	87.12
326.313	72.12
326.542	89.12
326.77	88.12
326.999	81.12
327.228	100.12
327.457	89.12
327.686	81.12
327.914	92.12
328.143	85.12
328.372	84.12
328.6	88.12
328.829	71.12
329.058	90.12
329.287	78.12
329.515	92.12
329.744	92.12
329.972	96.12
330.201	88.12
330.43	90.12
330.658	77.12
330.887	79.12
331.115	74.12
331.344	92.12
331.572	90.12
331.801	84.12
332.03	79.12
332.258	82.12
332.486	62.12
332.715	90.12
332.943	93.12
333.172	83.12
333.4	102.12
333.629	93.12
333.857	90.12
334.085	88.12
334.314	88.12
334.542	96.12
334.771	100.12
334.999	78.12
335.227	84.12
335.455	98.12
335.684	91.12
335.912	87.12
336.14	92.12
336.369	91.12
336.597	94.12
336.825	84.12
337.053	83.12
337.281	103.12
337.51	88.12
337.738	79.12
337.966	96.12
338.194	79.12
338.422	78.12
338.65	77.12
338.878	78.12
339.106	90.12
339.334	103.12
339.562	91.12
339.79	68.12
340.018	90.12
340.246	94.12
340.474	90.12
340.702	81.12
340.93	93.12
341.158	88.12
341.386	87.12
341.614	72.12
341.842	83.12
342.07	99.12
342.298	86.12
342.526	87.12
342.754	76.12
342.981	91.12
343.209	92.12
343.437	91.12
343.665	99.12
343.893	83.12
344.12	95.12
344.348	88.12
344.576	80.12
344.804	84.12
345.031	84.12
345.259	76.12
345.487	85.12
345.714	84.12
345.942	84.12
346.17	85.12
346.397	96.12
346.625	100.12
346.853	74.12
347.08	91.12
347.308	80.12
347.535	95.12
347.763	83.12
347.99	100.12
348.218	103.12
348.445	82.12
348.673	87.12
348.9	93.12
349.128	92.12
349.355	84.12
349.583	100.12
349.81	88.12
350.037	88.12
350.265	116.12
350.492	91.12
350.72	79.12
350.947	76.12
351.174	86.12
351.402	88.12
351.629	94.12
351.856	80.12
352.083	83.12
352.311	78.12
352.538	84.12
352.765	84.12
352.992	86.12
353.22	87.12
353.447	88.12
353.674	98.12
353.901	108.12
354.128	101.12
354.355	73.12
354.583	83.12
354.81	68.12
355.037	99.12
355.264	94.12
355.491	94.12
355.718	91.12
355.945	85.12
356.172	100.12
356.399	89.12
356.626	104.12
356.853	81.12
357.08	92.12
357.307	83.12
357.534	88.12
357.761	101.12
357.988	84.12
358.215	85.12
358.441	100.12
358.668	100.12
358.895	98.12
359.122	85.12
359.349	90.12
359.576	90.12
359.802	85.12
360.029	88.12
360.256	91.12
360.483	78.12
360.709	94.12
360.936	107.12
361.163	93.12
361.39	99.12
361.616	82.12
361.843	92.12
362.07	83.12
362.296	89.12
362.523	91.12
362.749	102.12
362.976	101.12
363.203	89.12
363.429	94.12
363.656	79.12
363.882	97.12
364.109	110.12
364.335	107.12
364.562	100.12
364.788	80.12
365.015	110.12
365.241	87.12
365.468	98.12
365.694	86.12
365.92	89.12
366.147	99.12
366.373	84.12
366.599	86.12
366.826	88.12
367.052	93.12
367.278	88.12
367.505	95.12
367.731	102.12
367.957	100.12
368.184	93.12
368.41	70.12
368.636	100.12
368.862	89.12
369.089	80.12
369.315	81.12
369.541	84.12
369.767	98.12
369.993	87.12
370.219	85.12
370.445	85.12
370.672	88.12
370.898	85.12
371.124	95.12
371.35	90.12
371.576	77.12
371.802	91.12
372.028	89.12
372.254	91.12
372.48	86.12
372.706	87.12
372.932	87.12
373.158	91.12
373.384	101.12
373.61	90.12
373.835	96.12
374.061	92.12
374.287	91.12
374.513	85.12
374.739	105.12
374.965	101.12
375.191	83.12
375.416	99.12
375.642	88.12
375.868	101.12
376.094	95.12
376.319	74.12
376.545	83.12
376.771	82.12
376.997	67.12
377.222	91.12
377.448	99.12
377.674	83.12
377.899	86.12
378.125	86.12
378.35	99.12
378.576	91.12
378.802	94.12
379.027	85.12
379.253	92.12
379.478	103.12
379.704	86.12
379.929	87.12
380.155	81.12
380.38	94.12
380.606	91.12
380.831	102.12
381.057	84.12
381.282	92.12
381.507	95.12
381.733	88.12
381.958	81.12
382.184	85.12
382.409	92.12
382.634	101.12
382.86	84.12
383.085	90.12
383.31	86.12
383.535	82.12
383.761	86.12
383.986	87.12
384.211	90.12
384.436	80.12
384.662	94.12
384.887	109.12
385.112	87.12
385.337	93.12
385.562	87.12
385.787	100.12
386.013	102.12
386.238	95.12
386.463	81.12
386.688	104.12
386.913	80.12
387.138	92.12
387.363	109.12
387.588	107.12
387.813	93.12
388.038	92.12
388.263	99.12
388.488	103.12
388.713	91.12
388.938	94.12
389.163	89.12
389.387	94.12
389.612	92.12
389.837	73.12
390.062	81.12
390.287	87.12
390.512	78.12
390.736	96.12
390.961	86.12
391.186	90.12
391.411	85.12
391.636	100.12
391.86	88.12
392.085	95.12
392.31	105.12
392.534	110.12
392.759	104.12
392.984	124.12
393.208	137.12
393.433	181.12
393.658	158.12
393.882	111.12
394.107	100.12
394.331	91.12
394.556	76.12
394.78	77.12
395.005	87.12
395.229	98.12
395.454	88.12
395.678	78.12
395.903	99.12
396.127	101.12
396.352	98.12
396.576	126.12
396.801	158.12
397.025	173.12
397.249	115.12
397.474	88.12
397.698	95.12
397.922	87.12
398.147	76.12
398.371	86.12
398.595	93.12
398.82	77.12
399.044	83.12
399.268	85.12
399.492	74.12
399.717	81.12
399.941	98.12
400.165	92.12
400.389	74.12
400.613	93.12
400.837	84.12
401.062	85.12
401.286	85.12
401.51	79.12
401.734	83.12
401.958	79.12
402.182	82.12
402.406	92.12
402.63	78.12
402.854	79.12
403.078	81.12
403.302	85.12
403.526	94.12
403.75	98.12
403.974	96.12
404.198	92.12
404.422	102.12
404.645	116.12
404.869	104.12
405.093	92.12
405.317	80.12
405.541	90.12
405.765	102.12
405.988	100.12
406.212	79.12
406.436	93.12
406.66	98.12
406.883	100.12
407.107	88.12
407.331	97.12
407.555	78.12
407.778	85.12
408.002	88.12
408.226	81.12
408.449	86.12
408.673	81.12
408.896	83.12
409.12	85.12
409.344	93.12
409.567	107.12
409.791	92.12
410.014	84.12
410.238	85.12
410.461	71.12
410.685	77.12
410.908	78.12
411.132	88.12
411.355	90.12
411.578	92.12
411.802	86.12
412.025	81.12
412.249	106.12
412.472	90.12
412.695	95.12
412.919	81.12
413.142	96.12
413.365	86.12
413.589	92.12
413.812	86.12
414.035	91.12
414.258	75.12
414.482	84.12
414.705	89.12
414.928	84.12
415.151	79.12
415.374	78.12
415.597	85.12
415.821	83.12
416.044	95.12
416.267	84.12
416.49	68.12
416.713	81.12
416.936	90.12
417.159	81.12
417.382	85.12
417.605	86.12
417.828	80.12
418.051	84.12
418.274	94.12
418.497	95.12
418.72	77.12
418.943	87.12
419.166	81.12
419.389	82.12
419.611	80.12
419.834	98.12
420.057	88.12
420.28	100.12
420.503	94.12
420.726	72.12
420.948	81.12
421.171	76.12
421.394	98.12
421.617	87.12
421.839	108.12
422.062	105.12
422.285	119.12
422.507	156.12
422.73	216.12
422.953	206.12
423.175	128.12
423.398	105.12
423.621	100.12
423.843	98.12
424.066	89.12
424.288	105.12
424.511	87.12
424.733	79.12
424.956	71.12
425.178	100.12
425.401	90.12
425.623	111.12
425.846	95.12
426.068	78.12
426.291	88.12
426.513	82.12
426.735	84.12
426.958	86.12
427.18	68.12
427.402	92.12
427.625	98.12
427.847	92.12
428.069	98.12
428.292	110.12
428.514	105.12
428.736	92.12
428.958	109.12
429.181	104.12
429.403	78.12
429.625	90.12
429.847	92.12
430.069	98.12
430.292	150.12
430.514	118.12
430.736	104.12
430.958	108.12
431.18	99.12
431.402	83.12
431.624	84.12
431.846	93.12
432.068	103.12
432.29	105.12
432.512	103.12
432.734	94.12
432.956	98.12
433.178	95.12
433.4	82.12
433.622	80.12
433.844	81.12
434.066	78.12
434.287	83.12
434.509	90.12
434.731	92.12
434.953	76.12
435.175	80.12
435.397	77.12
435.618	92.12
435.84	79.12
436.062	89.12
436.284	79.12
436.505	76.12
436.727	98.12
436.949	79.12
437.17	76.12
437.392	99.12
437.614	91.12
437.835	77.12
438.057	84.12
438.278	80.12
438.5	78.12
438.721	85.12
438.943	94.12
439.165	91.12
439.386	73.12
439.608	87.12
439.829	87.12
440.05	87.12
440.272	87.12
440.493	70.12
440.715	82.12
440.936	86.12
441.158	88.12
441.379	91.12
441.6	102.12
441.822	101.12
442.043	95.12
442.264	92.12
442.486	113.12
442.707	122.12
442.928	97.12
443.149	90.12
443.371	107.12
443.592	136.12
443.813	141.12
444.034	100.12
444.255	79.12
444.476	94.12
444.698	95.12
444.919	95.12
445.14	181.12
445.361	157.12
445.582	173.12
445.803	140.12
446.024	116.12
446.245	86.12
446.466	86.12
446.687	94.12
446.908	79.12
447.129	96.12
447.35	80.12
447.571	74.12
447.792	81.12
448.013	95.12
448.234	79.12
448.455	75.12
448.675	85.12
448.896	87.12
449.117	73.12
449.338	76.12
449.559	88.12
449.779	80.12
450	77.12
450.221	79.12
450.442	86.12
450.662	80.12
450.883	80.12
451.104	71.12
451.324	86.12
451.545	73.12
451.766	99.12
451.986	88.12
452.207	99.12
452.428	94.12
452.648	87.12
452.869	81.12
453.089	83.12
453.31	88.12
453.53	94.12
453.751	81.12
453.971	86.12
454.192	80.12
454.412	97.12
454.633	90.12
454.853	88.12
455.073	86.12
455.294	81.12
455.514	83.12
455.734	93.12
455.955	90.12
456.175	96.12
456.395	86.12
456.616	86.12
456.836	91.12
457.056	90.12
457.276	90.12
457.497	95.12
457.717	80.12
457.937	98.12
458.157	100.12
458.377	91.12
458.598	104.12
458.818	101.12
459.038	88.12
459.258	92.12
459.478	90.12
459.698	84.12
459.918	92.12
460.138	84.12
460.358	80.12
460.578	87.12
460.798	89.12
461.018	91.12
461.238	86.12
461.458	75.12
461.678	94.12
461.898	100.12
462.118	67.12
462.338	75.12
462.558	99.12
462.777	83.12
462.997	87.12
463.217	81.12
463.437	84.12
463.657	83.12
463.876	83.12
464.096	85.12
464.316	77.12
464.536	87.12
464.755	88.12
464.975	68.12
465.195	88.12
465.414	91.12
465.634	94.12
465.854	89.12
466.073	85.12
466.293	84.12
466.512	86.12
466.732	80.12
466.951	83.12
467.171	96.12
467.391	100.12
467.61	87.12
467.829	86.12
468.049	79.12
468.268	80.12
468.488	90.12
468.707	88.12
468.927	92.12
469.146	74.12
469.365	83.12
469.585	88.12
469.804	81.12
470.023	89.12
470.243	92.12
470.462	91.12
470.681	82.12
470.901	80.12
471.12	87.12
471.339	90.12
471.558	75.12
471.777	85.12
471.997	84.12
472.216	90.12
472.435	81.12
472.654	90.12
472.873	101.12
473.092	84.12
473.311	95.12
473.53	84.12
473.749	79.12
473.968	94.12
474.187	91.12
474.406	81.12
474.625	85.12
474.844	86.12
475.063	90.12
475.282	88.12
475.501	76.12
475.72	92.12
475.939	95.12
476.158	88.12
476.377	107.12
476.596	81.12
476.814	74.12
477.033	78.12
477.252	79.12
477.471	66.12
477.69	84.12
477.908	91.12
478.127	88.12
478.346	72.12
478.564	77.12
478.783	91.12
479.002	85.12
479.22	75.12
479.439	70.12
479.658	102.12
479.876	94.12
480.095	100.12
480.313	86.12
480.532	78.12
480.751	98.12
480.969	94.12
481.188	74.12
481.406	95.12
481.624	90.12
481.843	101.12
482.061	95.12
482.28	84.12
482.498	86.12
482.717	83.12
482.935	79.12
483.153	82.12
483.372	78.12
483.59	74.12
483.808	88.12
484.027	98.12
484.245	92.12
484.463	83.12
484.681	76.12
484.9	94.12
485.118	80.12
485.336	79.12
485.554	89.12
485.772	85.12
485.99	87.12
486.209	91.12
486.427	94.12
486.645	95.12
486.863	96.12
487.081	69.12
487.299	83.12
487.517	100.12
487.735	106.12
487.953	119.12
488.171	106.12
488.389	76.12
488.607	91.12
488.825	85.12
489.043	79.12
489.261	107.12
489.479	84.12
489.696	100.12
489.914	90.12
490.132	89.12
490.35	83.12
490.568	98.12
490.786	94.12
491.003	79.12
491.221	91.12
491.439	86.12
491.657	79.12
491.874	102.12
492.092	102.12
492.31	90.12
492.527	88.12
492.745	82.12
492.963	70.12
493.18	81.12
493.398	90.12
493.615	87.12
493.833	79.12
494.05	79.12
494.268	88.12
494.485	98.12
494.703	84.12
494.92	83.12
495.138	92.12
495.355	83.12
495.573	81.12
495.79	91.12
496.008	78.12
496.225	82.12
496.442	101.12
496.66	85.12
496.877	89.12
497.094	88.12
497.312	84.12
497.529	91.12
497.746	98.12
497.963	82.12
498.181	85.12
498.398	92.12
498.615	90.12
498.832	89.12
499.049	97.12
499.267	86.12
499.484	84.12
499.701	95.12
499.918	94.12
500.135	88.12
500.352	83.12
500.569	102.12
500.786	104.12
501.003	80.12
501.22	91.12
501.437	89.12
501.654	91.12
501.871	87.12
502.088	79.12
502.305	87.12
502.522	91.12
502.739	84.12
502.956	102.12
503.172	86.12
503.389	75.12
503.606	74.12
503.823	75.12
504.04	106.12
504.256	113.12
504.473	87.12
504.69	100.12
504.907	98.12
505.123	80.12
505.34	102.12
505.557	92.12
505.773	90.12
505.99	93.12
506.207	84.12
506.423	83.12
506.64	87.12
506.856	88.12
507.073	86.12
507.289	94.12
507.506	91.12
507.722	79.12
507.939	85.12
508.155	85.12
508.372	82.12
508.588	102.12
508.805	91.12
509.021	80.12
509.238	96.12
509.454	79.12
509.67	74.12
509.887	82.12
510.103	98.12
510.319	87.12
510.536	81.12
510.752	86.12
510.968	89.12
511.184	83.12
511.401	85.12
511.617	80.12
511.833	89.12
512.049	87.12
512.265	93.12
512.481	91.12
512.698	90.12
512.914	84.12
513.13	86.12
513.346	82.12
513.562	88.12
513.778	94.12
513.994	94.12
514.21	85.12
514.426	73.12
514.642	76.12
514.858	87.12
515.074	87.12
515.29	94.12
515.506	82.12
515.721	88.12
515.937	88.12
516.153	86.12
516.369	88.12
516.585	94.12
516.801	100.12
517.016	83.12
517.232	89.12
517.448	88.12
517.664	80.12
517.879	74.12
518.095	94.12
