Data from CBS_3_HRD10591_00034.txt Node
Date: Mon Jan 19 14:05:55 EST 2026
User: Yrep
Spectrometer: HR+D1059
Trigger mode: 1
Integration Time (sec): 1.000000E-1
Scans to average: 1
Electric dark correction enabled: true
Nonlinearity correction enabled: false
Boxcar width: 0
XAxis mode: Wavelengths
Number of Pixels in Spectrum: 2048
>>>>>Begin Spectral Data<<<<<
223.165	-16.5
223.4	-16.5
223.635	-16.5
223.869	-29.5
224.104	-26.5
224.338	-23.5
224.573	-4.5
224.808	-7.5
225.042	-11.5
225.277	4.5
225.511	-4.5
225.746	5.5
225.98	2.5
226.215	6.5
226.449	12.5
226.683	31.5
226.918	19.5
227.152	41.5
227.387	34.5
227.621	31.5
227.856	48.5
228.09	47.5
228.324	55.5
228.559	68.5
228.793	55.5
229.027	58.5
229.262	52.5
229.496	71.5
229.73	71.5
229.964	66.5
230.199	69.5
230.433	81.5
230.667	83.5
230.901	59.5
231.136	76.5
231.37	79.5
231.604	69.5
231.838	83.5
232.072	80.5
232.306	71.5
232.541	71.5
232.775	74.5
233.009	75.5
233.243	91.5
233.477	80.5
233.711	74.5
233.945	70.5
234.179	73.5
234.413	82.5
234.647	70.5
234.881	81.5
235.115	69.5
235.349	88.5
235.583	79.5
235.817	71.5
236.051	67.5
236.285	77.5
236.519	66.5
236.753	84.5
236.987	71.5
237.221	88.5
237.455	83.5
237.689	65.5
237.922	75.5
238.156	68.5
238.39	72.5
238.624	63.5
238.858	79.5
239.091	77.5
239.325	74.5
239.559	83.5
239.793	67.5
240.027	68.5
240.26	69.5
240.494	72.5
240.728	71.5
240.961	77.5
241.195	93.5
241.429	84.5
241.662	80.5
241.896	79.5
242.13	76.5
242.363	88.5
242.597	94.5
242.83	81.5
243.064	65.5
243.298	58.5
243.531	63.5
243.765	76.5
243.998	72.5
244.232	65.5
244.465	83.5
244.699	68.5
244.932	89.5
245.166	74.5
245.399	84.5
245.633	75.5
245.866	85.5
246.099	75.5
246.333	87.5
246.566	72.5
246.8	72.5
247.033	76.5
247.266	75.5
247.5	79.5
247.733	67.5
247.966	82.5
248.2	73.5
248.433	70.5
248.666	75.5
248.899	62.5
249.133	74.5
249.366	77.5
249.599	86.5
249.832	79.5
250.066	79.5
250.299	71.5
250.532	82.5
250.765	81.5
250.998	74.5
251.231	80.5
251.465	79.5
251.698	83.5
251.931	88.5
252.164	83.5
252.397	92.5
252.63	73.5
252.863	81.5
253.096	85.5
253.329	93.5
253.562	83.5
253.795	79.5
254.028	77.5
254.261	84.5
254.494	66.5
254.727	91.5
254.96	82.5
255.193	83.5
255.426	76.5
255.659	81.5
255.892	87.5
256.124	66.5
256.357	95.5
256.59	75.5
256.823	96.5
257.056	81.5
257.289	84.5
257.521	83.5
257.754	86.5
257.987	73.5
258.22	76.5
258.452	70.5
258.685	91.5
258.918	77.5
259.151	71.5
259.383	87.5
259.616	93.5
259.849	84.5
260.081	75.5
260.314	85.5
260.547	89.5
260.779	91.5
261.012	82.5
261.244	83.5
261.477	98.5
261.71	68.5
261.942	77.5
262.175	79.5
262.407	74.5
262.64	73.5
262.872	79.5
263.105	73.5
263.337	83.5
263.57	73.5
263.802	77.5
264.035	79.5
264.267	71.5
264.499	79.5
264.732	87.5
264.964	72.5
265.197	73.5
265.429	63.5
265.661	69.5
265.894	72.5
266.126	88.5
266.358	81.5
266.591	85.5
266.823	70.5
267.055	82.5
267.287	71.5
267.52	99.5
267.752	88.5
267.984	89.5
268.216	75.5
268.448	70.5
268.681	94.5
268.913	80.5
269.145	88.5
269.377	91.5
269.609	92.5
269.841	77.5
270.073	82.5
270.306	86.5
270.538	83.5
270.77	97.5
271.002	88.5
271.234	87.5
271.466	78.5
271.698	70.5
271.93	68.5
272.162	80.5
272.394	88.5
272.626	91.5
272.858	84.5
273.09	85.5
273.322	95.5
273.553	78.5
273.785	75.5
274.017	88.5
274.249	90.5
274.481	78.5
274.713	72.5
274.945	76.5
275.176	67.5
275.408	66.5
275.64	82.5
275.872	95.5
276.104	85.5
276.335	73.5
276.567	81.5
276.799	89.5
277.031	86.5
277.262	83.5
277.494	92.5
277.726	79.5
277.957	79.5
278.189	73.5
278.421	77.5
278.652	89.5
278.884	72.5
279.115	90.5
279.347	74.5
279.579	86.5
279.81	83.5
280.042	71.5
280.273	87.5
280.505	78.5
280.736	71.5
280.968	68.5
281.199	83.5
281.431	84.5
281.662	88.5
281.894	83.5
282.125	76.5
282.356	81.5
282.588	87.5
282.819	72.5
283.051	87.5
283.282	78.5
283.513	95.5
283.745	91.5
283.976	82.5
284.207	99.5
284.439	90.5
284.67	94.5
284.901	70.5
285.132	83.5
285.364	81.5
285.595	80.5
285.826	81.5
286.057	82.5
286.288	77.5
286.52	92.5
286.751	88.5
286.982	80.5
287.213	81.5
287.444	93.5
287.675	72.5
287.906	105.5
288.138	75.5
288.369	85.5
288.6	77.5
288.831	91.5
289.062	87.5
289.293	84.5
289.524	80.5
289.755	95.5
289.986	76.5
290.217	79.5
290.448	83.5
290.679	89.5
290.91	66.5
291.141	81.5
291.371	77.5
291.602	77.5
291.833	95.5
292.064	89.5
292.295	85.5
292.526	93.5
292.757	91.5
292.987	102.5
293.218	93.5
293.449	81.5
293.68	83.5
293.91	85.5
294.141	76.5
294.372	88.5
294.603	89.5
294.833	82.5
295.064	100.5
295.295	84.5
295.525	71.5
295.756	77.5
295.987	86.5
296.217	97.5
296.448	89.5
296.679	71.5
296.909	83.5
297.14	67.5
297.37	90.5
297.601	82.5
297.831	89.5
298.062	91.5
298.292	87.5
298.523	97.5
298.753	82.5
298.984	89.5
299.214	85.5
299.445	83.5
299.675	83.5
299.905	93.5
300.136	85.5
300.366	84.5
300.597	80.5
300.827	86.5
301.057	84.5
301.288	90.5
301.518	76.5
301.748	87.5
301.979	91.5
302.209	95.5
302.439	93.5
302.669	97.5
302.9	78.5
303.13	94.5
303.36	94.5
303.59	82.5
303.82	79.5
304.051	81.5
304.281	89.5
304.511	79.5
304.741	88.5
304.971	89.5
305.201	88.5
305.431	65.5
305.661	77.5
305.891	73.5
306.121	88.5
306.352	85.5
306.582	79.5
306.812	92.5
307.042	81.5
307.272	95.5
307.502	82.5
307.731	80.5
307.961	83.5
308.191	90.5
308.421	101.5
308.651	96.5
308.881	75.5
309.111	81.5
309.341	86.5
309.571	67.5
309.8	86.5
310.03	86.5
310.26	90.5
310.49	86.5
310.72	88.5
310.949	80.5
311.179	87.5
311.409	85.5
311.639	79.5
311.868	83.5
312.098	80.5
312.328	81.5
312.557	92.5
312.787	75.5
313.017	77.5
313.246	88.5
313.476	94.5
313.706	75.5
313.935	78.5
314.165	85.5
314.394	98.5
314.624	92.5
314.853	85.5
315.083	85.5
315.312	78.5
315.542	75.5
315.771	88.5
316.001	89.5
316.23	88.5
316.46	83.5
316.689	74.5
316.919	81.5
317.148	96.5
317.377	94.5
317.607	91.5
317.836	77.5
318.065	91.5
318.295	86.5
318.524	84.5
318.753	90.5
318.983	84.5
319.212	73.5
319.441	79.5
319.67	83.5
319.9	86.5
320.129	70.5
320.358	78.5
320.587	83.5
320.816	92.5
321.046	86.5
321.275	94.5
321.504	89.5
321.733	85.5
321.962	83.5
322.191	86.5
322.42	94.5
322.649	86.5
322.878	90.5
323.108	90.5
323.337	76.5
323.566	85.5
323.795	92.5
324.024	93.5
324.253	93.5
324.482	84.5
324.71	86.5
324.939	80.5
325.168	84.5
325.397	93.5
325.626	82.5
325.855	81.5
326.084	93.5
326.313	84.5
326.542	94.5
326.77	80.5
326.999	87.5
327.228	90.5
327.457	76.5
327.686	94.5
327.914	77.5
328.143	79.5
328.372	84.5
328.6	87.5
328.829	83.5
329.058	88.5
329.287	86.5
329.515	96.5
329.744	93.5
329.972	79.5
330.201	91.5
330.43	93.5
330.658	101.5
330.887	85.5
331.115	86.5
331.344	93.5
331.572	79.5
331.801	90.5
332.03	88.5
332.258	95.5
332.486	83.5
332.715	79.5
332.943	100.5
333.172	91.5
333.4	84.5
333.629	97.5
333.857	76.5
334.085	85.5
334.314	94.5
334.542	99.5
334.771	86.5
334.999	73.5
335.227	76.5
335.455	79.5
335.684	83.5
335.912	82.5
336.14	91.5
336.369	69.5
336.597	92.5
336.825	93.5
337.053	80.5
337.281	87.5
337.51	77.5
337.738	75.5
337.966	91.5
338.194	71.5
338.422	83.5
338.65	91.5
338.878	87.5
339.106	90.5
339.334	90.5
339.562	101.5
339.79	81.5
340.018	85.5
340.246	91.5
340.474	86.5
340.702	97.5
340.93	83.5
341.158	80.5
341.386	72.5
341.614	83.5
341.842	81.5
342.07	71.5
342.298	83.5
342.526	75.5
342.754	89.5
342.981	77.5
343.209	87.5
343.437	87.5
343.665	68.5
343.893	78.5
344.12	83.5
344.348	87.5
344.576	80.5
344.804	70.5
345.031	78.5
345.259	86.5
345.487	92.5
345.714	89.5
345.942	87.5
346.17	84.5
346.397	86.5
346.625	84.5
346.853	94.5
347.08	83.5
347.308	77.5
347.535	88.5
347.763	75.5
347.99	82.5
348.218	68.5
348.445	89.5
348.673	85.5
348.9	69.5
349.128	60.5
349.355	84.5
349.583	93.5
349.81	88.5
350.037	83.5
350.265	92.5
350.492	93.5
350.72	90.5
350.947	98.5
351.174	84.5
351.402	84.5
351.629	76.5
351.856	69.5
352.083	92.5
352.311	86.5
352.538	86.5
352.765	78.5
352.992	87.5
353.22	83.5
353.447	77.5
353.674	81.5
353.901	84.5
354.128	81.5
354.355	79.5
354.583	91.5
354.81	105.5
355.037	106.5
355.264	91.5
355.491	88.5
355.718	91.5
355.945	69.5
356.172	87.5
356.399	92.5
356.626	93.5
356.853	89.5
357.08	80.5
357.307	78.5
357.534	93.5
357.761	93.5
357.988	74.5
358.215	87.5
358.441	95.5
358.668	90.5
358.895	101.5
359.122	81.5
359.349	95.5
359.576	89.5
359.802	80.5
360.029	88.5
360.256	80.5
360.483	75.5
360.709	83.5
360.936	79.5
361.163	93.5
361.39	86.5
361.616	79.5
361.843	95.5
362.07	88.5
362.296	83.5
362.523	83.5
362.749	84.5
362.976	89.5
363.203	97.5
363.429	85.5
363.656	89.5
363.882	79.5
364.109	102.5
364.335	90.5
364.562	102.5
364.788	97.5
365.015	86.5
365.241	83.5
365.468	68.5
365.694	95.5
365.92	87.5
366.147	84.5
366.373	75.5
366.599	91.5
366.826	89.5
367.052	83.5
367.278	77.5
367.505	94.5
367.731	98.5
367.957	98.5
368.184	65.5
368.41	70.5
368.636	74.5
368.862	75.5
369.089	89.5
369.315	85.5
369.541	78.5
369.767	94.5
369.993	74.5
370.219	81.5
370.445	93.5
370.672	90.5
370.898	104.5
371.124	91.5
371.35	85.5
371.576	91.5
371.802	91.5
372.028	89.5
372.254	81.5
372.48	87.5
372.706	82.5
372.932	77.5
373.158	80.5
373.384	87.5
373.61	94.5
373.835	117.5
374.061	79.5
374.287	75.5
374.513	91.5
374.739	96.5
374.965	82.5
375.191	64.5
375.416	91.5
375.642	79.5
375.868	90.5
376.094	95.5
376.319	78.5
376.545	91.5
376.771	79.5
376.997	86.5
377.222	77.5
377.448	78.5
377.674	88.5
377.899	94.5
378.125	96.5
378.35	100.5
378.576	73.5
378.802	72.5
379.027	87.5
379.253	95.5
379.478	91.5
379.704	96.5
379.929	89.5
380.155	97.5
380.38	89.5
380.606	83.5
380.831	79.5
381.057	78.5
381.282	85.5
381.507	96.5
381.733	85.5
381.958	86.5
382.184	99.5
382.409	85.5
382.634	74.5
382.86	99.5
383.085	87.5
383.31	87.5
383.535	93.5
383.761	73.5
383.986	103.5
384.211	82.5
384.436	81.5
384.662	87.5
384.887	86.5
385.112	89.5
385.337	89.5
385.562	85.5
385.787	90.5
386.013	86.5
386.238	86.5
386.463	86.5
386.688	94.5
386.913	85.5
387.138	75.5
387.363	87.5
387.588	76.5
387.813	102.5
388.038	82.5
388.263	83.5
388.488	95.5
388.713	84.5
388.938	81.5
389.163	78.5
389.387	80.5
389.612	76.5
389.837	81.5
390.062	92.5
390.287	86.5
390.512	98.5
390.736	80.5
390.961	82.5
391.186	91.5
391.411	96.5
391.636	76.5
391.86	83.5
392.085	94.5
392.31	72.5
392.534	86.5
392.759	101.5
392.984	97.5
393.208	189.5
393.433	237.5
393.658	174.5
393.882	101.5
394.107	93.5
394.331	93.5
394.556	100.5
394.78	88.5
395.005	86.5
395.229	72.5
395.454	90.5
395.678	96.5
395.903	102.5
396.127	98.5
396.352	101.5
396.576	125.5
396.801	171.5
397.025	199.5
397.249	109.5
397.474	89.5
397.698	85.5
397.922	98.5
398.147	88.5
398.371	85.5
398.595	94.5
398.82	76.5
399.044	83.5
399.268	76.5
399.492	79.5
399.717	81.5
399.941	98.5
400.165	80.5
400.389	69.5
400.613	86.5
400.837	79.5
401.062	84.5
401.286	91.5
401.51	83.5
401.734	65.5
401.958	73.5
402.182	93.5
402.406	70.5
402.63	87.5
402.854	86.5
403.078	88.5
403.302	80.5
403.526	90.5
403.75	86.5
403.974	90.5
404.198	93.5
404.422	87.5
404.645	81.5
404.869	83.5
405.093	100.5
405.317	90.5
405.541	77.5
405.765	87.5
405.988	96.5
406.212	88.5
406.436	80.5
406.66	96.5
406.883	86.5
407.107	80.5
407.331	81.5
407.555	94.5
407.778	79.5
408.002	102.5
408.226	81.5
408.449	87.5
408.673	77.5
408.896	81.5
409.12	82.5
409.344	93.5
409.567	88.5
409.791	81.5
410.014	82.5
410.238	82.5
410.461	88.5
410.685	79.5
410.908	81.5
411.132	81.5
411.355	85.5
411.578	68.5
411.802	78.5
412.025	78.5
412.249	91.5
412.472	95.5
412.695	98.5
412.919	91.5
413.142	80.5
413.365	86.5
413.589	81.5
413.812	71.5
414.035	82.5
414.258	83.5
414.482	92.5
414.705	85.5
414.928	85.5
415.151	82.5
415.374	88.5
415.597	78.5
415.821	81.5
416.044	82.5
416.267	76.5
416.49	77.5
416.713	92.5
416.936	81.5
417.159	80.5
417.382	87.5
417.605	75.5
417.828	73.5
418.051	91.5
418.274	85.5
418.497	87.5
418.72	72.5
418.943	81.5
419.166	91.5
419.389	82.5
419.611	82.5
419.834	69.5
420.057	73.5
420.28	74.5
420.503	85.5
420.726	85.5
420.948	86.5
421.171	82.5
421.394	93.5
421.617	85.5
421.839	103.5
422.062	86.5
422.285	115.5
422.507	163.5
422.73	221.5
422.953	188.5
423.175	108.5
423.398	106.5
423.621	90.5
423.843	98.5
424.066	100.5
424.288	87.5
424.511	94.5
424.733	89.5
424.956	80.5
425.178	87.5
425.401	85.5
425.623	89.5
425.846	86.5
426.068	62.5
426.291	83.5
426.513	72.5
426.735	75.5
426.958	88.5
427.18	81.5
427.402	89.5
427.625	67.5
427.847	73.5
428.069	92.5
428.292	88.5
428.514	103.5
428.736	106.5
428.958	121.5
429.181	109.5
429.403	81.5
429.625	81.5
429.847	92.5
430.069	113.5
430.292	115.5
430.514	110.5
430.736	99.5
430.958	112.5
431.18	89.5
431.402	76.5
431.624	78.5
431.846	111.5
432.068	90.5
432.29	92.5
432.512	80.5
432.734	71.5
432.956	71.5
433.178	70.5
433.4	82.5
433.622	74.5
433.844	89.5
434.066	77.5
434.287	87.5
434.509	76.5
434.731	82.5
434.953	82.5
435.175	82.5
435.397	80.5
435.618	80.5
435.84	80.5
436.062	84.5
436.284	79.5
436.505	75.5
436.727	79.5
436.949	86.5
437.17	81.5
437.392	74.5
437.614	74.5
437.835	72.5
438.057	72.5
438.278	86.5
438.5	85.5
438.721	80.5
438.943	80.5
439.165	84.5
439.386	87.5
439.608	92.5
439.829	77.5
440.05	73.5
440.272	77.5
440.493	74.5
440.715	91.5
440.936	75.5
441.158	71.5
441.379	73.5
441.6	81.5
441.822	83.5
442.043	80.5
442.264	88.5
442.486	94.5
442.707	117.5
442.928	93.5
443.149	101.5
443.371	94.5
443.592	151.5
443.813	136.5
444.034	79.5
444.255	70.5
444.476	72.5
444.698	81.5
444.919	77.5
445.14	167.5
445.361	139.5
445.582	160.5
445.803	134.5
446.024	87.5
446.245	109.5
446.466	67.5
446.687	83.5
446.908	78.5
447.129	102.5
447.35	71.5
447.571	94.5
447.792	79.5
448.013	74.5
448.234	83.5
448.455	77.5
448.675	78.5
448.896	71.5
449.117	91.5
449.338	85.5
449.559	78.5
449.779	91.5
450	87.5
450.221	82.5
450.442	79.5
450.662	82.5
450.883	69.5
451.104	91.5
451.324	83.5
451.545	71.5
451.766	71.5
451.986	72.5
452.207	75.5
452.428	94.5
452.648	67.5
452.869	86.5
453.089	92.5
453.31	71.5
453.53	87.5
453.751	76.5
453.971	69.5
454.192	77.5
454.412	92.5
454.633	74.5
454.853	86.5
455.073	82.5
455.294	83.5
455.514	76.5
455.734	75.5
455.955	65.5
456.175	80.5
456.395	87.5
456.616	85.5
456.836	86.5
457.056	81.5
457.276	65.5
457.497	86.5
457.717	83.5
457.937	87.5
458.157	81.5
458.377	79.5
458.598	93.5
458.818	85.5
459.038	91.5
459.258	72.5
459.478	65.5
459.698	75.5
459.918	81.5
460.138	86.5
460.358	75.5
460.578	83.5
460.798	85.5
461.018	83.5
461.238	78.5
461.458	84.5
461.678	89.5
461.898	93.5
462.118	82.5
462.338	94.5
462.558	75.5
462.777	89.5
462.997	81.5
463.217	82.5
463.437	87.5
463.657	81.5
463.876	76.5
464.096	78.5
464.316	79.5
464.536	81.5
464.755	77.5
464.975	79.5
465.195	78.5
465.414	93.5
465.634	85.5
465.854	95.5
466.073	81.5
466.293	73.5
466.512	76.5
466.732	89.5
466.951	66.5
467.171	89.5
467.391	96.5
467.61	86.5
467.829	90.5
468.049	98.5
468.268	93.5
468.488	93.5
468.707	85.5
468.927	96.5
469.146	76.5
469.365	76.5
469.585	89.5
469.804	90.5
470.023	85.5
470.243	77.5
470.462	75.5
470.681	95.5
470.901	99.5
471.12	76.5
471.339	87.5
471.558	85.5
471.777	72.5
471.997	89.5
472.216	87.5
472.435	78.5
472.654	89.5
472.873	77.5
473.092	80.5
473.311	69.5
473.53	83.5
473.749	85.5
473.968	73.5
474.187	75.5
474.406	79.5
474.625	68.5
474.844	92.5
475.063	92.5
475.282	90.5
475.501	79.5
475.72	90.5
475.939	81.5
476.158	90.5
476.377	74.5
476.596	75.5
476.814	82.5
477.033	96.5
477.252	74.5
477.471	77.5
477.69	82.5
477.908	84.5
478.127	84.5
478.346	86.5
478.564	77.5
478.783	78.5
479.002	82.5
479.22	88.5
479.439	68.5
479.658	72.5
479.876	94.5
480.095	85.5
480.313	83.5
480.532	91.5
480.751	84.5
480.969	96.5
481.188	88.5
481.406	78.5
481.624	78.5
481.843	85.5
482.061	83.5
482.28	97.5
482.498	86.5
482.717	83.5
482.935	89.5
483.153	78.5
483.372	78.5
483.59	75.5
483.808	78.5
484.027	90.5
484.245	81.5
484.463	79.5
484.681	83.5
484.9	93.5
485.118	83.5
485.336	89.5
485.554	85.5
485.772	90.5
485.99	75.5
486.209	72.5
486.427	75.5
486.645	86.5
486.863	88.5
487.081	88.5
487.299	79.5
487.517	87.5
487.735	96.5
487.953	122.5
488.171	103.5
488.389	71.5
488.607	88.5
488.825	80.5
489.043	69.5
489.261	81.5
489.479	86.5
489.696	88.5
489.914	66.5
490.132	93.5
490.35	77.5
490.568	93.5
490.786	90.5
491.003	90.5
491.221	77.5
491.439	87.5
491.657	80.5
491.874	74.5
492.092	78.5
492.31	89.5
492.527	81.5
492.745	85.5
492.963	97.5
493.18	89.5
493.398	75.5
493.615	98.5
493.833	66.5
494.05	83.5
494.268	87.5
494.485	95.5
494.703	94.5
494.92	99.5
495.138	80.5
495.355	86.5
495.573	81.5
495.79	85.5
496.008	82.5
496.225	65.5
496.442	85.5
496.66	99.5
496.877	87.5
497.094	102.5
497.312	80.5
497.529	88.5
497.746	87.5
497.963	78.5
498.181	71.5
498.398	78.5
498.615	84.5
498.832	86.5
499.049	92.5
499.267	93.5
499.484	75.5
499.701	73.5
499.918	81.5
500.135	68.5
500.352	68.5
500.569	78.5
500.786	62.5
501.003	79.5
501.22	79.5
501.437	73.5
501.654	83.5
501.871	79.5
502.088	80.5
502.305	89.5
502.522	88.5
502.739	73.5
502.956	83.5
503.172	74.5
503.389	89.5
503.606	83.5
503.823	88.5
504.04	86.5
504.256	107.5
504.473	102.5
504.69	99.5
504.907	84.5
505.123	82.5
505.34	85.5
505.557	101.5
505.773	75.5
505.99	72.5
506.207	88.5
506.423	90.5
506.64	88.5
506.856	96.5
507.073	90.5
507.289	88.5
507.506	84.5
507.722	80.5
507.939	79.5
508.155	85.5
508.372	85.5
508.588	84.5
508.805	96.5
509.021	97.5
509.238	72.5
509.454	73.5
509.67	91.5
509.887	88.5
510.103	83.5
510.319	80.5
510.536	79.5
510.752	83.5
510.968	85.5
511.184	82.5
511.401	84.5
511.617	85.5
511.833	78.5
512.049	87.5
512.265	89.5
512.481	84.5
512.698	82.5
512.914	87.5
513.13	81.5
513.346	85.5
513.562	76.5
513.778	91.5
513.994	70.5
514.21	104.5
514.426	82.5
514.642	85.5
514.858	73.5
515.074	79.5
515.29	94.5
515.506	81.5
515.721	73.5
515.937	79.5
516.153	75.5
516.369	74.5
516.585	82.5
516.801	82.5
517.016	73.5
517.232	68.5
517.448	91.5
517.664	81.5
517.879	89.5
518.095	86.5
518.311	97.5
518.527	77.5
518.742	89.5
518.958	105.5
519.173	104.5
519.389	93.5
519.605	65.5
519.82	67.5
520.036	86.5
520.251	86.5
520.467	87.5
520.682	73.5
520.898	84.5
521.113	75.5
521.329	79.5
521.544	76.5
521.76	87.5
521.975	74.5
522.19	85.5
522.406	80.5
522.621	80.5
522.836	88.5
523.052	92.5
523.267	93.5
523.482	65.5
523.698	85.5
523.913	80.5
524.128	84.5
524.343	85.5
524.559	95.5
524.774	89.5
524.989	70.5
525.204	95.5
525.419	86.5
525.634	74.5
525.849	81.5
526.064	97.5
526.28	119.5
526.495	153.5
526.71	175.5
526.925	136.5
527.14	157.5
527.355	143.5
527.57	96.5
527.785	87.5
527.999	75.5
528.214	86.5
528.429	75.5
528.644	97.5
528.859	91.5
529.074	94.5
529.289	89.5
529.503	82.5
529.718	90.5
529.933	91.5
530.148	85.5
530.363	85.5
530.577	94.5
530.792	78.5
531.007	93.5
531.221	83.5
531.436	85.5
531.651	84.5
531.865	80.5
532.08	90.5
532.295	83.5
532.509	80.5
532.724	92.5
532.938	86.5
533.153	81.5
533.367	76.5
533.582	83.5
533.796	96.5
534.011	97.5
534.225	99.5
534.44	94.5
534.654	93.5
534.868	92.5
535.083	109.5
535.297	100.5
535.511	91.5
535.726	91.5
535.94	81.5
536.154	97.5
536.369	93.5
536.583	85.5
536.797	80.5
537.011	82.5
537.225	84.5
537.44	89.5
537.654	84.5
537.868	91.5
538.082	93.5
538.296	80.5
538.51	91.5
538.724	81.5
538.938	89.5
539.153	83.5
539.367	90.5
539.581	68.5
