Data from CBS_3_HRD10591_00010.txt Node
Date: Mon Jan 19 14:05:43 EST 2026
User: Yrep
Spectrometer: HR+D1059
Trigger mode: 1
Integration Time (sec): 1.000000E-1
Scans to average: 1
Electric dark correction enabled: true
Nonlinearity correction enabled: false
Boxcar width: 0
XAxis mode: Wavelengths
Number of Pixels in Spectrum: 2048
>>>>>Begin Spectral Data<<<<<
223.165	-25.19
223.4	-25.19
223.635	-25.19
223.869	-25.19
224.104	-16.19
224.338	-21.19
224.573	-17.19
224.808	-8.19
225.042	-1.19
225.277	-7.19
225.511	2.81
225.746	0.81
225.98	2.81
226.215	0.81
226.449	15.81
226.683	27.81
226.918	25.81
227.152	44.81
227.387	31.81
227.621	26.81
227.856	46.81
228.09	34.81
228.324	50.81
228.559	57.81
228.793	62.81
229.027	73.81
229.262	73.81
229.496	63.81
229.73	66.81
229.964	74.81
230.199	48.81
230.433	74.81
230.667	72.81
230.901	70.81
231.136	76.81
231.37	90.81
231.604	76.81
231.838	77.81
232.072	94.81
232.306	82.81
232.541	70.81
232.775	87.81
233.009	72.81
233.243	83.81
233.477	77.81
233.711	88.81
233.945	92.81
234.179	83.81
234.413	83.81
234.647	75.81
234.881	90.81
235.115	85.81
235.349	86.81
235.583	94.81
235.817	88.81
236.051	83.81
236.285	74.81
236.519	67.81
236.753	70.81
236.987	91.81
237.221	88.81
237.455	75.81
237.689	78.81
237.922	87.81
238.156	74.81
238.39	84.81
238.624	76.81
238.858	68.81
239.091	74.81
239.325	76.81
239.559	80.81
239.793	91.81
240.027	78.81
240.26	60.81
240.494	90.81
240.728	76.81
240.961	78.81
241.195	81.81
241.429	74.81
241.662	64.81
241.896	68.81
242.13	79.81
242.363	77.81
242.597	81.81
242.83	73.81
243.064	89.81
243.298	74.81
243.531	75.81
243.765	80.81
243.998	74.81
244.232	72.81
244.465	83.81
244.699	76.81
244.932	72.81
245.166	80.81
245.399	82.81
245.633	79.81
245.866	60.81
246.099	75.81
246.333	84.81
246.566	67.81
246.8	68.81
247.033	75.81
247.266	75.81
247.5	86.81
247.733	78.81
247.966	71.81
248.2	68.81
248.433	90.81
248.666	82.81
248.899	75.81
249.133	80.81
249.366	78.81
249.599	83.81
249.832	70.81
250.066	78.81
250.299	71.81
250.532	68.81
250.765	66.81
250.998	83.81
251.231	73.81
251.465	80.81
251.698	76.81
251.931	87.81
252.164	88.81
252.397	77.81
252.63	77.81
252.863	82.81
253.096	80.81
253.329	88.81
253.562	78.81
253.795	74.81
254.028	92.81
254.261	70.81
254.494	86.81
254.727	86.81
254.96	77.81
255.193	74.81
255.426	84.81
255.659	86.81
255.892	75.81
256.124	93.81
256.357	84.81
256.59	70.81
256.823	66.81
257.056	83.81
257.289	72.81
257.521	86.81
257.754	90.81
257.987	87.81
258.22	96.81
258.452	82.81
258.685	94.81
258.918	77.81
259.151	80.81
259.383	77.81
259.616	61.81
259.849	65.81
260.081	78.81
260.314	81.81
260.547	104.81
260.779	88.81
261.012	71.81
261.244	58.81
261.477	75.81
261.71	80.81
261.942	80.81
262.175	87.81
262.407	92.81
262.64	62.81
262.872	75.81
263.105	77.81
263.337	84.81
263.57	75.81
263.802	82.81
264.035	89.81
264.267	78.81
264.499	58.81
264.732	75.81
264.964	86.81
265.197	85.81
265.429	88.81
265.661	87.81
265.894	89.81
266.126	66.81
266.358	94.81
266.591	72.81
266.823	83.81
267.055	87.81
267.287	83.81
267.52	91.81
267.752	90.81
267.984	69.81
268.216	73.81
268.448	81.81
268.681	65.81
268.913	85.81
269.145	71.81
269.377	82.81
269.609	90.81
269.841	89.81
270.073	83.81
270.306	78.81
270.538	84.81
270.77	85.81
271.002	83.81
271.234	93.81
271.466	88.81
271.698	69.81
271.93	83.81
272.162	74.81
272.394	82.81
272.626	73.81
272.858	91.81
273.09	86.81
273.322	77.81
273.553	80.81
273.785	81.81
274.017	91.81
274.249	88.81
274.481	90.81
274.713	80.81
274.945	80.81
275.176	90.81
275.408	82.81
275.64	80.81
275.872	100.81
276.104	88.81
276.335	87.81
276.567	94.81
276.799	94.81
277.031	76.81
277.262	69.81
277.494	82.81
277.726	92.81
277.957	85.81
278.189	80.81
278.421	93.81
278.652	73.81
278.884	65.81
279.115	90.81
279.347	88.81
279.579	74.81
279.81	88.81
280.042	91.81
280.273	88.81
280.505	68.81
280.736	82.81
280.968	78.81
281.199	92.81
281.431	90.81
281.662	80.81
281.894	74.81
282.125	70.81
282.356	91.81
282.588	83.81
282.819	72.81
283.051	80.81
283.282	80.81
283.513	77.81
283.745	91.81
283.976	82.81
284.207	82.81
284.439	87.81
284.67	81.81
284.901	83.81
285.132	85.81
285.364	99.81
285.595	105.81
285.826	87.81
286.057	85.81
286.288	78.81
286.52	78.81
286.751	74.81
286.982	79.81
287.213	94.81
287.444	91.81
287.675	82.81
287.906	90.81
288.138	87.81
288.369	102.81
288.6	81.81
288.831	80.81
289.062	80.81
289.293	75.81
289.524	71.81
289.755	87.81
289.986	83.81
290.217	85.81
290.448	81.81
290.679	90.81
290.91	88.81
291.141	85.81
291.371	79.81
291.602	79.81
291.833	98.81
292.064	85.81
292.295	73.81
292.526	81.81
292.757	79.81
292.987	77.81
293.218	83.81
293.449	79.81
293.68	91.81
293.91	98.81
294.141	88.81
294.372	74.81
294.603	87.81
294.833	94.81
295.064	90.81
295.295	77.81
295.525	86.81
295.756	99.81
295.987	78.81
296.217	82.81
296.448	87.81
296.679	75.81
296.909	81.81
297.14	100.81
297.37	85.81
297.601	74.81
297.831	76.81
298.062	97.81
298.292	94.81
298.523	83.81
298.753	83.81
298.984	80.81
299.214	87.81
299.445	94.81
299.675	83.81
299.905	94.81
300.136	84.81
300.366	94.81
300.597	104.81
300.827	97.81
301.057	99.81
301.288	95.81
301.518	82.81
301.748	87.81
301.979	94.81
302.209	84.81
302.439	90.81
302.669	93.81
302.9	91.81
303.13	86.81
303.36	78.81
303.59	89.81
303.82	83.81
304.051	88.81
304.281	86.81
304.511	82.81
304.741	102.81
304.971	78.81
305.201	84.81
305.431	95.81
305.661	96.81
305.891	82.81
306.121	82.81
306.352	83.81
306.582	89.81
306.812	73.81
307.042	108.81
307.272	83.81
307.502	86.81
307.731	71.81
307.961	90.81
308.191	100.81
308.421	95.81
308.651	96.81
308.881	98.81
309.111	93.81
309.341	88.81
309.571	71.81
309.8	98.81
310.03	82.81
310.26	70.81
310.49	86.81
310.72	75.81
310.949	96.81
311.179	89.81
311.409	94.81
311.639	94.81
311.868	95.81
312.098	92.81
312.328	95.81
312.557	92.81
312.787	79.81
313.017	92.81
313.246	83.81
313.476	84.81
313.706	82.81
313.935	75.81
314.165	80.81
314.394	101.81
314.624	87.81
314.853	89.81
315.083	98.81
315.312	87.81
315.542	86.81
315.771	103.81
316.001	100.81
316.23	91.81
316.46	82.81
316.689	94.81
316.919	87.81
317.148	94.81
317.377	83.81
317.607	87.81
317.836	99.81
318.065	106.81
318.295	90.81
318.524	87.81
318.753	90.81
318.983	80.81
319.212	76.81
319.441	87.81
319.67	86.81
319.9	91.81
320.129	87.81
320.358	95.81
320.587	70.81
320.816	95.81
321.046	84.81
321.275	91.81
321.504	87.81
321.733	103.81
321.962	98.81
322.191	83.81
322.42	87.81
322.649	104.81
322.878	75.81
323.108	87.81
323.337	82.81
323.566	92.81
323.795	89.81
324.024	87.81
324.253	76.81
324.482	83.81
324.71	78.81
324.939	82.81
325.168	95.81
325.397	86.81
325.626	91.81
325.855	68.81
326.084	81.81
326.313	86.81
326.542	75.81
326.77	88.81
326.999	88.81
327.228	90.81
327.457	94.81
327.686	96.81
327.914	80.81
328.143	96.81
328.372	84.81
328.6	91.81
328.829	116.81
329.058	92.81
329.287	71.81
329.515	82.81
329.744	72.81
329.972	90.81
330.201	72.81
330.43	98.81
330.658	95.81
330.887	78.81
331.115	89.81
331.344	76.81
331.572	89.81
331.801	86.81
332.03	100.81
332.258	94.81
332.486	99.81
332.715	83.81
332.943	84.81
333.172	95.81
333.4	101.81
333.629	78.81
333.857	78.81
334.085	98.81
334.314	96.81
334.542	98.81
334.771	89.81
334.999	110.81
335.227	71.81
335.455	86.81
335.684	99.81
335.912	110.81
336.14	103.81
336.369	117.81
336.597	97.81
336.825	73.81
337.053	83.81
337.281	82.81
337.51	92.81
337.738	81.81
337.966	86.81
338.194	76.81
338.422	80.81
338.65	73.81
338.878	80.81
339.106	91.81
339.334	87.81
339.562	71.81
339.79	82.81
340.018	90.81
340.246	75.81
340.474	92.81
340.702	79.81
340.93	87.81
341.158	103.81
341.386	85.81
341.614	95.81
341.842	100.81
342.07	80.81
342.298	88.81
342.526	86.81
342.754	65.81
342.981	101.81
343.209	94.81
343.437	110.81
343.665	89.81
343.893	82.81
344.12	93.81
344.348	91.81
344.576	105.81
344.804	106.81
345.031	74.81
345.259	79.81
345.487	88.81
345.714	94.81
345.942	88.81
346.17	87.81
346.397	93.81
346.625	87.81
346.853	95.81
347.08	98.81
347.308	91.81
347.535	103.81
347.763	83.81
347.99	79.81
348.218	90.81
348.445	90.81
348.673	101.81
348.9	90.81
349.128	105.81
349.355	89.81
349.583	95.81
349.81	102.81
350.037	82.81
350.265	79.81
350.492	91.81
350.72	98.81
350.947	91.81
351.174	84.81
351.402	82.81
351.629	84.81
351.856	84.81
352.083	85.81
352.311	96.81
352.538	96.81
352.765	87.81
352.992	92.81
353.22	82.81
353.447	91.81
353.674	86.81
353.901	104.81
354.128	93.81
354.355	88.81
354.583	91.81
354.81	77.81
355.037	92.81
355.264	90.81
355.491	97.81
355.718	96.81
355.945	99.81
356.172	97.81
356.399	104.81
356.626	94.81
356.853	87.81
357.08	94.81
357.307	106.81
357.534	81.81
357.761	87.81
357.988	79.81
358.215	81.81
358.441	92.81
358.668	91.81
358.895	84.81
359.122	94.81
359.349	96.81
359.576	90.81
359.802	90.81
360.029	94.81
360.256	84.81
360.483	82.81
360.709	94.81
360.936	99.81
361.163	92.81
361.39	91.81
361.616	85.81
361.843	93.81
362.07	110.81
362.296	110.81
362.523	128.81
362.749	133.81
362.976	132.81
363.203	163.81
363.429	107.81
363.656	108.81
363.882	105.81
364.109	131.81
364.335	170.81
364.562	198.81
364.788	129.81
365.015	101.81
365.241	100.81
365.468	93.81
365.694	82.81
365.92	94.81
366.147	86.81
366.373	91.81
366.599	98.81
366.826	110.81
367.052	94.81
367.278	98.81
367.505	102.81
367.731	111.81
367.957	78.81
368.184	88.81
368.41	101.81
368.636	100.81
368.862	94.81
369.089	89.81
369.315	100.81
369.541	100.81
369.767	88.81
369.993	90.81
370.219	95.81
370.445	93.81
370.672	110.81
370.898	98.81
371.124	110.81
371.35	93.81
371.576	99.81
371.802	100.81
372.028	87.81
372.254	100.81
372.48	96.81
372.706	93.81
372.932	90.81
373.158	82.81
373.384	103.81
373.61	117.81
373.835	114.81
374.061	98.81
374.287	108.81
374.513	87.81
374.739	88.81
374.965	99.81
375.191	103.81
375.416	87.81
375.642	114.81
375.868	94.81
376.094	81.81
376.319	101.81
376.545	96.81
376.771	93.81
376.997	97.81
377.222	91.81
377.448	97.81
377.674	87.81
377.899	92.81
378.125	97.81
378.35	82.81
378.576	95.81
378.802	94.81
379.027	85.81
379.253	90.81
379.478	83.81
379.704	92.81
379.929	95.81
380.155	94.81
380.38	93.81
380.606	82.81
380.831	99.81
381.057	92.81
381.282	96.81
381.507	97.81
381.733	92.81
381.958	89.81
382.184	107.81
382.409	88.81
382.634	95.81
382.86	103.81
383.085	90.81
383.31	111.81
383.535	86.81
383.761	96.81
383.986	92.81
384.211	104.81
384.436	94.81
384.662	95.81
384.887	81.81
385.112	90.81
385.337	102.81
385.562	105.81
385.787	93.81
386.013	104.81
386.238	113.81
386.463	103.81
386.688	111.81
386.913	93.81
387.138	100.81
387.363	98.81
387.588	111.81
387.813	106.81
388.038	95.81
388.263	99.81
388.488	93.81
388.713	98.81
388.938	83.81
389.163	94.81
389.387	79.81
389.612	98.81
389.837	89.81
390.062	96.81
390.287	98.81
390.512	107.81
390.736	87.81
390.961	100.81
391.186	95.81
391.411	103.81
391.636	94.81
391.86	86.81
392.085	95.81
392.31	128.81
392.534	128.81
392.759	163.81
392.984	212.81
393.208	400.81
393.433	588.81
393.658	464.81
393.882	202.81
394.107	140.81
394.331	139.81
394.556	140.81
394.78	96.81
395.005	108.81
395.229	105.81
395.454	110.81
395.678	137.81
395.903	146.81
396.127	149.81
396.352	194.81
396.576	255.81
396.801	422.81
397.025	471.81
397.249	245.81
397.474	171.81
397.698	121.81
397.922	102.81
398.147	106.81
398.371	105.81
398.595	86.81
398.82	91.81
399.044	99.81
399.268	97.81
399.492	87.81
399.717	99.81
399.941	101.81
400.165	114.81
400.389	86.81
400.613	76.81
400.837	92.81
401.062	80.81
401.286	97.81
401.51	77.81
401.734	104.81
401.958	84.81
402.182	85.81
402.406	86.81
402.63	88.81
402.854	95.81
403.078	87.81
403.302	91.81
403.526	99.81
403.75	90.81
403.974	79.81
404.198	76.81
404.422	91.81
404.645	89.81
404.869	88.81
405.093	108.81
405.317	100.81
405.541	82.81
405.765	84.81
405.988	74.81
406.212	86.81
406.436	107.81
406.66	96.81
406.883	99.81
407.107	91.81
407.331	87.81
407.555	104.81
407.778	119.81
408.002	120.81
408.226	87.81
408.449	92.81
408.673	90.81
408.896	96.81
409.12	99.81
409.344	96.81
409.567	122.81
409.791	114.81
410.014	125.81
410.238	113.81
410.461	114.81
410.685	99.81
410.908	89.81
411.132	100.81
411.355	112.81
411.578	102.81
411.802	100.81
412.025	104.81
412.249	92.81
412.472	100.81
412.695	90.81
412.919	80.81
413.142	91.81
413.365	80.81
413.589	81.81
413.812	81.81
414.035	99.81
414.258	84.81
414.482	77.81
414.705	86.81
414.928	98.81
415.151	92.81
415.374	81.81
415.597	94.81
415.821	103.81
416.044	93.81
416.267	91.81
416.49	98.81
416.713	92.81
416.936	90.81
417.159	88.81
417.382	83.81
417.605	83.81
417.828	77.81
418.051	84.81
418.274	83.81
418.497	86.81
418.72	78.81
418.943	96.81
419.166	82.81
419.389	86.81
419.611	99.81
419.834	88.81
420.057	85.81
420.28	90.81
420.503	110.81
420.726	115.81
420.948	95.81
421.171	114.81
421.394	129.81
421.617	155.81
421.839	160.81
422.062	194.81
422.285	276.81
422.507	489.81
422.73	756.81
422.953	704.81
423.175	359.81
423.398	223.81
423.621	155.81
423.843	134.81
424.066	124.81
424.288	118.81
424.511	110.81
424.733	95.81
424.956	98.81
425.178	92.81
425.401	88.81
425.623	85.81
425.846	97.81
426.068	102.81
426.291	102.81
426.513	103.81
426.735	97.81
426.958	90.81
427.18	96.81
427.402	98.81
427.625	100.81
427.847	102.81
428.069	123.81
428.292	167.81
428.514	198.81
428.736	141.81
428.958	186.81
429.181	195.81
429.403	114.81
429.625	107.81
429.847	151.81
430.069	246.81
430.292	291.81
430.514	246.81
430.736	198.81
430.958	212.81
431.18	127.81
431.402	106.81
431.624	118.81
431.846	158.81
432.068	198.81
432.29	114.81
432.512	112.81
432.734	77.81
432.956	99.81
433.178	87.81
433.4	76.81
433.622	98.81
433.844	88.81
434.066	83.81
434.287	98.81
434.509	89.81
434.731	85.81
434.953	96.81
435.175	100.81
435.397	90.81
435.618	101.81
435.84	109.81
436.062	105.81
436.284	90.81
436.505	92.81
436.727	91.81
436.949	95.81
437.17	91.81
437.392	89.81
437.614	88.81
437.835	96.81
438.057	94.81
438.278	106.81
438.5	85.81
438.721	91.81
438.943	89.81
439.165	94.81
439.386	90.81
439.608	95.81
439.829	82.81
440.05	88.81
440.272	88.81
440.493	107.81
440.715	107.81
440.936	88.81
441.158	92.81
441.379	96.81
441.6	98.81
441.822	90.81
442.043	104.81
442.264	119.81
442.486	184.81
442.707	266.81
442.928	163.81
443.149	137.81
443.371	216.81
443.592	430.81
443.813	370.81
444.034	134.81
444.255	91.81
444.476	104.81
444.698	110.81
444.919	124.81
445.14	227.81
445.361	302.81
445.582	494.81
445.803	448.81
446.024	167.81
446.245	112.81
446.466	106.81
446.687	92.81
446.908	95.81
447.129	98.81
447.35	88.81
447.571	87.81
447.792	94.81
448.013	88.81
448.234	81.81
448.455	97.81
448.675	82.81
448.896	93.81
449.117	90.81
449.338	100.81
449.559	97.81
449.779	78.81
450	82.81
450.221	96.81
450.442	82.81
450.662	88.81
450.883	81.81
451.104	105.81
451.324	104.81
451.545	89.81
451.766	86.81
451.986	86.81
452.207	96.81
452.428	86.81
452.648	110.81
452.869	127.81
453.089	100.81
453.31	96.81
453.53	94.81
453.751	97.81
453.971	93.81
454.192	99.81
454.412	89.81
454.633	89.81
454.853	79.81
455.073	101.81
455.294	73.81
455.514	91.81
455.734	90.81
455.955	102.81
456.175	86.81
456.395	95.81
456.616	97.81
456.836	98.81
457.056	97.81
457.276	81.81
457.497	92.81
457.717	106.81
457.937	138.81
458.157	180.81
458.377	169.81
458.598	192.81
458.818	192.81
459.038	111.81
459.258	99.81
459.478	86.81
459.698	74.81
459.918	115.81
460.138	80.81
460.358	95.81
460.578	123.81
460.798	150.81
461.018	137.81
461.238	93.81
461.458	94.81
461.678	90.81
461.898	96.81
462.118	90.81
462.338	94.81
462.558	102.81
462.777	81.81
462.997	89.81
463.217	98.81
463.437	102.81
463.657	81.81
463.876	74.81
464.096	83.81
464.316	80.81
464.536	84.81
464.755	95.81
464.975	78.81
465.195	74.81
465.414	80.81
465.634	86.81
465.854	93.81
466.073	92.81
466.293	81.81
466.512	86.81
466.732	85.81
466.951	82.81
467.171	99.81
467.391	96.81
467.61	80.81
467.829	89.81
468.049	106.81
468.268	91.81
468.488	90.81
468.707	89.81
468.927	90.81
469.146	103.81
469.365	85.81
469.585	88.81
469.804	96.81
470.023	95.81
470.243	89.81
470.462	90.81
470.681	112.81
470.901	92.81
471.12	88.81
471.339	83.81
471.558	88.81
471.777	93.81
471.997	90.81
472.216	100.81
472.435	103.81
472.654	91.81
472.873	94.81
473.092	81.81
473.311	102.81
473.53	93.81
473.749	89.81
473.968	84.81
474.187	90.81
474.406	94.81
474.625	84.81
474.844	90.81
475.063	75.81
475.282	95.81
475.501	92.81
475.72	102.81
475.939	90.81
476.158	88.81
476.377	87.81
476.596	71.81
476.814	75.81
477.033	100.81
477.252	104.81
477.471	92.81
477.69	99.81
477.908	103.81
478.127	98.81
478.346	86.81
478.564	99.81
478.783	86.81
479.002	99.81
479.22	72.81
479.439	112.81
479.658	106.81
479.876	83.81
480.095	84.81
480.313	93.81
480.532	92.81
480.751	91.81
480.969	85.81
481.188	93.81
481.406	97.81
481.624	96.81
481.843	93.81
482.061	78.81
482.28	87.81
482.498	88.81
482.717	95.81
482.935	98.81
483.153	85.81
483.372	95.81
483.59	97.81
483.808	95.81
484.027	89.81
484.245	107.81
484.463	101.81
484.681	96.81
484.9	99.81
485.118	96.81
485.336	83.81
485.554	90.81
485.772	94.81
485.99	77.81
486.209	102.81
486.427	94.81
486.645	91.81
486.863	101.81
487.081	76.81
487.299	110.81
487.517	123.81
487.735	151.81
487.953	280.81
488.171	225.81
488.389	125.81
488.607	100.81
488.825	97.81
489.043	110.81
489.261	89.81
489.479	94.81
489.696	102.81
489.914	94.81
490.132	89.81
490.35	95.81
490.568	91.81
490.786	93.81
491.003	81.81
491.221	87.81
491.439	82.81
491.657	92.81
491.874	96.81
492.092	99.81
492.31	108.81
492.527	99.81
492.745	80.81
492.963	108.81
493.18	101.81
493.398	90.81
493.615	94.81
493.833	103.81
494.05	94.81
494.268	94.81
494.485	82.81
494.703	82.81
494.92	95.81
495.138	78.81
495.355	99.81
495.573	89.81
495.79	97.81
496.008	103.81
496.225	97.81
496.442	100.81
496.66	95.81
496.877	97.81
497.094	94.81
497.312	90.81
497.529	98.81
497.746	102.81
497.963	90.81
498.181	89.81
498.398	92.81
498.615	106.81
498.832	99.81
499.049	92.81
499.267	110.81
499.484	94.81
499.701	94.81
499.918	103.81
500.135	90.81
500.352	89.81
500.569	82.81
500.786	100.81
501.003	95.81
501.22	90.81
501.437	90.81
501.654	111.81
501.871	101.81
502.088	102.81
502.305	102.81
502.522	97.81
502.739	92.81
502.956	96.81
503.172	100.81
503.389	90.81
503.606	90.81
503.823	116.81
504.04	131.81
504.256	207.81
504.473	213.81
504.69	124.81
504.907	115.81
505.123	86.81
505.34	98.81
505.557	106.81
505.773	105.81
505.99	90.81
506.207	91.81
506.423	90.81
506.64	85.81
506.856	98.81
507.073	99.81
507.289	95.81
507.506	95.81
507.722	78.81
507.939	86.81
508.155	94.81
508.372	98.81
508.588	102.81
508.805	99.81
509.021	97.81
509.238	82.81
509.454	88.81
509.67	86.81
509.887	100.81
510.103	100.81
510.319	73.81
510.536	92.81
510.752	87.81
510.968	97.81
511.184	92.81
511.401	101.81
511.617	102.81
511.833	96.81
512.049	93.81
512.265	107.81
512.481	98.81
512.698	88.81
512.914	85.81
513.13	94.81
513.346	91.81
513.562	94.81
513.778	94.81
513.994	95.81
514.21	91.81
514.426	90.81
514.642	100.81
514.858	112.81
515.074	95.81
515.29	100.81
515.506	83.81
515.721	80.81
515.937	85.81
516.153	74.81
516.369	92.81
