Data from CBS_3_HRD10591_00019.txt Node
Date: Mon Jan 19 14:05:48 EST 2026
User: Yrep
Spectrometer: HR+D1059
Trigger mode: 1
Integration Time (sec): 1.000000E-1
Scans to average: 1
Electric dark correction enabled: true
Nonlinearity correction enabled: false
Boxcar width: 0
XAxis mode: Wavelengths
Number of Pixels in Spectrum: 2048
>>>>>Begin Spectral Data<<<<<
223.165	-18.12
223.4	-18.12
223.635	-18.12
223.869	-29.12
224.104	-13.12
224.338	-7.12
224.573	-11.12
224.808	-22.12
225.042	-14.12
225.277	0.88
225.511	-21.12
225.746	4.88
225.98	23.88
226.215	22.88
226.449	7.88
226.683	22.88
226.918	25.88
227.152	26.88
227.387	27.88
227.621	41.88
227.856	42.88
228.09	47.88
228.324	65.88
228.559	64.88
228.793	57.88
229.027	60.88
229.262	44.88
229.496	68.88
229.73	57.88
229.964	62.88
230.199	75.88
230.433	76.88
230.667	76.88
230.901	71.88
231.136	83.88
231.37	73.88
231.604	81.88
231.838	77.88
232.072	73.88
232.306	88.88
232.541	73.88
232.775	88.88
233.009	76.88
233.243	86.88
233.477	70.88
233.711	84.88
233.945	88.88
234.179	73.88
234.413	75.88
234.647	67.88
234.881	78.88
235.115	79.88
235.349	80.88
235.583	64.88
235.817	80.88
236.051	80.88
236.285	80.88
236.519	73.88
236.753	66.88
236.987	69.88
237.221	85.88
237.455	69.88
237.689	72.88
237.922	60.88
238.156	76.88
238.39	73.88
238.624	68.88
238.858	86.88
239.091	81.88
239.325	63.88
239.559	77.88
239.793	74.88
240.027	74.88
240.26	81.88
240.494	74.88
240.728	74.88
240.961	69.88
241.195	70.88
241.429	79.88
241.662	76.88
241.896	62.88
242.13	71.88
242.363	71.88
242.597	79.88
242.83	82.88
243.064	81.88
243.298	60.88
243.531	80.88
243.765	70.88
243.998	78.88
244.232	94.88
244.465	81.88
244.699	84.88
244.932	75.88
245.166	82.88
245.399	74.88
245.633	79.88
245.866	83.88
246.099	76.88
246.333	75.88
246.566	92.88
246.8	83.88
247.033	75.88
247.266	74.88
247.5	90.88
247.733	92.88
247.966	88.88
248.2	82.88
248.433	64.88
248.666	78.88
248.899	71.88
249.133	92.88
249.366	88.88
249.599	79.88
249.832	82.88
250.066	97.88
250.299	84.88
250.532	86.88
250.765	71.88
250.998	72.88
251.231	88.88
251.465	80.88
251.698	84.88
251.931	97.88
252.164	60.88
252.397	96.88
252.63	83.88
252.863	74.88
253.096	82.88
253.329	89.88
253.562	90.88
253.795	83.88
254.028	84.88
254.261	88.88
254.494	67.88
254.727	91.88
254.96	82.88
255.193	75.88
255.426	84.88
255.659	78.88
255.892	78.88
256.124	79.88
256.357	87.88
256.59	87.88
256.823	102.88
257.056	89.88
257.289	95.88
257.521	73.88
257.754	81.88
257.987	81.88
258.22	77.88
258.452	80.88
258.685	81.88
258.918	81.88
259.151	90.88
259.383	72.88
259.616	71.88
259.849	74.88
260.081	86.88
260.314	89.88
260.547	85.88
260.779	75.88
261.012	83.88
261.244	80.88
261.477	82.88
261.71	80.88
261.942	89.88
262.175	77.88
262.407	66.88
262.64	90.88
262.872	85.88
263.105	84.88
263.337	69.88
263.57	68.88
263.802	68.88
264.035	81.88
264.267	93.88
264.499	86.88
264.732	90.88
264.964	82.88
265.197	74.88
265.429	59.88
265.661	77.88
265.894	83.88
266.126	82.88
266.358	82.88
266.591	76.88
266.823	91.88
267.055	88.88
267.287	84.88
267.52	89.88
267.752	84.88
267.984	88.88
268.216	84.88
268.448	78.88
268.681	89.88
268.913	74.88
269.145	80.88
269.377	85.88
269.609	70.88
269.841	74.88
270.073	80.88
270.306	87.88
270.538	98.88
270.77	74.88
271.002	82.88
271.234	80.88
271.466	83.88
271.698	86.88
271.93	85.88
272.162	87.88
272.394	83.88
272.626	78.88
272.858	70.88
273.09	73.88
273.322	98.88
273.553	87.88
273.785	75.88
274.017	74.88
274.249	68.88
274.481	92.88
274.713	89.88
274.945	98.88
275.176	73.88
275.408	89.88
275.64	75.88
275.872	84.88
276.104	91.88
276.335	78.88
276.567	70.88
276.799	72.88
277.031	86.88
277.262	73.88
277.494	84.88
277.726	84.88
277.957	87.88
278.189	96.88
278.421	84.88
278.652	80.88
278.884	76.88
279.115	91.88
279.347	77.88
279.579	90.88
279.81	85.88
280.042	86.88
280.273	87.88
280.505	75.88
280.736	91.88
280.968	86.88
281.199	73.88
281.431	67.88
281.662	90.88
281.894	74.88
282.125	91.88
282.356	80.88
282.588	91.88
282.819	94.88
283.051	85.88
283.282	73.88
283.513	83.88
283.745	80.88
283.976	84.88
284.207	98.88
284.439	80.88
284.67	84.88
284.901	90.88
285.132	99.88
285.364	81.88
285.595	84.88
285.826	76.88
286.057	72.88
286.288	88.88
286.52	81.88
286.751	81.88
286.982	81.88
287.213	81.88
287.444	87.88
287.675	74.88
287.906	86.88
288.138	89.88
288.369	93.88
288.6	84.88
288.831	95.88
289.062	96.88
289.293	78.88
289.524	90.88
289.755	88.88
289.986	87.88
290.217	91.88
290.448	84.88
290.679	95.88
290.91	81.88
291.141	99.88
291.371	88.88
291.602	82.88
291.833	70.88
292.064	84.88
292.295	82.88
292.526	91.88
292.757	92.88
292.987	87.88
293.218	92.88
293.449	84.88
293.68	79.88
293.91	85.88
294.141	89.88
294.372	94.88
294.603	75.88
294.833	86.88
295.064	83.88
295.295	85.88
295.525	97.88
295.756	74.88
295.987	71.88
296.217	88.88
296.448	84.88
296.679	93.88
296.909	86.88
297.14	81.88
297.37	88.88
297.601	96.88
297.831	83.88
298.062	80.88
298.292	84.88
298.523	73.88
298.753	81.88
298.984	74.88
299.214	85.88
299.445	90.88
299.675	73.88
299.905	81.88
300.136	77.88
300.366	82.88
300.597	99.88
300.827	82.88
301.057	77.88
301.288	63.88
301.518	71.88
301.748	78.88
301.979	99.88
302.209	76.88
302.439	81.88
302.669	90.88
302.9	90.88
303.13	87.88
303.36	75.88
303.59	91.88
303.82	86.88
304.051	86.88
304.281	67.88
304.511	85.88
304.741	79.88
304.971	82.88
305.201	87.88
305.431	86.88
305.661	91.88
305.891	70.88
306.121	84.88
306.352	86.88
306.582	96.88
306.812	85.88
307.042	98.88
307.272	80.88
307.502	92.88
307.731	90.88
307.961	93.88
308.191	75.88
308.421	94.88
308.651	82.88
308.881	75.88
309.111	82.88
309.341	78.88
309.571	85.88
309.8	74.88
310.03	84.88
310.26	87.88
310.49	92.88
310.72	96.88
310.949	80.88
311.179	82.88
311.409	80.88
311.639	88.88
311.868	93.88
312.098	82.88
312.328	82.88
312.557	89.88
312.787	93.88
313.017	83.88
313.246	74.88
313.476	75.88
313.706	90.88
313.935	89.88
314.165	79.88
314.394	82.88
314.624	74.88
314.853	76.88
315.083	84.88
315.312	79.88
315.542	82.88
315.771	82.88
316.001	81.88
316.23	85.88
316.46	74.88
316.689	86.88
316.919	94.88
317.148	100.88
317.377	102.88
317.607	94.88
317.836	73.88
318.065	73.88
318.295	78.88
318.524	88.88
318.753	101.88
318.983	81.88
319.212	97.88
319.441	68.88
319.67	87.88
319.9	81.88
320.129	94.88
320.358	78.88
320.587	89.88
320.816	82.88
321.046	82.88
321.275	74.88
321.504	89.88
321.733	84.88
321.962	81.88
322.191	85.88
322.42	80.88
322.649	82.88
322.878	80.88
323.108	82.88
323.337	80.88
323.566	87.88
323.795	82.88
324.024	86.88
324.253	84.88
324.482	81.88
324.71	93.88
324.939	96.88
325.168	74.88
325.397	87.88
325.626	83.88
325.855	86.88
326.084	82.88
326.313	78.88
326.542	74.88
326.77	83.88
326.999	82.88
327.228	76.88
327.457	91.88
327.686	89.88
327.914	84.88
328.143	81.88
328.372	80.88
328.6	99.88
328.829	88.88
329.058	84.88
329.287	81.88
329.515	93.88
329.744	84.88
329.972	84.88
330.201	83.88
330.43	78.88
330.658	78.88
330.887	78.88
331.115	80.88
331.344	76.88
331.572	94.88
331.801	80.88
332.03	94.88
332.258	81.88
332.486	86.88
332.715	75.88
332.943	81.88
333.172	90.88
333.4	80.88
333.629	97.88
333.857	92.88
334.085	93.88
334.314	81.88
334.542	93.88
334.771	90.88
334.999	88.88
335.227	80.88
335.455	73.88
335.684	82.88
335.912	98.88
336.14	80.88
336.369	90.88
336.597	104.88
336.825	80.88
337.053	77.88
337.281	93.88
337.51	93.88
337.738	78.88
337.966	77.88
338.194	67.88
338.422	83.88
338.65	88.88
338.878	70.88
339.106	82.88
339.334	88.88
339.562	83.88
339.79	84.88
340.018	70.88
340.246	93.88
340.474	84.88
340.702	71.88
340.93	86.88
341.158	90.88
341.386	62.88
341.614	82.88
341.842	77.88
342.07	74.88
342.298	82.88
342.526	89.88
342.754	86.88
342.981	88.88
343.209	89.88
343.437	101.88
343.665	90.88
343.893	83.88
344.12	90.88
344.348	87.88
344.576	89.88
344.804	84.88
345.031	78.88
345.259	97.88
345.487	85.88
345.714	98.88
345.942	73.88
346.17	80.88
346.397	91.88
346.625	84.88
346.853	81.88
347.08	81.88
347.308	81.88
347.535	85.88
347.763	78.88
347.99	78.88
348.218	88.88
348.445	83.88
348.673	84.88
348.9	74.88
349.128	100.88
349.355	98.88
349.583	99.88
349.81	64.88
350.037	95.88
350.265	72.88
350.492	83.88
350.72	89.88
350.947	83.88
351.174	88.88
351.402	92.88
351.629	78.88
351.856	73.88
352.083	85.88
352.311	89.88
352.538	86.88
352.765	82.88
352.992	91.88
353.22	72.88
353.447	76.88
353.674	82.88
353.901	79.88
354.128	75.88
354.355	76.88
354.583	72.88
354.81	80.88
355.037	89.88
355.264	93.88
355.491	86.88
355.718	78.88
355.945	79.88
356.172	84.88
356.399	78.88
356.626	83.88
356.853	86.88
357.08	87.88
357.307	66.88
357.534	76.88
357.761	89.88
357.988	93.88
358.215	86.88
358.441	97.88
358.668	83.88
358.895	93.88
359.122	83.88
359.349	87.88
359.576	80.88
359.802	87.88
360.029	76.88
360.256	84.88
360.483	75.88
360.709	82.88
360.936	93.88
361.163	74.88
361.39	85.88
361.616	93.88
361.843	90.88
362.07	80.88
362.296	94.88
362.523	89.88
362.749	88.88
362.976	87.88
363.203	89.88
363.429	90.88
363.656	83.88
363.882	70.88
364.109	83.88
364.335	85.88
364.562	91.88
364.788	88.88
365.015	84.88
365.241	87.88
365.468	80.88
365.694	80.88
365.92	77.88
366.147	77.88
366.373	84.88
366.599	89.88
366.826	76.88
367.052	72.88
367.278	95.88
367.505	90.88
367.731	86.88
367.957	66.88
368.184	79.88
368.41	76.88
368.636	76.88
368.862	87.88
369.089	96.88
369.315	78.88
369.541	89.88
369.767	80.88
369.993	76.88
370.219	87.88
370.445	80.88
370.672	78.88
370.898	80.88
371.124	82.88
371.35	88.88
371.576	91.88
371.802	71.88
372.028	65.88
372.254	86.88
372.48	90.88
372.706	83.88
372.932	76.88
373.158	80.88
373.384	83.88
373.61	86.88
373.835	86.88
374.061	83.88
374.287	81.88
374.513	79.88
374.739	84.88
374.965	84.88
375.191	64.88
375.416	74.88
375.642	70.88
375.868	99.88
376.094	81.88
376.319	87.88
376.545	89.88
376.771	86.88
376.997	84.88
377.222	72.88
377.448	92.88
377.674	86.88
377.899	76.88
378.125	88.88
378.35	93.88
378.576	80.88
378.802	69.88
379.027	80.88
379.253	84.88
379.478	82.88
379.704	79.88
379.929	77.88
380.155	81.88
380.38	87.88
380.606	80.88
380.831	88.88
381.057	80.88
381.282	79.88
381.507	77.88
381.733	79.88
381.958	75.88
382.184	84.88
382.409	83.88
382.634	73.88
382.86	87.88
383.085	83.88
383.31	88.88
383.535	86.88
383.761	77.88
383.986	73.88
384.211	90.88
384.436	94.88
384.662	77.88
384.887	74.88
385.112	81.88
385.337	76.88
385.562	76.88
385.787	98.88
386.013	83.88
386.238	83.88
386.463	79.88
386.688	77.88
386.913	83.88
387.138	74.88
387.363	99.88
387.588	94.88
387.813	90.88
388.038	70.88
388.263	74.88
388.488	77.88
388.713	89.88
388.938	88.88
389.163	72.88
389.387	84.88
389.612	81.88
389.837	89.88
390.062	100.88
390.287	80.88
390.512	81.88
390.736	77.88
390.961	85.88
391.186	82.88
391.411	84.88
391.636	72.88
391.86	89.88
392.085	96.88
392.31	93.88
392.534	82.88
392.759	84.88
392.984	97.88
393.208	105.88
393.433	133.88
393.658	105.88
393.882	75.88
394.107	94.88
394.331	78.88
394.556	89.88
394.78	70.88
395.005	75.88
395.229	75.88
395.454	93.88
395.678	81.88
395.903	96.88
396.127	77.88
396.352	81.88
396.576	100.88
396.801	108.88
397.025	116.88
397.249	94.88
397.474	98.88
397.698	92.88
397.922	89.88
398.147	92.88
398.371	74.88
398.595	81.88
398.82	71.88
399.044	81.88
399.268	92.88
399.492	81.88
399.717	82.88
399.941	74.88
400.165	88.88
400.389	78.88
400.613	77.88
400.837	98.88
401.062	77.88
401.286	80.88
401.51	85.88
401.734	78.88
401.958	92.88
402.182	80.88
402.406	85.88
402.63	86.88
402.854	66.88
403.078	79.88
403.302	74.88
403.526	87.88
403.75	84.88
403.974	66.88
404.198	89.88
404.422	86.88
404.645	82.88
404.869	92.88
405.093	74.88
405.317	76.88
405.541	81.88
405.765	70.88
405.988	80.88
406.212	72.88
406.436	99.88
406.66	70.88
406.883	88.88
407.107	65.88
407.331	85.88
407.555	90.88
407.778	90.88
408.002	84.88
408.226	69.88
408.449	85.88
408.673	85.88
408.896	81.88
409.12	81.88
409.344	73.88
409.567	81.88
409.791	90.88
410.014	69.88
410.238	87.88
410.461	73.88
410.685	71.88
410.908	58.88
411.132	86.88
411.355	77.88
411.578	87.88
411.802	82.88
412.025	88.88
412.249	90.88
412.472	80.88
412.695	77.88
412.919	87.88
413.142	85.88
413.365	80.88
413.589	87.88
413.812	84.88
414.035	86.88
414.258	78.88
414.482	67.88
414.705	79.88
414.928	75.88
415.151	80.88
415.374	80.88
415.597	85.88
415.821	85.88
416.044	81.88
416.267	80.88
416.49	84.88
416.713	71.88
416.936	89.88
417.159	84.88
417.382	68.88
417.605	84.88
417.828	78.88
418.051	85.88
418.274	88.88
418.497	87.88
418.72	89.88
418.943	79.88
419.166	72.88
419.389	82.88
419.611	68.88
419.834	78.88
420.057	90.88
420.28	89.88
420.503	85.88
420.726	85.88
420.948	83.88
421.171	88.88
421.394	85.88
421.617	97.88
421.839	73.88
422.062	93.88
422.285	109.88
422.507	130.88
422.73	145.88
422.953	128.88
423.175	95.88
423.398	89.88
423.621	78.88
423.843	84.88
424.066	76.88
424.288	81.88
424.511	90.88
424.733	78.88
424.956	79.88
425.178	78.88
425.401	84.88
425.623	71.88
425.846	89.88
426.068	77.88
426.291	86.88
426.513	85.88
426.735	86.88
426.958	70.88
427.18	80.88
427.402	84.88
427.625	78.88
427.847	86.88
428.069	81.88
428.292	91.88
428.514	87.88
428.736	83.88
428.958	96.88
429.181	94.88
429.403	85.88
429.625	75.88
429.847	93.88
430.069	97.88
430.292	98.88
430.514	110.88
430.736	67.88
430.958	72.88
431.18	88.88
431.402	68.88
431.624	83.88
431.846	90.88
432.068	83.88
432.29	81.88
432.512	84.88
432.734	86.88
432.956	93.88
433.178	82.88
433.4	77.88
433.622	87.88
433.844	84.88
434.066	76.88
434.287	80.88
434.509	96.88
434.731	98.88
434.953	79.88
435.175	77.88
435.397	81.88
435.618	74.88
435.84	80.88
436.062	75.88
436.284	71.88
436.505	98.88
436.727	87.88
436.949	79.88
437.17	92.88
437.392	72.88
437.614	89.88
437.835	76.88
438.057	80.88
438.278	67.88
438.5	89.88
438.721	71.88
438.943	92.88
439.165	93.88
439.386	81.88
439.608	71.88
439.829	79.88
440.05	79.88
440.272	75.88
440.493	85.88
440.715	89.88
440.936	85.88
441.158	73.88
441.379	71.88
441.6	76.88
441.822	87.88
442.043	84.88
442.264	85.88
442.486	86.88
442.707	86.88
442.928	95.88
443.149	78.88
443.371	94.88
443.592	95.88
443.813	92.88
444.034	78.88
444.255	80.88
444.476	80.88
444.698	82.88
444.919	73.88
445.14	140.88
445.361	117.88
445.582	99.88
445.803	98.88
446.024	81.88
446.245	82.88
446.466	87.88
446.687	80.88
446.908	66.88
447.129	102.88
447.35	84.88
447.571	86.88
447.792	64.88
448.013	80.88
448.234	76.88
448.455	92.88
448.675	69.88
448.896	84.88
449.117	84.88
449.338	92.88
449.559	84.88
449.779	78.88
450	94.88
450.221	104.88
450.442	73.88
450.662	77.88
450.883	85.88
451.104	86.88
451.324	99.88
451.545	94.88
451.766	81.88
451.986	74.88
452.207	78.88
452.428	77.88
452.648	77.88
452.869	78.88
453.089	97.88
453.31	81.88
453.53	86.88
453.751	69.88
453.971	95.88
454.192	74.88
454.412	84.88
454.633	85.88
454.853	74.88
455.073	79.88
455.294	83.88
455.514	94.88
455.734	73.88
455.955	88.88
456.175	76.88
456.395	79.88
456.616	92.88
456.836	85.88
457.056	84.88
457.276	76.88
457.497	86.88
457.717	84.88
457.937	89.88
458.157	82.88
458.377	95.88
458.598	78.88
458.818	78.88
459.038	92.88
459.258	71.88
459.478	74.88
459.698	82.88
459.918	84.88
460.138	80.88
460.358	89.88
460.578	79.88
460.798	72.88
461.018	92.88
461.238	77.88
461.458	81.88
461.678	72.88
461.898	82.88
462.118	75.88
462.338	93.88
462.558	79.88
462.777	85.88
462.997	86.88
463.217	86.88
463.437	64.88
463.657	86.88
463.876	88.88
464.096	82.88
464.316	68.88
464.536	88.88
464.755	84.88
464.975	93.88
465.195	75.88
465.414	80.88
465.634	70.88
465.854	84.88
466.073	84.88
466.293	75.88
466.512	89.88
466.732	87.88
466.951	80.88
467.171	94.88
467.391	68.88
467.61	70.88
467.829	85.88
468.049	75.88
468.268	86.88
468.488	86.88
468.707	87.88
468.927	91.88
469.146	75.88
469.365	69.88
469.585	81.88
469.804	88.88
470.023	82.88
470.243	88.88
470.462	78.88
470.681	92.88
470.901	75.88
471.12	76.88
471.339	81.88
471.558	72.88
471.777	85.88
471.997	76.88
472.216	73.88
472.435	79.88
472.654	75.88
472.873	73.88
473.092	88.88
473.311	85.88
473.53	86.88
473.749	80.88
473.968	85.88
474.187	82.88
474.406	75.88
474.625	78.88
474.844	87.88
475.063	68.88
475.282	78.88
475.501	69.88
475.72	85.88
475.939	85.88
476.158	88.88
476.377	88.88
476.596	98.88
476.814	96.88
477.033	84.88
477.252	68.88
477.471	68.88
477.69	76.88
477.908	92.88
478.127	89.88
478.346	74.88
478.564	84.88
478.783	74.88
479.002	90.88
479.22	80.88
479.439	90.88
479.658	84.88
479.876	79.88
480.095	91.88
480.313	88.88
480.532	88.88
480.751	70.88
480.969	79.88
481.188	88.88
481.406	86.88
481.624	102.88
481.843	86.88
482.061	89.88
482.28	80.88
482.498	90.88
482.717	72.88
482.935	92.88
483.153	85.88
483.372	82.88
483.59	84.88
483.808	72.88
484.027	82.88
484.245	89.88
484.463	87.88
484.681	73.88
484.9	97.88
485.118	78.88
485.336	74.88
485.554	85.88
485.772	82.88
485.99	74.88
486.209	89.88
486.427	68.88
486.645	72.88
486.863	80.88
487.081	90.88
487.299	87.88
487.517	82.88
487.735	95.88
487.953	99.88
488.171	109.88
488.389	81.88
488.607	88.88
488.825	99.88
489.043	73.88
489.261	88.88
489.479	92.88
489.696	90.88
489.914	78.88
490.132	97.88
490.35	88.88
490.568	81.88
490.786	80.88
491.003	92.88
491.221	80.88
491.439	72.88
491.657	94.88
491.874	105.88
492.092	86.88
492.31	97.88
492.527	84.88
492.745	92.88
492.963	98.88
493.18	81.88
493.398	81.88
493.615	80.88
493.833	76.88
494.05	91.88
494.268	100.88
494.485	96.88
494.703	81.88
494.92	89.88
495.138	92.88
495.355	72.88
495.573	84.88
495.79	93.88
496.008	89.88
496.225	86.88
496.442	77.88
496.66	78.88
496.877	86.88
497.094	93.88
497.312	88.88
497.529	76.88
497.746	72.88
497.963	80.88
498.181	84.88
498.398	78.88
498.615	94.88
498.832	85.88
499.049	103.88
499.267	93.88
499.484	84.88
499.701	79.88
499.918	90.88
500.135	93.88
500.352	79.88
500.569	81.88
500.786	89.88
501.003	80.88
501.22	77.88
501.437	68.88
501.654	88.88
501.871	89.88
502.088	99.88
502.305	84.88
502.522	80.88
502.739	73.88
502.956	89.88
503.172	80.88
503.389	92.88
503.606	95.88
503.823	86.88
504.04	106.88
504.256	98.88
504.473	77.88
504.69	78.88
504.907	88.88
505.123	78.88
505.34	83.88
505.557	87.88
505.773	89.88
505.99	86.88
506.207	80.88
506.423	78.88
506.64	88.88
506.856	77.88
507.073	99.88
507.289	90.88
507.506	80.88
507.722	83.88
507.939	89.88
508.155	80.88
508.372	87.88
508.588	80.88
508.805	80.88
509.021	86.88
509.238	65.88
509.454	96.88
509.67	75.88
509.887	78.88
510.103	74.88
510.319	84.88
510.536	76.88
510.752	78.88
510.968	72.88
511.184	78.88
511.401	85.88
511.617	78.88
511.833	86.88
512.049	75.88
512.265	84.88
512.481	71.88
512.698	89.88
512.914	90.88
513.13	78.88
513.346	60.88
513.562	94.88
513.778	93.88
513.994	93.88
514.21	66.88
514.426	78.88
514.642	83.88
514.858	85.88
515.074	76.88
515.29	82.88
515.506	88.88
515.721	76.88
515.937	99.88
516.153	100.88
516.369	92.88
516.585	91.88
516.801	78.88
517.016	79.88
517.232	85.88
517.448	92.88
517.664	80.88
517.879	86.88
518.095	78.88
518.311	79.88
518.527	86.88
518.742	80.88
518.958	88.88
519.173	108.88
519.389	70.88
519.605	84.88
519.82	80.88
