Data from CBS_3_HRD10591_00001.txt Node
Date: Mon Jan 19 14:05:39 EST 2026
User: Yrep
Spectrometer: HR+D1059
Trigger mode: 1
Integration Time (sec): 1.000000E-1
Scans to average: 1
Electric dark correction enabled: true
Nonlinearity correction enabled: false
Boxcar width: 0
XAxis mode: Wavelengths
Number of Pixels in Spectrum: 2048
>>>>>Begin Spectral Data<<<<<
223.165	-19.25
223.4	-19.25
223.635	-19.25
223.869	-17.25
224.104	-21.25
224.338	-18.25
224.573	-12.25
224.808	-23.25
225.042	-3.25
225.277	-0.25
225.511	12.75
225.746	-6.25
225.98	7.75
226.215	-1.25
226.449	22.75
226.683	19.75
226.918	31.75
227.152	27.75
227.387	35.75
227.621	45.75
227.856	49.75
228.09	45.75
228.324	57.75
228.559	52.75
228.793	75.75
229.027	61.75
229.262	80.75
229.496	77.75
229.73	66.75
229.964	72.75
230.199	72.75
230.433	77.75
230.667	82.75
230.901	76.75
231.136	71.75
231.37	84.75
231.604	85.75
231.838	83.75
232.072	83.75
232.306	85.75
232.541	94.75
232.775	86.75
233.009	80.75
233.243	80.75
233.477	71.75
233.711	98.75
233.945	72.75
234.179	75.75
234.413	81.75
234.647	81.75
234.881	87.75
235.115	94.75
235.349	77.75
235.583	82.75
235.817	94.75
236.051	80.75
236.285	74.75
236.519	84.75
236.753	78.75
236.987	86.75
237.221	93.75
237.455	94.75
237.689	89.75
237.922	82.75
238.156	83.75
238.39	84.75
238.624	66.75
238.858	61.75
239.091	94.75
239.325	75.75
239.559	87.75
239.793	60.75
240.027	90.75
240.26	77.75
240.494	94.75
240.728	81.75
240.961	72.75
241.195	68.75
241.429	75.75
241.662	84.75
241.896	72.75
242.13	78.75
242.363	64.75
242.597	78.75
242.83	81.75
243.064	74.75
243.298	86.75
243.531	91.75
243.765	70.75
243.998	90.75
244.232	72.75
244.465	91.75
244.699	81.75
244.932	73.75
245.166	65.75
245.399	70.75
245.633	72.75
245.866	74.75
246.099	75.75
246.333	74.75
246.566	67.75
246.8	88.75
247.033	72.75
247.266	74.75
247.5	84.75
247.733	82.75
247.966	83.75
248.2	75.75
248.433	84.75
248.666	98.75
248.899	84.75
249.133	95.75
249.366	87.75
249.599	90.75
249.832	62.75
250.066	83.75
250.299	79.75
250.532	75.75
250.765	62.75
250.998	77.75
251.231	88.75
251.465	83.75
251.698	79.75
251.931	90.75
252.164	74.75
252.397	86.75
252.63	95.75
252.863	88.75
253.096	85.75
253.329	78.75
253.562	79.75
253.795	75.75
254.028	83.75
254.261	81.75
254.494	86.75
254.727	92.75
254.96	91.75
255.193	73.75
255.426	78.75
255.659	90.75
255.892	90.75
256.124	88.75
256.357	77.75
256.59	92.75
256.823	87.75
257.056	90.75
257.289	76.75
257.521	79.75
257.754	92.75
257.987	80.75
258.22	73.75
258.452	89.75
258.685	76.75
258.918	76.75
259.151	86.75
259.383	88.75
259.616	87.75
259.849	85.75
260.081	84.75
260.314	75.75
260.547	69.75
260.779	95.75
261.012	84.75
261.244	80.75
261.477	98.75
261.71	84.75
261.942	80.75
262.175	76.75
262.407	69.75
262.64	84.75
262.872	82.75
263.105	94.75
263.337	81.75
263.57	73.75
263.802	84.75
264.035	83.75
264.267	89.75
264.499	88.75
264.732	87.75
264.964	85.75
265.197	87.75
265.429	83.75
265.661	98.75
265.894	86.75
266.126	100.75
266.358	86.75
266.591	95.75
266.823	76.75
267.055	86.75
267.287	93.75
267.52	74.75
267.752	76.75
267.984	83.75
268.216	84.75
268.448	70.75
268.681	91.75
268.913	86.75
269.145	79.75
269.377	93.75
269.609	96.75
269.841	83.75
270.073	100.75
270.306	87.75
270.538	96.75
270.77	86.75
271.002	80.75
271.234	76.75
271.466	99.75
271.698	89.75
271.93	86.75
272.162	84.75
272.394	75.75
272.626	94.75
272.858	99.75
273.09	84.75
273.322	92.75
273.553	81.75
273.785	80.75
274.017	77.75
274.249	85.75
274.481	94.75
274.713	81.75
274.945	98.75
275.176	80.75
275.408	87.75
275.64	73.75
275.872	90.75
276.104	94.75
276.335	85.75
276.567	84.75
276.799	82.75
277.031	75.75
277.262	86.75
277.494	94.75
277.726	86.75
277.957	84.75
278.189	89.75
278.421	84.75
278.652	81.75
278.884	104.75
279.115	94.75
279.347	83.75
279.579	88.75
279.81	78.75
280.042	89.75
280.273	116.75
280.505	96.75
280.736	85.75
280.968	86.75
281.199	85.75
281.431	81.75
281.662	86.75
281.894	83.75
282.125	87.75
282.356	82.75
282.588	83.75
282.819	98.75
283.051	84.75
283.282	102.75
283.513	104.75
283.745	87.75
283.976	83.75
284.207	88.75
284.439	95.75
284.67	97.75
284.901	96.75
285.132	99.75
285.364	89.75
285.595	103.75
285.826	90.75
286.057	84.75
286.288	85.75
286.52	102.75
286.751	86.75
286.982	96.75
287.213	78.75
287.444	81.75
287.675	80.75
287.906	104.75
288.138	88.75
288.369	92.75
288.6	103.75
288.831	89.75
289.062	84.75
289.293	82.75
289.524	82.75
289.755	105.75
289.986	94.75
290.217	87.75
290.448	94.75
290.679	71.75
290.91	90.75
291.141	88.75
291.371	89.75
291.602	89.75
291.833	88.75
292.064	84.75
292.295	76.75
292.526	104.75
292.757	106.75
292.987	100.75
293.218	98.75
293.449	88.75
293.68	87.75
293.91	76.75
294.141	90.75
294.372	86.75
294.603	96.75
294.833	89.75
295.064	98.75
295.295	96.75
295.525	84.75
295.756	79.75
295.987	100.75
296.217	88.75
296.448	81.75
296.679	92.75
296.909	104.75
297.14	92.75
297.37	92.75
297.601	87.75
297.831	84.75
298.062	90.75
298.292	92.75
298.523	91.75
298.753	102.75
298.984	89.75
299.214	97.75
299.445	111.75
299.675	103.75
299.905	88.75
300.136	86.75
300.366	93.75
300.597	90.75
300.827	93.75
301.057	102.75
301.288	86.75
301.518	95.75
301.748	89.75
301.979	99.75
302.209	99.75
302.439	92.75
302.669	92.75
302.9	83.75
303.13	80.75
303.36	92.75
303.59	78.75
303.82	91.75
304.051	92.75
304.281	99.75
304.511	93.75
304.741	75.75
304.971	91.75
305.201	96.75
305.431	88.75
305.661	102.75
305.891	96.75
306.121	102.75
306.352	88.75
306.582	85.75
306.812	93.75
307.042	95.75
307.272	91.75
307.502	82.75
307.731	95.75
307.961	91.75
308.191	100.75
308.421	103.75
308.651	86.75
308.881	108.75
309.111	105.75
309.341	116.75
309.571	100.75
309.8	107.75
310.03	69.75
310.26	80.75
310.49	98.75
310.72	82.75
310.949	95.75
311.179	97.75
311.409	95.75
311.639	85.75
311.868	94.75
312.098	90.75
312.328	93.75
312.557	81.75
312.787	77.75
313.017	80.75
313.246	93.75
313.476	102.75
313.706	86.75
313.935	94.75
314.165	94.75
314.394	98.75
314.624	98.75
314.853	85.75
315.083	98.75
315.312	113.75
315.542	84.75
315.771	103.75
316.001	114.75
316.23	116.75
316.46	94.75
316.689	91.75
316.919	93.75
317.148	87.75
317.377	106.75
317.607	108.75
317.836	105.75
318.065	118.75
318.295	114.75
318.524	93.75
318.753	100.75
318.983	79.75
319.212	97.75
319.441	92.75
319.67	104.75
319.9	88.75
320.129	102.75
320.358	96.75
320.587	103.75
320.816	88.75
321.046	79.75
321.275	94.75
321.504	102.75
321.733	91.75
321.962	103.75
322.191	114.75
322.42	103.75
322.649	100.75
322.878	90.75
323.108	99.75
323.337	99.75
323.566	101.75
323.795	91.75
324.024	120.75
324.253	102.75
324.482	91.75
324.71	98.75
324.939	83.75
325.168	92.75
325.397	98.75
325.626	95.75
325.855	91.75
326.084	92.75
326.313	95.75
326.542	83.75
326.77	105.75
326.999	99.75
327.228	102.75
327.457	94.75
327.686	78.75
327.914	104.75
328.143	103.75
328.372	76.75
328.6	99.75
328.829	80.75
329.058	88.75
329.287	86.75
329.515	83.75
329.744	93.75
329.972	78.75
330.201	92.75
330.43	95.75
330.658	93.75
330.887	99.75
331.115	97.75
331.344	101.75
331.572	97.75
331.801	88.75
332.03	89.75
332.258	90.75
332.486	96.75
332.715	105.75
332.943	86.75
333.172	90.75
333.4	86.75
333.629	104.75
333.857	100.75
334.085	93.75
334.314	106.75
334.542	111.75
334.771	98.75
334.999	116.75
335.227	123.75
335.455	108.75
335.684	96.75
335.912	104.75
336.14	123.75
336.369	126.75
336.597	112.75
336.825	92.75
337.053	96.75
337.281	90.75
337.51	92.75
337.738	98.75
337.966	96.75
338.194	91.75
338.422	98.75
338.65	97.75
338.878	102.75
339.106	82.75
339.334	98.75
339.562	96.75
339.79	101.75
340.018	82.75
340.246	92.75
340.474	101.75
340.702	94.75
340.93	86.75
341.158	91.75
341.386	80.75
341.614	90.75
341.842	83.75
342.07	82.75
342.298	98.75
342.526	89.75
342.754	86.75
342.981	90.75
343.209	96.75
343.437	104.75
343.665	84.75
343.893	92.75
344.12	99.75
344.348	100.75
344.576	102.75
344.804	99.75
345.031	91.75
345.259	85.75
345.487	88.75
345.714	81.75
345.942	102.75
346.17	93.75
346.397	103.75
346.625	93.75
346.853	75.75
347.08	90.75
347.308	96.75
347.535	93.75
347.763	83.75
347.99	89.75
348.218	85.75
348.445	83.75
348.673	91.75
348.9	99.75
349.128	110.75
349.355	84.75
349.583	83.75
349.81	100.75
350.037	90.75
350.265	88.75
350.492	89.75
350.72	103.75
350.947	80.75
351.174	88.75
351.402	91.75
351.629	111.75
351.856	89.75
352.083	87.75
352.311	84.75
352.538	91.75
352.765	96.75
352.992	92.75
353.22	87.75
353.447	94.75
353.674	97.75
353.901	100.75
354.128	93.75
354.355	93.75
354.583	85.75
354.81	87.75
355.037	96.75
355.264	102.75
355.491	90.75
355.718	100.75
355.945	107.75
356.172	91.75
356.399	90.75
356.626	85.75
356.853	106.75
357.08	111.75
357.307	98.75
357.534	105.75
357.761	102.75
357.988	99.75
358.215	110.75
358.441	88.75
358.668	103.75
358.895	96.75
359.122	105.75
359.349	108.75
359.576	98.75
359.802	81.75
360.029	99.75
360.256	108.75
360.483	109.75
360.709	103.75
360.936	103.75
361.163	91.75
361.39	86.75
361.616	94.75
361.843	98.75
362.07	107.75
362.296	108.75
362.523	138.75
362.749	155.75
362.976	172.75
363.203	181.75
363.429	138.75
363.656	105.75
363.882	124.75
364.109	148.75
364.335	184.75
364.562	207.75
364.788	146.75
365.015	122.75
365.241	104.75
365.468	95.75
365.694	87.75
365.92	95.75
366.147	93.75
366.373	99.75
366.599	105.75
366.826	82.75
367.052	102.75
367.278	84.75
367.505	100.75
367.731	117.75
367.957	104.75
368.184	97.75
368.41	108.75
368.636	85.75
368.862	98.75
369.089	90.75
369.315	85.75
369.541	99.75
369.767	81.75
369.993	95.75
370.219	107.75
370.445	98.75
370.672	102.75
370.898	115.75
371.124	101.75
371.35	89.75
371.576	104.75
371.802	96.75
372.028	101.75
372.254	105.75
372.48	89.75
372.706	102.75
372.932	94.75
373.158	86.75
373.384	109.75
373.61	133.75
373.835	127.75
374.061	107.75
374.287	106.75
374.513	108.75
374.739	108.75
374.965	111.75
375.191	100.75
375.416	97.75
375.642	96.75
375.868	103.75
376.094	107.75
376.319	99.75
376.545	108.75
376.771	98.75
376.997	104.75
377.222	90.75
377.448	87.75
377.674	95.75
377.899	100.75
378.125	88.75
378.35	99.75
378.576	98.75
378.802	102.75
379.027	101.75
379.253	99.75
379.478	99.75
379.704	100.75
379.929	106.75
380.155	97.75
380.38	86.75
380.606	87.75
380.831	86.75
381.057	104.75
381.282	88.75
381.507	96.75
381.733	107.75
381.958	101.75
382.184	102.75
382.409	107.75
382.634	95.75
382.86	101.75
383.085	103.75
383.31	102.75
383.535	109.75
383.761	104.75
383.986	121.75
384.211	102.75
384.436	95.75
384.662	119.75
384.887	109.75
385.112	103.75
385.337	98.75
385.562	109.75
385.787	94.75
386.013	108.75
386.238	115.75
386.463	115.75
386.688	110.75
386.913	90.75
387.138	115.75
387.363	88.75
387.588	123.75
387.813	128.75
388.038	119.75
388.263	123.75
388.488	110.75
388.713	111.75
388.938	101.75
389.163	103.75
389.387	125.75
389.612	92.75
389.837	87.75
390.062	84.75
390.287	130.75
390.512	96.75
390.736	109.75
390.961	107.75
391.186	90.75
391.411	96.75
391.636	114.75
391.86	130.75
392.085	125.75
392.31	107.75
392.534	138.75
392.759	160.75
392.984	258.75
393.208	428.75
393.433	603.75
393.658	473.75
393.882	230.75
394.107	134.75
394.331	156.75
394.556	156.75
394.78	146.75
395.005	125.75
395.229	139.75
395.454	116.75
395.678	133.75
395.903	156.75
396.127	194.75
396.352	214.75
396.576	265.75
396.801	428.75
397.025	491.75
397.249	292.75
397.474	188.75
397.698	155.75
397.922	116.75
398.147	102.75
398.371	112.75
398.595	94.75
398.82	98.75
399.044	95.75
399.268	98.75
399.492	98.75
399.717	81.75
399.941	95.75
400.165	100.75
400.389	84.75
400.613	104.75
400.837	102.75
401.062	80.75
401.286	106.75
401.51	103.75
401.734	106.75
401.958	86.75
402.182	106.75
402.406	82.75
402.63	94.75
402.854	87.75
403.078	98.75
403.302	102.75
403.526	115.75
403.75	101.75
403.974	102.75
404.198	102.75
404.422	123.75
404.645	106.75
404.869	99.75
405.093	105.75
405.317	88.75
405.541	104.75
405.765	101.75
405.988	92.75
406.212	104.75
406.436	88.75
406.66	85.75
406.883	106.75
407.107	108.75
407.331	104.75
407.555	110.75
407.778	124.75
408.002	132.75
408.226	106.75
408.449	89.75
408.673	100.75
408.896	105.75
409.12	115.75
409.344	129.75
409.567	128.75
409.791	144.75
410.014	139.75
410.238	127.75
410.461	105.75
410.685	102.75
410.908	104.75
411.132	117.75
411.355	112.75
411.578	94.75
411.802	104.75
412.025	98.75
412.249	110.75
412.472	102.75
412.695	98.75
412.919	102.75
413.142	107.75
413.365	100.75
413.589	90.75
413.812	90.75
414.035	86.75
414.258	99.75
414.482	92.75
414.705	106.75
414.928	83.75
415.151	91.75
415.374	101.75
415.597	110.75
415.821	100.75
416.044	100.75
416.267	104.75
416.49	94.75
416.713	95.75
416.936	93.75
417.159	102.75
417.382	97.75
417.605	92.75
417.828	92.75
418.051	89.75
418.274	94.75
418.497	96.75
418.72	99.75
418.943	102.75
419.166	92.75
419.389	92.75
419.611	90.75
419.834	106.75
420.057	103.75
420.28	95.75
420.503	97.75
420.726	103.75
420.948	96.75
421.171	118.75
421.394	133.75
421.617	157.75
421.839	172.75
422.062	171.75
422.285	248.75
422.507	405.75
422.73	545.75
422.953	511.75
423.175	330.75
423.398	210.75
423.621	160.75
423.843	159.75
424.066	130.75
424.288	122.75
424.511	121.75
424.733	123.75
424.956	126.75
425.178	108.75
425.401	108.75
425.623	99.75
425.846	102.75
426.068	88.75
426.291	83.75
426.513	96.75
426.735	93.75
426.958	102.75
427.18	100.75
427.402	109.75
427.625	107.75
427.847	115.75
428.069	122.75
428.292	175.75
428.514	194.75
428.736	149.75
428.958	167.75
429.181	172.75
429.403	121.75
429.625	135.75
429.847	149.75
430.069	244.75
430.292	277.75
430.514	257.75
430.736	180.75
430.958	170.75
431.18	120.75
431.402	86.75
431.624	124.75
431.846	154.75
432.068	194.75
432.29	120.75
432.512	83.75
432.734	93.75
432.956	101.75
433.178	87.75
433.4	99.75
433.622	90.75
433.844	100.75
434.066	94.75
434.287	102.75
434.509	90.75
434.731	101.75
434.953	100.75
435.175	98.75
435.397	100.75
435.618	108.75
435.84	98.75
436.062	112.75
436.284	96.75
436.505	97.75
436.727	96.75
436.949	95.75
437.17	93.75
437.392	86.75
437.614	92.75
437.835	90.75
438.057	92.75
438.278	100.75
438.5	93.75
438.721	105.75
438.943	99.75
439.165	83.75
439.386	92.75
439.608	112.75
439.829	93.75
440.05	99.75
440.272	97.75
440.493	91.75
440.715	98.75
440.936	108.75
441.158	100.75
441.379	94.75
441.6	89.75
441.822	84.75
442.043	111.75
442.264	125.75
442.486	187.75
442.707	284.75
442.928	176.75
443.149	149.75
443.371	230.75
443.592	432.75
443.813	371.75
444.034	155.75
444.255	110.75
444.476	113.75
444.698	103.75
444.919	119.75
445.14	234.75
445.361	318.75
445.582	509.75
445.803	444.75
446.024	186.75
446.245	111.75
446.466	95.75
446.687	83.75
446.908	110.75
447.129	88.75
447.35	90.75
447.571	106.75
447.792	95.75
448.013	96.75
448.234	92.75
448.455	98.75
448.675	96.75
448.896	92.75
449.117	91.75
449.338	94.75
449.559	95.75
449.779	93.75
450	97.75
450.221	84.75
450.442	95.75
450.662	91.75
450.883	91.75
451.104	107.75
451.324	111.75
451.545	105.75
451.766	103.75
451.986	99.75
452.207	100.75
452.428	83.75
452.648	142.75
452.869	158.75
453.089	122.75
453.31	93.75
453.53	84.75
453.751	96.75
453.971	99.75
454.192	107.75
454.412	106.75
454.633	91.75
454.853	103.75
455.073	92.75
455.294	92.75
455.514	99.75
455.734	87.75
455.955	94.75
456.175	91.75
456.395	63.75
456.616	86.75
456.836	90.75
457.056	104.75
457.276	102.75
457.497	108.75
457.717	111.75
457.937	154.75
458.157	201.75
458.377	208.75
458.598	195.75
458.818	203.75
459.038	128.75
459.258	102.75
459.478	94.75
459.698	98.75
459.918	99.75
460.138	79.75
460.358	95.75
460.578	100.75
460.798	135.75
461.018	143.75
461.238	98.75
461.458	88.75
461.678	100.75
461.898	90.75
462.118	95.75
462.338	88.75
462.558	83.75
462.777	98.75
462.997	87.75
463.217	88.75
463.437	92.75
463.657	105.75
463.876	95.75
464.096	88.75
464.316	81.75
464.536	91.75
464.755	86.75
464.975	94.75
465.195	102.75
465.414	85.75
465.634	89.75
465.854	79.75
466.073	97.75
466.293	104.75
466.512	88.75
466.732	77.75
466.951	87.75
467.171	86.75
467.391	98.75
467.61	104.75
467.829	107.75
468.049	92.75
468.268	97.75
468.488	94.75
468.707	111.75
468.927	90.75
469.146	86.75
469.365	87.75
469.585	95.75
469.804	100.75
470.023	88.75
470.243	105.75
470.462	100.75
470.681	109.75
470.901	90.75
471.12	84.75
471.339	93.75
471.558	106.75
471.777	96.75
471.997	82.75
472.216	92.75
472.435	90.75
472.654	81.75
472.873	90.75
473.092	111.75
473.311	106.75
473.53	86.75
473.749	94.75
473.968	101.75
474.187	109.75
474.406	88.75
474.625	86.75
474.844	97.75
475.063	88.75
475.282	95.75
475.501	81.75
475.72	80.75
475.939	99.75
476.158	91.75
476.377	100.75
476.596	92.75
476.814	83.75
477.033	86.75
477.252	101.75
477.471	89.75
477.69	97.75
477.908	87.75
478.127	103.75
478.346	98.75
478.564	82.75
478.783	101.75
479.002	98.75
479.22	96.75
479.439	111.75
479.658	90.75
479.876	106.75
480.095	92.75
480.313	89.75
480.532	92.75
480.751	96.75
480.969	100.75
481.188	95.75
481.406	95.75
481.624	93.75
481.843	104.75
482.061	97.75
482.28	112.75
482.498	108.75
482.717	116.75
482.935	92.75
483.153	94.75
483.372	101.75
483.59	99.75
483.808	88.75
484.027	95.75
484.245	101.75
484.463	91.75
484.681	98.75
484.9	108.75
485.118	106.75
485.336	98.75
485.554	97.75
485.772	91.75
485.99	116.75
486.209	96.75
486.427	94.75
486.645	83.75
486.863	99.75
487.081	103.75
487.299	106.75
487.517	106.75
487.735	156.75
487.953	328.75
488.171	263.75
488.389	132.75
488.607	114.75
488.825	94.75
489.043	91.75
489.261	104.75
489.479	102.75
489.696	108.75
489.914	107.75
490.132	96.75
490.35	105.75
490.568	108.75
490.786	92.75
491.003	97.75
491.221	106.75
491.439	89.75
491.657	100.75
491.874	100.75
492.092	96.75
492.31	102.75
492.527	95.75
492.745	95.75
492.963	111.75
493.18	100.75
493.398	104.75
493.615	111.75
493.833	85.75
494.05	97.75
494.268	87.75
494.485	84.75
494.703	102.75
494.92	98.75
495.138	92.75
495.355	103.75
495.573	95.75
495.79	108.75
496.008	111.75
496.225	101.75
496.442	109.75
496.66	104.75
496.877	98.75
497.094	95.75
497.312	92.75
497.529	109.75
497.746	95.75
497.963	99.75
498.181	96.75
498.398	107.75
498.615	111.75
498.832	110.75
499.049	103.75
499.267	108.75
499.484	94.75
499.701	106.75
499.918	104.75
500.135	96.75
500.352	78.75
500.569	107.75
500.786	106.75
501.003	95.75
501.22	93.75
501.437	101.75
501.654	104.75
501.871	97.75
502.088	90.75
502.305	96.75
502.522	102.75
502.739	105.75
502.956	99.75
503.172	101.75
503.389	97.75
503.606	102.75
503.823	123.75
504.04	142.75
504.256	237.75
504.473	234.75
504.69	127.75
504.907	108.75
505.123	97.75
505.34	108.75
505.557	87.75
505.773	100.75
505.99	94.75
506.207	100.75
506.423	93.75
506.64	100.75
506.856	99.75
507.073	94.75
507.289	94.75
507.506	91.75
507.722	84.75
507.939	100.75
508.155	106.75
508.372	84.75
508.588	93.75
508.805	86.75
509.021	103.75
509.238	85.75
509.454	100.75
509.67	93.75
509.887	92.75
510.103	91.75
510.319	103.75
510.536	94.75
510.752	94.75
510.968	88.75
511.184	101.75
511.401	96.75
511.617	101.75
511.833	110.75
512.049	102.75
512.265	92.75
512.481	96.75
512.698	96.75
512.914	109.75
513.13	110.75
513.346	106.75
513.562	83.75
