Data from CBS_3_HRD10591_00046.txt Node
Date: Mon Jan 19 14:06:01 EST 2026
User: Yrep
Spectrometer: HR+D1059
Trigger mode: 1
Integration Time (sec): 1.000000E-1
Scans to average: 1
Electric dark correction enabled: true
Nonlinearity correction enabled: false
Boxcar width: 0
XAxis mode: Wavelengths
Number of Pixels in Spectrum: 2048
>>>>>Begin Spectral Data<<<<<
223.165	-16.62
223.4	-16.62
223.635	-16.62
223.869	-26.62
224.104	-21.62
224.338	-7.62
224.573	-24.62
224.808	-15.62
225.042	-5.62
225.277	-0.62
225.511	-8.62
225.746	13.38
225.98	11.38
226.215	13.38
226.449	11.38
226.683	27.38
226.918	28.38
227.152	22.38
227.387	19.38
227.621	41.38
227.856	28.38
228.09	32.38
228.324	33.38
228.559	59.38
228.793	52.38
229.027	39.38
229.262	55.38
229.496	60.38
229.73	67.38
229.964	64.38
230.199	63.38
230.433	65.38
230.667	53.38
230.901	81.38
231.136	65.38
231.37	80.38
231.604	83.38
231.838	71.38
232.072	66.38
232.306	57.38
232.541	75.38
232.775	74.38
233.009	75.38
233.243	70.38
233.477	65.38
233.711	82.38
233.945	70.38
234.179	69.38
234.413	83.38
234.647	82.38
234.881	75.38
235.115	64.38
235.349	85.38
235.583	73.38
235.817	80.38
236.051	76.38
236.285	81.38
236.519	58.38
236.753	56.38
236.987	59.38
237.221	76.38
237.455	63.38
237.689	78.38
237.922	73.38
238.156	62.38
238.39	67.38
238.624	66.38
238.858	56.38
239.091	77.38
239.325	65.38
239.559	75.38
239.793	72.38
240.027	78.38
240.26	67.38
240.494	76.38
240.728	64.38
240.961	55.38
241.195	57.38
241.429	68.38
241.662	70.38
241.896	56.38
242.13	65.38
242.363	83.38
242.597	62.38
242.83	70.38
243.064	54.38
243.298	66.38
243.531	81.38
243.765	91.38
243.998	78.38
244.232	65.38
244.465	69.38
244.699	61.38
244.932	68.38
245.166	79.38
245.399	76.38
245.633	83.38
245.866	84.38
246.099	71.38
246.333	54.38
246.566	74.38
246.8	67.38
247.033	66.38
247.266	68.38
247.5	77.38
247.733	73.38
247.966	81.38
248.2	61.38
248.433	67.38
248.666	77.38
248.899	71.38
249.133	65.38
249.366	76.38
249.599	73.38
249.832	66.38
250.066	78.38
250.299	81.38
250.532	72.38
250.765	81.38
250.998	80.38
251.231	74.38
251.465	69.38
251.698	55.38
251.931	83.38
252.164	70.38
252.397	64.38
252.63	71.38
252.863	80.38
253.096	63.38
253.329	71.38
253.562	74.38
253.795	63.38
254.028	79.38
254.261	76.38
254.494	71.38
254.727	85.38
254.96	73.38
255.193	71.38
255.426	59.38
255.659	72.38
255.892	61.38
256.124	65.38
256.357	58.38
256.59	76.38
256.823	77.38
257.056	70.38
257.289	59.38
257.521	67.38
257.754	87.38
257.987	66.38
258.22	86.38
258.452	67.38
258.685	64.38
258.918	78.38
259.151	56.38
259.383	69.38
259.616	75.38
259.849	58.38
260.081	50.38
260.314	58.38
260.547	79.38
260.779	69.38
261.012	87.38
261.244	64.38
261.477	72.38
261.71	74.38
261.942	77.38
262.175	63.38
262.407	72.38
262.64	85.38
262.872	79.38
263.105	78.38
263.337	79.38
263.57	63.38
263.802	78.38
264.035	76.38
264.267	74.38
264.499	82.38
264.732	66.38
264.964	71.38
265.197	82.38
265.429	73.38
265.661	70.38
265.894	72.38
266.126	76.38
266.358	88.38
266.591	80.38
266.823	76.38
267.055	70.38
267.287	90.38
267.52	76.38
267.752	68.38
267.984	79.38
268.216	65.38
268.448	74.38
268.681	69.38
268.913	77.38
269.145	72.38
269.377	76.38
269.609	71.38
269.841	76.38
270.073	83.38
270.306	92.38
270.538	77.38
270.77	72.38
271.002	80.38
271.234	83.38
271.466	61.38
271.698	75.38
271.93	75.38
272.162	78.38
272.394	91.38
272.626	71.38
272.858	66.38
273.09	85.38
273.322	69.38
273.553	76.38
273.785	66.38
274.017	74.38
274.249	73.38
274.481	87.38
274.713	63.38
274.945	74.38
275.176	71.38
275.408	70.38
275.64	82.38
275.872	72.38
276.104	81.38
276.335	78.38
276.567	80.38
276.799	73.38
277.031	67.38
277.262	75.38
277.494	94.38
277.726	74.38
277.957	66.38
278.189	71.38
278.421	83.38
278.652	81.38
278.884	77.38
279.115	75.38
279.347	69.38
279.579	69.38
279.81	74.38
280.042	78.38
280.273	70.38
280.505	88.38
280.736	76.38
280.968	69.38
281.199	67.38
281.431	67.38
281.662	72.38
281.894	77.38
282.125	84.38
282.356	80.38
282.588	89.38
282.819	71.38
283.051	78.38
283.282	79.38
283.513	79.38
283.745	76.38
283.976	87.38
284.207	79.38
284.439	77.38
284.67	74.38
284.901	69.38
285.132	85.38
285.364	78.38
285.595	75.38
285.826	74.38
286.057	74.38
286.288	81.38
286.52	74.38
286.751	65.38
286.982	87.38
287.213	69.38
287.444	75.38
287.675	73.38
287.906	75.38
288.138	72.38
288.369	67.38
288.6	80.38
288.831	78.38
289.062	66.38
289.293	97.38
289.524	73.38
289.755	80.38
289.986	62.38
290.217	72.38
290.448	65.38
290.679	74.38
290.91	65.38
291.141	77.38
291.371	70.38
291.602	88.38
291.833	77.38
292.064	65.38
292.295	73.38
292.526	74.38
292.757	74.38
292.987	78.38
293.218	57.38
293.449	73.38
293.68	79.38
293.91	62.38
294.141	70.38
294.372	77.38
294.603	84.38
294.833	67.38
295.064	82.38
295.295	82.38
295.525	78.38
295.756	79.38
295.987	71.38
296.217	86.38
296.448	77.38
296.679	87.38
296.909	82.38
297.14	81.38
297.37	65.38
297.601	74.38
297.831	67.38
298.062	72.38
298.292	79.38
298.523	90.38
298.753	69.38
298.984	78.38
299.214	58.38
299.445	73.38
299.675	75.38
299.905	87.38
300.136	74.38
300.366	83.38
300.597	79.38
300.827	77.38
301.057	80.38
301.288	81.38
301.518	79.38
301.748	84.38
301.979	74.38
302.209	74.38
302.439	72.38
302.669	90.38
302.9	83.38
303.13	65.38
303.36	84.38
303.59	76.38
303.82	88.38
304.051	90.38
304.281	61.38
304.511	76.38
304.741	89.38
304.971	69.38
305.201	79.38
305.431	71.38
305.661	75.38
305.891	85.38
306.121	87.38
306.352	63.38
306.582	82.38
306.812	84.38
307.042	72.38
307.272	81.38
307.502	83.38
307.731	67.38
307.961	73.38
308.191	72.38
308.421	59.38
308.651	84.38
308.881	87.38
309.111	77.38
309.341	76.38
309.571	63.38
309.8	66.38
310.03	65.38
310.26	73.38
310.49	69.38
310.72	67.38
310.949	79.38
311.179	81.38
311.409	80.38
311.639	58.38
311.868	82.38
312.098	88.38
312.328	65.38
312.557	68.38
312.787	80.38
313.017	82.38
313.246	71.38
313.476	82.38
313.706	85.38
313.935	75.38
314.165	79.38
314.394	86.38
314.624	66.38
314.853	77.38
315.083	73.38
315.312	70.38
315.542	80.38
315.771	82.38
316.001	77.38
316.23	85.38
316.46	70.38
316.689	74.38
316.919	78.38
317.148	84.38
317.377	58.38
317.607	89.38
317.836	59.38
318.065	71.38
318.295	74.38
318.524	90.38
318.753	82.38
318.983	81.38
319.212	73.38
319.441	60.38
319.67	85.38
319.9	70.38
320.129	74.38
320.358	74.38
320.587	73.38
320.816	67.38
321.046	79.38
321.275	63.38
321.504	74.38
321.733	80.38
321.962	82.38
322.191	73.38
322.42	85.38
322.649	78.38
322.878	76.38
323.108	74.38
323.337	82.38
323.566	81.38
323.795	83.38
324.024	79.38
324.253	85.38
324.482	84.38
324.71	62.38
324.939	80.38
325.168	81.38
325.397	73.38
325.626	79.38
325.855	70.38
326.084	74.38
326.313	65.38
326.542	73.38
326.77	75.38
326.999	75.38
327.228	63.38
327.457	82.38
327.686	79.38
327.914	71.38
328.143	90.38
328.372	72.38
328.6	84.38
328.829	70.38
329.058	68.38
329.287	76.38
329.515	88.38
329.744	94.38
329.972	67.38
330.201	79.38
330.43	66.38
330.658	79.38
330.887	90.38
331.115	73.38
331.344	69.38
331.572	82.38
331.801	83.38
332.03	70.38
332.258	77.38
332.486	78.38
332.715	74.38
332.943	70.38
333.172	79.38
333.4	79.38
333.629	68.38
333.857	77.38
334.085	73.38
334.314	73.38
334.542	76.38
334.771	86.38
334.999	80.38
335.227	73.38
335.455	77.38
335.684	81.38
335.912	82.38
336.14	70.38
336.369	79.38
336.597	73.38
336.825	69.38
337.053	79.38
337.281	93.38
337.51	74.38
337.738	86.38
337.966	81.38
338.194	67.38
338.422	75.38
338.65	68.38
338.878	76.38
339.106	81.38
339.334	77.38
339.562	81.38
339.79	75.38
340.018	74.38
340.246	86.38
340.474	87.38
340.702	80.38
340.93	82.38
341.158	68.38
341.386	77.38
341.614	74.38
341.842	77.38
342.07	90.38
342.298	85.38
342.526	92.38
342.754	71.38
342.981	80.38
343.209	71.38
343.437	94.38
343.665	76.38
343.893	69.38
344.12	66.38
344.348	68.38
344.576	73.38
344.804	79.38
345.031	80.38
345.259	73.38
345.487	66.38
345.714	92.38
345.942	59.38
346.17	91.38
346.397	80.38
346.625	70.38
346.853	86.38
347.08	75.38
347.308	67.38
347.535	89.38
347.763	79.38
347.99	85.38
348.218	81.38
348.445	75.38
348.673	76.38
348.9	81.38
349.128	76.38
349.355	69.38
349.583	73.38
349.81	85.38
350.037	65.38
350.265	71.38
350.492	73.38
350.72	66.38
350.947	81.38
351.174	89.38
351.402	80.38
351.629	85.38
351.856	70.38
352.083	72.38
352.311	78.38
352.538	76.38
352.765	75.38
352.992	83.38
353.22	74.38
353.447	61.38
353.674	76.38
353.901	73.38
354.128	76.38
354.355	75.38
354.583	65.38
354.81	67.38
355.037	78.38
355.264	68.38
355.491	77.38
355.718	79.38
355.945	71.38
356.172	87.38
356.399	75.38
356.626	66.38
356.853	75.38
357.08	91.38
357.307	66.38
357.534	60.38
357.761	79.38
357.988	85.38
358.215	76.38
358.441	89.38
358.668	78.38
358.895	66.38
359.122	67.38
359.349	80.38
359.576	68.38
359.802	75.38
360.029	90.38
360.256	81.38
360.483	75.38
360.709	90.38
360.936	74.38
361.163	75.38
361.39	82.38
361.616	80.38
361.843	63.38
362.07	82.38
362.296	90.38
362.523	63.38
362.749	75.38
362.976	77.38
363.203	86.38
363.429	76.38
363.656	72.38
363.882	74.38
364.109	83.38
364.335	81.38
364.562	76.38
364.788	81.38
365.015	79.38
365.241	75.38
365.468	85.38
365.694	77.38
365.92	84.38
366.147	74.38
366.373	54.38
366.599	82.38
366.826	71.38
367.052	77.38
367.278	80.38
367.505	94.38
367.731	80.38
367.957	64.38
368.184	76.38
368.41	73.38
368.636	92.38
368.862	65.38
369.089	77.38
369.315	67.38
369.541	78.38
369.767	72.38
369.993	74.38
370.219	73.38
370.445	86.38
370.672	81.38
370.898	58.38
371.124	71.38
371.35	74.38
371.576	68.38
371.802	71.38
372.028	78.38
372.254	63.38
372.48	82.38
372.706	61.38
372.932	55.38
373.158	89.38
373.384	83.38
373.61	82.38
373.835	76.38
374.061	77.38
374.287	61.38
374.513	87.38
374.739	59.38
374.965	75.38
375.191	80.38
375.416	70.38
375.642	63.38
375.868	77.38
376.094	65.38
376.319	64.38
376.545	83.38
376.771	78.38
376.997	73.38
377.222	70.38
377.448	71.38
377.674	70.38
377.899	76.38
378.125	60.38
378.35	61.38
378.576	78.38
378.802	75.38
379.027	68.38
379.253	74.38
379.478	83.38
379.704	68.38
379.929	69.38
380.155	77.38
380.38	71.38
380.606	94.38
380.831	80.38
381.057	85.38
381.282	72.38
381.507	67.38
381.733	81.38
381.958	81.38
382.184	84.38
382.409	78.38
382.634	83.38
382.86	83.38
383.085	83.38
383.31	79.38
383.535	66.38
383.761	67.38
383.986	60.38
384.211	79.38
384.436	77.38
384.662	87.38
384.887	71.38
385.112	64.38
385.337	63.38
385.562	59.38
385.787	80.38
386.013	89.38
386.238	74.38
386.463	87.38
386.688	98.38
386.913	65.38
387.138	74.38
387.363	67.38
387.588	75.38
387.813	80.38
388.038	78.38
388.263	97.38
388.488	77.38
388.713	71.38
388.938	81.38
389.163	78.38
389.387	71.38
389.612	74.38
389.837	76.38
390.062	73.38
390.287	76.38
390.512	79.38
390.736	68.38
390.961	73.38
391.186	70.38
391.411	75.38
391.636	67.38
391.86	54.38
392.085	79.38
392.31	73.38
392.534	66.38
392.759	79.38
392.984	97.38
393.208	128.38
393.433	195.38
393.658	134.38
393.882	101.38
394.107	86.38
394.331	93.38
394.556	93.38
394.78	70.38
395.005	78.38
395.229	75.38
395.454	75.38
395.678	94.38
395.903	85.38
396.127	80.38
396.352	87.38
396.576	120.38
396.801	142.38
397.025	151.38
397.249	105.38
397.474	82.38
397.698	77.38
397.922	73.38
398.147	82.38
398.371	78.38
398.595	68.38
398.82	87.38
399.044	71.38
399.268	65.38
399.492	85.38
399.717	77.38
399.941	63.38
400.165	71.38
400.389	73.38
400.613	67.38
400.837	86.38
401.062	85.38
401.286	63.38
401.51	78.38
401.734	80.38
401.958	69.38
402.182	61.38
402.406	77.38
402.63	65.38
402.854	69.38
403.078	83.38
403.302	61.38
403.526	74.38
403.75	58.38
403.974	81.38
404.198	80.38
404.422	96.38
404.645	87.38
404.869	90.38
405.093	91.38
405.317	78.38
405.541	79.38
405.765	76.38
405.988	67.38
406.212	67.38
406.436	63.38
406.66	81.38
406.883	78.38
407.107	85.38
407.331	75.38
407.555	75.38
407.778	64.38
408.002	77.38
408.226	82.38
408.449	74.38
408.673	77.38
408.896	71.38
409.12	72.38
409.344	78.38
409.567	65.38
409.791	59.38
410.014	79.38
410.238	77.38
410.461	70.38
410.685	81.38
410.908	82.38
411.132	82.38
411.355	86.38
411.578	70.38
411.802	68.38
412.025	83.38
412.249	79.38
412.472	65.38
412.695	70.38
412.919	59.38
413.142	67.38
413.365	68.38
413.589	81.38
413.812	87.38
414.035	89.38
414.258	70.38
414.482	67.38
414.705	62.38
414.928	67.38
415.151	73.38
415.374	63.38
415.597	68.38
415.821	70.38
416.044	81.38
416.267	67.38
416.49	70.38
416.713	74.38
416.936	81.38
417.159	83.38
417.382	68.38
417.605	71.38
417.828	79.38
418.051	64.38
418.274	73.38
418.497	87.38
418.72	88.38
418.943	77.38
419.166	64.38
419.389	80.38
419.611	83.38
419.834	63.38
420.057	81.38
420.28	75.38
420.503	63.38
420.726	81.38
420.948	79.38
421.171	89.38
421.394	80.38
421.617	69.38
421.839	97.38
422.062	95.38
422.285	105.38
422.507	146.38
422.73	234.38
422.953	198.38
423.175	114.38
423.398	93.38
423.621	70.38
423.843	65.38
424.066	73.38
424.288	73.38
424.511	87.38
424.733	85.38
424.956	76.38
425.178	78.38
425.401	95.38
425.623	64.38
425.846	83.38
426.068	81.38
426.291	76.38
426.513	62.38
426.735	82.38
426.958	77.38
427.18	64.38
427.402	76.38
427.625	92.38
427.847	78.38
428.069	83.38
428.292	102.38
428.514	90.38
428.736	82.38
428.958	95.38
429.181	77.38
429.403	79.38
429.625	85.38
429.847	86.38
430.069	94.38
430.292	102.38
430.514	109.38
430.736	91.38
430.958	96.38
431.18	78.38
431.402	79.38
431.624	83.38
431.846	96.38
432.068	81.38
432.29	76.38
432.512	82.38
432.734	68.38
432.956	77.38
433.178	87.38
433.4	74.38
433.622	79.38
433.844	76.38
434.066	76.38
434.287	67.38
434.509	77.38
434.731	95.38
434.953	72.38
435.175	82.38
435.397	61.38
435.618	74.38
435.84	75.38
436.062	84.38
436.284	75.38
436.505	79.38
436.727	61.38
436.949	80.38
437.17	76.38
437.392	80.38
437.614	70.38
437.835	68.38
438.057	70.38
438.278	71.38
438.5	62.38
438.721	63.38
438.943	69.38
439.165	81.38
439.386	75.38
439.608	71.38
439.829	73.38
440.05	81.38
440.272	60.38
440.493	78.38
440.715	65.38
440.936	61.38
441.158	80.38
441.379	73.38
441.6	77.38
441.822	69.38
442.043	71.38
442.264	74.38
442.486	98.38
442.707	99.38
442.928	83.38
443.149	98.38
443.371	112.38
443.592	152.38
443.813	126.38
444.034	70.38
444.255	63.38
444.476	80.38
444.698	77.38
444.919	81.38
445.14	167.38
445.361	139.38
445.582	158.38
445.803	131.38
446.024	91.38
446.245	74.38
446.466	77.38
446.687	77.38
446.908	76.38
447.129	77.38
447.35	68.38
447.571	62.38
447.792	69.38
448.013	85.38
448.234	78.38
448.455	73.38
448.675	83.38
448.896	86.38
449.117	76.38
449.338	61.38
449.559	66.38
449.779	77.38
450	59.38
450.221	63.38
450.442	90.38
450.662	73.38
450.883	75.38
451.104	80.38
451.324	61.38
451.545	56.38
451.766	66.38
451.986	72.38
452.207	72.38
452.428	76.38
452.648	73.38
452.869	77.38
453.089	96.38
453.31	87.38
453.53	85.38
453.751	67.38
453.971	81.38
454.192	71.38
454.412	82.38
454.633	78.38
454.853	80.38
455.073	91.38
455.294	80.38
455.514	68.38
455.734	82.38
455.955	62.38
456.175	67.38
456.395	72.38
456.616	73.38
456.836	76.38
457.056	79.38
457.276	70.38
457.497	74.38
457.717	79.38
457.937	79.38
458.157	79.38
458.377	94.38
458.598	85.38
458.818	95.38
459.038	76.38
459.258	66.38
459.478	79.38
459.698	74.38
459.918	78.38
460.138	74.38
460.358	62.38
460.578	59.38
460.798	73.38
461.018	88.38
461.238	78.38
461.458	77.38
461.678	67.38
461.898	64.38
462.118	93.38
462.338	75.38
462.558	60.38
462.777	59.38
462.997	67.38
463.217	76.38
463.437	70.38
463.657	67.38
463.876	82.38
464.096	77.38
464.316	60.38
464.536	59.38
464.755	91.38
464.975	79.38
465.195	91.38
465.414	82.38
465.634	86.38
465.854	67.38
466.073	75.38
466.293	74.38
466.512	65.38
466.732	78.38
466.951	67.38
467.171	69.38
467.391	93.38
467.61	68.38
467.829	65.38
468.049	81.38
468.268	86.38
468.488	77.38
468.707	73.38
468.927	75.38
469.146	75.38
469.365	57.38
469.585	70.38
469.804	91.38
470.023	70.38
470.243	78.38
470.462	70.38
470.681	65.38
470.901	81.38
471.12	87.38
471.339	74.38
471.558	85.38
471.777	71.38
471.997	72.38
472.216	73.38
472.435	80.38
472.654	79.38
472.873	63.38
473.092	76.38
473.311	77.38
473.53	85.38
473.749	82.38
473.968	74.38
474.187	68.38
474.406	72.38
474.625	86.38
474.844	86.38
475.063	66.38
475.282	75.38
475.501	75.38
475.72	68.38
475.939	77.38
476.158	62.38
476.377	62.38
476.596	86.38
476.814	62.38
477.033	79.38
477.252	80.38
477.471	78.38
477.69	97.38
477.908	77.38
478.127	72.38
478.346	51.38
478.564	80.38
478.783	84.38
479.002	87.38
479.22	95.38
479.439	77.38
479.658	66.38
479.876	73.38
480.095	86.38
480.313	77.38
480.532	75.38
480.751	75.38
480.969	84.38
481.188	65.38
481.406	72.38
481.624	78.38
481.843	77.38
482.061	67.38
482.28	53.38
482.498	75.38
482.717	61.38
482.935	73.38
483.153	74.38
483.372	73.38
483.59	61.38
483.808	75.38
484.027	70.38
484.245	79.38
484.463	95.38
484.681	96.38
484.9	67.38
485.118	73.38
485.336	79.38
485.554	86.38
485.772	69.38
485.99	75.38
486.209	72.38
486.427	85.38
486.645	64.38
486.863	58.38
487.081	79.38
487.299	65.38
487.517	66.38
487.735	89.38
487.953	96.38
488.171	95.38
488.389	70.38
488.607	71.38
488.825	80.38
489.043	76.38
489.261	80.38
489.479	72.38
489.696	68.38
489.914	75.38
490.132	90.38
490.35	85.38
490.568	86.38
490.786	73.38
491.003	73.38
491.221	77.38
491.439	72.38
491.657	83.38
491.874	83.38
492.092	73.38
492.31	77.38
492.527	71.38
492.745	72.38
492.963	92.38
493.18	69.38
493.398	77.38
493.615	89.38
493.833	82.38
494.05	68.38
494.268	68.38
494.485	65.38
494.703	60.38
494.92	73.38
495.138	74.38
495.355	74.38
495.573	77.38
495.79	67.38
496.008	87.38
496.225	93.38
496.442	60.38
496.66	70.38
496.877	83.38
497.094	84.38
497.312	93.38
497.529	83.38
497.746	64.38
497.963	64.38
498.181	70.38
498.398	80.38
498.615	92.38
498.832	67.38
499.049	81.38
499.267	75.38
499.484	70.38
499.701	74.38
499.918	77.38
500.135	78.38
500.352	90.38
500.569	65.38
500.786	73.38
501.003	87.38
501.22	87.38
501.437	92.38
501.654	63.38
501.871	90.38
502.088	79.38
502.305	62.38
502.522	81.38
502.739	69.38
502.956	87.38
503.172	78.38
503.389	76.38
503.606	59.38
503.823	65.38
504.04	80.38
504.256	85.38
504.473	85.38
504.69	85.38
504.907	96.38
505.123	90.38
505.34	70.38
505.557	72.38
505.773	78.38
505.99	68.38
506.207	64.38
506.423	83.38
506.64	73.38
506.856	72.38
507.073	73.38
507.289	97.38
507.506	73.38
507.722	60.38
507.939	77.38
508.155	78.38
508.372	78.38
508.588	82.38
508.805	82.38
509.021	84.38
509.238	88.38
509.454	59.38
509.67	81.38
509.887	76.38
510.103	76.38
510.319	90.38
510.536	80.38
510.752	70.38
510.968	77.38
511.184	80.38
511.401	86.38
511.617	75.38
511.833	83.38
512.049	65.38
512.265	75.38
512.481	70.38
512.698	60.38
512.914	78.38
513.13	76.38
513.346	72.38
513.562	80.38
513.778	87.38
513.994	78.38
514.21	73.38
514.426	73.38
514.642	79.38
514.858	79.38
515.074	77.38
515.29	84.38
515.506	67.38
515.721	71.38
515.937	77.38
516.153	78.38
516.369	63.38
516.585	67.38
516.801	80.38
517.016	74.38
517.232	76.38
517.448	91.38
517.664	79.38
517.879	63.38
518.095	75.38
518.311	86.38
518.527	64.38
518.742	71.38
518.958	91.38
519.173	105.38
519.389	90.38
519.605	78.38
519.82	76.38
520.036	78.38
