Data from CBS_3_HRD10591_00030.txt Node
Date: Mon Jan 19 14:05:53 EST 2026
User: Yrep
Spectrometer: HR+D1059
Trigger mode: 1
Integration Time (sec): 1.000000E-1
Scans to average: 1
Electric dark correction enabled: true
Nonlinearity correction enabled: false
Boxcar width: 0
XAxis mode: Wavelengths
Number of Pixels in Spectrum: 2048
>>>>>Begin Spectral Data<<<<<
223.165	-27.12
223.4	-27.12
223.635	-27.12
223.869	-2.12
224.104	-27.12
224.338	-18.12
224.573	10.88
224.808	-5.12
225.042	-12.12
225.277	5.88
225.511	-10.12
225.746	9.88
225.98	5.88
226.215	5.88
226.449	0.88
226.683	10.88
226.918	27.88
227.152	23.88
227.387	47.88
227.621	32.88
227.856	57.88
228.09	43.88
228.324	47.88
228.559	72.88
228.793	47.88
229.027	68.88
229.262	77.88
229.496	56.88
229.73	77.88
229.964	79.88
230.199	61.88
230.433	63.88
230.667	65.88
230.901	73.88
231.136	87.88
231.37	73.88
231.604	77.88
231.838	90.88
232.072	79.88
232.306	76.88
232.541	84.88
232.775	78.88
233.009	91.88
233.243	63.88
233.477	67.88
233.711	79.88
233.945	77.88
234.179	73.88
234.413	79.88
234.647	75.88
234.881	84.88
235.115	87.88
235.349	71.88
235.583	71.88
235.817	73.88
236.051	75.88
236.285	62.88
236.519	88.88
236.753	75.88
236.987	81.88
237.221	89.88
237.455	76.88
237.689	79.88
237.922	68.88
238.156	79.88
238.39	91.88
238.624	80.88
238.858	78.88
239.091	75.88
239.325	65.88
239.559	69.88
239.793	72.88
240.027	76.88
240.26	74.88
240.494	73.88
240.728	76.88
240.961	79.88
241.195	86.88
241.429	73.88
241.662	64.88
241.896	65.88
242.13	77.88
242.363	71.88
242.597	70.88
242.83	79.88
243.064	81.88
243.298	79.88
243.531	66.88
243.765	81.88
243.998	92.88
244.232	64.88
244.465	85.88
244.699	80.88
244.932	85.88
245.166	83.88
245.399	85.88
245.633	82.88
245.866	74.88
246.099	77.88
246.333	75.88
246.566	69.88
246.8	76.88
247.033	70.88
247.266	74.88
247.5	81.88
247.733	83.88
247.966	87.88
248.2	73.88
248.433	68.88
248.666	75.88
248.899	76.88
249.133	74.88
249.366	72.88
249.599	79.88
249.832	79.88
250.066	77.88
250.299	79.88
250.532	88.88
250.765	87.88
250.998	81.88
251.231	84.88
251.465	93.88
251.698	70.88
251.931	93.88
252.164	83.88
252.397	79.88
252.63	86.88
252.863	67.88
253.096	79.88
253.329	81.88
253.562	83.88
253.795	81.88
254.028	79.88
254.261	83.88
254.494	67.88
254.727	84.88
254.96	71.88
255.193	76.88
255.426	82.88
255.659	86.88
255.892	87.88
256.124	78.88
256.357	70.88
256.59	77.88
256.823	82.88
257.056	79.88
257.289	85.88
257.521	92.88
257.754	67.88
257.987	67.88
258.22	92.88
258.452	89.88
258.685	73.88
258.918	68.88
259.151	87.88
259.383	81.88
259.616	80.88
259.849	71.88
260.081	69.88
260.314	74.88
260.547	75.88
260.779	79.88
261.012	74.88
261.244	87.88
261.477	77.88
261.71	71.88
261.942	81.88
262.175	81.88
262.407	70.88
262.64	75.88
262.872	79.88
263.105	80.88
263.337	79.88
263.57	87.88
263.802	91.88
264.035	94.88
264.267	75.88
264.499	67.88
264.732	85.88
264.964	82.88
265.197	86.88
265.429	79.88
265.661	81.88
265.894	84.88
266.126	79.88
266.358	77.88
266.591	79.88
266.823	82.88
267.055	83.88
267.287	78.88
267.52	73.88
267.752	94.88
267.984	80.88
268.216	85.88
268.448	75.88
268.681	74.88
268.913	75.88
269.145	80.88
269.377	80.88
269.609	65.88
269.841	91.88
270.073	86.88
270.306	69.88
270.538	78.88
270.77	75.88
271.002	77.88
271.234	84.88
271.466	65.88
271.698	72.88
271.93	80.88
272.162	92.88
272.394	84.88
272.626	67.88
272.858	77.88
273.09	79.88
273.322	76.88
273.553	79.88
273.785	81.88
274.017	77.88
274.249	86.88
274.481	82.88
274.713	88.88
274.945	75.88
275.176	79.88
275.408	72.88
275.64	90.88
275.872	87.88
276.104	82.88
276.335	89.88
276.567	81.88
276.799	80.88
277.031	74.88
277.262	79.88
277.494	73.88
277.726	81.88
277.957	71.88
278.189	74.88
278.421	87.88
278.652	82.88
278.884	69.88
279.115	92.88
279.347	71.88
279.579	67.88
279.81	82.88
280.042	89.88
280.273	72.88
280.505	95.88
280.736	91.88
280.968	87.88
281.199	72.88
281.431	90.88
281.662	83.88
281.894	85.88
282.125	90.88
282.356	88.88
282.588	80.88
282.819	76.88
283.051	74.88
283.282	82.88
283.513	100.88
283.745	88.88
283.976	83.88
284.207	81.88
284.439	83.88
284.67	81.88
284.901	95.88
285.132	78.88
285.364	82.88
285.595	81.88
285.826	87.88
286.057	79.88
286.288	78.88
286.52	90.88
286.751	102.88
286.982	67.88
287.213	91.88
287.444	85.88
287.675	83.88
287.906	96.88
288.138	84.88
288.369	85.88
288.6	82.88
288.831	75.88
289.062	82.88
289.293	85.88
289.524	83.88
289.755	79.88
289.986	92.88
290.217	79.88
290.448	79.88
290.679	85.88
290.91	79.88
291.141	82.88
291.371	86.88
291.602	100.88
291.833	82.88
292.064	99.88
292.295	76.88
292.526	88.88
292.757	84.88
292.987	90.88
293.218	96.88
293.449	72.88
293.68	81.88
293.91	97.88
294.141	79.88
294.372	74.88
294.603	91.88
294.833	73.88
295.064	79.88
295.295	86.88
295.525	97.88
295.756	95.88
295.987	85.88
296.217	75.88
296.448	70.88
296.679	77.88
296.909	89.88
297.14	95.88
297.37	91.88
297.601	87.88
297.831	84.88
298.062	95.88
298.292	72.88
298.523	84.88
298.753	75.88
298.984	73.88
299.214	97.88
299.445	75.88
299.675	81.88
299.905	103.88
300.136	94.88
300.366	90.88
300.597	79.88
300.827	78.88
301.057	82.88
301.288	94.88
301.518	82.88
301.748	74.88
301.979	110.88
302.209	91.88
302.439	90.88
302.669	78.88
302.9	84.88
303.13	77.88
303.36	81.88
303.59	95.88
303.82	83.88
304.051	84.88
304.281	101.88
304.511	99.88
304.741	86.88
304.971	94.88
305.201	79.88
305.431	99.88
305.661	87.88
305.891	83.88
306.121	91.88
306.352	84.88
306.582	79.88
306.812	71.88
307.042	76.88
307.272	96.88
307.502	80.88
307.731	76.88
307.961	92.88
308.191	88.88
308.421	99.88
308.651	100.88
308.881	77.88
309.111	92.88
309.341	91.88
309.571	102.88
309.8	84.88
310.03	85.88
310.26	71.88
310.49	87.88
310.72	82.88
310.949	83.88
311.179	90.88
311.409	85.88
311.639	89.88
311.868	96.88
312.098	98.88
312.328	72.88
312.557	88.88
312.787	68.88
313.017	79.88
313.246	77.88
313.476	88.88
313.706	82.88
313.935	71.88
314.165	87.88
314.394	78.88
314.624	92.88
314.853	91.88
315.083	94.88
315.312	87.88
315.542	84.88
315.771	95.88
316.001	119.88
316.23	111.88
316.46	81.88
316.689	87.88
316.919	79.88
317.148	78.88
317.377	77.88
317.607	95.88
317.836	118.88
318.065	131.88
318.295	100.88
318.524	94.88
318.753	94.88
318.983	92.88
319.212	81.88
319.441	95.88
319.67	89.88
319.9	85.88
320.129	84.88
320.358	80.88
320.587	95.88
320.816	83.88
321.046	78.88
321.275	86.88
321.504	81.88
321.733	83.88
321.962	90.88
322.191	86.88
322.42	75.88
322.649	82.88
322.878	92.88
323.108	93.88
323.337	89.88
323.566	81.88
323.795	82.88
324.024	86.88
324.253	88.88
324.482	90.88
324.71	98.88
324.939	73.88
325.168	85.88
325.397	77.88
325.626	86.88
325.855	82.88
326.084	72.88
326.313	92.88
326.542	78.88
326.77	81.88
326.999	88.88
327.228	79.88
327.457	77.88
327.686	66.88
327.914	82.88
328.143	88.88
328.372	88.88
328.6	87.88
328.829	89.88
329.058	90.88
329.287	87.88
329.515	83.88
329.744	88.88
329.972	71.88
330.201	74.88
330.43	79.88
330.658	84.88
330.887	91.88
331.115	83.88
331.344	91.88
331.572	89.88
331.801	84.88
332.03	78.88
332.258	83.88
332.486	82.88
332.715	91.88
332.943	91.88
333.172	92.88
333.4	90.88
333.629	82.88
333.857	83.88
334.085	102.88
334.314	85.88
334.542	85.88
334.771	87.88
334.999	110.88
335.227	83.88
335.455	86.88
335.684	83.88
335.912	88.88
336.14	71.88
336.369	115.88
336.597	85.88
336.825	92.88
337.053	89.88
337.281	96.88
337.51	84.88
337.738	90.88
337.966	80.88
338.194	84.88
338.422	95.88
338.65	93.88
338.878	62.88
339.106	87.88
339.334	79.88
339.562	88.88
339.79	93.88
340.018	86.88
340.246	79.88
340.474	82.88
340.702	63.88
340.93	82.88
341.158	80.88
341.386	93.88
341.614	75.88
341.842	93.88
342.07	83.88
342.298	81.88
342.526	93.88
342.754	77.88
342.981	86.88
343.209	88.88
343.437	94.88
343.665	78.88
343.893	84.88
344.12	80.88
344.348	87.88
344.576	81.88
344.804	100.88
345.031	99.88
345.259	76.88
345.487	79.88
345.714	85.88
345.942	96.88
346.17	83.88
346.397	73.88
346.625	85.88
346.853	91.88
347.08	86.88
347.308	100.88
347.535	100.88
347.763	85.88
347.99	91.88
348.218	82.88
348.445	84.88
348.673	91.88
348.9	91.88
349.128	97.88
349.355	63.88
349.583	71.88
349.81	77.88
350.037	96.88
350.265	76.88
350.492	84.88
350.72	75.88
350.947	95.88
351.174	88.88
351.402	74.88
351.629	83.88
351.856	86.88
352.083	93.88
352.311	79.88
352.538	83.88
352.765	84.88
352.992	78.88
353.22	77.88
353.447	79.88
353.674	79.88
353.901	81.88
354.128	99.88
354.355	88.88
354.583	85.88
354.81	88.88
355.037	93.88
355.264	100.88
355.491	81.88
355.718	99.88
355.945	88.88
356.172	95.88
356.399	93.88
356.626	91.88
356.853	88.88
357.08	102.88
357.307	88.88
357.534	91.88
357.761	91.88
357.988	76.88
358.215	109.88
358.441	83.88
358.668	86.88
358.895	84.88
359.122	84.88
359.349	79.88
359.576	87.88
359.802	84.88
360.029	87.88
360.256	88.88
360.483	82.88
360.709	81.88
360.936	88.88
361.163	86.88
361.39	87.88
361.616	85.88
361.843	86.88
362.07	103.88
362.296	101.88
362.523	113.88
362.749	119.88
362.976	133.88
363.203	115.88
363.429	104.88
363.656	89.88
363.882	76.88
364.109	113.88
364.335	158.88
364.562	147.88
364.788	121.88
365.015	100.88
365.241	72.88
365.468	82.88
365.694	90.88
365.92	95.88
366.147	78.88
366.373	83.88
366.599	89.88
366.826	88.88
367.052	90.88
367.278	72.88
367.505	77.88
367.731	81.88
367.957	84.88
368.184	99.88
368.41	94.88
368.636	95.88
368.862	76.88
369.089	87.88
369.315	88.88
369.541	88.88
369.767	80.88
369.993	68.88
370.219	100.88
370.445	100.88
370.672	119.88
370.898	100.88
371.124	79.88
371.35	86.88
371.576	83.88
371.802	84.88
372.028	91.88
372.254	113.88
372.48	96.88
372.706	85.88
372.932	87.88
373.158	96.88
373.384	94.88
373.61	123.88
373.835	131.88
374.061	103.88
374.287	98.88
374.513	93.88
374.739	93.88
374.965	91.88
375.191	86.88
375.416	90.88
375.642	84.88
375.868	89.88
376.094	96.88
376.319	89.88
376.545	89.88
376.771	81.88
376.997	80.88
377.222	88.88
377.448	84.88
377.674	93.88
377.899	85.88
378.125	77.88
378.35	77.88
378.576	89.88
378.802	84.88
379.027	85.88
379.253	94.88
379.478	73.88
379.704	86.88
379.929	91.88
380.155	77.88
380.38	84.88
380.606	81.88
380.831	81.88
381.057	100.88
381.282	81.88
381.507	79.88
381.733	100.88
381.958	91.88
382.184	95.88
382.409	87.88
382.634	101.88
382.86	111.88
383.085	99.88
383.31	99.88
383.535	101.88
383.761	95.88
383.986	99.88
384.211	81.88
384.436	95.88
384.662	95.88
384.887	85.88
385.112	97.88
385.337	95.88
385.562	95.88
385.787	93.88
386.013	105.88
386.238	91.88
386.463	95.88
386.688	96.88
386.913	94.88
387.138	98.88
387.363	99.88
387.588	98.88
387.813	104.88
388.038	83.88
388.263	109.88
388.488	91.88
388.713	87.88
388.938	88.88
389.163	95.88
389.387	91.88
389.612	92.88
389.837	90.88
390.062	86.88
390.287	103.88
390.512	80.88
390.736	91.88
390.961	84.88
391.186	92.88
391.411	95.88
391.636	99.88
391.86	99.88
392.085	109.88
392.31	129.88
392.534	115.88
392.759	171.88
392.984	259.88
393.208	514.88
393.433	779.88
393.658	557.88
393.882	236.88
394.107	132.88
394.331	137.88
394.556	148.88
394.78	125.88
395.005	103.88
395.229	113.88
395.454	96.88
395.678	110.88
395.903	134.88
396.127	172.88
396.352	225.88
396.576	295.88
396.801	524.88
397.025	594.88
397.249	292.88
397.474	152.88
397.698	109.88
397.922	105.88
398.147	88.88
398.371	93.88
398.595	96.88
398.82	83.88
399.044	92.88
399.268	83.88
399.492	89.88
399.717	104.88
399.941	87.88
400.165	92.88
400.389	100.88
400.613	95.88
400.837	87.88
401.062	85.88
401.286	96.88
401.51	73.88
401.734	83.88
401.958	72.88
402.182	79.88
402.406	97.88
402.63	72.88
402.854	91.88
403.078	103.88
403.302	92.88
403.526	93.88
403.75	91.88
403.974	82.88
404.198	87.88
404.422	86.88
404.645	83.88
404.869	85.88
405.093	92.88
405.317	89.88
405.541	93.88
405.765	91.88
405.988	87.88
406.212	82.88
406.436	85.88
406.66	93.88
406.883	87.88
407.107	87.88
407.331	85.88
407.555	111.88
407.778	144.88
408.002	133.88
408.226	84.88
408.449	86.88
408.673	85.88
408.896	87.88
409.12	87.88
409.344	108.88
409.567	105.88
409.791	100.88
410.014	117.88
410.238	93.88
410.461	101.88
410.685	85.88
410.908	86.88
411.132	89.88
411.355	88.88
411.578	85.88
411.802	91.88
412.025	83.88
412.249	86.88
412.472	86.88
412.695	92.88
412.919	84.88
413.142	82.88
413.365	79.88
413.589	91.88
413.812	91.88
414.035	88.88
414.258	70.88
414.482	72.88
414.705	79.88
414.928	97.88
415.151	72.88
415.374	60.88
415.597	71.88
415.821	66.88
416.044	72.88
416.267	86.88
416.49	95.88
416.713	78.88
416.936	73.88
417.159	79.88
417.382	95.88
417.605	107.88
417.828	77.88
418.051	90.88
418.274	84.88
418.497	75.88
418.72	86.88
418.943	94.88
419.166	95.88
419.389	76.88
419.611	79.88
419.834	92.88
420.057	95.88
420.28	82.88
420.503	100.88
420.726	76.88
420.948	84.88
421.171	95.88
421.394	111.88
421.617	136.88
421.839	141.88
422.062	134.88
422.285	205.88
422.507	375.88
422.73	609.88
422.953	533.88
423.175	257.88
423.398	162.88
423.621	111.88
423.843	92.88
424.066	99.88
424.288	111.88
424.511	87.88
424.733	83.88
424.956	91.88
425.178	85.88
425.401	74.88
425.623	92.88
425.846	80.88
426.068	85.88
426.291	92.88
426.513	78.88
426.735	78.88
426.958	93.88
427.18	87.88
427.402	97.88
427.625	84.88
427.847	109.88
428.069	107.88
428.292	159.88
428.514	179.88
428.736	129.88
428.958	159.88
429.181	169.88
429.403	108.88
429.625	112.88
429.847	146.88
430.069	220.88
430.292	251.88
430.514	232.88
430.736	171.88
430.958	183.88
431.18	102.88
431.402	91.88
431.624	104.88
431.846	160.88
432.068	181.88
432.29	127.88
432.512	101.88
432.734	87.88
432.956	91.88
433.178	91.88
433.4	87.88
433.622	91.88
433.844	72.88
434.066	81.88
434.287	78.88
434.509	91.88
434.731	66.88
434.953	84.88
435.175	93.88
435.397	87.88
435.618	93.88
435.84	101.88
436.062	99.88
436.284	86.88
436.505	79.88
436.727	80.88
436.949	92.88
437.17	81.88
437.392	94.88
437.614	89.88
437.835	87.88
438.057	78.88
438.278	89.88
438.5	89.88
438.721	90.88
438.943	82.88
439.165	88.88
439.386	83.88
439.608	89.88
439.829	93.88
440.05	95.88
440.272	84.88
440.493	83.88
440.715	87.88
440.936	80.88
441.158	103.88
441.379	83.88
441.6	84.88
441.822	99.88
442.043	77.88
442.264	99.88
442.486	177.88
442.707	220.88
442.928	151.88
443.149	108.88
443.371	179.88
443.592	345.88
443.813	311.88
444.034	129.88
444.255	93.88
444.476	98.88
444.698	84.88
444.919	100.88
445.14	201.88
445.361	267.88
445.582	430.88
445.803	388.88
446.024	148.88
446.245	101.88
446.466	95.88
446.687	89.88
446.908	92.88
447.129	85.88
447.35	88.88
447.571	76.88
447.792	95.88
448.013	106.88
448.234	79.88
448.455	76.88
448.675	74.88
448.896	87.88
449.117	83.88
449.338	76.88
449.559	108.88
449.779	84.88
450	89.88
450.221	88.88
450.442	83.88
450.662	88.88
450.883	95.88
451.104	87.88
451.324	96.88
451.545	79.88
451.766	92.88
451.986	79.88
452.207	88.88
452.428	70.88
452.648	84.88
452.869	102.88
453.089	98.88
453.31	78.88
453.53	81.88
453.751	76.88
453.971	80.88
454.192	94.88
454.412	80.88
454.633	83.88
454.853	81.88
455.073	86.88
455.294	92.88
455.514	86.88
455.734	87.88
455.955	89.88
456.175	80.88
456.395	91.88
456.616	75.88
456.836	88.88
457.056	82.88
457.276	69.88
457.497	95.88
457.717	94.88
457.937	137.88
458.157	159.88
458.377	150.88
458.598	149.88
458.818	136.88
459.038	107.88
459.258	81.88
459.478	95.88
459.698	95.88
459.918	87.88
460.138	77.88
460.358	84.88
460.578	99.88
460.798	119.88
461.018	107.88
461.238	78.88
461.458	77.88
461.678	79.88
461.898	89.88
462.118	71.88
462.338	86.88
462.558	90.88
462.777	94.88
462.997	85.88
463.217	79.88
463.437	78.88
463.657	83.88
463.876	80.88
464.096	79.88
464.316	83.88
464.536	75.88
464.755	70.88
464.975	91.88
465.195	86.88
465.414	91.88
465.634	83.88
465.854	88.88
466.073	75.88
466.293	93.88
466.512	79.88
466.732	72.88
466.951	74.88
467.171	78.88
467.391	89.88
467.61	84.88
467.829	92.88
468.049	82.88
468.268	82.88
468.488	96.88
468.707	79.88
468.927	86.88
469.146	85.88
469.365	81.88
469.585	74.88
469.804	83.88
470.023	87.88
470.243	87.88
470.462	88.88
470.681	82.88
470.901	68.88
471.12	74.88
471.339	83.88
471.558	77.88
471.777	86.88
471.997	87.88
472.216	82.88
472.435	89.88
472.654	104.88
472.873	90.88
473.092	80.88
473.311	77.88
473.53	86.88
473.749	80.88
473.968	96.88
474.187	89.88
474.406	84.88
474.625	84.88
474.844	88.88
475.063	99.88
475.282	71.88
475.501	91.88
475.72	106.88
475.939	81.88
476.158	76.88
476.377	87.88
476.596	83.88
476.814	71.88
477.033	90.88
477.252	90.88
477.471	91.88
477.69	82.88
477.908	90.88
478.127	91.88
478.346	90.88
478.564	88.88
478.783	71.88
479.002	91.88
479.22	77.88
479.439	79.88
479.658	81.88
479.876	84.88
480.095	77.88
480.313	95.88
480.532	104.88
480.751	84.88
480.969	90.88
481.188	87.88
481.406	88.88
481.624	90.88
481.843	73.88
482.061	81.88
482.28	87.88
482.498	84.88
482.717	82.88
482.935	89.88
483.153	89.88
483.372	102.88
483.59	93.88
483.808	86.88
484.027	95.88
484.245	92.88
484.463	101.88
484.681	88.88
484.9	87.88
485.118	97.88
485.336	94.88
485.554	77.88
485.772	103.88
485.99	96.88
486.209	86.88
486.427	75.88
486.645	79.88
486.863	88.88
487.081	75.88
487.299	92.88
487.517	99.88
487.735	125.88
487.953	236.88
488.171	194.88
488.389	111.88
488.607	101.88
488.825	92.88
489.043	60.88
489.261	86.88
489.479	79.88
489.696	87.88
489.914	93.88
490.132	97.88
490.35	96.88
490.568	90.88
490.786	85.88
491.003	82.88
491.221	87.88
491.439	84.88
491.657	86.88
491.874	70.88
492.092	95.88
492.31	85.88
492.527	94.88
492.745	85.88
492.963	72.88
493.18	83.88
493.398	80.88
493.615	91.88
493.833	82.88
494.05	72.88
494.268	68.88
494.485	103.88
494.703	96.88
494.92	74.88
495.138	89.88
495.355	83.88
495.573	95.88
495.79	96.88
496.008	99.88
496.225	84.88
496.442	95.88
496.66	86.88
496.877	86.88
497.094	87.88
497.312	72.88
497.529	95.88
497.746	81.88
497.963	81.88
498.181	80.88
498.398	100.88
498.615	76.88
498.832	73.88
499.049	76.88
499.267	98.88
499.484	96.88
499.701	84.88
499.918	96.88
500.135	94.88
500.352	88.88
500.569	86.88
500.786	87.88
501.003	86.88
501.22	90.88
501.437	91.88
501.654	88.88
501.871	93.88
502.088	85.88
502.305	87.88
502.522	86.88
502.739	100.88
502.956	86.88
503.172	79.88
503.389	87.88
503.606	95.88
503.823	91.88
504.04	91.88
504.256	162.88
504.473	162.88
504.69	89.88
504.907	91.88
505.123	93.88
505.34	87.88
505.557	83.88
505.773	70.88
505.99	81.88
506.207	91.88
506.423	89.88
506.64	86.88
506.856	83.88
507.073	92.88
507.289	89.88
507.506	80.88
507.722	87.88
507.939	76.88
508.155	71.88
508.372	72.88
508.588	83.88
508.805	85.88
509.021	83.88
509.238	92.88
509.454	83.88
509.67	79.88
509.887	85.88
510.103	83.88
510.319	77.88
510.536	83.88
510.752	75.88
510.968	86.88
511.184	83.88
511.401	74.88
511.617	88.88
511.833	91.88
512.049	88.88
512.265	99.88
512.481	70.88
512.698	89.88
512.914	87.88
513.13	80.88
513.346	76.88
513.562	77.88
513.778	80.88
513.994	83.88
514.21	92.88
514.426	86.88
514.642	92.88
514.858	86.88
515.074	81.88
515.29	78.88
515.506	99.88
515.721	78.88
515.937	111.88
516.153	93.88
516.369	91.88
516.585	90.88
516.801	88.88
517.016	84.88
517.232	78.88
517.448	80.88
517.664	90.88
517.879	91.88
