Data from CBS_3_HRD10591_00005.txt Node
Date: Mon Jan 19 14:05:41 EST 2026
User: Yrep
Spectrometer: HR+D1059
Trigger mode: 1
Integration Time (sec): 1.000000E-1
Scans to average: 1
Electric dark correction enabled: true
Nonlinearity correction enabled: false
Boxcar width: 0
XAxis mode: Wavelengths
Number of Pixels in Spectrum: 2048
>>>>>Begin Spectral Data<<<<<
223.165	-26.69
223.4	-26.69
223.635	-26.69
223.869	-12.69
224.104	-12.69
224.338	-12.69
224.573	-11.69
224.808	-25.69
225.042	-14.69
225.277	-11.69
225.511	1.31
225.746	14.31
225.98	7.31
226.215	10.31
226.449	12.31
226.683	16.31
226.918	28.31
227.152	38.31
227.387	36.31
227.621	29.31
227.856	49.31
228.09	38.31
228.324	48.31
228.559	49.31
228.793	56.31
229.027	36.31
229.262	53.31
229.496	72.31
229.73	71.31
229.964	74.31
230.199	61.31
230.433	63.31
230.667	78.31
230.901	77.31
231.136	96.31
231.37	69.31
231.604	72.31
231.838	63.31
232.072	80.31
232.306	79.31
232.541	91.31
232.775	96.31
233.009	73.31
233.243	53.31
233.477	79.31
233.711	68.31
233.945	69.31
234.179	83.31
234.413	82.31
234.647	74.31
234.881	68.31
235.115	75.31
235.349	67.31
235.583	70.31
235.817	70.31
236.051	74.31
236.285	87.31
236.519	87.31
236.753	65.31
236.987	66.31
237.221	80.31
237.455	70.31
237.689	63.31
237.922	67.31
238.156	83.31
238.39	84.31
238.624	74.31
238.858	79.31
239.091	99.31
239.325	77.31
239.559	74.31
239.793	77.31
240.027	66.31
240.26	76.31
240.494	65.31
240.728	76.31
240.961	73.31
241.195	67.31
241.429	81.31
241.662	61.31
241.896	81.31
242.13	61.31
242.363	78.31
242.597	67.31
242.83	79.31
243.064	75.31
243.298	77.31
243.531	83.31
243.765	69.31
243.998	59.31
244.232	79.31
244.465	80.31
244.699	68.31
244.932	72.31
245.166	92.31
245.399	76.31
245.633	70.31
245.866	73.31
246.099	74.31
246.333	81.31
246.566	81.31
246.8	79.31
247.033	77.31
247.266	81.31
247.5	72.31
247.733	82.31
247.966	96.31
248.2	71.31
248.433	78.31
248.666	83.31
248.899	79.31
249.133	82.31
249.366	87.31
249.599	76.31
249.832	77.31
250.066	75.31
250.299	79.31
250.532	87.31
250.765	74.31
250.998	78.31
251.231	64.31
251.465	67.31
251.698	78.31
251.931	79.31
252.164	82.31
252.397	84.31
252.63	74.31
252.863	73.31
253.096	77.31
253.329	80.31
253.562	63.31
253.795	75.31
254.028	80.31
254.261	86.31
254.494	75.31
254.727	81.31
254.96	72.31
255.193	79.31
255.426	82.31
255.659	65.31
255.892	97.31
256.124	78.31
256.357	86.31
256.59	70.31
256.823	77.31
257.056	82.31
257.289	80.31
257.521	77.31
257.754	84.31
257.987	78.31
258.22	72.31
258.452	76.31
258.685	71.31
258.918	81.31
259.151	84.31
259.383	72.31
259.616	71.31
259.849	79.31
260.081	84.31
260.314	72.31
260.547	64.31
260.779	83.31
261.012	66.31
261.244	71.31
261.477	98.31
261.71	85.31
261.942	79.31
262.175	82.31
262.407	79.31
262.64	77.31
262.872	88.31
263.105	76.31
263.337	71.31
263.57	74.31
263.802	77.31
264.035	87.31
264.267	88.31
264.499	80.31
264.732	84.31
264.964	69.31
265.197	69.31
265.429	59.31
265.661	68.31
265.894	83.31
266.126	79.31
266.358	87.31
266.591	81.31
266.823	79.31
267.055	72.31
267.287	75.31
267.52	85.31
267.752	75.31
267.984	72.31
268.216	82.31
268.448	67.31
268.681	80.31
268.913	89.31
269.145	83.31
269.377	79.31
269.609	83.31
269.841	75.31
270.073	77.31
270.306	86.31
270.538	94.31
270.77	83.31
271.002	89.31
271.234	93.31
271.466	85.31
271.698	73.31
271.93	81.31
272.162	72.31
272.394	85.31
272.626	78.31
272.858	77.31
273.09	79.31
273.322	73.31
273.553	66.31
273.785	84.31
274.017	75.31
274.249	86.31
274.481	87.31
274.713	90.31
274.945	80.31
275.176	65.31
275.408	85.31
275.64	83.31
275.872	100.31
276.104	76.31
276.335	69.31
276.567	92.31
276.799	87.31
277.031	86.31
277.262	76.31
277.494	73.31
277.726	79.31
277.957	81.31
278.189	84.31
278.421	77.31
278.652	91.31
278.884	83.31
279.115	70.31
279.347	79.31
279.579	82.31
279.81	85.31
280.042	97.31
280.273	68.31
280.505	75.31
280.736	71.31
280.968	70.31
281.199	89.31
281.431	99.31
281.662	78.31
281.894	79.31
282.125	85.31
282.356	80.31
282.588	81.31
282.819	77.31
283.051	79.31
283.282	72.31
283.513	91.31
283.745	84.31
283.976	87.31
284.207	88.31
284.439	81.31
284.67	81.31
284.901	89.31
285.132	75.31
285.364	71.31
285.595	102.31
285.826	83.31
286.057	71.31
286.288	84.31
286.52	86.31
286.751	70.31
286.982	81.31
287.213	83.31
287.444	81.31
287.675	80.31
287.906	91.31
288.138	87.31
288.369	81.31
288.6	89.31
288.831	81.31
289.062	98.31
289.293	81.31
289.524	89.31
289.755	87.31
289.986	91.31
290.217	84.31
290.448	77.31
290.679	88.31
290.91	85.31
291.141	79.31
291.371	84.31
291.602	81.31
291.833	99.31
292.064	83.31
292.295	88.31
292.526	75.31
292.757	79.31
292.987	72.31
293.218	83.31
293.449	96.31
293.68	88.31
293.91	74.31
294.141	90.31
294.372	86.31
294.603	109.31
294.833	87.31
295.064	91.31
295.295	76.31
295.525	85.31
295.756	97.31
295.987	72.31
296.217	77.31
296.448	82.31
296.679	77.31
296.909	73.31
297.14	88.31
297.37	77.31
297.601	85.31
297.831	83.31
298.062	85.31
298.292	83.31
298.523	83.31
298.753	98.31
298.984	87.31
299.214	85.31
299.445	75.31
299.675	95.31
299.905	77.31
300.136	85.31
300.366	87.31
300.597	82.31
300.827	86.31
301.057	85.31
301.288	93.31
301.518	99.31
301.748	91.31
301.979	89.31
302.209	83.31
302.439	69.31
302.669	96.31
302.9	85.31
303.13	72.31
303.36	88.31
303.59	68.31
303.82	78.31
304.051	85.31
304.281	83.31
304.511	81.31
304.741	86.31
304.971	83.31
305.201	77.31
305.431	87.31
305.661	88.31
305.891	81.31
306.121	89.31
306.352	91.31
306.582	79.31
306.812	68.31
307.042	88.31
307.272	87.31
307.502	79.31
307.731	89.31
307.961	80.31
308.191	101.31
308.421	91.31
308.651	95.31
308.881	99.31
309.111	93.31
309.341	88.31
309.571	95.31
309.8	81.31
310.03	93.31
310.26	79.31
310.49	89.31
310.72	85.31
310.949	74.31
311.179	81.31
311.409	78.31
311.639	91.31
311.868	82.31
312.098	95.31
312.328	86.31
312.557	80.31
312.787	87.31
313.017	99.31
313.246	80.31
313.476	93.31
313.706	73.31
313.935	91.31
314.165	75.31
314.394	86.31
314.624	86.31
314.853	88.31
315.083	89.31
315.312	103.31
315.542	88.31
315.771	91.31
316.001	99.31
316.23	92.31
316.46	87.31
316.689	93.31
316.919	96.31
317.148	105.31
317.377	92.31
317.607	96.31
317.836	96.31
318.065	98.31
318.295	110.31
318.524	99.31
318.753	95.31
318.983	93.31
319.212	92.31
319.441	84.31
319.67	87.31
319.9	76.31
320.129	91.31
320.358	75.31
320.587	84.31
320.816	77.31
321.046	86.31
321.275	96.31
321.504	97.31
321.733	80.31
321.962	84.31
322.191	96.31
322.42	107.31
322.649	93.31
322.878	91.31
323.108	88.31
323.337	75.31
323.566	93.31
323.795	100.31
324.024	81.31
324.253	88.31
324.482	71.31
324.71	78.31
324.939	95.31
325.168	79.31
325.397	81.31
325.626	81.31
325.855	79.31
326.084	94.31
326.313	98.31
326.542	82.31
326.77	93.31
326.999	77.31
327.228	85.31
327.457	93.31
327.686	100.31
327.914	103.31
328.143	99.31
328.372	71.31
328.6	71.31
328.829	80.31
329.058	92.31
329.287	82.31
329.515	77.31
329.744	86.31
329.972	83.31
330.201	90.31
330.43	94.31
330.658	89.31
330.887	94.31
331.115	85.31
331.344	95.31
331.572	85.31
331.801	86.31
332.03	84.31
332.258	83.31
332.486	83.31
332.715	83.31
332.943	96.31
333.172	81.31
333.4	85.31
333.629	91.31
333.857	100.31
334.085	100.31
334.314	104.31
334.542	93.31
334.771	118.31
334.999	107.31
335.227	99.31
335.455	86.31
335.684	100.31
335.912	98.31
336.14	114.31
336.369	118.31
336.597	80.31
336.825	93.31
337.053	89.31
337.281	102.31
337.51	74.31
337.738	87.31
337.966	95.31
338.194	99.31
338.422	97.31
338.65	94.31
338.878	94.31
339.106	77.31
339.334	95.31
339.562	103.31
339.79	77.31
340.018	85.31
340.246	87.31
340.474	82.31
340.702	96.31
340.93	90.31
341.158	95.31
341.386	83.31
341.614	75.31
341.842	74.31
342.07	86.31
342.298	88.31
342.526	87.31
342.754	76.31
342.981	95.31
343.209	92.31
343.437	99.31
343.665	92.31
343.893	91.31
344.12	86.31
344.348	97.31
344.576	89.31
344.804	91.31
345.031	94.31
345.259	100.31
345.487	80.31
345.714	91.31
345.942	75.31
346.17	67.31
346.397	83.31
346.625	92.31
346.853	82.31
347.08	112.31
347.308	93.31
347.535	97.31
347.763	99.31
347.99	87.31
348.218	95.31
348.445	93.31
348.673	92.31
348.9	98.31
349.128	83.31
349.355	93.31
349.583	96.31
349.81	87.31
350.037	88.31
350.265	87.31
350.492	87.31
350.72	97.31
350.947	82.31
351.174	93.31
351.402	86.31
351.629	86.31
351.856	82.31
352.083	73.31
352.311	97.31
352.538	87.31
352.765	85.31
352.992	93.31
353.22	89.31
353.447	81.31
353.674	78.31
353.901	88.31
354.128	77.31
354.355	91.31
354.583	83.31
354.81	80.31
355.037	96.31
355.264	89.31
355.491	87.31
355.718	84.31
355.945	85.31
356.172	88.31
356.399	78.31
356.626	97.31
356.853	99.31
357.08	105.31
357.307	79.31
357.534	94.31
357.761	87.31
357.988	89.31
358.215	91.31
358.441	105.31
358.668	89.31
358.895	82.31
359.122	93.31
359.349	85.31
359.576	95.31
359.802	96.31
360.029	101.31
360.256	94.31
360.483	100.31
360.709	91.31
360.936	91.31
361.163	97.31
361.39	89.31
361.616	95.31
361.843	111.31
362.07	115.31
362.296	117.31
362.523	128.31
362.749	136.31
362.976	157.31
363.203	171.31
363.429	125.31
363.656	109.31
363.882	112.31
364.109	135.31
364.335	183.31
364.562	203.31
364.788	145.31
365.015	115.31
365.241	94.31
365.468	101.31
365.694	98.31
365.92	90.31
366.147	89.31
366.373	93.31
366.599	97.31
366.826	108.31
367.052	94.31
367.278	72.31
367.505	87.31
367.731	91.31
367.957	80.31
368.184	84.31
368.41	92.31
368.636	107.31
368.862	86.31
369.089	87.31
369.315	89.31
369.541	83.31
369.767	102.31
369.993	106.31
370.219	87.31
370.445	97.31
370.672	102.31
370.898	105.31
371.124	90.31
371.35	81.31
371.576	75.31
371.802	87.31
372.028	89.31
372.254	83.31
372.48	97.31
372.706	100.31
372.932	99.31
373.158	103.31
373.384	109.31
373.61	112.31
373.835	123.31
374.061	96.31
374.287	108.31
374.513	98.31
374.739	106.31
374.965	97.31
375.191	103.31
375.416	108.31
375.642	93.31
375.868	104.31
376.094	94.31
376.319	93.31
376.545	104.31
376.771	101.31
376.997	83.31
377.222	90.31
377.448	87.31
377.674	80.31
377.899	91.31
378.125	92.31
378.35	83.31
378.576	101.31
378.802	95.31
379.027	96.31
379.253	93.31
379.478	80.31
379.704	85.31
379.929	88.31
380.155	87.31
380.38	103.31
380.606	98.31
380.831	97.31
381.057	103.31
381.282	85.31
381.507	90.31
381.733	93.31
381.958	104.31
382.184	99.31
382.409	95.31
382.634	103.31
382.86	99.31
383.085	94.31
383.31	112.31
383.535	108.31
383.761	101.31
383.986	77.31
384.211	101.31
384.436	113.31
384.662	104.31
384.887	94.31
385.112	80.31
385.337	92.31
385.562	108.31
385.787	101.31
386.013	115.31
386.238	114.31
386.463	101.31
386.688	111.31
386.913	97.31
387.138	100.31
387.363	108.31
387.588	109.31
387.813	122.31
388.038	97.31
388.263	104.31
388.488	101.31
388.713	96.31
388.938	104.31
389.163	93.31
389.387	109.31
389.612	99.31
389.837	104.31
390.062	107.31
390.287	115.31
390.512	101.31
390.736	109.31
390.961	104.31
391.186	96.31
391.411	84.31
391.636	95.31
391.86	94.31
392.085	101.31
392.31	101.31
392.534	140.31
392.759	175.31
392.984	239.31
393.208	459.31
393.433	627.31
393.658	472.31
393.882	217.31
394.107	137.31
394.331	149.31
394.556	160.31
394.78	131.31
395.005	105.31
395.229	107.31
395.454	116.31
395.678	137.31
395.903	160.31
396.127	166.31
396.352	208.31
396.576	275.31
396.801	430.31
397.025	505.31
397.249	292.31
397.474	193.31
397.698	140.31
397.922	117.31
398.147	107.31
398.371	109.31
398.595	93.31
398.82	105.31
399.044	99.31
399.268	101.31
399.492	87.31
399.717	96.31
399.941	110.31
400.165	100.31
400.389	93.31
400.613	91.31
400.837	90.31
401.062	93.31
401.286	99.31
401.51	110.31
401.734	101.31
401.958	87.31
402.182	99.31
402.406	100.31
402.63	79.31
402.854	88.31
403.078	93.31
403.302	109.31
403.526	97.31
403.75	93.31
403.974	92.31
404.198	105.31
404.422	102.31
404.645	97.31
404.869	81.31
405.093	95.31
405.317	92.31
405.541	102.31
405.765	101.31
405.988	91.31
406.212	100.31
406.436	91.31
406.66	91.31
406.883	85.31
407.107	87.31
407.331	93.31
407.555	97.31
407.778	133.31
408.002	141.31
408.226	125.31
408.449	102.31
408.673	109.31
408.896	93.31
409.12	103.31
409.344	133.31
409.567	148.31
409.791	140.31
410.014	137.31
410.238	128.31
410.461	105.31
410.685	88.31
410.908	95.31
411.132	104.31
411.355	95.31
411.578	93.31
411.802	93.31
412.025	95.31
412.249	97.31
412.472	98.31
412.695	95.31
412.919	79.31
413.142	96.31
413.365	88.31
413.589	95.31
413.812	103.31
414.035	99.31
414.258	104.31
414.482	92.31
414.705	87.31
414.928	87.31
415.151	82.31
415.374	84.31
415.597	89.31
415.821	83.31
416.044	101.31
416.267	105.31
416.49	103.31
416.713	86.31
416.936	104.31
417.159	92.31
417.382	93.31
417.605	109.31
417.828	112.31
418.051	95.31
418.274	97.31
418.497	96.31
418.72	96.31
418.943	89.31
419.166	94.31
419.389	115.31
419.611	100.31
419.834	85.31
420.057	97.31
420.28	99.31
420.503	115.31
420.726	106.31
420.948	121.31
421.171	134.31
421.394	136.31
421.617	179.31
421.839	211.31
422.062	219.31
422.285	325.31
422.507	540.31
422.73	699.31
422.953	674.31
423.175	403.31
423.398	255.31
423.621	189.31
423.843	163.31
424.066	137.31
424.288	129.31
424.511	112.31
424.733	125.31
424.956	112.31
425.178	110.31
425.401	107.31
425.623	99.31
425.846	97.31
426.068	101.31
426.291	102.31
426.513	108.31
426.735	103.31
426.958	104.31
427.18	102.31
427.402	99.31
427.625	99.31
427.847	117.31
428.069	123.31
428.292	176.31
428.514	199.31
428.736	165.31
428.958	200.31
429.181	192.31
429.403	134.31
429.625	119.31
429.847	164.31
430.069	253.31
430.292	305.31
430.514	277.31
430.736	201.31
430.958	205.31
431.18	127.31
431.402	113.31
431.624	113.31
431.846	171.31
432.068	192.31
432.29	120.31
432.512	99.31
432.734	95.31
432.956	97.31
433.178	86.31
433.4	83.31
433.622	98.31
433.844	103.31
434.066	95.31
434.287	92.31
434.509	91.31
434.731	93.31
434.953	99.31
435.175	99.31
435.397	119.31
435.618	113.31
435.84	121.31
436.062	110.31
436.284	91.31
436.505	97.31
436.727	92.31
436.949	99.31
437.17	91.31
437.392	106.31
437.614	100.31
437.835	96.31
438.057	100.31
438.278	91.31
438.5	97.31
438.721	89.31
438.943	83.31
439.165	93.31
439.386	98.31
439.608	89.31
439.829	107.31
440.05	88.31
440.272	105.31
440.493	108.31
440.715	99.31
440.936	93.31
441.158	95.31
441.379	94.31
441.6	105.31
441.822	95.31
442.043	115.31
442.264	131.31
442.486	200.31
442.707	289.31
442.928	197.31
443.149	152.31
443.371	227.31
443.592	453.31
443.813	390.31
444.034	155.31
444.255	117.31
444.476	113.31
444.698	114.31
444.919	116.31
445.14	216.31
445.361	299.31
445.582	543.31
445.803	472.31
446.024	179.31
446.245	131.31
446.466	107.31
446.687	93.31
446.908	85.31
447.129	77.31
447.35	95.31
447.571	82.31
447.792	94.31
448.013	104.31
448.234	108.31
448.455	100.31
448.675	105.31
448.896	75.31
449.117	87.31
449.338	103.31
449.559	87.31
449.779	102.31
450	97.31
450.221	107.31
450.442	100.31
450.662	87.31
450.883	113.31
451.104	95.31
451.324	103.31
451.545	97.31
451.766	73.31
451.986	106.31
452.207	99.31
452.428	107.31
452.648	119.31
452.869	137.31
453.089	118.31
453.31	96.31
453.53	99.31
453.751	97.31
453.971	95.31
454.192	89.31
454.412	77.31
454.633	91.31
454.853	85.31
455.073	104.31
455.294	93.31
455.514	83.31
455.734	101.31
455.955	82.31
456.175	102.31
456.395	73.31
456.616	87.31
456.836	99.31
457.056	104.31
457.276	95.31
457.497	108.31
457.717	117.31
457.937	169.31
458.157	199.31
458.377	207.31
458.598	205.31
458.818	229.31
459.038	131.31
459.258	92.31
459.478	87.31
459.698	98.31
459.918	85.31
460.138	103.31
460.358	95.31
460.578	103.31
460.798	161.31
461.018	157.31
461.238	91.31
461.458	93.31
461.678	80.31
461.898	87.31
462.118	88.31
462.338	81.31
462.558	78.31
462.777	91.31
462.997	79.31
463.217	91.31
463.437	103.31
463.657	83.31
463.876	87.31
464.096	94.31
464.316	86.31
464.536	83.31
464.755	95.31
464.975	87.31
465.195	90.31
465.414	89.31
465.634	100.31
465.854	97.31
466.073	89.31
466.293	85.31
466.512	94.31
466.732	91.31
466.951	87.31
467.171	93.31
467.391	87.31
467.61	95.31
467.829	103.31
468.049	92.31
468.268	98.31
468.488	99.31
468.707	100.31
468.927	85.31
469.146	94.31
469.365	93.31
469.585	80.31
469.804	85.31
470.023	79.31
470.243	102.31
470.462	103.31
470.681	101.31
470.901	86.31
471.12	83.31
471.339	80.31
471.558	93.31
471.777	100.31
471.997	94.31
472.216	102.31
472.435	88.31
472.654	95.31
472.873	102.31
473.092	88.31
473.311	97.31
473.53	104.31
473.749	97.31
473.968	87.31
474.187	91.31
474.406	95.31
474.625	89.31
474.844	102.31
475.063	87.31
475.282	79.31
475.501	92.31
475.72	111.31
475.939	99.31
476.158	95.31
476.377	102.31
476.596	110.31
476.814	92.31
477.033	93.31
477.252	108.31
477.471	80.31
477.69	87.31
477.908	94.31
478.127	102.31
478.346	96.31
478.564	94.31
478.783	94.31
479.002	108.31
479.22	97.31
479.439	85.31
479.658	83.31
479.876	94.31
480.095	95.31
480.313	87.31
480.532	102.31
480.751	84.31
480.969	100.31
481.188	102.31
481.406	97.31
481.624	100.31
481.843	103.31
482.061	101.31
482.28	110.31
482.498	103.31
482.717	99.31
482.935	110.31
483.153	105.31
483.372	98.31
483.59	99.31
483.808	101.31
484.027	97.31
484.245	95.31
484.463	95.31
484.681	103.31
484.9	123.31
485.118	104.31
485.336	100.31
485.554	94.31
485.772	108.31
485.99	88.31
486.209	91.31
486.427	89.31
486.645	102.31
486.863	108.31
487.081	109.31
487.299	104.31
487.517	123.31
487.735	164.31
487.953	345.31
488.171	278.31
488.389	132.31
488.607	123.31
488.825	99.31
489.043	94.31
489.261	98.31
489.479	102.31
489.696	98.31
489.914	115.31
490.132	107.31
490.35	98.31
490.568	94.31
490.786	100.31
491.003	90.31
491.221	100.31
491.439	96.31
491.657	89.31
491.874	97.31
492.092	99.31
492.31	89.31
492.527	93.31
492.745	101.31
492.963	103.31
493.18	105.31
493.398	87.31
493.615	102.31
493.833	84.31
494.05	93.31
494.268	96.31
494.485	99.31
494.703	88.31
494.92	110.31
495.138	88.31
495.355	100.31
495.573	110.31
495.79	111.31
496.008	96.31
496.225	115.31
496.442	112.31
496.66	98.31
496.877	113.31
497.094	111.31
497.312	87.31
497.529	109.31
497.746	99.31
497.963	100.31
498.181	104.31
498.398	108.31
498.615	93.31
498.832	89.31
499.049	97.31
499.267	86.31
499.484	102.31
499.701	94.31
499.918	104.31
500.135	91.31
500.352	97.31
500.569	100.31
500.786	113.31
501.003	99.31
501.22	88.31
501.437	102.31
501.654	95.31
501.871	105.31
502.088	103.31
502.305	107.31
502.522	109.31
502.739	108.31
502.956	105.31
503.172	100.31
503.389	100.31
503.606	100.31
503.823	101.31
504.04	123.31
504.256	239.31
504.473	258.31
504.69	128.31
504.907	115.31
505.123	93.31
505.34	89.31
505.557	97.31
505.773	100.31
505.99	92.31
506.207	91.31
506.423	91.31
506.64	94.31
506.856	102.31
507.073	93.31
507.289	97.31
507.506	95.31
507.722	113.31
507.939	98.31
508.155	103.31
508.372	91.31
508.588	79.31
508.805	87.31
509.021	103.31
509.238	88.31
509.454	84.31
509.67	99.31
509.887	102.31
510.103	98.31
510.319	94.31
510.536	107.31
510.752	91.31
510.968	91.31
511.184	83.31
511.401	88.31
511.617	95.31
511.833	102.31
512.049	88.31
512.265	73.31
512.481	91.31
512.698	85.31
512.914	108.31
513.13	105.31
513.346	85.31
513.562	88.31
513.778	96.31
513.994	99.31
514.21	107.31
514.426	84.31
514.642	102.31
514.858	84.31
515.074	110.31
