Data from CBS_3_HRD10591_00021.txt Node
Date: Mon Jan 19 14:05:49 EST 2026
User: Yrep
Spectrometer: HR+D1059
Trigger mode: 1
Integration Time (sec): 1.000000E-1
Scans to average: 1
Electric dark correction enabled: true
Nonlinearity correction enabled: false
Boxcar width: 0
XAxis mode: Wavelengths
Number of Pixels in Spectrum: 2048
>>>>>Begin Spectral Data<<<<<
223.165	-16.12
223.4	-16.12
223.635	-16.12
223.869	-17.12
224.104	-15.12
224.338	-17.12
224.573	-31.12
224.808	-13.12
225.042	0.88
225.277	-8.12
225.511	7.88
225.746	-4.12
225.98	7.88
226.215	21.88
226.449	11.88
226.683	20.88
226.918	22.88
227.152	27.88
227.387	31.88
227.621	44.88
227.856	46.88
228.09	35.88
228.324	52.88
228.559	56.88
228.793	60.88
229.027	64.88
229.262	70.88
229.496	68.88
229.73	66.88
229.964	70.88
230.199	73.88
230.433	73.88
230.667	62.88
230.901	79.88
231.136	74.88
231.37	96.88
231.604	80.88
231.838	90.88
232.072	70.88
232.306	73.88
232.541	73.88
232.775	85.88
233.009	73.88
233.243	70.88
233.477	66.88
233.711	83.88
233.945	72.88
234.179	64.88
234.413	69.88
234.647	84.88
234.881	78.88
235.115	80.88
235.349	82.88
235.583	67.88
235.817	74.88
236.051	69.88
236.285	81.88
236.519	69.88
236.753	84.88
236.987	81.88
237.221	74.88
237.455	72.88
237.689	76.88
237.922	72.88
238.156	76.88
238.39	70.88
238.624	66.88
238.858	62.88
239.091	78.88
239.325	78.88
239.559	80.88
239.793	73.88
240.027	70.88
240.26	78.88
240.494	85.88
240.728	85.88
240.961	66.88
241.195	78.88
241.429	71.88
241.662	65.88
241.896	65.88
242.13	70.88
242.363	76.88
242.597	79.88
242.83	79.88
243.064	73.88
243.298	79.88
243.531	91.88
243.765	96.88
243.998	73.88
244.232	72.88
244.465	73.88
244.699	80.88
244.932	66.88
245.166	81.88
245.399	70.88
245.633	74.88
245.866	78.88
246.099	81.88
246.333	69.88
246.566	83.88
246.8	75.88
247.033	77.88
247.266	79.88
247.5	88.88
247.733	82.88
247.966	67.88
248.2	68.88
248.433	75.88
248.666	81.88
248.899	80.88
249.133	79.88
249.366	91.88
249.599	81.88
249.832	61.88
250.066	75.88
250.299	66.88
250.532	76.88
250.765	83.88
250.998	78.88
251.231	82.88
251.465	74.88
251.698	89.88
251.931	80.88
252.164	95.88
252.397	82.88
252.63	67.88
252.863	81.88
253.096	68.88
253.329	79.88
253.562	75.88
253.795	76.88
254.028	89.88
254.261	78.88
254.494	82.88
254.727	87.88
254.96	84.88
255.193	87.88
255.426	67.88
255.659	84.88
255.892	84.88
256.124	68.88
256.357	77.88
256.59	62.88
256.823	80.88
257.056	86.88
257.289	92.88
257.521	77.88
257.754	75.88
257.987	74.88
258.22	75.88
258.452	66.88
258.685	78.88
258.918	78.88
259.151	76.88
259.383	66.88
259.616	69.88
259.849	78.88
260.081	69.88
260.314	89.88
260.547	89.88
260.779	80.88
261.012	77.88
261.244	80.88
261.477	86.88
261.71	85.88
261.942	69.88
262.175	76.88
262.407	71.88
262.64	70.88
262.872	75.88
263.105	76.88
263.337	90.88
263.57	86.88
263.802	71.88
264.035	70.88
264.267	74.88
264.499	78.88
264.732	70.88
264.964	85.88
265.197	74.88
265.429	82.88
265.661	55.88
265.894	76.88
266.126	92.88
266.358	76.88
266.591	86.88
266.823	64.88
267.055	70.88
267.287	85.88
267.52	87.88
267.752	82.88
267.984	82.88
268.216	83.88
268.448	84.88
268.681	76.88
268.913	88.88
269.145	90.88
269.377	85.88
269.609	85.88
269.841	86.88
270.073	81.88
270.306	84.88
270.538	58.88
270.77	68.88
271.002	87.88
271.234	83.88
271.466	77.88
271.698	72.88
271.93	77.88
272.162	81.88
272.394	96.88
272.626	81.88
272.858	81.88
273.09	94.88
273.322	77.88
273.553	81.88
273.785	83.88
274.017	80.88
274.249	86.88
274.481	69.88
274.713	67.88
274.945	84.88
275.176	84.88
275.408	99.88
275.64	87.88
275.872	84.88
276.104	88.88
276.335	75.88
276.567	74.88
276.799	86.88
277.031	81.88
277.262	75.88
277.494	81.88
277.726	74.88
277.957	85.88
278.189	74.88
278.421	84.88
278.652	78.88
278.884	81.88
279.115	77.88
279.347	76.88
279.579	90.88
279.81	87.88
280.042	100.88
280.273	75.88
280.505	81.88
280.736	80.88
280.968	78.88
281.199	90.88
281.431	81.88
281.662	70.88
281.894	89.88
282.125	89.88
282.356	93.88
282.588	90.88
282.819	101.88
283.051	68.88
283.282	76.88
283.513	82.88
283.745	88.88
283.976	79.88
284.207	88.88
284.439	87.88
284.67	95.88
284.901	67.88
285.132	95.88
285.364	87.88
285.595	83.88
285.826	79.88
286.057	96.88
286.288	87.88
286.52	81.88
286.751	89.88
286.982	79.88
287.213	88.88
287.444	84.88
287.675	86.88
287.906	94.88
288.138	94.88
288.369	88.88
288.6	84.88
288.831	76.88
289.062	81.88
289.293	74.88
289.524	82.88
289.755	81.88
289.986	80.88
290.217	74.88
290.448	80.88
290.679	89.88
290.91	89.88
291.141	73.88
291.371	75.88
291.602	88.88
291.833	81.88
292.064	78.88
292.295	82.88
292.526	78.88
292.757	80.88
292.987	81.88
293.218	104.88
293.449	68.88
293.68	76.88
293.91	84.88
294.141	87.88
294.372	89.88
294.603	77.88
294.833	92.88
295.064	89.88
295.295	81.88
295.525	77.88
295.756	86.88
295.987	88.88
296.217	84.88
296.448	88.88
296.679	92.88
296.909	82.88
297.14	88.88
297.37	91.88
297.601	82.88
297.831	82.88
298.062	94.88
298.292	91.88
298.523	97.88
298.753	94.88
298.984	84.88
299.214	89.88
299.445	79.88
299.675	88.88
299.905	95.88
300.136	89.88
300.366	78.88
300.597	75.88
300.827	90.88
301.057	96.88
301.288	85.88
301.518	78.88
301.748	96.88
301.979	95.88
302.209	95.88
302.439	87.88
302.669	95.88
302.9	88.88
303.13	86.88
303.36	80.88
303.59	76.88
303.82	75.88
304.051	73.88
304.281	82.88
304.511	83.88
304.741	84.88
304.971	74.88
305.201	67.88
305.431	81.88
305.661	70.88
305.891	83.88
306.121	79.88
306.352	87.88
306.582	89.88
306.812	81.88
307.042	77.88
307.272	81.88
307.502	87.88
307.731	77.88
307.961	91.88
308.191	104.88
308.421	92.88
308.651	66.88
308.881	99.88
309.111	86.88
309.341	97.88
309.571	89.88
309.8	80.88
310.03	84.88
310.26	89.88
310.49	81.88
310.72	90.88
310.949	80.88
311.179	81.88
311.409	94.88
311.639	92.88
311.868	94.88
312.098	84.88
312.328	80.88
312.557	88.88
312.787	87.88
313.017	82.88
313.246	90.88
313.476	86.88
313.706	95.88
313.935	81.88
314.165	79.88
314.394	88.88
314.624	75.88
314.853	82.88
315.083	89.88
315.312	93.88
315.542	74.88
315.771	104.88
316.001	94.88
316.23	92.88
316.46	94.88
316.689	78.88
316.919	71.88
317.148	78.88
317.377	77.88
317.607	114.88
317.836	102.88
318.065	117.88
318.295	102.88
318.524	91.88
318.753	74.88
318.983	89.88
319.212	88.88
319.441	84.88
319.67	88.88
319.9	74.88
320.129	89.88
320.358	86.88
320.587	79.88
320.816	83.88
321.046	81.88
321.275	78.88
321.504	83.88
321.733	97.88
321.962	86.88
322.191	87.88
322.42	100.88
322.649	82.88
322.878	99.88
323.108	85.88
323.337	88.88
323.566	76.88
323.795	80.88
324.024	76.88
324.253	83.88
324.482	96.88
324.71	81.88
324.939	86.88
325.168	81.88
325.397	77.88
325.626	73.88
325.855	87.88
326.084	84.88
326.313	88.88
326.542	88.88
326.77	92.88
326.999	91.88
327.228	87.88
327.457	74.88
327.686	83.88
327.914	97.88
328.143	84.88
328.372	92.88
328.6	74.88
328.829	88.88
329.058	104.88
329.287	89.88
329.515	78.88
329.744	89.88
329.972	77.88
330.201	88.88
330.43	94.88
330.658	85.88
330.887	88.88
331.115	82.88
331.344	83.88
331.572	97.88
331.801	80.88
332.03	94.88
332.258	92.88
332.486	88.88
332.715	88.88
332.943	82.88
333.172	92.88
333.4	105.88
333.629	86.88
333.857	92.88
334.085	82.88
334.314	91.88
334.542	83.88
334.771	88.88
334.999	94.88
335.227	91.88
335.455	95.88
335.684	97.88
335.912	89.88
336.14	97.88
336.369	92.88
336.597	83.88
336.825	88.88
337.053	94.88
337.281	91.88
337.51	109.88
337.738	80.88
337.966	85.88
338.194	79.88
338.422	95.88
338.65	86.88
338.878	79.88
339.106	86.88
339.334	94.88
339.562	80.88
339.79	96.88
340.018	90.88
340.246	71.88
340.474	84.88
340.702	84.88
340.93	89.88
341.158	80.88
341.386	71.88
341.614	83.88
341.842	76.88
342.07	72.88
342.298	82.88
342.526	84.88
342.754	82.88
342.981	84.88
343.209	90.88
343.437	87.88
343.665	83.88
343.893	69.88
344.12	81.88
344.348	92.88
344.576	78.88
344.804	81.88
345.031	83.88
345.259	84.88
345.487	82.88
345.714	92.88
345.942	69.88
346.17	78.88
346.397	83.88
346.625	84.88
346.853	90.88
347.08	93.88
347.308	82.88
347.535	88.88
347.763	90.88
347.99	75.88
348.218	104.88
348.445	81.88
348.673	78.88
348.9	95.88
349.128	90.88
349.355	97.88
349.583	80.88
349.81	73.88
350.037	69.88
350.265	81.88
350.492	94.88
350.72	80.88
350.947	80.88
351.174	81.88
351.402	79.88
351.629	90.88
351.856	80.88
352.083	97.88
352.311	89.88
352.538	86.88
352.765	84.88
352.992	92.88
353.22	69.88
353.447	83.88
353.674	78.88
353.901	79.88
354.128	88.88
354.355	71.88
354.583	80.88
354.81	77.88
355.037	91.88
355.264	81.88
355.491	87.88
355.718	100.88
355.945	80.88
356.172	81.88
356.399	82.88
356.626	89.88
356.853	94.88
357.08	88.88
357.307	89.88
357.534	88.88
357.761	82.88
357.988	93.88
358.215	82.88
358.441	82.88
358.668	70.88
358.895	77.88
359.122	97.88
359.349	64.88
359.576	91.88
359.802	95.88
360.029	97.88
360.256	71.88
360.483	84.88
360.709	74.88
360.936	94.88
361.163	85.88
361.39	91.88
361.616	85.88
361.843	105.88
362.07	97.88
362.296	96.88
362.523	97.88
362.749	97.88
362.976	119.88
363.203	126.88
363.429	102.88
363.656	90.88
363.882	105.88
364.109	99.88
364.335	130.88
364.562	136.88
364.788	120.88
365.015	93.88
365.241	87.88
365.468	84.88
365.694	81.88
365.92	82.88
366.147	89.88
366.373	95.88
366.599	77.88
366.826	83.88
367.052	78.88
367.278	94.88
367.505	86.88
367.731	93.88
367.957	87.88
368.184	80.88
368.41	84.88
368.636	84.88
368.862	100.88
369.089	70.88
369.315	99.88
369.541	92.88
369.767	93.88
369.993	80.88
370.219	85.88
370.445	89.88
370.672	104.88
370.898	89.88
371.124	80.88
371.35	74.88
371.576	102.88
371.802	74.88
372.028	93.88
372.254	101.88
372.48	87.88
372.706	99.88
372.932	86.88
373.158	94.88
373.384	100.88
373.61	112.88
373.835	110.88
374.061	96.88
374.287	90.88
374.513	94.88
374.739	81.88
374.965	75.88
375.191	113.88
375.416	71.88
375.642	79.88
375.868	87.88
376.094	97.88
376.319	91.88
376.545	92.88
376.771	80.88
376.997	69.88
377.222	100.88
377.448	88.88
377.674	88.88
377.899	87.88
378.125	75.88
378.35	86.88
378.576	82.88
378.802	92.88
379.027	92.88
379.253	70.88
379.478	92.88
379.704	92.88
379.929	81.88
380.155	96.88
380.38	91.88
380.606	88.88
380.831	74.88
381.057	78.88
381.282	90.88
381.507	88.88
381.733	84.88
381.958	89.88
382.184	78.88
382.409	93.88
382.634	77.88
382.86	95.88
383.085	84.88
383.31	88.88
383.535	98.88
383.761	103.88
383.986	91.88
384.211	84.88
384.436	103.88
384.662	102.88
384.887	96.88
385.112	81.88
385.337	89.88
385.562	89.88
385.787	99.88
386.013	96.88
386.238	99.88
386.463	92.88
386.688	86.88
386.913	84.88
387.138	91.88
387.363	99.88
387.588	92.88
387.813	102.88
388.038	103.88
388.263	109.88
388.488	92.88
388.713	84.88
388.938	93.88
389.163	96.88
389.387	89.88
389.612	87.88
389.837	79.88
390.062	74.88
390.287	86.88
390.512	82.88
390.736	97.88
390.961	83.88
391.186	81.88
391.411	86.88
391.636	73.88
391.86	96.88
392.085	100.88
392.31	115.88
392.534	108.88
392.759	134.88
392.984	219.88
393.208	406.88
393.433	613.88
393.658	455.88
393.882	178.88
394.107	124.88
394.331	128.88
394.556	113.88
394.78	109.88
395.005	101.88
395.229	104.88
395.454	95.88
395.678	102.88
395.903	135.88
396.127	161.88
396.352	186.88
396.576	263.88
396.801	431.88
397.025	482.88
397.249	244.88
397.474	136.88
397.698	102.88
397.922	97.88
398.147	82.88
398.371	84.88
398.595	80.88
398.82	97.88
399.044	95.88
399.268	96.88
399.492	80.88
399.717	77.88
399.941	84.88
400.165	91.88
400.389	89.88
400.613	83.88
400.837	82.88
401.062	76.88
401.286	76.88
401.51	78.88
401.734	73.88
401.958	90.88
402.182	92.88
402.406	86.88
402.63	80.88
402.854	78.88
403.078	81.88
403.302	112.88
403.526	103.88
403.75	94.88
403.974	75.88
404.198	93.88
404.422	110.88
404.645	106.88
404.869	111.88
405.093	94.88
405.317	81.88
405.541	89.88
405.765	82.88
405.988	81.88
406.212	87.88
406.436	93.88
406.66	72.88
406.883	84.88
407.107	85.88
407.331	82.88
407.555	113.88
407.778	116.88
408.002	120.88
408.226	94.88
408.449	86.88
408.673	89.88
408.896	80.88
409.12	74.88
409.344	89.88
409.567	93.88
409.791	102.88
410.014	105.88
410.238	99.88
410.461	101.88
410.685	82.88
410.908	101.88
411.132	91.88
411.355	93.88
411.578	93.88
411.802	75.88
412.025	83.88
412.249	75.88
412.472	81.88
412.695	93.88
412.919	84.88
413.142	75.88
413.365	80.88
413.589	78.88
413.812	73.88
414.035	83.88
414.258	75.88
414.482	87.88
414.705	80.88
414.928	85.88
415.151	94.88
415.374	79.88
415.597	87.88
415.821	85.88
416.044	74.88
416.267	76.88
416.49	86.88
416.713	72.88
416.936	81.88
417.159	73.88
417.382	76.88
417.605	98.88
417.828	90.88
418.051	86.88
418.274	94.88
418.497	94.88
418.72	93.88
418.943	88.88
419.166	90.88
419.389	89.88
419.611	92.88
419.834	86.88
420.057	88.88
420.28	103.88
420.503	92.88
420.726	86.88
420.948	95.88
421.171	97.88
421.394	110.88
421.617	119.88
421.839	126.88
422.062	126.88
422.285	198.88
422.507	348.88
422.73	565.88
422.953	482.88
423.175	252.88
423.398	153.88
423.621	114.88
423.843	90.88
424.066	93.88
424.288	101.88
424.511	92.88
424.733	92.88
424.956	100.88
425.178	87.88
425.401	86.88
425.623	85.88
425.846	90.88
426.068	101.88
426.291	104.88
426.513	73.88
426.735	82.88
426.958	85.88
427.18	86.88
427.402	93.88
427.625	94.88
427.847	90.88
428.069	101.88
428.292	144.88
428.514	165.88
428.736	125.88
428.958	137.88
429.181	137.88
429.403	95.88
429.625	103.88
429.847	133.88
430.069	194.88
430.292	226.88
430.514	210.88
430.736	159.88
430.958	180.88
431.18	117.88
431.402	102.88
431.624	113.88
431.846	144.88
432.068	170.88
432.29	112.88
432.512	100.88
432.734	77.88
432.956	71.88
433.178	85.88
433.4	86.88
433.622	78.88
433.844	86.88
434.066	74.88
434.287	98.88
434.509	81.88
434.731	87.88
434.953	80.88
435.175	88.88
435.397	99.88
435.618	105.88
435.84	100.88
436.062	83.88
436.284	81.88
436.505	84.88
436.727	64.88
436.949	79.88
437.17	88.88
437.392	86.88
437.614	79.88
437.835	76.88
438.057	90.88
438.278	84.88
438.5	80.88
438.721	85.88
438.943	94.88
439.165	74.88
439.386	86.88
439.608	75.88
439.829	78.88
440.05	79.88
440.272	92.88
440.493	90.88
440.715	81.88
440.936	85.88
441.158	79.88
441.379	101.88
441.6	95.88
441.822	84.88
442.043	99.88
442.264	88.88
442.486	173.88
442.707	212.88
442.928	133.88
443.149	117.88
443.371	191.88
443.592	344.88
443.813	281.88
444.034	134.88
444.255	102.88
444.476	91.88
444.698	104.88
444.919	105.88
445.14	206.88
445.361	253.88
445.582	418.88
445.803	358.88
446.024	149.88
446.245	85.88
446.466	83.88
446.687	96.88
446.908	82.88
447.129	89.88
447.35	80.88
447.571	89.88
447.792	91.88
448.013	88.88
448.234	71.88
448.455	74.88
448.675	70.88
448.896	98.88
449.117	69.88
449.338	68.88
449.559	87.88
449.779	84.88
450	83.88
450.221	73.88
450.442	77.88
450.662	85.88
450.883	84.88
451.104	89.88
451.324	88.88
451.545	81.88
451.766	77.88
451.986	82.88
452.207	90.88
452.428	82.88
452.648	95.88
452.869	114.88
453.089	86.88
453.31	96.88
453.53	94.88
453.751	93.88
453.971	81.88
454.192	85.88
454.412	86.88
454.633	86.88
454.853	82.88
455.073	81.88
455.294	89.88
455.514	90.88
455.734	67.88
455.955	89.88
456.175	82.88
456.395	73.88
456.616	90.88
456.836	88.88
457.056	87.88
457.276	80.88
457.497	86.88
457.717	112.88
457.937	118.88
458.157	134.88
458.377	144.88
458.598	135.88
458.818	133.88
459.038	92.88
459.258	92.88
459.478	82.88
459.698	72.88
459.918	84.88
460.138	93.88
460.358	93.88
460.578	94.88
460.798	127.88
461.018	125.88
461.238	93.88
461.458	95.88
461.678	111.88
461.898	75.88
462.118	80.88
462.338	88.88
462.558	94.88
462.777	80.88
462.997	81.88
463.217	79.88
463.437	78.88
463.657	71.88
463.876	72.88
464.096	82.88
464.316	75.88
464.536	80.88
464.755	81.88
464.975	75.88
465.195	90.88
465.414	96.88
465.634	83.88
465.854	78.88
466.073	69.88
466.293	87.88
466.512	90.88
466.732	92.88
466.951	84.88
467.171	86.88
467.391	80.88
467.61	89.88
467.829	88.88
468.049	95.88
468.268	86.88
468.488	103.88
468.707	88.88
468.927	86.88
469.146	75.88
469.365	75.88
469.585	75.88
469.804	88.88
470.023	66.88
470.243	79.88
470.462	76.88
470.681	84.88
470.901	95.88
471.12	86.88
471.339	82.88
471.558	80.88
471.777	86.88
471.997	80.88
472.216	97.88
472.435	80.88
472.654	82.88
472.873	87.88
473.092	85.88
473.311	84.88
473.53	84.88
473.749	95.88
473.968	86.88
474.187	89.88
474.406	66.88
474.625	94.88
474.844	96.88
475.063	82.88
475.282	85.88
475.501	80.88
475.72	84.88
475.939	79.88
476.158	74.88
476.377	84.88
476.596	100.88
476.814	82.88
477.033	80.88
477.252	84.88
477.471	79.88
477.69	82.88
477.908	87.88
478.127	83.88
478.346	80.88
478.564	94.88
478.783	89.88
479.002	89.88
479.22	85.88
479.439	95.88
479.658	90.88
479.876	78.88
480.095	91.88
480.313	90.88
480.532	90.88
480.751	92.88
480.969	95.88
481.188	94.88
481.406	102.88
481.624	75.88
481.843	96.88
482.061	90.88
482.28	84.88
482.498	87.88
482.717	93.88
482.935	84.88
483.153	79.88
483.372	85.88
483.59	76.88
483.808	78.88
484.027	102.88
484.245	83.88
484.463	94.88
484.681	103.88
484.9	84.88
485.118	97.88
485.336	88.88
485.554	94.88
485.772	83.88
485.99	86.88
486.209	82.88
486.427	97.88
486.645	97.88
486.863	92.88
487.081	81.88
487.299	88.88
487.517	97.88
487.735	118.88
487.953	222.88
488.171	164.88
488.389	103.88
488.607	80.88
488.825	82.88
489.043	77.88
489.261	92.88
489.479	105.88
489.696	87.88
489.914	75.88
490.132	80.88
490.35	81.88
490.568	94.88
490.786	86.88
491.003	86.88
491.221	104.88
491.439	76.88
491.657	78.88
491.874	97.88
492.092	88.88
492.31	86.88
492.527	77.88
492.745	92.88
492.963	84.88
493.18	92.88
493.398	78.88
493.615	82.88
493.833	82.88
494.05	80.88
494.268	89.88
494.485	85.88
494.703	87.88
494.92	97.88
495.138	83.88
495.355	84.88
495.573	91.88
495.79	81.88
496.008	63.88
496.225	77.88
496.442	85.88
496.66	77.88
496.877	91.88
497.094	95.88
497.312	88.88
497.529	83.88
497.746	90.88
497.963	82.88
498.181	83.88
498.398	93.88
498.615	102.88
498.832	82.88
499.049	88.88
499.267	82.88
499.484	101.88
499.701	80.88
499.918	100.88
500.135	99.88
500.352	90.88
500.569	88.88
500.786	90.88
501.003	85.88
501.22	86.88
501.437	93.88
501.654	88.88
501.871	89.88
502.088	86.88
502.305	91.88
502.522	88.88
502.739	99.88
502.956	88.88
503.172	88.88
503.389	92.88
503.606	88.88
503.823	89.88
504.04	111.88
504.256	169.88
504.473	159.88
504.69	94.88
504.907	77.88
505.123	92.88
505.34	88.88
505.557	84.88
505.773	94.88
505.99	87.88
506.207	74.88
506.423	83.88
506.64	92.88
506.856	92.88
507.073	89.88
507.289	76.88
507.506	74.88
507.722	89.88
507.939	83.88
508.155	74.88
508.372	93.88
508.588	93.88
508.805	96.88
509.021	82.88
509.238	84.88
509.454	76.88
509.67	86.88
509.887	96.88
510.103	71.88
510.319	95.88
510.536	86.88
510.752	83.88
510.968	80.88
511.184	86.88
511.401	79.88
511.617	85.88
511.833	81.88
512.049	96.88
512.265	87.88
512.481	90.88
512.698	78.88
512.914	93.88
513.13	86.88
513.346	87.88
513.562	93.88
513.778	85.88
513.994	78.88
514.21	73.88
514.426	89.88
514.642	70.88
514.858	96.88
515.074	80.88
515.29	98.88
515.506	86.88
515.721	87.88
515.937	92.88
516.153	100.88
516.369	99.88
516.585	73.88
516.801	94.88
517.016	89.88
517.232	90.88
517.448	103.88
517.664	93.88
517.879	89.88
518.095	86.88
