Data from KBrNoHeat_HRD10591_00008.txt Node
Date: Fri Dec 27 14:39:15 EST 2024
User: Yrep
Spectrometer: HR+D1059
Trigger mode: 1
Integration Time (sec): 1.000000E-1
Scans to average: 1
Electric dark correction enabled: true
Nonlinearity correction enabled: false
Boxcar width: 0
XAxis mode: Wavelengths
Number of Pixels in Spectrum: 2048
>>>>>Begin Spectral Data<<<<<
223.165	-16.25
223.4	-16.25
223.635	-16.25
223.869	-29.25
224.104	-23.25
224.338	-6.25
224.573	-6.25
224.808	-8.25
225.042	-12.25
225.277	-5.25
225.511	-8.25
225.746	17.75
225.98	3.75
226.215	8.75
226.449	0.75
226.683	21.75
226.918	42.75
227.152	19.75
227.387	30.75
227.621	49.75
227.856	41.75
228.09	43.75
228.324	52.75
228.559	46.75
228.793	56.75
229.027	58.75
229.262	62.75
229.496	54.75
229.73	72.75
229.964	70.75
230.199	69.75
230.433	67.75
230.667	72.75
230.901	63.75
231.136	72.75
231.37	75.75
231.604	69.75
231.838	72.75
232.072	77.75
232.306	69.75
232.541	56.75
232.775	93.75
233.009	87.75
233.243	73.75
233.477	75.75
233.711	81.75
233.945	87.75
234.179	72.75
234.413	75.75
234.647	79.75
234.881	73.75
235.115	84.75
235.349	87.75
235.583	83.75
235.817	71.75
236.051	80.75
236.285	83.75
236.519	90.75
236.753	75.75
236.987	80.75
237.221	63.75
237.455	71.75
237.689	66.75
237.922	65.75
238.156	83.75
238.39	73.75
238.624	85.75
238.858	65.75
239.091	73.75
239.325	65.75
239.559	70.75
239.793	80.75
240.027	92.75
240.26	77.75
240.494	77.75
240.728	72.75
240.961	82.75
241.195	84.75
241.429	69.75
241.662	63.75
241.896	70.75
242.13	76.75
242.363	75.75
242.597	83.75
242.83	78.75
243.064	69.75
243.298	80.75
243.531	64.75
243.765	78.75
243.998	74.75
244.232	72.75
244.465	78.75
244.699	70.75
244.932	75.75
245.166	77.75
245.399	67.75
245.633	66.75
245.866	90.75
246.099	74.75
246.333	77.75
246.566	67.75
246.8	71.75
247.033	80.75
247.266	84.75
247.5	77.75
247.733	74.75
247.966	71.75
248.2	78.75
248.433	85.75
248.666	73.75
248.899	64.75
249.133	79.75
249.366	93.75
249.599	67.75
249.832	75.75
250.066	78.75
250.299	68.75
250.532	94.75
250.765	77.75
250.998	93.75
251.231	85.75
251.465	79.75
251.698	65.75
251.931	81.75
252.164	76.75
252.397	75.75
252.63	68.75
252.863	70.75
253.096	87.75
253.329	93.75
253.562	71.75
253.795	93.75
254.028	71.75
254.261	74.75
254.494	65.75
254.727	61.75
254.96	70.75
255.193	67.75
255.426	83.75
255.659	75.75
255.892	70.75
256.124	70.75
256.357	86.75
256.59	72.75
256.823	79.75
257.056	63.75
257.289	75.75
257.521	82.75
257.754	73.75
257.987	71.75
258.22	89.75
258.452	59.75
258.685	83.75
258.918	82.75
259.151	80.75
259.383	78.75
259.616	80.75
259.849	91.75
260.081	86.75
260.314	89.75
260.547	75.75
260.779	91.75
261.012	80.75
261.244	71.75
261.477	79.75
261.71	72.75
261.942	85.75
262.175	87.75
262.407	79.75
262.64	69.75
262.872	72.75
263.105	82.75
263.337	88.75
263.57	81.75
263.802	78.75
264.035	76.75
264.267	87.75
264.499	83.75
264.732	88.75
264.964	91.75
265.197	71.75
265.429	83.75
265.661	86.75
265.894	83.75
266.126	82.75
266.358	88.75
266.591	87.75
266.823	76.75
267.055	90.75
267.287	90.75
267.52	82.75
267.752	78.75
267.984	89.75
268.216	85.75
268.448	86.75
268.681	85.75
268.913	89.75
269.145	86.75
269.377	88.75
269.609	87.75
269.841	84.75
270.073	90.75
270.306	86.75
270.538	85.75
270.77	70.75
271.002	89.75
271.234	83.75
271.466	79.75
271.698	86.75
271.93	68.75
272.162	61.75
272.394	77.75
272.626	80.75
272.858	78.75
273.09	70.75
273.322	82.75
273.553	69.75
273.785	97.75
274.017	88.75
274.249	82.75
274.481	87.75
274.713	74.75
274.945	74.75
275.176	89.75
275.408	94.75
275.64	89.75
275.872	91.75
276.104	82.75
276.335	81.75
276.567	75.75
276.799	81.75
277.031	75.75
277.262	86.75
277.494	75.75
277.726	90.75
277.957	90.75
278.189	84.75
278.421	69.75
278.652	84.75
278.884	74.75
279.115	77.75
279.347	92.75
279.579	81.75
279.81	85.75
280.042	85.75
280.273	80.75
280.505	75.75
280.736	78.75
280.968	78.75
281.199	67.75
281.431	76.75
281.662	80.75
281.894	80.75
282.125	78.75
282.356	79.75
282.588	82.75
282.819	83.75
283.051	85.75
283.282	71.75
283.513	98.75
283.745	86.75
283.976	87.75
284.207	86.75
284.439	81.75
284.67	86.75
284.901	77.75
285.132	79.75
285.364	88.75
285.595	87.75
285.826	82.75
286.057	86.75
286.288	91.75
286.52	94.75
286.751	85.75
286.982	89.75
287.213	78.75
287.444	82.75
287.675	79.75
287.906	86.75
288.138	76.75
288.369	88.75
288.6	88.75
288.831	88.75
289.062	85.75
289.293	83.75
289.524	87.75
289.755	81.75
289.986	74.75
290.217	78.75
290.448	81.75
290.679	87.75
290.91	86.75
291.141	79.75
291.371	75.75
291.602	78.75
291.833	82.75
292.064	88.75
292.295	92.75
292.526	72.75
292.757	84.75
292.987	89.75
293.218	103.75
293.449	94.75
293.68	82.75
293.91	84.75
294.141	90.75
294.372	62.75
294.603	92.75
294.833	93.75
295.064	77.75
295.295	84.75
295.525	78.75
295.756	70.75
295.987	83.75
296.217	92.75
296.448	65.75
296.679	81.75
296.909	77.75
297.14	96.75
297.37	92.75
297.601	80.75
297.831	76.75
298.062	84.75
298.292	83.75
298.523	88.75
298.753	87.75
298.984	90.75
299.214	84.75
299.445	89.75
299.675	90.75
299.905	79.75
300.136	88.75
300.366	79.75
300.597	84.75
300.827	97.75
301.057	78.75
301.288	73.75
301.518	81.75
301.748	88.75
301.979	93.75
302.209	93.75
302.439	64.75
302.669	79.75
302.9	91.75
303.13	92.75
303.36	73.75
303.59	89.75
303.82	99.75
304.051	91.75
304.281	74.75
304.511	82.75
304.741	88.75
304.971	82.75
305.201	95.75
305.431	71.75
305.661	83.75
305.891	82.75
306.121	82.75
306.352	84.75
306.582	75.75
306.812	89.75
307.042	80.75
307.272	75.75
307.502	91.75
307.731	83.75
307.961	89.75
308.191	84.75
308.421	82.75
308.651	78.75
308.881	94.75
309.111	89.75
309.341	87.75
309.571	89.75
309.8	79.75
310.03	85.75
310.26	80.75
310.49	90.75
310.72	82.75
310.949	80.75
311.179	77.75
311.409	76.75
311.639	87.75
311.868	78.75
312.098	94.75
312.328	72.75
312.557	64.75
312.787	91.75
313.017	83.75
313.246	94.75
313.476	84.75
313.706	80.75
313.935	78.75
314.165	65.75
314.394	81.75
314.624	79.75
314.853	75.75
315.083	99.75
315.312	82.75
315.542	88.75
315.771	90.75
316.001	70.75
316.23	83.75
316.46	88.75
316.689	84.75
316.919	92.75
317.148	81.75
317.377	96.75
317.607	105.75
317.836	80.75
318.065	78.75
318.295	77.75
318.524	81.75
318.753	94.75
318.983	89.75
319.212	93.75
319.441	74.75
319.67	80.75
319.9	80.75
320.129	86.75
320.358	78.75
320.587	88.75
320.816	91.75
321.046	89.75
321.275	103.75
321.504	86.75
321.733	82.75
321.962	87.75
322.191	82.75
322.42	98.75
322.649	80.75
322.878	90.75
323.108	89.75
323.337	84.75
323.566	89.75
323.795	97.75
324.024	77.75
324.253	87.75
324.482	91.75
324.71	80.75
324.939	93.75
325.168	78.75
325.397	82.75
325.626	82.75
325.855	98.75
326.084	82.75
326.313	77.75
326.542	70.75
326.77	81.75
326.999	83.75
327.228	82.75
327.457	88.75
327.686	88.75
327.914	97.75
328.143	109.75
328.372	94.75
328.6	72.75
328.829	79.75
329.058	83.75
329.287	77.75
329.515	90.75
329.744	80.75
329.972	94.75
330.201	82.75
330.43	97.75
330.658	67.75
330.887	89.75
331.115	85.75
331.344	94.75
331.572	97.75
331.801	93.75
332.03	67.75
332.258	95.75
332.486	78.75
332.715	91.75
332.943	90.75
333.172	84.75
333.4	87.75
333.629	83.75
333.857	82.75
334.085	94.75
334.314	89.75
334.542	103.75
334.771	89.75
334.999	89.75
335.227	78.75
335.455	96.75
335.684	97.75
335.912	82.75
336.14	93.75
336.369	83.75
336.597	85.75
336.825	71.75
337.053	90.75
337.281	84.75
337.51	84.75
337.738	81.75
337.966	96.75
338.194	81.75
338.422	74.75
338.65	83.75
338.878	85.75
339.106	90.75
339.334	101.75
339.562	83.75
339.79	91.75
340.018	73.75
340.246	79.75
340.474	81.75
340.702	98.75
340.93	81.75
341.158	86.75
341.386	85.75
341.614	84.75
341.842	82.75
342.07	76.75
342.298	80.75
342.526	75.75
342.754	82.75
342.981	93.75
343.209	94.75
343.437	95.75
343.665	99.75
343.893	85.75
344.12	87.75
344.348	78.75
344.576	84.75
344.804	70.75
345.031	78.75
345.259	98.75
345.487	89.75
345.714	96.75
345.942	87.75
346.17	96.75
346.397	85.75
346.625	80.75
346.853	84.75
347.08	89.75
347.308	95.75
347.535	71.75
347.763	79.75
347.99	87.75
348.218	97.75
348.445	71.75
348.673	79.75
348.9	80.75
349.128	75.75
349.355	74.75
349.583	93.75
349.81	80.75
350.037	93.75
350.265	82.75
350.492	86.75
350.72	93.75
350.947	82.75
351.174	87.75
351.402	74.75
351.629	94.75
351.856	73.75
352.083	86.75
352.311	83.75
352.538	87.75
352.765	69.75
352.992	95.75
353.22	96.75
353.447	92.75
353.674	81.75
353.901	71.75
354.128	79.75
354.355	84.75
354.583	64.75
354.81	75.75
355.037	101.75
355.264	81.75
355.491	77.75
355.718	77.75
355.945	85.75
356.172	84.75
356.399	89.75
356.626	86.75
356.853	78.75
357.08	88.75
357.307	90.75
357.534	71.75
357.761	86.75
357.988	83.75
358.215	95.75
358.441	90.75
358.668	94.75
358.895	83.75
359.122	91.75
359.349	86.75
359.576	80.75
359.802	81.75
360.029	81.75
360.256	95.75
360.483	67.75
360.709	70.75
360.936	95.75
361.163	94.75
361.39	75.75
361.616	88.75
361.843	99.75
362.07	98.75
362.296	78.75
362.523	86.75
362.749	78.75
362.976	99.75
363.203	91.75
363.429	71.75
363.656	95.75
363.882	82.75
364.109	79.75
364.335	87.75
364.562	74.75
364.788	74.75
365.015	89.75
365.241	93.75
365.468	85.75
365.694	88.75
365.92	76.75
366.147	88.75
366.373	89.75
366.599	88.75
366.826	87.75
367.052	96.75
367.278	81.75
367.505	69.75
367.731	102.75
367.957	88.75
368.184	88.75
368.41	77.75
368.636	90.75
368.862	89.75
369.089	70.75
369.315	89.75
369.541	87.75
369.767	96.75
369.993	98.75
370.219	98.75
370.445	102.75
370.672	86.75
370.898	88.75
371.124	87.75
371.35	79.75
371.576	84.75
371.802	90.75
372.028	83.75
372.254	71.75
372.48	90.75
372.706	82.75
372.932	91.75
373.158	86.75
373.384	94.75
373.61	74.75
373.835	79.75
374.061	77.75
374.287	86.75
374.513	74.75
374.739	79.75
374.965	73.75
375.191	80.75
375.416	80.75
375.642	83.75
375.868	76.75
376.094	83.75
376.319	84.75
376.545	65.75
376.771	87.75
376.997	79.75
377.222	75.75
377.448	84.75
377.674	95.75
377.899	90.75
378.125	84.75
378.35	95.75
378.576	79.75
378.802	102.75
379.027	85.75
379.253	82.75
379.478	87.75
379.704	86.75
379.929	83.75
380.155	85.75
380.38	74.75
380.606	73.75
380.831	80.75
381.057	84.75
381.282	73.75
381.507	83.75
381.733	89.75
381.958	81.75
382.184	88.75
382.409	75.75
382.634	95.75
382.86	83.75
383.085	73.75
383.31	71.75
383.535	86.75
383.761	77.75
383.986	87.75
384.211	71.75
384.436	92.75
384.662	83.75
384.887	94.75
385.112	70.75
385.337	80.75
385.562	87.75
385.787	78.75
386.013	86.75
386.238	80.75
386.463	74.75
386.688	110.75
386.913	87.75
387.138	99.75
387.363	81.75
387.588	80.75
387.813	81.75
388.038	100.75
388.263	93.75
388.488	94.75
388.713	95.75
388.938	90.75
389.163	75.75
389.387	78.75
389.612	74.75
389.837	80.75
390.062	81.75
390.287	96.75
390.512	95.75
390.736	82.75
390.961	79.75
391.186	79.75
391.411	84.75
391.636	69.75
391.86	68.75
392.085	79.75
392.31	77.75
392.534	67.75
392.759	81.75
392.984	83.75
393.208	77.75
393.433	82.75
393.658	76.75
393.882	81.75
394.107	79.75
394.331	86.75
394.556	90.75
394.78	80.75
395.005	71.75
395.229	93.75
395.454	78.75
395.678	90.75
395.903	95.75
396.127	77.75
396.352	71.75
396.576	84.75
396.801	85.75
397.025	70.75
397.249	85.75
397.474	84.75
397.698	83.75
397.922	77.75
398.147	91.75
398.371	68.75
398.595	82.75
398.82	76.75
399.044	90.75
399.268	99.75
399.492	82.75
399.717	77.75
399.941	72.75
400.165	80.75
400.389	85.75
400.613	85.75
400.837	90.75
401.062	98.75
401.286	78.75
401.51	80.75
401.734	80.75
401.958	85.75
402.182	77.75
402.406	84.75
402.63	82.75
402.854	87.75
403.078	84.75
403.302	88.75
403.526	78.75
403.75	85.75
403.974	91.75
404.198	124.75
404.422	143.75
404.645	171.75
404.869	149.75
405.093	111.75
405.317	93.75
405.541	96.75
405.765	81.75
405.988	77.75
406.212	88.75
406.436	88.75
406.66	98.75
406.883	82.75
407.107	91.75
407.331	86.75
407.555	58.75
407.778	90.75
408.002	91.75
408.226	80.75
408.449	88.75
408.673	83.75
408.896	85.75
409.12	86.75
409.344	92.75
409.567	83.75
409.791	85.75
410.014	85.75
410.238	81.75
410.461	86.75
410.685	67.75
410.908	76.75
411.132	89.75
411.355	87.75
411.578	91.75
411.802	103.75
412.025	86.75
412.249	99.75
412.472	86.75
412.695	82.75
412.919	89.75
413.142	74.75
413.365	85.75
413.589	82.75
413.812	79.75
414.035	96.75
414.258	90.75
414.482	93.75
414.705	73.75
414.928	93.75
415.151	93.75
415.374	77.75
415.597	86.75
415.821	70.75
416.044	75.75
416.267	84.75
416.49	90.75
416.713	81.75
416.936	89.75
417.159	83.75
417.382	81.75
417.605	73.75
417.828	77.75
418.051	89.75
418.274	88.75
418.497	91.75
418.72	86.75
418.943	86.75
419.166	83.75
419.389	87.75
419.611	73.75
419.834	76.75
420.057	78.75
420.28	94.75
420.503	80.75
420.726	79.75
420.948	90.75
421.171	60.75
421.394	79.75
421.617	85.75
421.839	85.75
422.062	84.75
422.285	91.75
422.507	83.75
422.73	90.75
422.953	81.75
423.175	84.75
423.398	86.75
423.621	96.75
423.843	83.75
424.066	77.75
424.288	91.75
424.511	93.75
424.733	90.75
424.956	82.75
425.178	78.75
425.401	87.75
425.623	81.75
425.846	85.75
426.068	89.75
426.291	84.75
426.513	71.75
426.735	89.75
426.958	81.75
427.18	91.75
427.402	77.75
427.625	85.75
427.847	96.75
428.069	93.75
428.292	79.75
428.514	66.75
428.736	88.75
428.958	89.75
429.181	84.75
429.403	85.75
429.625	73.75
429.847	82.75
430.069	91.75
430.292	88.75
430.514	79.75
430.736	74.75
430.958	97.75
431.18	97.75
431.402	77.75
431.624	82.75
431.846	81.75
432.068	78.75
432.29	88.75
432.512	82.75
432.734	91.75
432.956	94.75
433.178	96.75
433.4	85.75
433.622	93.75
433.844	98.75
434.066	89.75
434.287	85.75
434.509	81.75
434.731	80.75
434.953	95.75
435.175	96.75
435.397	66.75
435.618	75.75
435.84	100.75
436.062	85.75
436.284	83.75
436.505	82.75
436.727	90.75
436.949	94.75
437.17	86.75
437.392	79.75
437.614	84.75
437.835	87.75
438.057	82.75
438.278	75.75
438.5	76.75
438.721	88.75
438.943	80.75
439.165	76.75
439.386	100.75
439.608	84.75
439.829	92.75
440.05	85.75
440.272	93.75
440.493	74.75
440.715	65.75
440.936	82.75
441.158	72.75
441.379	88.75
441.6	98.75
441.822	93.75
442.043	76.75
442.264	89.75
442.486	91.75
442.707	90.75
442.928	75.75
443.149	80.75
443.371	83.75
443.592	89.75
443.813	86.75
444.034	83.75
444.255	86.75
444.476	71.75
444.698	73.75
444.919	85.75
445.14	155.75
445.361	109.75
445.582	85.75
445.803	84.75
446.024	83.75
446.245	94.75
446.466	79.75
446.687	88.75
446.908	83.75
447.129	82.75
447.35	94.75
447.571	91.75
447.792	81.75
448.013	86.75
448.234	88.75
448.455	91.75
448.675	81.75
448.896	80.75
449.117	68.75
449.338	83.75
449.559	88.75
449.779	80.75
450	86.75
450.221	100.75
450.442	82.75
450.662	74.75
450.883	77.75
451.104	101.75
451.324	93.75
451.545	82.75
451.766	88.75
451.986	101.75
452.207	71.75
452.428	89.75
452.648	87.75
452.869	76.75
453.089	98.75
453.31	89.75
453.53	91.75
453.751	89.75
453.971	83.75
454.192	75.75
454.412	80.75
454.633	78.75
454.853	84.75
455.073	81.75
455.294	103.75
455.514	83.75
455.734	68.75
455.955	85.75
456.175	81.75
456.395	72.75
456.616	93.75
456.836	97.75
457.056	98.75
457.276	73.75
457.497	83.75
457.717	81.75
457.937	75.75
458.157	78.75
458.377	93.75
458.598	82.75
458.818	69.75
459.038	79.75
459.258	88.75
459.478	81.75
459.698	69.75
459.918	79.75
460.138	101.75
460.358	86.75
460.578	66.75
460.798	72.75
461.018	78.75
461.238	83.75
461.458	81.75
461.678	86.75
461.898	77.75
462.118	82.75
462.338	87.75
462.558	86.75
462.777	96.75
462.997	90.75
463.217	74.75
463.437	75.75
463.657	76.75
463.876	85.75
464.096	87.75
464.316	86.75
464.536	80.75
464.755	88.75
464.975	98.75
465.195	79.75
465.414	99.75
465.634	75.75
465.854	82.75
466.073	88.75
466.293	97.75
466.512	72.75
466.732	89.75
466.951	102.75
467.171	92.75
467.391	85.75
467.61	76.75
467.829	68.75
468.049	90.75
468.268	95.75
468.488	79.75
468.707	86.75
468.927	84.75
469.146	81.75
469.365	78.75
469.585	86.75
469.804	88.75
470.023	76.75
470.243	82.75
470.462	85.75
470.681	87.75
470.901	95.75
471.12	82.75
471.339	95.75
471.558	97.75
471.777	82.75
471.997	92.75
472.216	84.75
472.435	78.75
472.654	72.75
472.873	82.75
473.092	81.75
473.311	88.75
473.53	88.75
473.749	78.75
473.968	84.75
474.187	74.75
474.406	81.75
474.625	94.75
474.844	97.75
475.063	90.75
475.282	90.75
475.501	75.75
475.72	90.75
475.939	87.75
476.158	88.75
476.377	101.75
476.596	85.75
476.814	96.75
477.033	95.75
477.252	82.75
477.471	61.75
477.69	81.75
477.908	90.75
478.127	73.75
478.346	84.75
478.564	92.75
478.783	73.75
479.002	86.75
479.22	94.75
479.439	86.75
479.658	85.75
479.876	91.75
480.095	93.75
480.313	85.75
480.532	87.75
480.751	93.75
480.969	90.75
481.188	98.75
481.406	78.75
481.624	76.75
481.843	79.75
482.061	71.75
482.28	82.75
482.498	79.75
482.717	76.75
482.935	86.75
483.153	90.75
483.372	83.75
483.59	94.75
483.808	89.75
484.027	86.75
484.245	84.75
484.463	79.75
484.681	87.75
484.9	102.75
485.118	75.75
485.336	83.75
485.554	94.75
485.772	74.75
485.99	83.75
486.209	77.75
486.427	73.75
486.645	94.75
486.863	83.75
487.081	93.75
487.299	90.75
487.517	80.75
487.735	79.75
487.953	99.75
488.171	73.75
488.389	93.75
488.607	79.75
488.825	86.75
489.043	82.75
489.261	105.75
489.479	84.75
489.696	81.75
489.914	82.75
490.132	100.75
490.35	89.75
490.568	94.75
490.786	74.75
491.003	87.75
491.221	97.75
491.439	92.75
491.657	87.75
491.874	107.75
492.092	91.75
492.31	95.75
492.527	85.75
492.745	88.75
492.963	118.75
493.18	82.75
493.398	84.75
493.615	104.75
493.833	85.75
494.05	92.75
494.268	95.75
494.485	76.75
494.703	101.75
494.92	91.75
495.138	100.75
495.355	88.75
495.573	89.75
495.79	82.75
496.008	102.75
496.225	86.75
496.442	89.75
496.66	94.75
496.877	79.75
497.094	78.75
497.312	90.75
497.529	85.75
497.746	86.75
497.963	93.75
498.181	81.75
498.398	82.75
498.615	86.75
498.832	82.75
499.049	97.75
499.267	99.75
499.484	93.75
499.701	91.75
499.918	87.75
500.135	94.75
500.352	83.75
500.569	81.75
500.786	78.75
501.003	83.75
501.22	77.75
501.437	78.75
501.654	74.75
501.871	82.75
502.088	79.75
502.305	87.75
502.522	82.75
502.739	94.75
502.956	76.75
503.172	89.75
503.389	81.75
503.606	85.75
503.823	88.75
504.04	99.75
504.256	85.75
504.473	93.75
504.69	77.75
504.907	93.75
505.123	87.75
505.34	101.75
505.557	97.75
505.773	85.75
505.99	83.75
506.207	80.75
506.423	101.75
506.64	103.75
506.856	78.75
507.073	75.75
507.289	94.75
507.506	99.75
507.722	91.75
507.939	87.75
508.155	96.75
508.372	85.75
508.588	91.75
508.805	86.75
509.021	85.75
509.238	89.75
509.454	82.75
509.67	87.75
509.887	76.75
510.103	94.75
510.319	96.75
510.536	82.75
510.752	79.75
510.968	95.75
511.184	86.75
511.401	91.75
511.617	87.75
511.833	100.75
512.049	77.75
512.265	89.75
512.481	91.75
512.698	90.75
512.914	88.75
513.13	85.75
513.346	86.75
513.562	79.75
513.778	82.75
513.994	82.75
514.21	87.75
514.426	85.75
514.642	74.75
514.858	75.75
515.074	78.75
515.29	90.75
515.506	91.75
515.721	83.75
515.937	79.75
516.153	87.75
516.369	89.75
516.585	80.75
516.801	92.75
517.016	71.75
517.232	87.75
517.448	85.75
517.664	86.75
517.879	89.75
518.095	86.75
518.311	90.75
518.527	96.75
518.742	88.75
518.958	81.75
519.173	82.75
519.389	80.75
519.605	102.75
