Data from KBrNoHeat_HRD10591_00003.txt Node
Date: Fri Dec 27 14:39:10 EST 2024
User: Yrep
Spectrometer: HR+D1059
Trigger mode: 1
Integration Time (sec): 1.000000E-1
Scans to average: 1
Electric dark correction enabled: true
Nonlinearity correction enabled: false
Boxcar width: 0
XAxis mode: Wavelengths
Number of Pixels in Spectrum: 2048
>>>>>Begin Spectral Data<<<<<
223.165	-16.38
223.4	-16.38
223.635	-16.38
223.869	-23.38
224.104	-31.38
224.338	-18.38
224.573	-24.38
224.808	-12.38
225.042	-10.38
225.277	-1.38
225.511	-4.38
225.746	2.62
225.98	4.62
226.215	12.62
226.449	32.62
226.683	22.62
226.918	35.62
227.152	31.62
227.387	32.62
227.621	35.62
227.856	34.62
228.09	46.62
228.324	55.62
228.559	52.62
228.793	57.62
229.027	62.62
229.262	77.62
229.496	64.62
229.73	77.62
229.964	75.62
230.199	54.62
230.433	78.62
230.667	73.62
230.901	80.62
231.136	65.62
231.37	74.62
231.604	77.62
231.838	70.62
232.072	66.62
232.306	86.62
232.541	82.62
232.775	79.62
233.009	69.62
233.243	70.62
233.477	66.62
233.711	74.62
233.945	68.62
234.179	70.62
234.413	74.62
234.647	81.62
234.881	80.62
235.115	78.62
235.349	67.62
235.583	73.62
235.817	82.62
236.051	66.62
236.285	66.62
236.519	80.62
236.753	82.62
236.987	71.62
237.221	68.62
237.455	67.62
237.689	62.62
237.922	65.62
238.156	71.62
238.39	64.62
238.624	80.62
238.858	60.62
239.091	63.62
239.325	70.62
239.559	77.62
239.793	65.62
240.027	75.62
240.26	72.62
240.494	70.62
240.728	82.62
240.961	83.62
241.195	62.62
241.429	76.62
241.662	70.62
241.896	84.62
242.13	85.62
242.363	67.62
242.597	69.62
242.83	81.62
243.064	77.62
243.298	65.62
243.531	72.62
243.765	74.62
243.998	71.62
244.232	79.62
244.465	78.62
244.699	67.62
244.932	71.62
245.166	63.62
245.399	80.62
245.633	71.62
245.866	69.62
246.099	65.62
246.333	69.62
246.566	61.62
246.8	72.62
247.033	74.62
247.266	84.62
247.5	80.62
247.733	78.62
247.966	84.62
248.2	79.62
248.433	74.62
248.666	67.62
248.899	70.62
249.133	80.62
249.366	96.62
249.599	81.62
249.832	74.62
250.066	75.62
250.299	72.62
250.532	70.62
250.765	76.62
250.998	69.62
251.231	50.62
251.465	74.62
251.698	76.62
251.931	73.62
252.164	63.62
252.397	77.62
252.63	92.62
252.863	61.62
253.096	76.62
253.329	80.62
253.562	80.62
253.795	79.62
254.028	80.62
254.261	74.62
254.494	72.62
254.727	81.62
254.96	64.62
255.193	81.62
255.426	64.62
255.659	69.62
255.892	84.62
256.124	71.62
256.357	63.62
256.59	76.62
256.823	63.62
257.056	79.62
257.289	83.62
257.521	72.62
257.754	88.62
257.987	51.62
258.22	80.62
258.452	76.62
258.685	87.62
258.918	86.62
259.151	67.62
259.383	75.62
259.616	64.62
259.849	72.62
260.081	83.62
260.314	83.62
260.547	91.62
260.779	71.62
261.012	80.62
261.244	67.62
261.477	79.62
261.71	91.62
261.942	66.62
262.175	67.62
262.407	76.62
262.64	85.62
262.872	67.62
263.105	82.62
263.337	69.62
263.57	76.62
263.802	87.62
264.035	72.62
264.267	78.62
264.499	74.62
264.732	90.62
264.964	79.62
265.197	69.62
265.429	76.62
265.661	75.62
265.894	92.62
266.126	80.62
266.358	69.62
266.591	66.62
266.823	70.62
267.055	84.62
267.287	88.62
267.52	75.62
267.752	78.62
267.984	77.62
268.216	68.62
268.448	72.62
268.681	71.62
268.913	81.62
269.145	62.62
269.377	79.62
269.609	82.62
269.841	75.62
270.073	76.62
270.306	73.62
270.538	69.62
270.77	75.62
271.002	73.62
271.234	58.62
271.466	90.62
271.698	86.62
271.93	62.62
272.162	86.62
272.394	79.62
272.626	82.62
272.858	70.62
273.09	78.62
273.322	73.62
273.553	78.62
273.785	76.62
274.017	74.62
274.249	79.62
274.481	81.62
274.713	67.62
274.945	86.62
275.176	67.62
275.408	76.62
275.64	85.62
275.872	66.62
276.104	77.62
276.335	68.62
276.567	73.62
276.799	95.62
277.031	79.62
277.262	68.62
277.494	90.62
277.726	82.62
277.957	77.62
278.189	75.62
278.421	65.62
278.652	78.62
278.884	84.62
279.115	80.62
279.347	60.62
279.579	71.62
279.81	72.62
280.042	82.62
280.273	67.62
280.505	70.62
280.736	95.62
280.968	77.62
281.199	74.62
281.431	71.62
281.662	79.62
281.894	82.62
282.125	89.62
282.356	90.62
282.588	80.62
282.819	79.62
283.051	79.62
283.282	81.62
283.513	82.62
283.745	80.62
283.976	79.62
284.207	93.62
284.439	76.62
284.67	86.62
284.901	77.62
285.132	66.62
285.364	90.62
285.595	83.62
285.826	73.62
286.057	69.62
286.288	76.62
286.52	73.62
286.751	91.62
286.982	90.62
287.213	77.62
287.444	87.62
287.675	78.62
287.906	79.62
288.138	81.62
288.369	80.62
288.6	76.62
288.831	77.62
289.062	75.62
289.293	79.62
289.524	79.62
289.755	80.62
289.986	72.62
290.217	70.62
290.448	74.62
290.679	76.62
290.91	86.62
291.141	84.62
291.371	83.62
291.602	79.62
291.833	78.62
292.064	95.62
292.295	77.62
292.526	67.62
292.757	69.62
292.987	78.62
293.218	91.62
293.449	95.62
293.68	103.62
293.91	70.62
294.141	84.62
294.372	76.62
294.603	69.62
294.833	76.62
295.064	78.62
295.295	83.62
295.525	76.62
295.756	74.62
295.987	65.62
296.217	83.62
296.448	85.62
296.679	76.62
296.909	86.62
297.14	78.62
297.37	74.62
297.601	54.62
297.831	71.62
298.062	80.62
298.292	82.62
298.523	76.62
298.753	77.62
298.984	73.62
299.214	87.62
299.445	81.62
299.675	70.62
299.905	84.62
300.136	78.62
300.366	87.62
300.597	87.62
300.827	86.62
301.057	80.62
301.288	79.62
301.518	61.62
301.748	83.62
301.979	90.62
302.209	70.62
302.439	80.62
302.669	67.62
302.9	67.62
303.13	87.62
303.36	86.62
303.59	67.62
303.82	77.62
304.051	66.62
304.281	76.62
304.511	72.62
304.741	82.62
304.971	83.62
305.201	72.62
305.431	87.62
305.661	81.62
305.891	80.62
306.121	81.62
306.352	78.62
306.582	82.62
306.812	76.62
307.042	76.62
307.272	76.62
307.502	81.62
307.731	79.62
307.961	84.62
308.191	70.62
308.421	86.62
308.651	81.62
308.881	90.62
309.111	71.62
309.341	106.62
309.571	68.62
309.8	75.62
310.03	74.62
310.26	74.62
310.49	79.62
310.72	68.62
310.949	73.62
311.179	84.62
311.409	85.62
311.639	70.62
311.868	92.62
312.098	83.62
312.328	70.62
312.557	70.62
312.787	80.62
313.017	83.62
313.246	76.62
313.476	79.62
313.706	68.62
313.935	90.62
314.165	82.62
314.394	83.62
314.624	78.62
314.853	83.62
315.083	86.62
315.312	83.62
315.542	83.62
315.771	91.62
316.001	106.62
316.23	99.62
316.46	86.62
316.689	82.62
316.919	75.62
317.148	83.62
317.377	80.62
317.607	90.62
317.836	83.62
318.065	85.62
318.295	61.62
318.524	72.62
318.753	88.62
318.983	75.62
319.212	80.62
319.441	89.62
319.67	75.62
319.9	75.62
320.129	71.62
320.358	80.62
320.587	79.62
320.816	76.62
321.046	85.62
321.275	77.62
321.504	83.62
321.733	90.62
321.962	81.62
322.191	90.62
322.42	77.62
322.649	83.62
322.878	82.62
323.108	83.62
323.337	66.62
323.566	63.62
323.795	80.62
324.024	97.62
324.253	81.62
324.482	69.62
324.71	80.62
324.939	87.62
325.168	65.62
325.397	80.62
325.626	94.62
325.855	71.62
326.084	83.62
326.313	86.62
326.542	78.62
326.77	67.62
326.999	83.62
327.228	84.62
327.457	68.62
327.686	74.62
327.914	78.62
328.143	84.62
328.372	74.62
328.6	85.62
328.829	81.62
329.058	78.62
329.287	83.62
329.515	80.62
329.744	88.62
329.972	75.62
330.201	86.62
330.43	83.62
330.658	84.62
330.887	87.62
331.115	70.62
331.344	87.62
331.572	92.62
331.801	82.62
332.03	69.62
332.258	79.62
332.486	82.62
332.715	81.62
332.943	87.62
333.172	74.62
333.4	86.62
333.629	86.62
333.857	84.62
334.085	74.62
334.314	97.62
334.542	61.62
334.771	83.62
334.999	83.62
335.227	86.62
335.455	78.62
335.684	81.62
335.912	82.62
336.14	81.62
336.369	79.62
336.597	82.62
336.825	95.62
337.053	72.62
337.281	79.62
337.51	77.62
337.738	70.62
337.966	84.62
338.194	92.62
338.422	74.62
338.65	76.62
338.878	75.62
339.106	66.62
339.334	88.62
339.562	74.62
339.79	73.62
340.018	92.62
340.246	82.62
340.474	76.62
340.702	92.62
340.93	81.62
341.158	79.62
341.386	87.62
341.614	83.62
341.842	73.62
342.07	90.62
342.298	94.62
342.526	92.62
342.754	85.62
342.981	77.62
343.209	85.62
343.437	97.62
343.665	73.62
343.893	88.62
344.12	90.62
344.348	84.62
344.576	93.62
344.804	83.62
345.031	92.62
345.259	96.62
345.487	87.62
345.714	85.62
345.942	83.62
346.17	91.62
346.397	82.62
346.625	83.62
346.853	93.62
347.08	66.62
347.308	79.62
347.535	82.62
347.763	80.62
347.99	98.62
348.218	82.62
348.445	68.62
348.673	86.62
348.9	67.62
349.128	79.62
349.355	84.62
349.583	81.62
349.81	87.62
350.037	85.62
350.265	88.62
350.492	92.62
350.72	78.62
350.947	79.62
351.174	83.62
351.402	75.62
351.629	71.62
351.856	73.62
352.083	85.62
352.311	80.62
352.538	91.62
352.765	90.62
352.992	85.62
353.22	76.62
353.447	79.62
353.674	88.62
353.901	84.62
354.128	97.62
354.355	76.62
354.583	68.62
354.81	81.62
355.037	102.62
355.264	84.62
355.491	76.62
355.718	75.62
355.945	96.62
356.172	92.62
356.399	68.62
356.626	92.62
356.853	77.62
357.08	79.62
357.307	78.62
357.534	90.62
357.761	79.62
357.988	70.62
358.215	87.62
358.441	81.62
358.668	83.62
358.895	78.62
359.122	97.62
359.349	91.62
359.576	81.62
359.802	83.62
360.029	77.62
360.256	75.62
360.483	83.62
360.709	71.62
360.936	81.62
361.163	65.62
361.39	73.62
361.616	76.62
361.843	86.62
362.07	92.62
362.296	80.62
362.523	84.62
362.749	69.62
362.976	84.62
363.203	80.62
363.429	77.62
363.656	77.62
363.882	70.62
364.109	95.62
364.335	76.62
364.562	72.62
364.788	71.62
365.015	74.62
365.241	70.62
365.468	88.62
365.694	80.62
365.92	82.62
366.147	78.62
366.373	61.62
366.599	78.62
366.826	75.62
367.052	66.62
367.278	90.62
367.505	87.62
367.731	92.62
367.957	84.62
368.184	89.62
368.41	88.62
368.636	75.62
368.862	93.62
369.089	70.62
369.315	80.62
369.541	90.62
369.767	77.62
369.993	73.62
370.219	72.62
370.445	84.62
370.672	74.62
370.898	76.62
371.124	78.62
371.35	86.62
371.576	76.62
371.802	74.62
372.028	87.62
372.254	84.62
372.48	85.62
372.706	85.62
372.932	84.62
373.158	75.62
373.384	86.62
373.61	80.62
373.835	94.62
374.061	80.62
374.287	85.62
374.513	80.62
374.739	80.62
374.965	81.62
375.191	69.62
375.416	73.62
375.642	73.62
375.868	80.62
376.094	83.62
376.319	87.62
376.545	84.62
376.771	73.62
376.997	83.62
377.222	80.62
377.448	87.62
377.674	77.62
377.899	80.62
378.125	70.62
378.35	80.62
378.576	84.62
378.802	82.62
379.027	86.62
379.253	71.62
379.478	70.62
379.704	92.62
379.929	94.62
380.155	77.62
380.38	76.62
380.606	78.62
380.831	87.62
381.057	94.62
381.282	77.62
381.507	90.62
381.733	80.62
381.958	80.62
382.184	90.62
382.409	80.62
382.634	83.62
382.86	71.62
383.085	83.62
383.31	62.62
383.535	77.62
383.761	83.62
383.986	73.62
384.211	78.62
384.436	95.62
384.662	78.62
384.887	86.62
385.112	84.62
385.337	78.62
385.562	81.62
385.787	71.62
386.013	70.62
386.238	79.62
386.463	90.62
386.688	85.62
386.913	80.62
387.138	68.62
387.363	73.62
387.588	76.62
387.813	84.62
388.038	86.62
388.263	81.62
388.488	82.62
388.713	85.62
388.938	82.62
389.163	64.62
389.387	86.62
389.612	80.62
389.837	74.62
390.062	81.62
390.287	69.62
390.512	84.62
390.736	83.62
390.961	81.62
391.186	78.62
391.411	74.62
391.636	74.62
391.86	94.62
392.085	71.62
392.31	78.62
392.534	73.62
392.759	86.62
392.984	88.62
393.208	76.62
393.433	86.62
393.658	82.62
393.882	77.62
394.107	71.62
394.331	98.62
394.556	83.62
394.78	94.62
395.005	81.62
395.229	80.62
395.454	74.62
395.678	95.62
395.903	84.62
396.127	66.62
396.352	73.62
396.576	100.62
396.801	73.62
397.025	91.62
397.249	79.62
397.474	87.62
397.698	90.62
397.922	74.62
398.147	79.62
398.371	77.62
398.595	78.62
398.82	83.62
399.044	77.62
399.268	90.62
399.492	86.62
399.717	98.62
399.941	76.62
400.165	84.62
400.389	76.62
400.613	63.62
400.837	79.62
401.062	80.62
401.286	87.62
401.51	78.62
401.734	97.62
401.958	79.62
402.182	82.62
402.406	86.62
402.63	84.62
402.854	91.62
403.078	67.62
403.302	84.62
403.526	82.62
403.75	85.62
403.974	98.62
404.198	102.62
404.422	161.62
404.645	169.62
404.869	162.62
405.093	116.62
405.317	79.62
405.541	92.62
405.765	83.62
405.988	71.62
406.212	83.62
406.436	74.62
406.66	91.62
406.883	83.62
407.107	87.62
407.331	71.62
407.555	73.62
407.778	78.62
408.002	84.62
408.226	95.62
408.449	83.62
408.673	84.62
408.896	87.62
409.12	71.62
409.344	79.62
409.567	76.62
409.791	76.62
410.014	80.62
410.238	86.62
410.461	79.62
410.685	79.62
410.908	68.62
411.132	71.62
411.355	92.62
411.578	79.62
411.802	84.62
412.025	87.62
412.249	77.62
412.472	87.62
412.695	80.62
412.919	86.62
413.142	82.62
413.365	87.62
413.589	80.62
413.812	79.62
414.035	85.62
414.258	78.62
414.482	97.62
414.705	78.62
414.928	78.62
415.151	92.62
415.374	83.62
415.597	74.62
415.821	76.62
416.044	80.62
416.267	86.62
416.49	78.62
416.713	73.62
416.936	81.62
417.159	76.62
417.382	97.62
417.605	90.62
417.828	74.62
418.051	85.62
418.274	65.62
418.497	85.62
418.72	61.62
418.943	82.62
419.166	90.62
419.389	80.62
419.611	82.62
419.834	80.62
420.057	80.62
420.28	83.62
420.503	83.62
420.726	69.62
420.948	74.62
421.171	71.62
421.394	80.62
421.617	92.62
421.839	72.62
422.062	75.62
422.285	83.62
422.507	84.62
422.73	99.62
422.953	86.62
423.175	97.62
423.398	72.62
423.621	79.62
423.843	72.62
424.066	75.62
424.288	78.62
424.511	72.62
424.733	90.62
424.956	90.62
425.178	77.62
425.401	86.62
425.623	84.62
425.846	79.62
426.068	79.62
426.291	86.62
426.513	71.62
426.735	87.62
426.958	70.62
427.18	84.62
427.402	75.62
427.625	77.62
427.847	91.62
428.069	71.62
428.292	62.62
428.514	80.62
428.736	81.62
428.958	68.62
429.181	74.62
429.403	73.62
429.625	91.62
429.847	97.62
430.069	67.62
430.292	87.62
430.514	95.62
430.736	72.62
430.958	79.62
431.18	73.62
431.402	80.62
431.624	85.62
431.846	83.62
432.068	99.62
432.29	69.62
432.512	82.62
432.734	80.62
432.956	84.62
433.178	76.62
433.4	77.62
433.622	73.62
433.844	77.62
434.066	80.62
434.287	93.62
434.509	70.62
434.731	90.62
434.953	72.62
435.175	65.62
435.397	81.62
435.618	98.62
435.84	79.62
436.062	85.62
436.284	92.62
436.505	73.62
436.727	86.62
436.949	81.62
437.17	88.62
437.392	100.62
437.614	93.62
437.835	86.62
438.057	77.62
438.278	78.62
438.5	73.62
438.721	88.62
438.943	85.62
439.165	76.62
439.386	88.62
439.608	100.62
439.829	75.62
440.05	98.62
440.272	102.62
440.493	76.62
440.715	75.62
440.936	80.62
441.158	86.62
441.379	70.62
441.6	90.62
441.822	98.62
442.043	85.62
442.264	86.62
442.486	84.62
442.707	68.62
442.928	79.62
443.149	92.62
443.371	86.62
443.592	89.62
443.813	100.62
444.034	83.62
444.255	86.62
444.476	80.62
444.698	92.62
444.919	76.62
445.14	160.62
445.361	110.62
445.582	92.62
445.803	90.62
446.024	86.62
446.245	89.62
446.466	83.62
446.687	85.62
446.908	73.62
447.129	81.62
447.35	78.62
447.571	71.62
447.792	83.62
448.013	77.62
448.234	104.62
448.455	91.62
448.675	75.62
448.896	84.62
449.117	85.62
449.338	83.62
449.559	75.62
449.779	101.62
450	77.62
450.221	81.62
450.442	80.62
450.662	90.62
450.883	77.62
451.104	92.62
451.324	85.62
451.545	87.62
451.766	79.62
451.986	80.62
452.207	75.62
452.428	81.62
452.648	72.62
452.869	70.62
453.089	81.62
453.31	73.62
453.53	84.62
453.751	93.62
453.971	87.62
454.192	91.62
454.412	84.62
454.633	93.62
454.853	82.62
455.073	82.62
455.294	86.62
455.514	88.62
455.734	63.62
455.955	93.62
456.175	91.62
456.395	87.62
456.616	72.62
456.836	88.62
457.056	85.62
457.276	87.62
457.497	79.62
457.717	81.62
457.937	83.62
458.157	73.62
458.377	82.62
458.598	77.62
458.818	86.62
459.038	80.62
459.258	103.62
459.478	92.62
459.698	80.62
459.918	84.62
460.138	75.62
460.358	76.62
460.578	76.62
460.798	72.62
461.018	77.62
461.238	84.62
461.458	80.62
461.678	70.62
461.898	83.62
462.118	86.62
462.338	81.62
462.558	83.62
462.777	77.62
462.997	81.62
463.217	78.62
463.437	80.62
463.657	83.62
463.876	85.62
464.096	87.62
464.316	74.62
464.536	74.62
464.755	75.62
464.975	84.62
465.195	90.62
465.414	88.62
465.634	86.62
465.854	79.62
466.073	79.62
466.293	92.62
466.512	74.62
466.732	72.62
466.951	93.62
467.171	95.62
467.391	96.62
467.61	78.62
467.829	77.62
468.049	83.62
468.268	78.62
468.488	85.62
468.707	73.62
468.927	75.62
469.146	87.62
469.365	68.62
469.585	90.62
469.804	85.62
470.023	79.62
470.243	88.62
470.462	95.62
470.681	74.62
470.901	95.62
471.12	73.62
471.339	87.62
471.558	87.62
471.777	87.62
471.997	80.62
472.216	84.62
472.435	84.62
472.654	83.62
472.873	90.62
473.092	78.62
473.311	80.62
473.53	93.62
473.749	76.62
473.968	83.62
474.187	76.62
474.406	86.62
474.625	88.62
474.844	78.62
475.063	76.62
475.282	74.62
475.501	84.62
475.72	79.62
475.939	77.62
476.158	78.62
476.377	74.62
476.596	100.62
476.814	75.62
477.033	87.62
477.252	85.62
477.471	87.62
477.69	81.62
477.908	79.62
478.127	82.62
478.346	83.62
478.564	98.62
478.783	86.62
479.002	76.62
479.22	83.62
479.439	82.62
479.658	90.62
479.876	98.62
480.095	100.62
480.313	85.62
480.532	80.62
480.751	87.62
480.969	79.62
481.188	91.62
481.406	88.62
481.624	81.62
481.843	80.62
482.061	76.62
482.28	93.62
482.498	76.62
482.717	76.62
482.935	83.62
483.153	81.62
483.372	87.62
483.59	78.62
483.808	94.62
484.027	71.62
484.245	83.62
484.463	81.62
484.681	83.62
484.9	97.62
485.118	83.62
485.336	96.62
485.554	78.62
485.772	95.62
485.99	78.62
486.209	72.62
486.427	75.62
486.645	74.62
486.863	78.62
487.081	86.62
487.299	86.62
487.517	86.62
487.735	90.62
487.953	86.62
488.171	85.62
488.389	74.62
488.607	81.62
488.825	79.62
489.043	71.62
489.261	85.62
489.479	103.62
489.696	95.62
489.914	82.62
490.132	84.62
490.35	79.62
490.568	90.62
490.786	90.62
491.003	95.62
491.221	93.62
491.439	85.62
491.657	69.62
491.874	87.62
492.092	90.62
492.31	89.62
492.527	101.62
492.745	87.62
492.963	90.62
493.18	91.62
493.398	99.62
493.615	99.62
493.833	94.62
494.05	98.62
494.268	94.62
494.485	84.62
494.703	83.62
494.92	84.62
495.138	83.62
495.355	90.62
495.573	94.62
495.79	76.62
496.008	80.62
496.225	84.62
496.442	92.62
496.66	93.62
496.877	89.62
497.094	93.62
497.312	77.62
497.529	84.62
497.746	86.62
497.963	87.62
498.181	83.62
498.398	95.62
498.615	83.62
498.832	84.62
499.049	86.62
499.267	85.62
499.484	94.62
499.701	88.62
499.918	89.62
500.135	100.62
500.352	98.62
500.569	81.62
500.786	87.62
501.003	90.62
501.22	70.62
501.437	77.62
501.654	76.62
501.871	90.62
502.088	82.62
502.305	98.62
502.522	88.62
502.739	86.62
502.956	95.62
503.172	88.62
503.389	90.62
503.606	86.62
503.823	69.62
504.04	94.62
504.256	81.62
504.473	82.62
504.69	81.62
504.907	100.62
505.123	86.62
505.34	80.62
505.557	80.62
505.773	92.62
505.99	81.62
506.207	92.62
506.423	78.62
506.64	78.62
506.856	88.62
507.073	78.62
507.289	88.62
507.506	90.62
507.722	82.62
507.939	93.62
508.155	87.62
508.372	93.62
508.588	74.62
508.805	92.62
509.021	65.62
509.238	74.62
509.454	88.62
509.67	75.62
509.887	87.62
510.103	90.62
510.319	84.62
510.536	104.62
510.752	87.62
510.968	74.62
511.184	81.62
511.401	95.62
511.617	78.62
511.833	79.62
512.049	91.62
512.265	106.62
512.481	101.62
512.698	95.62
512.914	96.62
513.13	103.62
513.346	95.62
513.562	78.62
513.778	87.62
513.994	75.62
514.21	90.62
514.426	79.62
514.642	74.62
514.858	79.62
515.074	89.62
515.29	73.62
515.506	90.62
515.721	86.62
515.937	80.62
516.153	96.62
516.369	79.62
516.585	72.62
516.801	81.62
517.016	86.62
517.232	84.62
517.448	97.62
517.664	83.62
517.879	87.62
518.095	76.62
518.311	86.62
518.527	87.62
518.742	86.62
518.958	84.62
519.173	88.62
519.389	86.62
519.605	73.62
519.82	71.62
