Data from KBrNoHeat_HRD10591_00005.txt Node
Date: Fri Dec 27 14:39:12 EST 2024
User: Yrep
Spectrometer: HR+D1059
Trigger mode: 1
Integration Time (sec): 1.000000E-1
Scans to average: 1
Electric dark correction enabled: true
Nonlinearity correction enabled: false
Boxcar width: 0
XAxis mode: Wavelengths
Number of Pixels in Spectrum: 2048
>>>>>Begin Spectral Data<<<<<
223.165	-18.62
223.4	-18.62
223.635	-18.62
223.869	-30.62
224.104	-26.62
224.338	-6.62
224.573	-15.62
224.808	-10.62
225.042	-8.62
225.277	-1.62
225.511	-5.62
225.746	-1.62
225.98	14.38
226.215	12.38
226.449	19.38
226.683	20.38
226.918	21.38
227.152	38.38
227.387	39.38
227.621	45.38
227.856	46.38
228.09	60.38
228.324	54.38
228.559	55.38
228.793	54.38
229.027	81.38
229.262	82.38
229.496	63.38
229.73	77.38
229.964	65.38
230.199	75.38
230.433	76.38
230.667	88.38
230.901	75.38
231.136	82.38
231.37	86.38
231.604	79.38
231.838	78.38
232.072	86.38
232.306	75.38
232.541	76.38
232.775	87.38
233.009	70.38
233.243	61.38
233.477	80.38
233.711	85.38
233.945	80.38
234.179	79.38
234.413	88.38
234.647	65.38
234.881	85.38
235.115	90.38
235.349	82.38
235.583	89.38
235.817	79.38
236.051	73.38
236.285	73.38
236.519	89.38
236.753	73.38
236.987	88.38
237.221	74.38
237.455	77.38
237.689	85.38
237.922	66.38
238.156	73.38
238.39	82.38
238.624	77.38
238.858	77.38
239.091	72.38
239.325	68.38
239.559	89.38
239.793	74.38
240.027	80.38
240.26	78.38
240.494	91.38
240.728	69.38
240.961	63.38
241.195	82.38
241.429	80.38
241.662	80.38
241.896	79.38
242.13	65.38
242.363	58.38
242.597	81.38
242.83	76.38
243.064	84.38
243.298	74.38
243.531	64.38
243.765	74.38
243.998	76.38
244.232	61.38
244.465	79.38
244.699	75.38
244.932	74.38
245.166	82.38
245.399	76.38
245.633	77.38
245.866	84.38
246.099	75.38
246.333	82.38
246.566	88.38
246.8	77.38
247.033	70.38
247.266	75.38
247.5	80.38
247.733	76.38
247.966	89.38
248.2	91.38
248.433	77.38
248.666	80.38
248.899	83.38
249.133	71.38
249.366	88.38
249.599	93.38
249.832	73.38
250.066	77.38
250.299	59.38
250.532	83.38
250.765	75.38
250.998	64.38
251.231	73.38
251.465	87.38
251.698	64.38
251.931	83.38
252.164	85.38
252.397	79.38
252.63	74.38
252.863	80.38
253.096	95.38
253.329	73.38
253.562	69.38
253.795	90.38
254.028	82.38
254.261	84.38
254.494	80.38
254.727	83.38
254.96	86.38
255.193	78.38
255.426	90.38
255.659	83.38
255.892	82.38
256.124	83.38
256.357	82.38
256.59	73.38
256.823	84.38
257.056	88.38
257.289	59.38
257.521	83.38
257.754	86.38
257.987	78.38
258.22	75.38
258.452	66.38
258.685	85.38
258.918	78.38
259.151	74.38
259.383	85.38
259.616	87.38
259.849	82.38
260.081	75.38
260.314	78.38
260.547	67.38
260.779	78.38
261.012	89.38
261.244	76.38
261.477	86.38
261.71	77.38
261.942	91.38
262.175	95.38
262.407	72.38
262.64	93.38
262.872	86.38
263.105	95.38
263.337	89.38
263.57	77.38
263.802	77.38
264.035	77.38
264.267	66.38
264.499	78.38
264.732	93.38
264.964	96.38
265.197	80.38
265.429	70.38
265.661	77.38
265.894	85.38
266.126	79.38
266.358	74.38
266.591	84.38
266.823	91.38
267.055	80.38
267.287	84.38
267.52	77.38
267.752	75.38
267.984	79.38
268.216	87.38
268.448	104.38
268.681	88.38
268.913	86.38
269.145	66.38
269.377	71.38
269.609	85.38
269.841	87.38
270.073	75.38
270.306	87.38
270.538	93.38
270.77	83.38
271.002	87.38
271.234	72.38
271.466	79.38
271.698	84.38
271.93	65.38
272.162	70.38
272.394	88.38
272.626	69.38
272.858	85.38
273.09	78.38
273.322	85.38
273.553	85.38
273.785	82.38
274.017	84.38
274.249	78.38
274.481	85.38
274.713	70.38
274.945	90.38
275.176	83.38
275.408	81.38
275.64	75.38
275.872	95.38
276.104	83.38
276.335	98.38
276.567	85.38
276.799	97.38
277.031	71.38
277.262	86.38
277.494	71.38
277.726	106.38
277.957	72.38
278.189	86.38
278.421	96.38
278.652	75.38
278.884	93.38
279.115	86.38
279.347	86.38
279.579	83.38
279.81	73.38
280.042	82.38
280.273	90.38
280.505	71.38
280.736	78.38
280.968	84.38
281.199	74.38
281.431	86.38
281.662	77.38
281.894	99.38
282.125	84.38
282.356	78.38
282.588	87.38
282.819	85.38
283.051	80.38
283.282	85.38
283.513	81.38
283.745	106.38
283.976	84.38
284.207	87.38
284.439	88.38
284.67	94.38
284.901	78.38
285.132	84.38
285.364	88.38
285.595	80.38
285.826	87.38
286.057	90.38
286.288	87.38
286.52	90.38
286.751	77.38
286.982	83.38
287.213	73.38
287.444	91.38
287.675	81.38
287.906	80.38
288.138	74.38
288.369	71.38
288.6	85.38
288.831	68.38
289.062	75.38
289.293	78.38
289.524	86.38
289.755	79.38
289.986	96.38
290.217	101.38
290.448	65.38
290.679	87.38
290.91	90.38
291.141	73.38
291.371	97.38
291.602	88.38
291.833	77.38
292.064	91.38
292.295	89.38
292.526	72.38
292.757	84.38
292.987	80.38
293.218	74.38
293.449	84.38
293.68	79.38
293.91	86.38
294.141	78.38
294.372	79.38
294.603	93.38
294.833	78.38
295.064	92.38
295.295	83.38
295.525	82.38
295.756	76.38
295.987	85.38
296.217	83.38
296.448	70.38
296.679	74.38
296.909	78.38
297.14	85.38
297.37	92.38
297.601	88.38
297.831	83.38
298.062	76.38
298.292	92.38
298.523	78.38
298.753	81.38
298.984	95.38
299.214	81.38
299.445	80.38
299.675	85.38
299.905	69.38
300.136	86.38
300.366	71.38
300.597	93.38
300.827	91.38
301.057	78.38
301.288	84.38
301.518	107.38
301.748	90.38
301.979	96.38
302.209	86.38
302.439	75.38
302.669	88.38
302.9	77.38
303.13	78.38
303.36	95.38
303.59	82.38
303.82	93.38
304.051	93.38
304.281	93.38
304.511	95.38
304.741	104.38
304.971	87.38
305.201	89.38
305.431	71.38
305.661	93.38
305.891	86.38
306.121	95.38
306.352	76.38
306.582	72.38
306.812	93.38
307.042	89.38
307.272	69.38
307.502	75.38
307.731	90.38
307.961	89.38
308.191	90.38
308.421	93.38
308.651	87.38
308.881	82.38
309.111	97.38
309.341	84.38
309.571	82.38
309.8	93.38
310.03	97.38
310.26	82.38
310.49	88.38
310.72	85.38
310.949	81.38
311.179	93.38
311.409	87.38
311.639	83.38
311.868	75.38
312.098	95.38
312.328	97.38
312.557	67.38
312.787	94.38
313.017	88.38
313.246	94.38
313.476	83.38
313.706	86.38
313.935	97.38
314.165	99.38
314.394	84.38
314.624	73.38
314.853	84.38
315.083	81.38
315.312	100.38
315.542	87.38
315.771	87.38
316.001	97.38
316.23	95.38
316.46	94.38
316.689	79.38
316.919	107.38
317.148	93.38
317.377	85.38
317.607	89.38
317.836	87.38
318.065	90.38
318.295	84.38
318.524	78.38
318.753	81.38
318.983	88.38
319.212	89.38
319.441	86.38
319.67	95.38
319.9	101.38
320.129	97.38
320.358	98.38
320.587	95.38
320.816	93.38
321.046	93.38
321.275	82.38
321.504	87.38
321.733	91.38
321.962	88.38
322.191	80.38
322.42	90.38
322.649	75.38
322.878	88.38
323.108	91.38
323.337	84.38
323.566	90.38
323.795	97.38
324.024	78.38
324.253	93.38
324.482	92.38
324.71	92.38
324.939	102.38
325.168	93.38
325.397	95.38
325.626	92.38
325.855	89.38
326.084	86.38
326.313	84.38
326.542	95.38
326.77	84.38
326.999	81.38
327.228	86.38
327.457	98.38
327.686	107.38
327.914	91.38
328.143	76.38
328.372	93.38
328.6	72.38
328.829	84.38
329.058	98.38
329.287	81.38
329.515	90.38
329.744	87.38
329.972	94.38
330.201	89.38
330.43	83.38
330.658	78.38
330.887	78.38
331.115	85.38
331.344	78.38
331.572	90.38
331.801	76.38
332.03	86.38
332.258	81.38
332.486	93.38
332.715	89.38
332.943	86.38
333.172	93.38
333.4	102.38
333.629	98.38
333.857	89.38
334.085	73.38
334.314	72.38
334.542	91.38
334.771	80.38
334.999	102.38
335.227	95.38
335.455	100.38
335.684	87.38
335.912	85.38
336.14	71.38
336.369	89.38
336.597	102.38
336.825	97.38
337.053	100.38
337.281	79.38
337.51	85.38
337.738	81.38
337.966	87.38
338.194	87.38
338.422	87.38
338.65	90.38
338.878	89.38
339.106	96.38
339.334	92.38
339.562	74.38
339.79	75.38
340.018	98.38
340.246	88.38
340.474	78.38
340.702	93.38
340.93	87.38
341.158	77.38
341.386	89.38
341.614	90.38
341.842	89.38
342.07	78.38
342.298	81.38
342.526	81.38
342.754	80.38
342.981	97.38
343.209	75.38
343.437	109.38
343.665	95.38
343.893	95.38
344.12	88.38
344.348	83.38
344.576	87.38
344.804	106.38
345.031	100.38
345.259	78.38
345.487	77.38
345.714	87.38
345.942	73.38
346.17	89.38
346.397	94.38
346.625	80.38
346.853	83.38
347.08	73.38
347.308	85.38
347.535	90.38
347.763	80.38
347.99	86.38
348.218	85.38
348.445	89.38
348.673	79.38
348.9	89.38
349.128	89.38
349.355	87.38
349.583	84.38
349.81	85.38
350.037	74.38
350.265	82.38
350.492	86.38
350.72	89.38
350.947	79.38
351.174	81.38
351.402	89.38
351.629	65.38
351.856	89.38
352.083	90.38
352.311	105.38
352.538	90.38
352.765	87.38
352.992	95.38
353.22	85.38
353.447	90.38
353.674	103.38
353.901	93.38
354.128	79.38
354.355	95.38
354.583	73.38
354.81	88.38
355.037	83.38
355.264	88.38
355.491	94.38
355.718	99.38
355.945	93.38
356.172	87.38
356.399	89.38
356.626	85.38
356.853	76.38
357.08	90.38
357.307	84.38
357.534	85.38
357.761	81.38
357.988	95.38
358.215	84.38
358.441	99.38
358.668	68.38
358.895	95.38
359.122	93.38
359.349	69.38
359.576	95.38
359.802	87.38
360.029	82.38
360.256	91.38
360.483	102.38
360.709	95.38
360.936	89.38
361.163	102.38
361.39	93.38
361.616	96.38
361.843	83.38
362.07	87.38
362.296	80.38
362.523	83.38
362.749	76.38
362.976	82.38
363.203	93.38
363.429	89.38
363.656	87.38
363.882	87.38
364.109	86.38
364.335	86.38
364.562	73.38
364.788	88.38
365.015	89.38
365.241	93.38
365.468	73.38
365.694	86.38
365.92	96.38
366.147	86.38
366.373	81.38
366.599	78.38
366.826	82.38
367.052	89.38
367.278	98.38
367.505	103.38
367.731	80.38
367.957	66.38
368.184	81.38
368.41	90.38
368.636	88.38
368.862	97.38
369.089	90.38
369.315	72.38
369.541	95.38
369.767	88.38
369.993	82.38
370.219	73.38
370.445	85.38
370.672	83.38
370.898	85.38
371.124	80.38
371.35	77.38
371.576	99.38
371.802	84.38
372.028	95.38
372.254	79.38
372.48	90.38
372.706	103.38
372.932	84.38
373.158	82.38
373.384	85.38
373.61	85.38
373.835	69.38
374.061	71.38
374.287	100.38
374.513	78.38
374.739	98.38
374.965	86.38
375.191	83.38
375.416	85.38
375.642	90.38
375.868	88.38
376.094	83.38
376.319	87.38
376.545	84.38
376.771	71.38
376.997	85.38
377.222	59.38
377.448	79.38
377.674	78.38
377.899	77.38
378.125	77.38
378.35	94.38
378.576	81.38
378.802	75.38
379.027	79.38
379.253	79.38
379.478	72.38
379.704	80.38
379.929	74.38
380.155	89.38
380.38	78.38
380.606	82.38
380.831	82.38
381.057	91.38
381.282	80.38
381.507	85.38
381.733	80.38
381.958	85.38
382.184	78.38
382.409	77.38
382.634	83.38
382.86	82.38
383.085	70.38
383.31	87.38
383.535	93.38
383.761	88.38
383.986	88.38
384.211	88.38
384.436	85.38
384.662	82.38
384.887	88.38
385.112	80.38
385.337	87.38
385.562	69.38
385.787	86.38
386.013	80.38
386.238	94.38
386.463	75.38
386.688	84.38
386.913	89.38
387.138	83.38
387.363	86.38
387.588	88.38
387.813	86.38
388.038	98.38
388.263	83.38
388.488	87.38
388.713	83.38
388.938	78.38
389.163	96.38
389.387	85.38
389.612	91.38
389.837	87.38
390.062	83.38
390.287	82.38
390.512	85.38
390.736	82.38
390.961	82.38
391.186	87.38
391.411	84.38
391.636	86.38
391.86	83.38
392.085	98.38
392.31	99.38
392.534	68.38
392.759	87.38
392.984	79.38
393.208	88.38
393.433	95.38
393.658	91.38
393.882	84.38
394.107	94.38
394.331	107.38
394.556	88.38
394.78	79.38
395.005	86.38
395.229	93.38
395.454	93.38
395.678	80.38
395.903	86.38
396.127	91.38
396.352	84.38
396.576	91.38
396.801	92.38
397.025	83.38
397.249	81.38
397.474	78.38
397.698	86.38
397.922	93.38
398.147	83.38
398.371	85.38
398.595	93.38
398.82	93.38
399.044	84.38
399.268	77.38
399.492	76.38
399.717	91.38
399.941	86.38
400.165	75.38
400.389	89.38
400.613	75.38
400.837	68.38
401.062	78.38
401.286	87.38
401.51	90.38
401.734	100.38
401.958	79.38
402.182	82.38
402.406	89.38
402.63	89.38
402.854	88.38
403.078	97.38
403.302	93.38
403.526	86.38
403.75	82.38
403.974	100.38
404.198	135.38
404.422	165.38
404.645	187.38
404.869	160.38
405.093	105.38
405.317	104.38
405.541	88.38
405.765	97.38
405.988	81.38
406.212	94.38
406.436	80.38
406.66	87.38
406.883	84.38
407.107	104.38
407.331	101.38
407.555	82.38
407.778	87.38
408.002	90.38
408.226	91.38
408.449	72.38
408.673	86.38
408.896	90.38
409.12	81.38
409.344	91.38
409.567	91.38
409.791	87.38
410.014	86.38
410.238	92.38
410.461	90.38
410.685	69.38
410.908	96.38
411.132	90.38
411.355	91.38
411.578	95.38
411.802	93.38
412.025	90.38
412.249	93.38
412.472	86.38
412.695	84.38
412.919	85.38
413.142	64.38
413.365	74.38
413.589	90.38
413.812	91.38
414.035	88.38
414.258	90.38
414.482	105.38
414.705	82.38
414.928	90.38
415.151	94.38
415.374	95.38
415.597	86.38
415.821	94.38
416.044	88.38
416.267	95.38
416.49	77.38
416.713	85.38
416.936	82.38
417.159	78.38
417.382	82.38
417.605	80.38
417.828	85.38
418.051	79.38
418.274	98.38
418.497	89.38
418.72	85.38
418.943	85.38
419.166	93.38
419.389	80.38
419.611	75.38
419.834	88.38
420.057	101.38
420.28	99.38
420.503	97.38
420.726	94.38
420.948	79.38
421.171	98.38
421.394	69.38
421.617	90.38
421.839	90.38
422.062	86.38
422.285	91.38
422.507	80.38
422.73	103.38
422.953	85.38
423.175	95.38
423.398	82.38
423.621	85.38
423.843	88.38
424.066	82.38
424.288	75.38
424.511	91.38
424.733	90.38
424.956	77.38
425.178	93.38
425.401	81.38
425.623	88.38
425.846	85.38
426.068	79.38
426.291	94.38
426.513	104.38
426.735	99.38
426.958	93.38
427.18	88.38
427.402	87.38
427.625	95.38
427.847	79.38
428.069	86.38
428.292	76.38
428.514	88.38
428.736	87.38
428.958	94.38
429.181	96.38
429.403	78.38
429.625	80.38
429.847	85.38
430.069	78.38
430.292	93.38
430.514	88.38
430.736	85.38
430.958	100.38
431.18	96.38
431.402	87.38
431.624	81.38
431.846	86.38
432.068	85.38
432.29	83.38
432.512	86.38
432.734	99.38
432.956	95.38
433.178	108.38
433.4	82.38
433.622	90.38
433.844	94.38
434.066	72.38
434.287	90.38
434.509	75.38
434.731	89.38
434.953	83.38
435.175	81.38
435.397	87.38
435.618	87.38
435.84	88.38
436.062	74.38
436.284	86.38
436.505	78.38
436.727	68.38
436.949	86.38
437.17	91.38
437.392	87.38
437.614	99.38
437.835	91.38
438.057	90.38
438.278	91.38
438.5	94.38
438.721	97.38
438.943	99.38
439.165	78.38
439.386	91.38
439.608	76.38
439.829	84.38
440.05	89.38
440.272	74.38
440.493	77.38
440.715	82.38
440.936	86.38
441.158	88.38
441.379	91.38
441.6	83.38
441.822	83.38
442.043	90.38
442.264	82.38
442.486	78.38
442.707	83.38
442.928	84.38
443.149	76.38
443.371	89.38
443.592	78.38
443.813	87.38
444.034	84.38
444.255	98.38
444.476	87.38
444.698	85.38
444.919	101.38
445.14	159.38
445.361	120.38
445.582	91.38
445.803	84.38
446.024	88.38
446.245	91.38
446.466	90.38
446.687	90.38
446.908	93.38
447.129	93.38
447.35	64.38
447.571	81.38
447.792	93.38
448.013	77.38
448.234	95.38
448.455	98.38
448.675	90.38
448.896	77.38
449.117	91.38
449.338	87.38
449.559	104.38
449.779	89.38
450	93.38
450.221	95.38
450.442	80.38
450.662	89.38
450.883	77.38
451.104	86.38
451.324	89.38
451.545	84.38
451.766	90.38
451.986	85.38
452.207	87.38
452.428	78.38
452.648	90.38
452.869	88.38
453.089	93.38
453.31	90.38
453.53	88.38
453.751	89.38
453.971	90.38
454.192	78.38
454.412	84.38
454.633	87.38
454.853	84.38
455.073	82.38
455.294	85.38
455.514	96.38
455.734	80.38
455.955	85.38
456.175	87.38
456.395	91.38
456.616	78.38
456.836	75.38
457.056	72.38
457.276	90.38
457.497	94.38
457.717	88.38
457.937	78.38
458.157	81.38
458.377	90.38
458.598	83.38
458.818	91.38
459.038	93.38
459.258	99.38
459.478	82.38
459.698	70.38
459.918	95.38
460.138	62.38
460.358	89.38
460.578	81.38
460.798	83.38
461.018	81.38
461.238	79.38
461.458	95.38
461.678	95.38
461.898	80.38
462.118	89.38
462.338	95.38
462.558	82.38
462.777	93.38
462.997	73.38
463.217	83.38
463.437	95.38
463.657	83.38
463.876	91.38
464.096	80.38
464.316	93.38
464.536	88.38
464.755	95.38
464.975	97.38
465.195	98.38
465.414	92.38
465.634	78.38
465.854	97.38
466.073	88.38
466.293	90.38
466.512	90.38
466.732	91.38
466.951	91.38
467.171	80.38
467.391	75.38
467.61	85.38
467.829	90.38
468.049	89.38
468.268	93.38
468.488	87.38
468.707	84.38
468.927	85.38
469.146	81.38
469.365	90.38
469.585	91.38
469.804	82.38
470.023	105.38
470.243	86.38
470.462	87.38
470.681	93.38
470.901	91.38
471.12	88.38
471.339	97.38
471.558	85.38
471.777	93.38
471.997	98.38
472.216	88.38
472.435	85.38
472.654	97.38
472.873	93.38
473.092	93.38
473.311	90.38
473.53	97.38
473.749	87.38
473.968	104.38
474.187	93.38
474.406	85.38
474.625	89.38
474.844	78.38
475.063	84.38
475.282	95.38
475.501	93.38
475.72	94.38
475.939	83.38
476.158	90.38
476.377	87.38
476.596	82.38
476.814	94.38
477.033	80.38
477.252	81.38
477.471	77.38
477.69	105.38
477.908	87.38
478.127	91.38
478.346	85.38
478.564	95.38
478.783	92.38
479.002	97.38
479.22	88.38
479.439	93.38
479.658	84.38
479.876	82.38
480.095	108.38
480.313	92.38
480.532	83.38
480.751	89.38
480.969	86.38
481.188	109.38
481.406	76.38
481.624	83.38
481.843	83.38
482.061	93.38
482.28	93.38
482.498	88.38
482.717	88.38
482.935	102.38
483.153	96.38
483.372	87.38
483.59	92.38
483.808	85.38
484.027	79.38
484.245	87.38
484.463	82.38
484.681	81.38
484.9	86.38
485.118	85.38
485.336	102.38
485.554	75.38
485.772	85.38
485.99	94.38
486.209	83.38
486.427	82.38
486.645	87.38
486.863	95.38
487.081	95.38
487.299	78.38
487.517	88.38
487.735	95.38
487.953	101.38
488.171	76.38
488.389	101.38
488.607	87.38
488.825	82.38
489.043	89.38
489.261	94.38
489.479	101.38
489.696	112.38
489.914	93.38
490.132	85.38
490.35	96.38
490.568	87.38
490.786	91.38
491.003	88.38
491.221	97.38
491.439	76.38
491.657	101.38
491.874	86.38
492.092	97.38
492.31	96.38
492.527	97.38
492.745	98.38
492.963	91.38
493.18	101.38
493.398	91.38
493.615	103.38
493.833	95.38
494.05	91.38
494.268	97.38
494.485	101.38
494.703	107.38
494.92	100.38
495.138	113.38
495.355	96.38
495.573	106.38
495.79	95.38
496.008	103.38
496.225	94.38
496.442	93.38
496.66	91.38
496.877	107.38
497.094	122.38
497.312	99.38
497.529	93.38
497.746	96.38
497.963	91.38
498.181	77.38
498.398	78.38
498.615	95.38
498.832	100.38
499.049	82.38
499.267	99.38
499.484	69.38
499.701	93.38
499.918	95.38
500.135	79.38
500.352	81.38
500.569	80.38
500.786	99.38
501.003	89.38
501.22	88.38
501.437	95.38
501.654	96.38
501.871	88.38
502.088	102.38
502.305	82.38
502.522	91.38
502.739	90.38
502.956	80.38
503.172	83.38
503.389	93.38
503.606	91.38
503.823	78.38
504.04	89.38
504.256	72.38
504.473	88.38
504.69	98.38
504.907	91.38
505.123	90.38
505.34	102.38
505.557	88.38
505.773	106.38
505.99	88.38
506.207	93.38
506.423	90.38
506.64	72.38
506.856	99.38
507.073	101.38
507.289	83.38
507.506	81.38
507.722	89.38
507.939	90.38
508.155	100.38
508.372	87.38
508.588	97.38
508.805	98.38
509.021	92.38
509.238	75.38
509.454	85.38
509.67	88.38
509.887	86.38
510.103	96.38
510.319	85.38
510.536	89.38
510.752	83.38
510.968	73.38
511.184	96.38
511.401	95.38
511.617	90.38
511.833	78.38
512.049	94.38
512.265	82.38
512.481	78.38
512.698	106.38
512.914	95.38
513.13	96.38
513.346	85.38
513.562	98.38
513.778	99.38
513.994	88.38
514.21	92.38
514.426	98.38
514.642	87.38
514.858	88.38
515.074	86.38
515.29	89.38
515.506	84.38
515.721	86.38
515.937	94.38
516.153	95.38
516.369	75.38
516.585	100.38
516.801	89.38
517.016	94.38
517.232	73.38
517.448	83.38
517.664	100.38
517.879	85.38
518.095	79.38
518.311	100.38
518.527	85.38
518.742	83.38
518.958	84.38
519.173	99.38
