Data from KBrNoHeat_HRD10591_00014.txt Node
Date: Fri Dec 27 14:39:21 EST 2024
User: Yrep
Spectrometer: HR+D1059
Trigger mode: 1
Integration Time (sec): 1.000000E-1
Scans to average: 1
Electric dark correction enabled: true
Nonlinearity correction enabled: false
Boxcar width: 0
XAxis mode: Wavelengths
Number of Pixels in Spectrum: 2048
>>>>>Begin Spectral Data<<<<<
223.165	-7.75
223.4	-7.75
223.635	-7.75
223.869	-17.75
224.104	-25.75
224.338	0.25
224.573	-22.75
224.808	-11.75
225.042	-4.75
225.277	-11.75
225.511	3.25
225.746	8.25
225.98	7.25
226.215	9.25
226.449	14.25
226.683	15.25
226.918	18.25
227.152	26.25
227.387	35.25
227.621	41.25
227.856	34.25
228.09	37.25
228.324	66.25
228.559	65.25
228.793	55.25
229.027	63.25
229.262	58.25
229.496	75.25
229.73	57.25
229.964	85.25
230.199	69.25
230.433	66.25
230.667	81.25
230.901	78.25
231.136	75.25
231.37	70.25
231.604	75.25
231.838	90.25
232.072	84.25
232.306	81.25
232.541	83.25
232.775	80.25
233.009	67.25
233.243	72.25
233.477	79.25
233.711	87.25
233.945	89.25
234.179	89.25
234.413	84.25
234.647	83.25
234.881	73.25
235.115	69.25
235.349	80.25
235.583	75.25
235.817	81.25
236.051	79.25
236.285	70.25
236.519	89.25
236.753	87.25
236.987	80.25
237.221	86.25
237.455	75.25
237.689	84.25
237.922	70.25
238.156	81.25
238.39	82.25
238.624	67.25
238.858	75.25
239.091	81.25
239.325	80.25
239.559	63.25
239.793	75.25
240.027	85.25
240.26	68.25
240.494	73.25
240.728	77.25
240.961	85.25
241.195	90.25
241.429	97.25
241.662	82.25
241.896	74.25
242.13	58.25
242.363	75.25
242.597	74.25
242.83	81.25
243.064	71.25
243.298	79.25
243.531	72.25
243.765	69.25
243.998	76.25
244.232	84.25
244.465	73.25
244.699	70.25
244.932	79.25
245.166	74.25
245.399	62.25
245.633	80.25
245.866	72.25
246.099	84.25
246.333	82.25
246.566	81.25
246.8	70.25
247.033	79.25
247.266	75.25
247.5	84.25
247.733	81.25
247.966	87.25
248.2	98.25
248.433	75.25
248.666	78.25
248.899	94.25
249.133	76.25
249.366	84.25
249.599	83.25
249.832	76.25
250.066	89.25
250.299	90.25
250.532	88.25
250.765	95.25
250.998	86.25
251.231	76.25
251.465	80.25
251.698	91.25
251.931	80.25
252.164	82.25
252.397	83.25
252.63	73.25
252.863	73.25
253.096	81.25
253.329	87.25
253.562	73.25
253.795	82.25
254.028	78.25
254.261	79.25
254.494	76.25
254.727	81.25
254.96	83.25
255.193	97.25
255.426	82.25
255.659	78.25
255.892	85.25
256.124	71.25
256.357	68.25
256.59	96.25
256.823	74.25
257.056	78.25
257.289	94.25
257.521	78.25
257.754	84.25
257.987	81.25
258.22	75.25
258.452	87.25
258.685	76.25
258.918	81.25
259.151	98.25
259.383	90.25
259.616	83.25
259.849	71.25
260.081	80.25
260.314	84.25
260.547	70.25
260.779	68.25
261.012	73.25
261.244	99.25
261.477	87.25
261.71	76.25
261.942	68.25
262.175	80.25
262.407	86.25
262.64	72.25
262.872	72.25
263.105	77.25
263.337	90.25
263.57	76.25
263.802	87.25
264.035	92.25
264.267	74.25
264.499	68.25
264.732	90.25
264.964	81.25
265.197	84.25
265.429	101.25
265.661	64.25
265.894	90.25
266.126	87.25
266.358	91.25
266.591	71.25
266.823	84.25
267.055	79.25
267.287	89.25
267.52	88.25
267.752	88.25
267.984	89.25
268.216	75.25
268.448	95.25
268.681	88.25
268.913	75.25
269.145	84.25
269.377	69.25
269.609	82.25
269.841	78.25
270.073	83.25
270.306	81.25
270.538	76.25
270.77	69.25
271.002	81.25
271.234	100.25
271.466	83.25
271.698	74.25
271.93	96.25
272.162	98.25
272.394	76.25
272.626	84.25
272.858	86.25
273.09	80.25
273.322	70.25
273.553	73.25
273.785	81.25
274.017	71.25
274.249	86.25
274.481	88.25
274.713	89.25
274.945	87.25
275.176	84.25
275.408	80.25
275.64	87.25
275.872	66.25
276.104	90.25
276.335	88.25
276.567	80.25
276.799	88.25
277.031	88.25
277.262	79.25
277.494	75.25
277.726	74.25
277.957	70.25
278.189	85.25
278.421	100.25
278.652	80.25
278.884	85.25
279.115	77.25
279.347	79.25
279.579	83.25
279.81	81.25
280.042	87.25
280.273	78.25
280.505	87.25
280.736	83.25
280.968	84.25
281.199	88.25
281.431	80.25
281.662	80.25
281.894	78.25
282.125	87.25
282.356	76.25
282.588	86.25
282.819	77.25
283.051	80.25
283.282	73.25
283.513	96.25
283.745	100.25
283.976	96.25
284.207	87.25
284.439	78.25
284.67	72.25
284.901	98.25
285.132	94.25
285.364	90.25
285.595	78.25
285.826	81.25
286.057	73.25
286.288	92.25
286.52	74.25
286.751	86.25
286.982	95.25
287.213	82.25
287.444	79.25
287.675	102.25
287.906	89.25
288.138	91.25
288.369	85.25
288.6	72.25
288.831	81.25
289.062	90.25
289.293	82.25
289.524	74.25
289.755	90.25
289.986	83.25
290.217	77.25
290.448	67.25
290.679	86.25
290.91	91.25
291.141	91.25
291.371	93.25
291.602	76.25
291.833	84.25
292.064	86.25
292.295	86.25
292.526	76.25
292.757	81.25
292.987	82.25
293.218	80.25
293.449	86.25
293.68	97.25
293.91	89.25
294.141	94.25
294.372	106.25
294.603	77.25
294.833	76.25
295.064	91.25
295.295	88.25
295.525	84.25
295.756	90.25
295.987	90.25
296.217	90.25
296.448	95.25
296.679	74.25
296.909	81.25
297.14	84.25
297.37	98.25
297.601	74.25
297.831	84.25
298.062	87.25
298.292	78.25
298.523	105.25
298.753	90.25
298.984	99.25
299.214	84.25
299.445	88.25
299.675	86.25
299.905	82.25
300.136	76.25
300.366	86.25
300.597	83.25
300.827	80.25
301.057	98.25
301.288	85.25
301.518	94.25
301.748	94.25
301.979	99.25
302.209	75.25
302.439	90.25
302.669	78.25
302.9	82.25
303.13	83.25
303.36	83.25
303.59	72.25
303.82	91.25
304.051	83.25
304.281	80.25
304.511	96.25
304.741	78.25
304.971	91.25
305.201	88.25
305.431	95.25
305.661	88.25
305.891	90.25
306.121	90.25
306.352	102.25
306.582	87.25
306.812	96.25
307.042	79.25
307.272	80.25
307.502	83.25
307.731	79.25
307.961	78.25
308.191	82.25
308.421	87.25
308.651	94.25
308.881	80.25
309.111	93.25
309.341	83.25
309.571	102.25
309.8	84.25
310.03	80.25
310.26	70.25
310.49	76.25
310.72	82.25
310.949	89.25
311.179	90.25
311.409	92.25
311.639	82.25
311.868	82.25
312.098	79.25
312.328	80.25
312.557	102.25
312.787	88.25
313.017	79.25
313.246	94.25
313.476	75.25
313.706	99.25
313.935	85.25
314.165	80.25
314.394	83.25
314.624	74.25
314.853	82.25
315.083	80.25
315.312	83.25
315.542	80.25
315.771	89.25
316.001	77.25
316.23	83.25
316.46	81.25
316.689	89.25
316.919	83.25
317.148	96.25
317.377	92.25
317.607	84.25
317.836	84.25
318.065	89.25
318.295	81.25
318.524	90.25
318.753	86.25
318.983	86.25
319.212	77.25
319.441	73.25
319.67	88.25
319.9	89.25
320.129	92.25
320.358	86.25
320.587	86.25
320.816	91.25
321.046	68.25
321.275	90.25
321.504	82.25
321.733	82.25
321.962	96.25
322.191	90.25
322.42	78.25
322.649	88.25
322.878	90.25
323.108	94.25
323.337	83.25
323.566	88.25
323.795	76.25
324.024	80.25
324.253	81.25
324.482	82.25
324.71	93.25
324.939	94.25
325.168	88.25
325.397	84.25
325.626	89.25
325.855	83.25
326.084	88.25
326.313	99.25
326.542	81.25
326.77	75.25
326.999	89.25
327.228	82.25
327.457	92.25
327.686	82.25
327.914	75.25
328.143	88.25
328.372	91.25
328.6	84.25
328.829	88.25
329.058	73.25
329.287	88.25
329.515	85.25
329.744	89.25
329.972	82.25
330.201	88.25
330.43	70.25
330.658	95.25
330.887	82.25
331.115	93.25
331.344	102.25
331.572	74.25
331.801	85.25
332.03	78.25
332.258	75.25
332.486	87.25
332.715	79.25
332.943	85.25
333.172	88.25
333.4	98.25
333.629	100.25
333.857	88.25
334.085	95.25
334.314	78.25
334.542	80.25
334.771	85.25
334.999	96.25
335.227	84.25
335.455	80.25
335.684	83.25
335.912	70.25
336.14	83.25
336.369	95.25
336.597	83.25
336.825	79.25
337.053	96.25
337.281	102.25
337.51	88.25
337.738	83.25
337.966	82.25
338.194	86.25
338.422	81.25
338.65	86.25
338.878	82.25
339.106	81.25
339.334	98.25
339.562	84.25
339.79	91.25
340.018	83.25
340.246	83.25
340.474	82.25
340.702	73.25
340.93	79.25
341.158	83.25
341.386	89.25
341.614	93.25
341.842	86.25
342.07	89.25
342.298	94.25
342.526	82.25
342.754	94.25
342.981	85.25
343.209	89.25
343.437	107.25
343.665	87.25
343.893	78.25
344.12	96.25
344.348	92.25
344.576	78.25
344.804	94.25
345.031	81.25
345.259	90.25
345.487	81.25
345.714	90.25
345.942	84.25
346.17	97.25
346.397	85.25
346.625	88.25
346.853	94.25
347.08	87.25
347.308	94.25
347.535	97.25
347.763	99.25
347.99	97.25
348.218	71.25
348.445	83.25
348.673	94.25
348.9	75.25
349.128	88.25
349.355	86.25
349.583	88.25
349.81	94.25
350.037	79.25
350.265	83.25
350.492	89.25
350.72	87.25
350.947	82.25
351.174	91.25
351.402	91.25
351.629	80.25
351.856	80.25
352.083	88.25
352.311	87.25
352.538	83.25
352.765	90.25
352.992	104.25
353.22	84.25
353.447	83.25
353.674	89.25
353.901	91.25
354.128	86.25
354.355	75.25
354.583	72.25
354.81	89.25
355.037	84.25
355.264	86.25
355.491	91.25
355.718	67.25
355.945	100.25
356.172	72.25
356.399	83.25
356.626	91.25
356.853	92.25
357.08	90.25
357.307	86.25
357.534	94.25
357.761	95.25
357.988	92.25
358.215	91.25
358.441	90.25
358.668	95.25
358.895	101.25
359.122	79.25
359.349	95.25
359.576	95.25
359.802	86.25
360.029	82.25
360.256	82.25
360.483	75.25
360.709	74.25
360.936	106.25
361.163	85.25
361.39	94.25
361.616	82.25
361.843	79.25
362.07	92.25
362.296	80.25
362.523	76.25
362.749	71.25
362.976	85.25
363.203	92.25
363.429	98.25
363.656	88.25
363.882	99.25
364.109	86.25
364.335	85.25
364.562	93.25
364.788	88.25
365.015	83.25
365.241	87.25
365.468	97.25
365.694	66.25
365.92	80.25
366.147	91.25
366.373	90.25
366.599	84.25
366.826	82.25
367.052	90.25
367.278	82.25
367.505	83.25
367.731	95.25
367.957	77.25
368.184	80.25
368.41	71.25
368.636	85.25
368.862	79.25
369.089	90.25
369.315	84.25
369.541	87.25
369.767	86.25
369.993	96.25
370.219	76.25
370.445	82.25
370.672	76.25
370.898	74.25
371.124	89.25
371.35	82.25
371.576	85.25
371.802	84.25
372.028	79.25
372.254	83.25
372.48	75.25
372.706	74.25
372.932	81.25
373.158	90.25
373.384	94.25
373.61	83.25
373.835	99.25
374.061	87.25
374.287	91.25
374.513	81.25
374.739	92.25
374.965	89.25
375.191	82.25
375.416	75.25
375.642	88.25
375.868	91.25
376.094	90.25
376.319	85.25
376.545	94.25
376.771	70.25
376.997	81.25
377.222	92.25
377.448	96.25
377.674	93.25
377.899	95.25
378.125	92.25
378.35	98.25
378.576	89.25
378.802	88.25
379.027	81.25
379.253	98.25
379.478	77.25
379.704	83.25
379.929	77.25
380.155	80.25
380.38	88.25
380.606	92.25
380.831	87.25
381.057	90.25
381.282	81.25
381.507	81.25
381.733	79.25
381.958	75.25
382.184	78.25
382.409	86.25
382.634	81.25
382.86	83.25
383.085	82.25
383.31	87.25
383.535	80.25
383.761	91.25
383.986	92.25
384.211	82.25
384.436	80.25
384.662	70.25
384.887	83.25
385.112	89.25
385.337	83.25
385.562	77.25
385.787	94.25
386.013	89.25
386.238	88.25
386.463	89.25
386.688	94.25
386.913	87.25
387.138	75.25
387.363	90.25
387.588	83.25
387.813	84.25
388.038	88.25
388.263	82.25
388.488	80.25
388.713	89.25
388.938	90.25
389.163	94.25
389.387	82.25
389.612	90.25
389.837	80.25
390.062	79.25
390.287	76.25
390.512	74.25
390.736	89.25
390.961	90.25
391.186	86.25
391.411	85.25
391.636	84.25
391.86	74.25
392.085	73.25
392.31	85.25
392.534	86.25
392.759	76.25
392.984	95.25
393.208	88.25
393.433	64.25
393.658	80.25
393.882	84.25
394.107	65.25
394.331	81.25
394.556	71.25
394.78	91.25
395.005	89.25
395.229	79.25
395.454	72.25
395.678	89.25
395.903	78.25
396.127	83.25
396.352	87.25
396.576	88.25
396.801	87.25
397.025	77.25
397.249	97.25
397.474	80.25
397.698	79.25
397.922	83.25
398.147	79.25
398.371	74.25
398.595	74.25
398.82	85.25
399.044	71.25
399.268	89.25
399.492	88.25
399.717	84.25
399.941	86.25
400.165	84.25
400.389	86.25
400.613	95.25
400.837	68.25
401.062	101.25
401.286	92.25
401.51	86.25
401.734	79.25
401.958	78.25
402.182	101.25
402.406	76.25
402.63	91.25
402.854	78.25
403.078	70.25
403.302	86.25
403.526	89.25
403.75	91.25
403.974	97.25
404.198	120.25
404.422	149.25
404.645	167.25
404.869	152.25
405.093	119.25
405.317	103.25
405.541	96.25
405.765	93.25
405.988	85.25
406.212	80.25
406.436	90.25
406.66	96.25
406.883	91.25
407.107	88.25
407.331	78.25
407.555	69.25
407.778	91.25
408.002	93.25
408.226	90.25
408.449	74.25
408.673	87.25
408.896	109.25
409.12	94.25
409.344	90.25
409.567	75.25
409.791	82.25
410.014	88.25
410.238	89.25
410.461	85.25
410.685	91.25
410.908	85.25
411.132	84.25
411.355	78.25
411.578	73.25
411.802	96.25
412.025	89.25
412.249	70.25
412.472	89.25
412.695	90.25
412.919	84.25
413.142	76.25
413.365	89.25
413.589	90.25
413.812	86.25
414.035	82.25
414.258	84.25
414.482	85.25
414.705	96.25
414.928	87.25
415.151	85.25
415.374	97.25
415.597	79.25
415.821	88.25
416.044	84.25
416.267	80.25
416.49	99.25
416.713	74.25
416.936	92.25
417.159	90.25
417.382	90.25
417.605	71.25
417.828	84.25
418.051	80.25
418.274	85.25
418.497	82.25
418.72	90.25
418.943	92.25
419.166	79.25
419.389	97.25
419.611	84.25
419.834	85.25
420.057	94.25
420.28	88.25
420.503	92.25
420.726	102.25
420.948	72.25
421.171	86.25
421.394	86.25
421.617	82.25
421.839	77.25
422.062	89.25
422.285	81.25
422.507	91.25
422.73	83.25
422.953	82.25
423.175	82.25
423.398	77.25
423.621	84.25
423.843	82.25
424.066	72.25
424.288	78.25
424.511	88.25
424.733	90.25
424.956	79.25
425.178	77.25
425.401	96.25
425.623	83.25
425.846	90.25
426.068	93.25
426.291	93.25
426.513	81.25
426.735	83.25
426.958	99.25
427.18	92.25
427.402	75.25
427.625	78.25
427.847	74.25
428.069	60.25
428.292	74.25
428.514	86.25
428.736	92.25
428.958	108.25
429.181	88.25
429.403	90.25
429.625	86.25
429.847	92.25
430.069	81.25
430.292	92.25
430.514	78.25
430.736	77.25
430.958	95.25
431.18	103.25
431.402	90.25
431.624	62.25
431.846	78.25
432.068	95.25
432.29	70.25
432.512	60.25
432.734	88.25
432.956	75.25
433.178	108.25
433.4	78.25
433.622	96.25
433.844	73.25
434.066	68.25
434.287	97.25
434.509	87.25
434.731	80.25
434.953	76.25
435.175	94.25
435.397	85.25
435.618	66.25
435.84	90.25
436.062	98.25
436.284	90.25
436.505	90.25
436.727	78.25
436.949	70.25
437.17	82.25
437.392	97.25
437.614	88.25
437.835	81.25
438.057	76.25
438.278	90.25
438.5	90.25
438.721	97.25
438.943	86.25
439.165	91.25
439.386	97.25
439.608	90.25
439.829	96.25
440.05	87.25
440.272	79.25
440.493	99.25
440.715	95.25
440.936	90.25
441.158	100.25
441.379	82.25
441.6	91.25
441.822	91.25
442.043	94.25
442.264	83.25
442.486	69.25
442.707	85.25
442.928	94.25
443.149	78.25
443.371	91.25
443.592	67.25
443.813	83.25
444.034	99.25
444.255	94.25
444.476	84.25
444.698	87.25
444.919	83.25
445.14	153.25
445.361	104.25
445.582	96.25
445.803	81.25
446.024	92.25
446.245	99.25
446.466	89.25
446.687	74.25
446.908	91.25
447.129	102.25
447.35	89.25
447.571	90.25
447.792	84.25
448.013	87.25
448.234	87.25
448.455	80.25
448.675	90.25
448.896	89.25
449.117	93.25
449.338	76.25
449.559	91.25
449.779	78.25
450	86.25
450.221	75.25
450.442	105.25
450.662	96.25
450.883	87.25
451.104	90.25
451.324	75.25
451.545	76.25
451.766	78.25
451.986	83.25
452.207	88.25
452.428	88.25
452.648	94.25
452.869	78.25
453.089	78.25
453.31	97.25
453.53	88.25
453.751	95.25
453.971	76.25
454.192	92.25
454.412	80.25
454.633	80.25
454.853	83.25
455.073	89.25
455.294	95.25
455.514	98.25
455.734	87.25
455.955	76.25
456.175	74.25
456.395	83.25
456.616	86.25
456.836	94.25
457.056	94.25
457.276	79.25
457.497	79.25
457.717	92.25
457.937	94.25
458.157	82.25
458.377	91.25
458.598	84.25
458.818	86.25
459.038	100.25
459.258	94.25
459.478	91.25
459.698	91.25
459.918	95.25
460.138	85.25
460.358	89.25
460.578	94.25
460.798	75.25
461.018	88.25
461.238	99.25
461.458	101.25
461.678	81.25
461.898	75.25
462.118	80.25
462.338	82.25
462.558	86.25
462.777	87.25
462.997	66.25
463.217	76.25
463.437	83.25
463.657	90.25
463.876	88.25
464.096	84.25
464.316	85.25
464.536	87.25
464.755	75.25
464.975	75.25
465.195	78.25
465.414	70.25
465.634	85.25
465.854	92.25
466.073	91.25
466.293	98.25
466.512	88.25
466.732	94.25
466.951	87.25
467.171	86.25
467.391	92.25
467.61	79.25
467.829	83.25
468.049	72.25
468.268	94.25
468.488	70.25
468.707	92.25
468.927	83.25
469.146	95.25
469.365	86.25
469.585	77.25
469.804	79.25
470.023	88.25
470.243	86.25
470.462	87.25
470.681	79.25
470.901	92.25
471.12	90.25
471.339	83.25
471.558	85.25
471.777	86.25
471.997	86.25
472.216	92.25
472.435	109.25
472.654	84.25
472.873	92.25
473.092	89.25
473.311	84.25
473.53	82.25
473.749	77.25
473.968	92.25
474.187	75.25
474.406	85.25
474.625	79.25
474.844	101.25
475.063	93.25
475.282	91.25
475.501	91.25
475.72	86.25
475.939	81.25
476.158	79.25
476.377	70.25
476.596	81.25
476.814	76.25
477.033	92.25
477.252	86.25
477.471	81.25
477.69	100.25
477.908	96.25
478.127	78.25
478.346	81.25
478.564	82.25
478.783	79.25
479.002	87.25
479.22	91.25
479.439	108.25
479.658	103.25
479.876	90.25
480.095	91.25
480.313	89.25
480.532	99.25
480.751	78.25
480.969	88.25
481.188	91.25
481.406	99.25
481.624	100.25
481.843	86.25
482.061	71.25
482.28	88.25
482.498	83.25
482.717	78.25
482.935	87.25
483.153	98.25
483.372	82.25
483.59	87.25
483.808	89.25
484.027	87.25
484.245	81.25
484.463	97.25
484.681	89.25
484.9	89.25
485.118	104.25
485.336	98.25
485.554	96.25
485.772	103.25
485.99	79.25
486.209	102.25
486.427	98.25
486.645	86.25
486.863	80.25
487.081	81.25
487.299	75.25
487.517	97.25
487.735	89.25
487.953	94.25
488.171	89.25
488.389	84.25
488.607	84.25
488.825	83.25
489.043	78.25
489.261	101.25
489.479	87.25
489.696	91.25
489.914	87.25
490.132	95.25
490.35	88.25
490.568	74.25
490.786	87.25
491.003	110.25
491.221	87.25
491.439	98.25
491.657	87.25
491.874	104.25
492.092	97.25
492.31	96.25
492.527	88.25
492.745	102.25
492.963	90.25
493.18	99.25
493.398	91.25
493.615	92.25
493.833	94.25
494.05	96.25
494.268	96.25
494.485	103.25
494.703	99.25
494.92	88.25
495.138	101.25
495.355	84.25
495.573	101.25
495.79	92.25
496.008	96.25
496.225	98.25
496.442	95.25
496.66	95.25
496.877	98.25
497.094	95.25
497.312	100.25
497.529	101.25
497.746	83.25
497.963	98.25
498.181	72.25
498.398	85.25
498.615	88.25
498.832	78.25
499.049	95.25
499.267	91.25
499.484	90.25
499.701	95.25
499.918	82.25
500.135	85.25
500.352	92.25
500.569	89.25
500.786	96.25
501.003	88.25
501.22	104.25
501.437	94.25
501.654	98.25
501.871	83.25
502.088	85.25
502.305	82.25
502.522	90.25
502.739	96.25
502.956	90.25
503.172	96.25
503.389	88.25
503.606	87.25
503.823	80.25
504.04	97.25
504.256	101.25
504.473	97.25
504.69	92.25
504.907	103.25
505.123	100.25
505.34	92.25
505.557	95.25
505.773	79.25
505.99	83.25
506.207	75.25
506.423	98.25
506.64	92.25
506.856	84.25
507.073	80.25
507.289	89.25
507.506	86.25
507.722	97.25
507.939	101.25
508.155	80.25
508.372	95.25
508.588	90.25
508.805	94.25
509.021	96.25
509.238	80.25
509.454	88.25
509.67	87.25
509.887	91.25
510.103	94.25
510.319	93.25
510.536	93.25
510.752	90.25
510.968	94.25
511.184	81.25
511.401	80.25
511.617	96.25
511.833	98.25
512.049	80.25
512.265	86.25
512.481	97.25
512.698	90.25
512.914	98.25
513.13	95.25
513.346	74.25
513.562	90.25
513.778	89.25
513.994	94.25
514.21	100.25
514.426	99.25
514.642	90.25
514.858	80.25
515.074	98.25
515.29	87.25
515.506	103.25
515.721	77.25
515.937	80.25
516.153	83.25
516.369	93.25
516.585	99.25
516.801	83.25
517.016	102.25
517.232	98.25
517.448	84.25
517.664	94.25
517.879	83.25
518.095	84.25
518.311	95.25
518.527	90.25
518.742	98.25
518.958	75.25
519.173	84.25
519.389	99.25
