Data from KBrNoHeat_HRD10591_00012.txt Node
Date: Fri Dec 27 14:39:19 EST 2024
User: Yrep
Spectrometer: HR+D1059
Trigger mode: 1
Integration Time (sec): 1.000000E-1
Scans to average: 1
Electric dark correction enabled: true
Nonlinearity correction enabled: false
Boxcar width: 0
XAxis mode: Wavelengths
Number of Pixels in Spectrum: 2048
>>>>>Begin Spectral Data<<<<<
223.165	-14.31
223.4	-14.31
223.635	-14.31
223.869	-30.31
224.104	-6.31
224.338	-16.31
224.573	-7.31
224.808	-9.31
225.042	-8.31
225.277	-2.31
225.511	9.69
225.746	-1.31
225.98	-0.31
226.215	12.69
226.449	14.69
226.683	19.69
226.918	17.69
227.152	21.69
227.387	33.69
227.621	43.69
227.856	48.69
228.09	37.69
228.324	65.69
228.559	50.69
228.793	63.69
229.027	46.69
229.262	69.69
229.496	64.69
229.73	67.69
229.964	67.69
230.199	67.69
230.433	61.69
230.667	70.69
230.901	65.69
231.136	64.69
231.37	70.69
231.604	73.69
231.838	87.69
232.072	69.69
232.306	80.69
232.541	71.69
232.775	69.69
233.009	76.69
233.243	82.69
233.477	89.69
233.711	73.69
233.945	91.69
234.179	73.69
234.413	74.69
234.647	86.69
234.881	75.69
235.115	87.69
235.349	79.69
235.583	80.69
235.817	79.69
236.051	53.69
236.285	66.69
236.519	65.69
236.753	78.69
236.987	84.69
237.221	82.69
237.455	81.69
237.689	78.69
237.922	71.69
238.156	78.69
238.39	76.69
238.624	70.69
238.858	86.69
239.091	80.69
239.325	68.69
239.559	62.69
239.793	77.69
240.027	84.69
240.26	72.69
240.494	87.69
240.728	73.69
240.961	72.69
241.195	59.69
241.429	76.69
241.662	84.69
241.896	71.69
242.13	78.69
242.363	79.69
242.597	76.69
242.83	80.69
243.064	87.69
243.298	68.69
243.531	74.69
243.765	76.69
243.998	84.69
244.232	78.69
244.465	65.69
244.699	83.69
244.932	71.69
245.166	72.69
245.399	68.69
245.633	87.69
245.866	70.69
246.099	69.69
246.333	74.69
246.566	73.69
246.8	71.69
247.033	76.69
247.266	69.69
247.5	88.69
247.733	71.69
247.966	71.69
248.2	79.69
248.433	74.69
248.666	81.69
248.899	72.69
249.133	68.69
249.366	70.69
249.599	75.69
249.832	73.69
250.066	73.69
250.299	67.69
250.532	78.69
250.765	72.69
250.998	81.69
251.231	69.69
251.465	72.69
251.698	74.69
251.931	73.69
252.164	68.69
252.397	82.69
252.63	78.69
252.863	94.69
253.096	96.69
253.329	83.69
253.562	64.69
253.795	74.69
254.028	79.69
254.261	83.69
254.494	79.69
254.727	83.69
254.96	68.69
255.193	80.69
255.426	85.69
255.659	88.69
255.892	78.69
256.124	91.69
256.357	83.69
256.59	91.69
256.823	94.69
257.056	86.69
257.289	75.69
257.521	84.69
257.754	68.69
257.987	75.69
258.22	74.69
258.452	80.69
258.685	72.69
258.918	86.69
259.151	84.69
259.383	70.69
259.616	70.69
259.849	81.69
260.081	70.69
260.314	78.69
260.547	81.69
260.779	73.69
261.012	85.69
261.244	84.69
261.477	76.69
261.71	90.69
261.942	83.69
262.175	73.69
262.407	72.69
262.64	75.69
262.872	63.69
263.105	84.69
263.337	83.69
263.57	81.69
263.802	81.69
264.035	88.69
264.267	91.69
264.499	69.69
264.732	68.69
264.964	70.69
265.197	73.69
265.429	73.69
265.661	79.69
265.894	79.69
266.126	82.69
266.358	86.69
266.591	74.69
266.823	81.69
267.055	85.69
267.287	85.69
267.52	69.69
267.752	91.69
267.984	84.69
268.216	79.69
268.448	83.69
268.681	78.69
268.913	81.69
269.145	71.69
269.377	105.69
269.609	81.69
269.841	82.69
270.073	70.69
270.306	84.69
270.538	91.69
270.77	88.69
271.002	81.69
271.234	77.69
271.466	84.69
271.698	71.69
271.93	70.69
272.162	79.69
272.394	64.69
272.626	76.69
272.858	72.69
273.09	85.69
273.322	81.69
273.553	83.69
273.785	74.69
274.017	86.69
274.249	91.69
274.481	86.69
274.713	64.69
274.945	85.69
275.176	84.69
275.408	81.69
275.64	81.69
275.872	73.69
276.104	78.69
276.335	76.69
276.567	75.69
276.799	85.69
277.031	67.69
277.262	72.69
277.494	80.69
277.726	67.69
277.957	76.69
278.189	80.69
278.421	71.69
278.652	81.69
278.884	85.69
279.115	78.69
279.347	92.69
279.579	89.69
279.81	75.69
280.042	93.69
280.273	65.69
280.505	71.69
280.736	94.69
280.968	83.69
281.199	86.69
281.431	85.69
281.662	75.69
281.894	70.69
282.125	82.69
282.356	79.69
282.588	90.69
282.819	90.69
283.051	92.69
283.282	79.69
283.513	92.69
283.745	78.69
283.976	74.69
284.207	93.69
284.439	94.69
284.67	83.69
284.901	78.69
285.132	94.69
285.364	79.69
285.595	86.69
285.826	92.69
286.057	79.69
286.288	86.69
286.52	83.69
286.751	79.69
286.982	82.69
287.213	77.69
287.444	78.69
287.675	84.69
287.906	85.69
288.138	79.69
288.369	88.69
288.6	71.69
288.831	73.69
289.062	78.69
289.293	82.69
289.524	79.69
289.755	82.69
289.986	84.69
290.217	79.69
290.448	81.69
290.679	85.69
290.91	78.69
291.141	78.69
291.371	92.69
291.602	96.69
291.833	88.69
292.064	92.69
292.295	81.69
292.526	79.69
292.757	81.69
292.987	92.69
293.218	85.69
293.449	92.69
293.68	86.69
293.91	77.69
294.141	70.69
294.372	78.69
294.603	83.69
294.833	81.69
295.064	105.69
295.295	73.69
295.525	81.69
295.756	80.69
295.987	83.69
296.217	93.69
296.448	69.69
296.679	89.69
296.909	90.69
297.14	89.69
297.37	97.69
297.601	95.69
297.831	79.69
298.062	94.69
298.292	90.69
298.523	77.69
298.753	92.69
298.984	81.69
299.214	100.69
299.445	85.69
299.675	74.69
299.905	80.69
300.136	72.69
300.366	88.69
300.597	88.69
300.827	72.69
301.057	76.69
301.288	84.69
301.518	80.69
301.748	72.69
301.979	99.69
302.209	73.69
302.439	79.69
302.669	76.69
302.9	82.69
303.13	94.69
303.36	74.69
303.59	86.69
303.82	76.69
304.051	78.69
304.281	80.69
304.511	74.69
304.741	78.69
304.971	86.69
305.201	93.69
305.431	94.69
305.661	78.69
305.891	96.69
306.121	66.69
306.352	82.69
306.582	82.69
306.812	80.69
307.042	93.69
307.272	82.69
307.502	80.69
307.731	75.69
307.961	76.69
308.191	83.69
308.421	95.69
308.651	80.69
308.881	86.69
309.111	76.69
309.341	81.69
309.571	97.69
309.8	88.69
310.03	83.69
310.26	86.69
310.49	86.69
310.72	78.69
310.949	87.69
311.179	83.69
311.409	76.69
311.639	85.69
311.868	92.69
312.098	87.69
312.328	83.69
312.557	92.69
312.787	72.69
313.017	71.69
313.246	77.69
313.476	93.69
313.706	80.69
313.935	88.69
314.165	102.69
314.394	87.69
314.624	92.69
314.853	85.69
315.083	81.69
315.312	84.69
315.542	77.69
315.771	84.69
316.001	81.69
316.23	89.69
316.46	84.69
316.689	86.69
316.919	77.69
317.148	79.69
317.377	82.69
317.607	80.69
317.836	96.69
318.065	94.69
318.295	80.69
318.524	79.69
318.753	85.69
318.983	70.69
319.212	65.69
319.441	82.69
319.67	75.69
319.9	85.69
320.129	93.69
320.358	76.69
320.587	84.69
320.816	75.69
321.046	90.69
321.275	98.69
321.504	85.69
321.733	88.69
321.962	87.69
322.191	82.69
322.42	72.69
322.649	78.69
322.878	97.69
323.108	88.69
323.337	75.69
323.566	108.69
323.795	88.69
324.024	79.69
324.253	98.69
324.482	82.69
324.71	95.69
324.939	75.69
325.168	82.69
325.397	89.69
325.626	88.69
325.855	86.69
326.084	79.69
326.313	78.69
326.542	73.69
326.77	99.69
326.999	96.69
327.228	81.69
327.457	72.69
327.686	88.69
327.914	100.69
328.143	78.69
328.372	81.69
328.6	74.69
328.829	81.69
329.058	79.69
329.287	78.69
329.515	80.69
329.744	80.69
329.972	85.69
330.201	73.69
330.43	78.69
330.658	85.69
330.887	98.69
331.115	85.69
331.344	82.69
331.572	96.69
331.801	74.69
332.03	75.69
332.258	86.69
332.486	88.69
332.715	81.69
332.943	81.69
333.172	85.69
333.4	79.69
333.629	78.69
333.857	74.69
334.085	78.69
334.314	84.69
334.542	77.69
334.771	85.69
334.999	86.69
335.227	78.69
335.455	90.69
335.684	81.69
335.912	89.69
336.14	81.69
336.369	82.69
336.597	87.69
336.825	77.69
337.053	77.69
337.281	93.69
337.51	74.69
337.738	81.69
337.966	85.69
338.194	85.69
338.422	92.69
338.65	95.69
338.878	87.69
339.106	90.69
339.334	87.69
339.562	79.69
339.79	80.69
340.018	95.69
340.246	89.69
340.474	79.69
340.702	74.69
340.93	77.69
341.158	84.69
341.386	76.69
341.614	77.69
341.842	77.69
342.07	75.69
342.298	77.69
342.526	85.69
342.754	101.69
342.981	87.69
343.209	91.69
343.437	92.69
343.665	72.69
343.893	84.69
344.12	73.69
344.348	78.69
344.576	80.69
344.804	91.69
345.031	86.69
345.259	80.69
345.487	70.69
345.714	85.69
345.942	73.69
346.17	80.69
346.397	84.69
346.625	88.69
346.853	86.69
347.08	76.69
347.308	78.69
347.535	87.69
347.763	81.69
347.99	73.69
348.218	90.69
348.445	88.69
348.673	81.69
348.9	85.69
349.128	86.69
349.355	73.69
349.583	88.69
349.81	81.69
350.037	86.69
350.265	82.69
350.492	84.69
350.72	93.69
350.947	83.69
351.174	81.69
351.402	78.69
351.629	71.69
351.856	80.69
352.083	79.69
352.311	78.69
352.538	75.69
352.765	98.69
352.992	78.69
353.22	72.69
353.447	76.69
353.674	79.69
353.901	95.69
354.128	88.69
354.355	83.69
354.583	64.69
354.81	89.69
355.037	69.69
355.264	94.69
355.491	84.69
355.718	85.69
355.945	94.69
356.172	91.69
356.399	86.69
356.626	89.69
356.853	88.69
357.08	78.69
357.307	87.69
357.534	82.69
357.761	90.69
357.988	89.69
358.215	77.69
358.441	87.69
358.668	86.69
358.895	94.69
359.122	88.69
359.349	80.69
359.576	82.69
359.802	83.69
360.029	73.69
360.256	75.69
360.483	86.69
360.709	79.69
360.936	92.69
361.163	88.69
361.39	81.69
361.616	69.69
361.843	74.69
362.07	82.69
362.296	71.69
362.523	85.69
362.749	73.69
362.976	84.69
363.203	99.69
363.429	81.69
363.656	72.69
363.882	80.69
364.109	85.69
364.335	78.69
364.562	97.69
364.788	78.69
365.015	66.69
365.241	87.69
365.468	83.69
365.694	77.69
365.92	91.69
366.147	74.69
366.373	87.69
366.599	94.69
366.826	86.69
367.052	85.69
367.278	78.69
367.505	72.69
367.731	100.69
367.957	76.69
368.184	79.69
368.41	81.69
368.636	80.69
368.862	74.69
369.089	81.69
369.315	71.69
369.541	86.69
369.767	81.69
369.993	77.69
370.219	97.69
370.445	84.69
370.672	73.69
370.898	88.69
371.124	84.69
371.35	85.69
371.576	76.69
371.802	74.69
372.028	87.69
372.254	69.69
372.48	83.69
372.706	84.69
372.932	77.69
373.158	88.69
373.384	83.69
373.61	77.69
373.835	83.69
374.061	72.69
374.287	78.69
374.513	66.69
374.739	85.69
374.965	84.69
375.191	65.69
375.416	70.69
375.642	74.69
375.868	80.69
376.094	72.69
376.319	87.69
376.545	82.69
376.771	66.69
376.997	72.69
377.222	82.69
377.448	84.69
377.674	92.69
377.899	88.69
378.125	88.69
378.35	92.69
378.576	79.69
378.802	79.69
379.027	86.69
379.253	86.69
379.478	69.69
379.704	86.69
379.929	76.69
380.155	87.69
380.38	81.69
380.606	69.69
380.831	78.69
381.057	81.69
381.282	86.69
381.507	80.69
381.733	85.69
381.958	68.69
382.184	77.69
382.409	82.69
382.634	87.69
382.86	78.69
383.085	96.69
383.31	72.69
383.535	90.69
383.761	97.69
383.986	91.69
384.211	71.69
384.436	97.69
384.662	89.69
384.887	95.69
385.112	83.69
385.337	83.69
385.562	79.69
385.787	84.69
386.013	88.69
386.238	92.69
386.463	76.69
386.688	88.69
386.913	77.69
387.138	75.69
387.363	92.69
387.588	79.69
387.813	85.69
388.038	84.69
388.263	69.69
388.488	73.69
388.713	71.69
388.938	88.69
389.163	85.69
389.387	88.69
389.612	87.69
389.837	86.69
390.062	84.69
390.287	88.69
390.512	86.69
390.736	86.69
390.961	88.69
391.186	88.69
391.411	74.69
391.636	77.69
391.86	85.69
392.085	85.69
392.31	92.69
392.534	78.69
392.759	81.69
392.984	82.69
393.208	65.69
393.433	79.69
393.658	87.69
393.882	82.69
394.107	97.69
394.331	92.69
394.556	74.69
394.78	78.69
395.005	76.69
395.229	80.69
395.454	80.69
395.678	90.69
395.903	71.69
396.127	84.69
396.352	77.69
396.576	86.69
396.801	87.69
397.025	82.69
397.249	89.69
397.474	89.69
397.698	84.69
397.922	81.69
398.147	100.69
398.371	80.69
398.595	91.69
398.82	76.69
399.044	77.69
399.268	71.69
399.492	77.69
399.717	76.69
399.941	94.69
400.165	95.69
400.389	88.69
400.613	93.69
400.837	84.69
401.062	78.69
401.286	71.69
401.51	82.69
401.734	97.69
401.958	89.69
402.182	100.69
402.406	94.69
402.63	88.69
402.854	74.69
403.078	77.69
403.302	84.69
403.526	86.69
403.75	89.69
403.974	87.69
404.198	108.69
404.422	142.69
404.645	150.69
404.869	139.69
405.093	114.69
405.317	95.69
405.541	90.69
405.765	84.69
405.988	92.69
406.212	98.69
406.436	86.69
406.66	91.69
406.883	80.69
407.107	89.69
407.331	95.69
407.555	77.69
407.778	86.69
408.002	82.69
408.226	66.69
408.449	76.69
408.673	77.69
408.896	87.69
409.12	83.69
409.344	84.69
409.567	84.69
409.791	78.69
410.014	74.69
410.238	87.69
410.461	71.69
410.685	84.69
410.908	84.69
411.132	93.69
411.355	74.69
411.578	81.69
411.802	76.69
412.025	88.69
412.249	88.69
412.472	86.69
412.695	85.69
412.919	84.69
413.142	63.69
413.365	78.69
413.589	72.69
413.812	85.69
414.035	82.69
414.258	77.69
414.482	79.69
414.705	81.69
414.928	76.69
415.151	86.69
415.374	88.69
415.597	90.69
415.821	86.69
416.044	80.69
416.267	94.69
416.49	89.69
416.713	82.69
416.936	94.69
417.159	94.69
417.382	70.69
417.605	75.69
417.828	86.69
418.051	62.69
418.274	68.69
418.497	76.69
418.72	75.69
418.943	79.69
419.166	81.69
419.389	93.69
419.611	86.69
419.834	73.69
420.057	83.69
420.28	87.69
420.503	76.69
420.726	80.69
420.948	82.69
421.171	88.69
421.394	86.69
421.617	93.69
421.839	92.69
422.062	78.69
422.285	90.69
422.507	76.69
422.73	81.69
422.953	86.69
423.175	84.69
423.398	81.69
423.621	84.69
423.843	76.69
424.066	79.69
424.288	67.69
424.511	90.69
424.733	87.69
424.956	89.69
425.178	79.69
425.401	81.69
425.623	96.69
425.846	85.69
426.068	87.69
426.291	79.69
426.513	69.69
426.735	93.69
426.958	83.69
427.18	83.69
427.402	73.69
427.625	79.69
427.847	70.69
428.069	73.69
428.292	93.69
428.514	81.69
428.736	94.69
428.958	78.69
429.181	73.69
429.403	87.69
429.625	88.69
429.847	93.69
430.069	78.69
430.292	76.69
430.514	81.69
430.736	80.69
430.958	71.69
431.18	97.69
431.402	85.69
431.624	84.69
431.846	84.69
432.068	65.69
432.29	83.69
432.512	90.69
432.734	78.69
432.956	99.69
433.178	83.69
433.4	87.69
433.622	81.69
433.844	88.69
434.066	84.69
434.287	78.69
434.509	89.69
434.731	86.69
434.953	76.69
435.175	80.69
435.397	83.69
435.618	73.69
435.84	77.69
436.062	81.69
436.284	98.69
436.505	91.69
436.727	87.69
436.949	95.69
437.17	71.69
437.392	92.69
437.614	85.69
437.835	71.69
438.057	92.69
438.278	75.69
438.5	98.69
438.721	91.69
438.943	88.69
439.165	87.69
439.386	95.69
439.608	78.69
439.829	71.69
440.05	92.69
440.272	90.69
440.493	82.69
440.715	82.69
440.936	82.69
441.158	89.69
441.379	88.69
441.6	88.69
441.822	90.69
442.043	83.69
442.264	84.69
442.486	80.69
442.707	85.69
442.928	80.69
443.149	75.69
443.371	85.69
443.592	102.69
443.813	76.69
444.034	85.69
444.255	78.69
444.476	85.69
444.698	66.69
444.919	88.69
445.14	148.69
445.361	110.69
445.582	75.69
445.803	83.69
446.024	80.69
446.245	93.69
446.466	96.69
446.687	82.69
446.908	80.69
447.129	83.69
447.35	78.69
447.571	75.69
447.792	78.69
448.013	82.69
448.234	78.69
448.455	80.69
448.675	81.69
448.896	89.69
449.117	77.69
449.338	80.69
449.559	77.69
449.779	93.69
450	97.69
450.221	86.69
450.442	79.69
450.662	81.69
450.883	100.69
451.104	80.69
451.324	84.69
451.545	82.69
451.766	87.69
451.986	72.69
452.207	90.69
452.428	89.69
452.648	82.69
452.869	98.69
453.089	92.69
453.31	70.69
453.53	88.69
453.751	76.69
453.971	77.69
454.192	82.69
454.412	87.69
454.633	77.69
454.853	75.69
455.073	78.69
455.294	89.69
455.514	85.69
455.734	93.69
455.955	92.69
456.175	79.69
456.395	67.69
456.616	75.69
456.836	80.69
457.056	90.69
457.276	82.69
457.497	82.69
457.717	77.69
457.937	73.69
458.157	68.69
458.377	76.69
458.598	76.69
458.818	73.69
459.038	72.69
459.258	84.69
459.478	76.69
459.698	69.69
459.918	76.69
460.138	79.69
460.358	77.69
460.578	80.69
460.798	83.69
461.018	68.69
461.238	91.69
461.458	88.69
461.678	85.69
461.898	80.69
462.118	84.69
462.338	79.69
462.558	81.69
462.777	67.69
462.997	91.69
463.217	79.69
463.437	81.69
463.657	80.69
463.876	72.69
464.096	78.69
464.316	79.69
464.536	89.69
464.755	77.69
464.975	65.69
465.195	77.69
465.414	65.69
465.634	69.69
465.854	78.69
466.073	92.69
466.293	76.69
466.512	78.69
466.732	101.69
466.951	82.69
467.171	83.69
467.391	78.69
467.61	92.69
467.829	83.69
468.049	70.69
468.268	78.69
468.488	77.69
468.707	93.69
468.927	74.69
469.146	88.69
469.365	90.69
469.585	85.69
469.804	98.69
470.023	80.69
470.243	81.69
470.462	79.69
470.681	90.69
470.901	88.69
471.12	94.69
471.339	87.69
471.558	78.69
471.777	88.69
471.997	79.69
472.216	67.69
472.435	87.69
472.654	81.69
472.873	87.69
473.092	82.69
473.311	86.69
473.53	81.69
473.749	84.69
473.968	85.69
474.187	80.69
474.406	78.69
474.625	96.69
474.844	80.69
475.063	83.69
475.282	84.69
475.501	87.69
475.72	114.69
475.939	89.69
476.158	79.69
476.377	89.69
476.596	76.69
476.814	93.69
477.033	80.69
477.252	97.69
477.471	95.69
477.69	84.69
477.908	80.69
478.127	85.69
478.346	99.69
478.564	92.69
478.783	89.69
479.002	76.69
479.22	84.69
479.439	88.69
479.658	98.69
479.876	98.69
480.095	88.69
480.313	95.69
480.532	96.69
480.751	89.69
480.969	81.69
481.188	90.69
481.406	70.69
481.624	82.69
481.843	69.69
482.061	77.69
482.28	97.69
482.498	92.69
482.717	81.69
482.935	89.69
483.153	82.69
483.372	93.69
483.59	90.69
483.808	94.69
484.027	87.69
484.245	92.69
484.463	89.69
484.681	87.69
484.9	78.69
485.118	87.69
485.336	79.69
485.554	73.69
485.772	79.69
485.99	70.69
486.209	83.69
486.427	80.69
486.645	79.69
486.863	84.69
487.081	69.69
487.299	84.69
487.517	86.69
487.735	91.69
487.953	92.69
488.171	86.69
488.389	101.69
488.607	99.69
488.825	97.69
489.043	102.69
489.261	96.69
489.479	92.69
489.696	89.69
489.914	78.69
490.132	82.69
490.35	81.69
490.568	85.69
490.786	89.69
491.003	83.69
491.221	86.69
491.439	99.69
491.657	83.69
491.874	106.69
492.092	97.69
492.31	94.69
492.527	96.69
492.745	95.69
492.963	98.69
493.18	89.69
493.398	79.69
493.615	87.69
493.833	87.69
494.05	93.69
494.268	92.69
494.485	85.69
494.703	94.69
494.92	82.69
495.138	90.69
495.355	97.69
495.573	81.69
495.79	84.69
496.008	98.69
496.225	93.69
496.442	77.69
496.66	84.69
496.877	102.69
497.094	97.69
497.312	96.69
497.529	94.69
497.746	89.69
497.963	84.69
498.181	78.69
498.398	76.69
498.615	69.69
498.832	79.69
499.049	79.69
499.267	84.69
499.484	74.69
499.701	88.69
499.918	93.69
500.135	86.69
500.352	88.69
500.569	78.69
500.786	100.69
501.003	85.69
501.22	77.69
501.437	84.69
501.654	78.69
501.871	89.69
502.088	100.69
502.305	93.69
502.522	87.69
502.739	79.69
502.956	76.69
503.172	99.69
503.389	82.69
503.606	84.69
503.823	80.69
504.04	85.69
504.256	80.69
504.473	82.69
504.69	83.69
504.907	84.69
505.123	88.69
505.34	74.69
505.557	84.69
505.773	90.69
505.99	77.69
506.207	87.69
506.423	96.69
506.64	90.69
506.856	83.69
507.073	92.69
507.289	94.69
507.506	78.69
507.722	71.69
507.939	87.69
508.155	96.69
508.372	70.69
508.588	87.69
508.805	82.69
509.021	80.69
509.238	100.69
509.454	82.69
509.67	78.69
509.887	74.69
510.103	83.69
510.319	85.69
510.536	94.69
510.752	81.69
510.968	74.69
511.184	77.69
511.401	82.69
511.617	83.69
511.833	86.69
512.049	87.69
512.265	91.69
512.481	99.69
512.698	93.69
512.914	96.69
513.13	93.69
513.346	76.69
513.562	86.69
513.778	82.69
513.994	94.69
514.21	86.69
514.426	86.69
514.642	84.69
514.858	84.69
515.074	75.69
515.29	80.69
515.506	82.69
515.721	84.69
515.937	86.69
516.153	77.69
516.369	81.69
516.585	83.69
516.801	88.69
517.016	78.69
517.232	89.69
517.448	90.69
517.664	86.69
517.879	80.69
518.095	76.69
518.311	65.69
518.527	94.69
518.742	81.69
518.958	82.69
519.173	89.69
519.389	73.69
519.605	76.69
519.82	76.69
