Data from KBrNoHeat_HRD10591_00020.txt Node
Date: Fri Dec 27 14:39:27 EST 2024
User: Yrep
Spectrometer: HR+D1059
Trigger mode: 1
Integration Time (sec): 1.000000E-1
Scans to average: 1
Electric dark correction enabled: true
Nonlinearity correction enabled: false
Boxcar width: 0
XAxis mode: Wavelengths
Number of Pixels in Spectrum: 2048
>>>>>Begin Spectral Data<<<<<
223.165	-15.31
223.4	-15.31
223.635	-15.31
223.869	-26.31
224.104	-19.31
224.338	-6.31
224.573	-12.31
224.808	-28.31
225.042	1.69
225.277	-15.31
225.511	-12.31
225.746	14.69
225.98	16.69
226.215	9.69
226.449	9.69
226.683	17.69
226.918	30.69
227.152	34.69
227.387	26.69
227.621	52.69
227.856	37.69
228.09	45.69
228.324	57.69
228.559	57.69
228.793	60.69
229.027	60.69
229.262	61.69
229.496	56.69
229.73	56.69
229.964	61.69
230.199	76.69
230.433	71.69
230.667	85.69
230.901	72.69
231.136	75.69
231.37	81.69
231.604	72.69
231.838	81.69
232.072	74.69
232.306	74.69
232.541	73.69
232.775	93.69
233.009	84.69
233.243	102.69
233.477	74.69
233.711	98.69
233.945	92.69
234.179	68.69
234.413	70.69
234.647	86.69
234.881	73.69
235.115	86.69
235.349	68.69
235.583	65.69
235.817	66.69
236.051	73.69
236.285	65.69
236.519	65.69
236.753	87.69
236.987	78.69
237.221	65.69
237.455	82.69
237.689	72.69
237.922	92.69
238.156	72.69
238.39	83.69
238.624	78.69
238.858	80.69
239.091	79.69
239.325	64.69
239.559	62.69
239.793	72.69
240.027	81.69
240.26	67.69
240.494	70.69
240.728	72.69
240.961	67.69
241.195	70.69
241.429	68.69
241.662	82.69
241.896	65.69
242.13	66.69
242.363	75.69
242.597	74.69
242.83	82.69
243.064	66.69
243.298	71.69
243.531	88.69
243.765	77.69
243.998	79.69
244.232	82.69
244.465	73.69
244.699	87.69
244.932	71.69
245.166	76.69
245.399	71.69
245.633	77.69
245.866	71.69
246.099	80.69
246.333	67.69
246.566	70.69
246.8	79.69
247.033	78.69
247.266	74.69
247.5	72.69
247.733	64.69
247.966	83.69
248.2	83.69
248.433	76.69
248.666	66.69
248.899	73.69
249.133	70.69
249.366	87.69
249.599	81.69
249.832	85.69
250.066	83.69
250.299	79.69
250.532	81.69
250.765	79.69
250.998	81.69
251.231	79.69
251.465	67.69
251.698	70.69
251.931	68.69
252.164	83.69
252.397	62.69
252.63	80.69
252.863	77.69
253.096	84.69
253.329	92.69
253.562	81.69
253.795	83.69
254.028	83.69
254.261	81.69
254.494	58.69
254.727	74.69
254.96	81.69
255.193	82.69
255.426	83.69
255.659	80.69
255.892	87.69
256.124	72.69
256.357	85.69
256.59	67.69
256.823	81.69
257.056	66.69
257.289	78.69
257.521	81.69
257.754	76.69
257.987	76.69
258.22	80.69
258.452	80.69
258.685	70.69
258.918	82.69
259.151	71.69
259.383	90.69
259.616	68.69
259.849	82.69
260.081	90.69
260.314	73.69
260.547	80.69
260.779	69.69
261.012	76.69
261.244	76.69
261.477	76.69
261.71	81.69
261.942	76.69
262.175	67.69
262.407	80.69
262.64	85.69
262.872	77.69
263.105	85.69
263.337	92.69
263.57	88.69
263.802	94.69
264.035	84.69
264.267	76.69
264.499	71.69
264.732	80.69
264.964	82.69
265.197	81.69
265.429	75.69
265.661	88.69
265.894	78.69
266.126	83.69
266.358	84.69
266.591	90.69
266.823	77.69
267.055	79.69
267.287	85.69
267.52	90.69
267.752	79.69
267.984	89.69
268.216	81.69
268.448	93.69
268.681	81.69
268.913	87.69
269.145	93.69
269.377	100.69
269.609	61.69
269.841	80.69
270.073	84.69
270.306	83.69
270.538	86.69
270.77	78.69
271.002	78.69
271.234	80.69
271.466	82.69
271.698	65.69
271.93	79.69
272.162	88.69
272.394	81.69
272.626	85.69
272.858	90.69
273.09	72.69
273.322	89.69
273.553	82.69
273.785	84.69
274.017	69.69
274.249	97.69
274.481	84.69
274.713	89.69
274.945	71.69
275.176	84.69
275.408	88.69
275.64	78.69
275.872	85.69
276.104	89.69
276.335	72.69
276.567	90.69
276.799	93.69
277.031	79.69
277.262	75.69
277.494	93.69
277.726	98.69
277.957	79.69
278.189	94.69
278.421	74.69
278.652	89.69
278.884	79.69
279.115	76.69
279.347	80.69
279.579	80.69
279.81	74.69
280.042	80.69
280.273	72.69
280.505	70.69
280.736	81.69
280.968	93.69
281.199	83.69
281.431	84.69
281.662	78.69
281.894	85.69
282.125	73.69
282.356	92.69
282.588	74.69
282.819	79.69
283.051	88.69
283.282	79.69
283.513	87.69
283.745	104.69
283.976	70.69
284.207	94.69
284.439	79.69
284.67	76.69
284.901	76.69
285.132	83.69
285.364	82.69
285.595	86.69
285.826	75.69
286.057	94.69
286.288	88.69
286.52	71.69
286.751	61.69
286.982	89.69
287.213	79.69
287.444	84.69
287.675	84.69
287.906	94.69
288.138	82.69
288.369	89.69
288.6	99.69
288.831	68.69
289.062	83.69
289.293	80.69
289.524	74.69
289.755	77.69
289.986	86.69
290.217	79.69
290.448	86.69
290.679	88.69
290.91	91.69
291.141	84.69
291.371	80.69
291.602	84.69
291.833	84.69
292.064	77.69
292.295	86.69
292.526	89.69
292.757	79.69
292.987	79.69
293.218	78.69
293.449	80.69
293.68	94.69
293.91	84.69
294.141	88.69
294.372	88.69
294.603	78.69
294.833	74.69
295.064	89.69
295.295	88.69
295.525	79.69
295.756	80.69
295.987	72.69
296.217	77.69
296.448	88.69
296.679	76.69
296.909	72.69
297.14	79.69
297.37	76.69
297.601	92.69
297.831	78.69
298.062	68.69
298.292	88.69
298.523	87.69
298.753	76.69
298.984	90.69
299.214	85.69
299.445	95.69
299.675	76.69
299.905	76.69
300.136	81.69
300.366	86.69
300.597	78.69
300.827	76.69
301.057	93.69
301.288	90.69
301.518	74.69
301.748	93.69
301.979	108.69
302.209	79.69
302.439	100.69
302.669	93.69
302.9	76.69
303.13	85.69
303.36	78.69
303.59	74.69
303.82	84.69
304.051	85.69
304.281	95.69
304.511	96.69
304.741	75.69
304.971	86.69
305.201	81.69
305.431	83.69
305.661	81.69
305.891	95.69
306.121	104.69
306.352	88.69
306.582	85.69
306.812	70.69
307.042	73.69
307.272	84.69
307.502	86.69
307.731	77.69
307.961	78.69
308.191	79.69
308.421	84.69
308.651	90.69
308.881	89.69
309.111	80.69
309.341	85.69
309.571	83.69
309.8	79.69
310.03	82.69
310.26	75.69
310.49	96.69
310.72	92.69
310.949	89.69
311.179	92.69
311.409	74.69
311.639	88.69
311.868	89.69
312.098	82.69
312.328	86.69
312.557	84.69
312.787	88.69
313.017	87.69
313.246	100.69
313.476	96.69
313.706	85.69
313.935	79.69
314.165	84.69
314.394	77.69
314.624	82.69
314.853	93.69
315.083	78.69
315.312	93.69
315.542	93.69
315.771	96.69
316.001	83.69
316.23	69.69
316.46	94.69
316.689	92.69
316.919	85.69
317.148	85.69
317.377	93.69
317.607	75.69
317.836	88.69
318.065	87.69
318.295	73.69
318.524	84.69
318.753	78.69
318.983	77.69
319.212	77.69
319.441	90.69
319.67	72.69
319.9	78.69
320.129	85.69
320.358	74.69
320.587	87.69
320.816	85.69
321.046	96.69
321.275	87.69
321.504	70.69
321.733	84.69
321.962	95.69
322.191	83.69
322.42	87.69
322.649	82.69
322.878	74.69
323.108	78.69
323.337	85.69
323.566	78.69
323.795	77.69
324.024	94.69
324.253	77.69
324.482	78.69
324.71	92.69
324.939	89.69
325.168	83.69
325.397	82.69
325.626	91.69
325.855	80.69
326.084	81.69
326.313	75.69
326.542	72.69
326.77	89.69
326.999	82.69
327.228	78.69
327.457	92.69
327.686	86.69
327.914	80.69
328.143	89.69
328.372	92.69
328.6	77.69
328.829	95.69
329.058	85.69
329.287	89.69
329.515	96.69
329.744	86.69
329.972	84.69
330.201	65.69
330.43	89.69
330.658	78.69
330.887	70.69
331.115	108.69
331.344	92.69
331.572	85.69
331.801	99.69
332.03	83.69
332.258	79.69
332.486	68.69
332.715	85.69
332.943	74.69
333.172	87.69
333.4	93.69
333.629	87.69
333.857	80.69
334.085	88.69
334.314	80.69
334.542	83.69
334.771	84.69
334.999	78.69
335.227	82.69
335.455	78.69
335.684	86.69
335.912	89.69
336.14	73.69
336.369	85.69
336.597	89.69
336.825	101.69
337.053	79.69
337.281	92.69
337.51	74.69
337.738	69.69
337.966	84.69
338.194	86.69
338.422	97.69
338.65	90.69
338.878	82.69
339.106	82.69
339.334	85.69
339.562	100.69
339.79	73.69
340.018	73.69
340.246	85.69
340.474	90.69
340.702	79.69
340.93	102.69
341.158	89.69
341.386	82.69
341.614	72.69
341.842	94.69
342.07	88.69
342.298	86.69
342.526	86.69
342.754	82.69
342.981	82.69
343.209	70.69
343.437	86.69
343.665	92.69
343.893	94.69
344.12	92.69
344.348	81.69
344.576	96.69
344.804	98.69
345.031	78.69
345.259	83.69
345.487	88.69
345.714	64.69
345.942	84.69
346.17	84.69
346.397	90.69
346.625	89.69
346.853	72.69
347.08	76.69
347.308	93.69
347.535	98.69
347.763	85.69
347.99	89.69
348.218	97.69
348.445	82.69
348.673	77.69
348.9	77.69
349.128	93.69
349.355	82.69
349.583	93.69
349.81	101.69
350.037	88.69
350.265	92.69
350.492	68.69
350.72	78.69
350.947	81.69
351.174	83.69
351.402	87.69
351.629	86.69
351.856	90.69
352.083	89.69
352.311	69.69
352.538	75.69
352.765	92.69
352.992	92.69
353.22	73.69
353.447	88.69
353.674	93.69
353.901	81.69
354.128	79.69
354.355	95.69
354.583	76.69
354.81	83.69
355.037	88.69
355.264	96.69
355.491	83.69
355.718	83.69
355.945	96.69
356.172	81.69
356.399	85.69
356.626	84.69
356.853	61.69
357.08	75.69
357.307	68.69
357.534	82.69
357.761	89.69
357.988	90.69
358.215	95.69
358.441	76.69
358.668	91.69
358.895	72.69
359.122	87.69
359.349	77.69
359.576	85.69
359.802	85.69
360.029	89.69
360.256	77.69
360.483	82.69
360.709	73.69
360.936	87.69
361.163	83.69
361.39	72.69
361.616	81.69
361.843	77.69
362.07	71.69
362.296	83.69
362.523	92.69
362.749	86.69
362.976	71.69
363.203	92.69
363.429	79.69
363.656	96.69
363.882	86.69
364.109	77.69
364.335	82.69
364.562	96.69
364.788	88.69
365.015	100.69
365.241	73.69
365.468	86.69
365.694	80.69
365.92	84.69
366.147	78.69
366.373	82.69
366.599	80.69
366.826	91.69
367.052	98.69
367.278	83.69
367.505	84.69
367.731	104.69
367.957	94.69
368.184	84.69
368.41	82.69
368.636	100.69
368.862	88.69
369.089	89.69
369.315	91.69
369.541	64.69
369.767	76.69
369.993	104.69
370.219	81.69
370.445	96.69
370.672	78.69
370.898	89.69
371.124	83.69
371.35	93.69
371.576	74.69
371.802	65.69
372.028	88.69
372.254	92.69
372.48	84.69
372.706	72.69
372.932	90.69
373.158	87.69
373.384	94.69
373.61	94.69
373.835	93.69
374.061	97.69
374.287	92.69
374.513	87.69
374.739	92.69
374.965	73.69
375.191	77.69
375.416	79.69
375.642	74.69
375.868	81.69
376.094	94.69
376.319	78.69
376.545	77.69
376.771	82.69
376.997	89.69
377.222	100.69
377.448	97.69
377.674	78.69
377.899	85.69
378.125	96.69
378.35	80.69
378.576	79.69
378.802	95.69
379.027	78.69
379.253	88.69
379.478	79.69
379.704	93.69
379.929	90.69
380.155	94.69
380.38	92.69
380.606	84.69
380.831	85.69
381.057	95.69
381.282	88.69
381.507	92.69
381.733	97.69
381.958	84.69
382.184	86.69
382.409	86.69
382.634	98.69
382.86	82.69
383.085	67.69
383.31	80.69
383.535	84.69
383.761	86.69
383.986	94.69
384.211	82.69
384.436	97.69
384.662	81.69
384.887	77.69
385.112	86.69
385.337	89.69
385.562	89.69
385.787	94.69
386.013	85.69
386.238	77.69
386.463	69.69
386.688	83.69
386.913	80.69
387.138	81.69
387.363	66.69
387.588	92.69
387.813	88.69
388.038	87.69
388.263	86.69
388.488	95.69
388.713	88.69
388.938	86.69
389.163	74.69
389.387	80.69
389.612	98.69
389.837	84.69
390.062	85.69
390.287	79.69
390.512	81.69
390.736	62.69
390.961	86.69
391.186	75.69
391.411	85.69
391.636	82.69
391.86	93.69
392.085	80.69
392.31	92.69
392.534	87.69
392.759	85.69
392.984	80.69
393.208	83.69
393.433	68.69
393.658	92.69
393.882	83.69
394.107	82.69
394.331	94.69
394.556	88.69
394.78	87.69
395.005	89.69
395.229	73.69
395.454	93.69
395.678	86.69
395.903	82.69
396.127	86.69
396.352	85.69
396.576	78.69
396.801	86.69
397.025	75.69
397.249	74.69
397.474	87.69
397.698	100.69
397.922	94.69
398.147	85.69
398.371	92.69
398.595	68.69
398.82	73.69
399.044	62.69
399.268	79.69
399.492	84.69
399.717	82.69
399.941	82.69
400.165	81.69
400.389	79.69
400.613	86.69
400.837	80.69
401.062	79.69
401.286	84.69
401.51	88.69
401.734	81.69
401.958	88.69
402.182	84.69
402.406	80.69
402.63	84.69
402.854	83.69
403.078	82.69
403.302	86.69
403.526	96.69
403.75	80.69
403.974	104.69
404.198	101.69
404.422	124.69
404.645	132.69
404.869	127.69
405.093	103.69
405.317	97.69
405.541	82.69
405.765	80.69
405.988	102.69
406.212	78.69
406.436	74.69
406.66	88.69
406.883	80.69
407.107	85.69
407.331	64.69
407.555	88.69
407.778	82.69
408.002	86.69
408.226	81.69
408.449	96.69
408.673	92.69
408.896	87.69
409.12	83.69
409.344	94.69
409.567	85.69
409.791	80.69
410.014	80.69
410.238	92.69
410.461	92.69
410.685	77.69
410.908	82.69
411.132	84.69
411.355	92.69
411.578	83.69
411.802	98.69
412.025	76.69
412.249	78.69
412.472	89.69
412.695	93.69
412.919	86.69
413.142	67.69
413.365	77.69
413.589	71.69
413.812	80.69
414.035	78.69
414.258	64.69
414.482	66.69
414.705	87.69
414.928	86.69
415.151	97.69
415.374	79.69
415.597	73.69
415.821	91.69
416.044	86.69
416.267	85.69
416.49	81.69
416.713	72.69
416.936	72.69
417.159	89.69
417.382	85.69
417.605	78.69
417.828	86.69
418.051	89.69
418.274	92.69
418.497	90.69
418.72	85.69
418.943	77.69
419.166	91.69
419.389	88.69
419.611	86.69
419.834	73.69
420.057	92.69
420.28	86.69
420.503	84.69
420.726	77.69
420.948	89.69
421.171	73.69
421.394	76.69
421.617	99.69
421.839	79.69
422.062	90.69
422.285	86.69
422.507	100.69
422.73	81.69
422.953	77.69
423.175	89.69
423.398	82.69
423.621	76.69
423.843	97.69
424.066	78.69
424.288	78.69
424.511	83.69
424.733	72.69
424.956	101.69
425.178	86.69
425.401	80.69
425.623	93.69
425.846	93.69
426.068	89.69
426.291	95.69
426.513	76.69
426.735	92.69
426.958	66.69
427.18	79.69
427.402	97.69
427.625	94.69
427.847	81.69
428.069	86.69
428.292	84.69
428.514	87.69
428.736	76.69
428.958	66.69
429.181	85.69
429.403	84.69
429.625	92.69
429.847	81.69
430.069	73.69
430.292	93.69
430.514	86.69
430.736	76.69
430.958	82.69
431.18	72.69
431.402	89.69
431.624	81.69
431.846	68.69
432.068	78.69
432.29	82.69
432.512	85.69
432.734	81.69
432.956	83.69
433.178	96.69
433.4	74.69
433.622	67.69
433.844	70.69
434.066	96.69
434.287	78.69
434.509	78.69
434.731	85.69
434.953	71.69
435.175	87.69
435.397	100.69
435.618	80.69
435.84	74.69
436.062	102.69
436.284	92.69
436.505	83.69
436.727	85.69
436.949	99.69
437.17	66.69
437.392	85.69
437.614	91.69
437.835	68.69
438.057	84.69
438.278	77.69
438.5	80.69
438.721	80.69
438.943	94.69
439.165	103.69
439.386	84.69
439.608	100.69
439.829	95.69
440.05	98.69
440.272	87.69
440.493	98.69
440.715	100.69
440.936	78.69
441.158	98.69
441.379	69.69
441.6	81.69
441.822	89.69
442.043	90.69
442.264	80.69
442.486	87.69
442.707	88.69
442.928	87.69
443.149	75.69
443.371	85.69
443.592	79.69
443.813	77.69
444.034	79.69
444.255	81.69
444.476	85.69
444.698	81.69
444.919	79.69
445.14	140.69
445.361	100.69
445.582	93.69
445.803	76.69
446.024	69.69
446.245	89.69
446.466	93.69
446.687	86.69
446.908	78.69
447.129	83.69
447.35	84.69
447.571	95.69
447.792	84.69
448.013	80.69
448.234	79.69
448.455	82.69
448.675	84.69
448.896	93.69
449.117	96.69
449.338	84.69
449.559	85.69
449.779	84.69
450	85.69
450.221	94.69
450.442	85.69
450.662	83.69
450.883	80.69
451.104	82.69
451.324	84.69
451.545	84.69
451.766	80.69
451.986	69.69
452.207	73.69
452.428	79.69
452.648	98.69
452.869	88.69
453.089	96.69
453.31	74.69
453.53	76.69
453.751	86.69
453.971	86.69
454.192	82.69
454.412	89.69
454.633	89.69
454.853	95.69
455.073	86.69
455.294	96.69
455.514	86.69
455.734	78.69
455.955	94.69
456.175	80.69
456.395	88.69
456.616	80.69
456.836	78.69
457.056	76.69
457.276	76.69
457.497	69.69
457.717	81.69
457.937	79.69
458.157	73.69
458.377	81.69
458.598	90.69
458.818	86.69
459.038	71.69
459.258	79.69
459.478	83.69
459.698	72.69
459.918	83.69
460.138	82.69
460.358	84.69
460.578	79.69
460.798	88.69
461.018	85.69
461.238	76.69
461.458	80.69
461.678	79.69
461.898	73.69
462.118	87.69
462.338	74.69
462.558	94.69
462.777	94.69
462.997	69.69
463.217	76.69
463.437	88.69
463.657	96.69
463.876	82.69
464.096	84.69
464.316	80.69
464.536	82.69
464.755	81.69
464.975	84.69
465.195	71.69
465.414	83.69
465.634	81.69
465.854	85.69
466.073	75.69
466.293	69.69
466.512	67.69
466.732	80.69
466.951	77.69
467.171	77.69
467.391	87.69
467.61	85.69
467.829	86.69
468.049	74.69
468.268	86.69
468.488	80.69
468.707	82.69
468.927	96.69
469.146	70.69
469.365	88.69
469.585	80.69
469.804	83.69
470.023	76.69
470.243	83.69
470.462	81.69
470.681	87.69
470.901	97.69
471.12	84.69
471.339	84.69
471.558	77.69
471.777	85.69
471.997	95.69
472.216	96.69
472.435	77.69
472.654	82.69
472.873	84.69
473.092	77.69
473.311	80.69
473.53	96.69
473.749	85.69
473.968	75.69
474.187	93.69
474.406	75.69
474.625	71.69
474.844	92.69
475.063	74.69
475.282	85.69
475.501	76.69
475.72	87.69
475.939	94.69
476.158	84.69
476.377	76.69
476.596	87.69
476.814	74.69
477.033	82.69
477.252	89.69
477.471	98.69
477.69	77.69
477.908	96.69
478.127	100.69
478.346	73.69
478.564	97.69
478.783	84.69
479.002	94.69
479.22	96.69
479.439	76.69
479.658	89.69
479.876	78.69
480.095	90.69
480.313	89.69
480.532	78.69
480.751	83.69
480.969	84.69
481.188	83.69
481.406	69.69
481.624	98.69
481.843	83.69
482.061	76.69
482.28	82.69
482.498	69.69
482.717	77.69
482.935	76.69
483.153	96.69
483.372	87.69
483.59	84.69
483.808	82.69
484.027	83.69
484.245	80.69
484.463	89.69
484.681	93.69
484.9	83.69
485.118	86.69
485.336	83.69
485.554	79.69
485.772	91.69
485.99	87.69
486.209	89.69
486.427	77.69
486.645	75.69
486.863	76.69
487.081	88.69
487.299	77.69
487.517	93.69
487.735	92.69
487.953	70.69
488.171	89.69
488.389	82.69
488.607	77.69
488.825	69.69
489.043	75.69
489.261	83.69
489.479	107.69
489.696	90.69
489.914	79.69
490.132	73.69
490.35	93.69
490.568	78.69
490.786	92.69
491.003	78.69
491.221	86.69
491.439	101.69
491.657	80.69
491.874	88.69
492.092	100.69
492.31	103.69
492.527	89.69
492.745	93.69
492.963	84.69
493.18	85.69
493.398	103.69
493.615	90.69
493.833	86.69
494.05	87.69
494.268	86.69
494.485	87.69
494.703	82.69
494.92	94.69
495.138	90.69
495.355	80.69
495.573	82.69
495.79	94.69
496.008	85.69
496.225	98.69
496.442	100.69
496.66	87.69
496.877	100.69
497.094	88.69
497.312	95.69
497.529	94.69
497.746	86.69
497.963	68.69
498.181	84.69
498.398	87.69
498.615	81.69
498.832	77.69
499.049	92.69
499.267	88.69
499.484	84.69
499.701	87.69
499.918	88.69
500.135	80.69
500.352	69.69
500.569	96.69
500.786	97.69
501.003	97.69
501.22	73.69
501.437	79.69
501.654	100.69
501.871	76.69
502.088	93.69
502.305	81.69
502.522	90.69
502.739	94.69
502.956	78.69
503.172	77.69
503.389	85.69
503.606	77.69
503.823	90.69
504.04	81.69
504.256	86.69
504.473	88.69
504.69	77.69
504.907	87.69
505.123	81.69
505.34	94.69
505.557	82.69
505.773	82.69
505.99	78.69
506.207	87.69
506.423	84.69
506.64	86.69
506.856	71.69
507.073	87.69
507.289	87.69
507.506	97.69
507.722	74.69
507.939	77.69
508.155	65.69
508.372	65.69
508.588	82.69
508.805	85.69
509.021	83.69
509.238	83.69
509.454	87.69
509.67	90.69
509.887	85.69
510.103	84.69
510.319	72.69
510.536	88.69
510.752	73.69
510.968	86.69
511.184	81.69
511.401	85.69
511.617	88.69
511.833	83.69
512.049	102.69
512.265	75.69
512.481	83.69
512.698	76.69
512.914	87.69
513.13	78.69
513.346	86.69
513.562	77.69
513.778	95.69
513.994	81.69
514.21	80.69
514.426	79.69
514.642	80.69
514.858	93.69
515.074	65.69
515.29	72.69
515.506	94.69
515.721	72.69
515.937	81.69
516.153	92.69
516.369	75.69
516.585	78.69
516.801	68.69
517.016	80.69
517.232	92.69
517.448	77.69
517.664	74.69
517.879	78.69
518.095	75.69
518.311	66.69
518.527	85.69
518.742	90.69
518.958	83.69
519.173	90.69
519.389	93.69
519.605	82.69
