Data from KBrNoHeat_HRD10591_00011.txt Node
Date: Fri Dec 27 14:39:18 EST 2024
User: Yrep
Spectrometer: HR+D1059
Trigger mode: 1
Integration Time (sec): 1.000000E-1
Scans to average: 1
Electric dark correction enabled: true
Nonlinearity correction enabled: false
Boxcar width: 0
XAxis mode: Wavelengths
Number of Pixels in Spectrum: 2048
>>>>>Begin Spectral Data<<<<<
223.165	-20.38
223.4	-20.38
223.635	-20.38
223.869	-19.38
224.104	-13.38
224.338	-10.38
224.573	-12.38
224.808	-22.38
225.042	-15.38
225.277	-5.38
225.511	-6.38
225.746	8.62
225.98	5.62
226.215	7.62
226.449	22.62
226.683	21.62
226.918	32.62
227.152	26.62
227.387	43.62
227.621	30.62
227.856	35.62
228.09	42.62
228.324	45.62
228.559	62.62
228.793	65.62
229.027	64.62
229.262	60.62
229.496	67.62
229.73	73.62
229.964	74.62
230.199	81.62
230.433	70.62
230.667	61.62
230.901	78.62
231.136	69.62
231.37	79.62
231.604	82.62
231.838	86.62
232.072	68.62
232.306	85.62
232.541	61.62
232.775	94.62
233.009	75.62
233.243	79.62
233.477	80.62
233.711	83.62
233.945	72.62
234.179	75.62
234.413	93.62
234.647	78.62
234.881	76.62
235.115	68.62
235.349	66.62
235.583	71.62
235.817	76.62
236.051	72.62
236.285	84.62
236.519	70.62
236.753	79.62
236.987	72.62
237.221	68.62
237.455	82.62
237.689	78.62
237.922	74.62
238.156	82.62
238.39	77.62
238.624	81.62
238.858	69.62
239.091	79.62
239.325	62.62
239.559	63.62
239.793	79.62
240.027	71.62
240.26	72.62
240.494	86.62
240.728	75.62
240.961	67.62
241.195	67.62
241.429	77.62
241.662	76.62
241.896	78.62
242.13	72.62
242.363	81.62
242.597	70.62
242.83	84.62
243.064	66.62
243.298	63.62
243.531	74.62
243.765	72.62
243.998	75.62
244.232	83.62
244.465	68.62
244.699	69.62
244.932	71.62
245.166	89.62
245.399	83.62
245.633	73.62
245.866	87.62
246.099	69.62
246.333	76.62
246.566	55.62
246.8	75.62
247.033	61.62
247.266	76.62
247.5	73.62
247.733	78.62
247.966	71.62
248.2	72.62
248.433	73.62
248.666	73.62
248.899	76.62
249.133	70.62
249.366	65.62
249.599	78.62
249.832	70.62
250.066	79.62
250.299	74.62
250.532	79.62
250.765	78.62
250.998	95.62
251.231	78.62
251.465	81.62
251.698	73.62
251.931	77.62
252.164	65.62
252.397	77.62
252.63	83.62
252.863	69.62
253.096	75.62
253.329	88.62
253.562	84.62
253.795	79.62
254.028	84.62
254.261	94.62
254.494	71.62
254.727	72.62
254.96	71.62
255.193	97.62
255.426	76.62
255.659	79.62
255.892	85.62
256.124	76.62
256.357	72.62
256.59	69.62
256.823	70.62
257.056	65.62
257.289	66.62
257.521	65.62
257.754	70.62
257.987	74.62
258.22	68.62
258.452	77.62
258.685	89.62
258.918	98.62
259.151	71.62
259.383	82.62
259.616	87.62
259.849	79.62
260.081	83.62
260.314	71.62
260.547	81.62
260.779	72.62
261.012	74.62
261.244	75.62
261.477	80.62
261.71	83.62
261.942	90.62
262.175	75.62
262.407	79.62
262.64	81.62
262.872	81.62
263.105	70.62
263.337	83.62
263.57	81.62
263.802	87.62
264.035	87.62
264.267	76.62
264.499	70.62
264.732	70.62
264.964	63.62
265.197	73.62
265.429	76.62
265.661	83.62
265.894	63.62
266.126	95.62
266.358	77.62
266.591	79.62
266.823	76.62
267.055	91.62
267.287	77.62
267.52	73.62
267.752	68.62
267.984	63.62
268.216	76.62
268.448	73.62
268.681	85.62
268.913	80.62
269.145	80.62
269.377	81.62
269.609	70.62
269.841	81.62
270.073	84.62
270.306	81.62
270.538	85.62
270.77	64.62
271.002	84.62
271.234	100.62
271.466	91.62
271.698	89.62
271.93	76.62
272.162	77.62
272.394	78.62
272.626	83.62
272.858	78.62
273.09	81.62
273.322	62.62
273.553	66.62
273.785	83.62
274.017	83.62
274.249	75.62
274.481	85.62
274.713	77.62
274.945	77.62
275.176	80.62
275.408	96.62
275.64	93.62
275.872	89.62
276.104	80.62
276.335	87.62
276.567	79.62
276.799	82.62
277.031	69.62
277.262	69.62
277.494	84.62
277.726	86.62
277.957	92.62
278.189	85.62
278.421	91.62
278.652	73.62
278.884	76.62
279.115	85.62
279.347	74.62
279.579	95.62
279.81	77.62
280.042	81.62
280.273	79.62
280.505	85.62
280.736	67.62
280.968	83.62
281.199	81.62
281.431	82.62
281.662	85.62
281.894	70.62
282.125	85.62
282.356	74.62
282.588	93.62
282.819	72.62
283.051	88.62
283.282	94.62
283.513	91.62
283.745	82.62
283.976	79.62
284.207	63.62
284.439	73.62
284.67	95.62
284.901	69.62
285.132	77.62
285.364	85.62
285.595	68.62
285.826	95.62
286.057	87.62
286.288	84.62
286.52	90.62
286.751	93.62
286.982	76.62
287.213	70.62
287.444	71.62
287.675	81.62
287.906	89.62
288.138	87.62
288.369	92.62
288.6	88.62
288.831	72.62
289.062	75.62
289.293	76.62
289.524	85.62
289.755	86.62
289.986	79.62
290.217	95.62
290.448	83.62
290.679	88.62
290.91	89.62
291.141	75.62
291.371	80.62
291.602	85.62
291.833	85.62
292.064	92.62
292.295	82.62
292.526	82.62
292.757	83.62
292.987	75.62
293.218	93.62
293.449	82.62
293.68	91.62
293.91	67.62
294.141	74.62
294.372	91.62
294.603	97.62
294.833	87.62
295.064	71.62
295.295	81.62
295.525	80.62
295.756	87.62
295.987	77.62
296.217	80.62
296.448	71.62
296.679	69.62
296.909	84.62
297.14	81.62
297.37	86.62
297.601	87.62
297.831	78.62
298.062	85.62
298.292	75.62
298.523	93.62
298.753	81.62
298.984	80.62
299.214	85.62
299.445	89.62
299.675	78.62
299.905	94.62
300.136	77.62
300.366	63.62
300.597	76.62
300.827	79.62
301.057	80.62
301.288	77.62
301.518	77.62
301.748	91.62
301.979	111.62
302.209	83.62
302.439	86.62
302.669	88.62
302.9	84.62
303.13	83.62
303.36	90.62
303.59	76.62
303.82	68.62
304.051	79.62
304.281	89.62
304.511	83.62
304.741	89.62
304.971	83.62
305.201	77.62
305.431	87.62
305.661	86.62
305.891	74.62
306.121	78.62
306.352	95.62
306.582	81.62
306.812	99.62
307.042	82.62
307.272	68.62
307.502	76.62
307.731	83.62
307.961	79.62
308.191	95.62
308.421	85.62
308.651	82.62
308.881	88.62
309.111	84.62
309.341	88.62
309.571	75.62
309.8	86.62
310.03	74.62
310.26	85.62
310.49	82.62
310.72	97.62
310.949	77.62
311.179	76.62
311.409	73.62
311.639	82.62
311.868	86.62
312.098	82.62
312.328	84.62
312.557	100.62
312.787	95.62
313.017	70.62
313.246	84.62
313.476	87.62
313.706	92.62
313.935	95.62
314.165	88.62
314.394	83.62
314.624	83.62
314.853	81.62
315.083	86.62
315.312	76.62
315.542	94.62
315.771	87.62
316.001	89.62
316.23	83.62
316.46	71.62
316.689	80.62
316.919	86.62
317.148	88.62
317.377	97.62
317.607	86.62
317.836	77.62
318.065	83.62
318.295	91.62
318.524	85.62
318.753	89.62
318.983	84.62
319.212	85.62
319.441	88.62
319.67	86.62
319.9	83.62
320.129	92.62
320.358	94.62
320.587	84.62
320.816	95.62
321.046	87.62
321.275	90.62
321.504	101.62
321.733	93.62
321.962	89.62
322.191	83.62
322.42	79.62
322.649	86.62
322.878	76.62
323.108	88.62
323.337	95.62
323.566	81.62
323.795	95.62
324.024	81.62
324.253	81.62
324.482	95.62
324.71	73.62
324.939	81.62
325.168	82.62
325.397	79.62
325.626	92.62
325.855	97.62
326.084	86.62
326.313	93.62
326.542	83.62
326.77	94.62
326.999	79.62
327.228	85.62
327.457	84.62
327.686	76.62
327.914	91.62
328.143	99.62
328.372	79.62
328.6	80.62
328.829	79.62
329.058	79.62
329.287	79.62
329.515	84.62
329.744	91.62
329.972	88.62
330.201	84.62
330.43	96.62
330.658	84.62
330.887	76.62
331.115	79.62
331.344	80.62
331.572	83.62
331.801	87.62
332.03	81.62
332.258	82.62
332.486	81.62
332.715	88.62
332.943	93.62
333.172	85.62
333.4	84.62
333.629	84.62
333.857	83.62
334.085	91.62
334.314	84.62
334.542	93.62
334.771	89.62
334.999	89.62
335.227	76.62
335.455	81.62
335.684	95.62
335.912	87.62
336.14	86.62
336.369	84.62
336.597	74.62
336.825	76.62
337.053	68.62
337.281	67.62
337.51	83.62
337.738	89.62
337.966	78.62
338.194	82.62
338.422	98.62
338.65	82.62
338.878	87.62
339.106	99.62
339.334	91.62
339.562	76.62
339.79	79.62
340.018	86.62
340.246	103.62
340.474	90.62
340.702	89.62
340.93	76.62
341.158	95.62
341.386	74.62
341.614	82.62
341.842	77.62
342.07	102.62
342.298	90.62
342.526	88.62
342.754	84.62
342.981	77.62
343.209	80.62
343.437	102.62
343.665	81.62
343.893	74.62
344.12	89.62
344.348	82.62
344.576	81.62
344.804	79.62
345.031	81.62
345.259	84.62
345.487	75.62
345.714	93.62
345.942	86.62
346.17	71.62
346.397	78.62
346.625	61.62
346.853	95.62
347.08	70.62
347.308	68.62
347.535	85.62
347.763	90.62
347.99	73.62
348.218	67.62
348.445	87.62
348.673	70.62
348.9	73.62
349.128	96.62
349.355	83.62
349.583	85.62
349.81	71.62
350.037	82.62
350.265	76.62
350.492	88.62
350.72	91.62
350.947	87.62
351.174	95.62
351.402	72.62
351.629	92.62
351.856	94.62
352.083	87.62
352.311	93.62
352.538	75.62
352.765	80.62
352.992	89.62
353.22	90.62
353.447	98.62
353.674	95.62
353.901	86.62
354.128	82.62
354.355	71.62
354.583	86.62
354.81	87.62
355.037	85.62
355.264	79.62
355.491	83.62
355.718	81.62
355.945	89.62
356.172	94.62
356.399	86.62
356.626	81.62
356.853	83.62
357.08	83.62
357.307	81.62
357.534	74.62
357.761	87.62
357.988	77.62
358.215	77.62
358.441	80.62
358.668	79.62
358.895	92.62
359.122	86.62
359.349	79.62
359.576	87.62
359.802	85.62
360.029	85.62
360.256	99.62
360.483	70.62
360.709	85.62
360.936	82.62
361.163	80.62
361.39	82.62
361.616	96.62
361.843	95.62
362.07	93.62
362.296	80.62
362.523	88.62
362.749	91.62
362.976	96.62
363.203	92.62
363.429	78.62
363.656	78.62
363.882	72.62
364.109	84.62
364.335	83.62
364.562	79.62
364.788	73.62
365.015	80.62
365.241	74.62
365.468	90.62
365.694	76.62
365.92	84.62
366.147	88.62
366.373	88.62
366.599	89.62
366.826	86.62
367.052	77.62
367.278	80.62
367.505	81.62
367.731	88.62
367.957	87.62
368.184	77.62
368.41	97.62
368.636	82.62
368.862	84.62
369.089	83.62
369.315	88.62
369.541	78.62
369.767	89.62
369.993	78.62
370.219	80.62
370.445	86.62
370.672	88.62
370.898	85.62
371.124	88.62
371.35	91.62
371.576	88.62
371.802	87.62
372.028	81.62
372.254	76.62
372.48	95.62
372.706	96.62
372.932	79.62
373.158	91.62
373.384	78.62
373.61	88.62
373.835	96.62
374.061	84.62
374.287	87.62
374.513	77.62
374.739	68.62
374.965	75.62
375.191	85.62
375.416	105.62
375.642	93.62
375.868	102.62
376.094	94.62
376.319	74.62
376.545	71.62
376.771	95.62
376.997	84.62
377.222	63.62
377.448	87.62
377.674	70.62
377.899	71.62
378.125	84.62
378.35	77.62
378.576	75.62
378.802	70.62
379.027	62.62
379.253	86.62
379.478	100.62
379.704	89.62
379.929	91.62
380.155	87.62
380.38	86.62
380.606	69.62
380.831	91.62
381.057	70.62
381.282	87.62
381.507	87.62
381.733	86.62
381.958	94.62
382.184	85.62
382.409	91.62
382.634	76.62
382.86	85.62
383.085	90.62
383.31	84.62
383.535	87.62
383.761	78.62
383.986	86.62
384.211	86.62
384.436	87.62
384.662	85.62
384.887	63.62
385.112	72.62
385.337	81.62
385.562	81.62
385.787	81.62
386.013	78.62
386.238	94.62
386.463	82.62
386.688	102.62
386.913	76.62
387.138	84.62
387.363	72.62
387.588	73.62
387.813	76.62
388.038	99.62
388.263	81.62
388.488	83.62
388.713	75.62
388.938	87.62
389.163	78.62
389.387	86.62
389.612	84.62
389.837	88.62
390.062	85.62
390.287	95.62
390.512	76.62
390.736	81.62
390.961	97.62
391.186	84.62
391.411	78.62
391.636	78.62
391.86	85.62
392.085	74.62
392.31	82.62
392.534	80.62
392.759	78.62
392.984	94.62
393.208	78.62
393.433	93.62
393.658	89.62
393.882	90.62
394.107	78.62
394.331	83.62
394.556	68.62
394.78	89.62
395.005	82.62
395.229	77.62
395.454	78.62
395.678	83.62
395.903	97.62
396.127	80.62
396.352	75.62
396.576	89.62
396.801	89.62
397.025	81.62
397.249	83.62
397.474	75.62
397.698	76.62
397.922	87.62
398.147	80.62
398.371	76.62
398.595	75.62
398.82	94.62
399.044	83.62
399.268	85.62
399.492	81.62
399.717	84.62
399.941	93.62
400.165	87.62
400.389	80.62
400.613	84.62
400.837	83.62
401.062	79.62
401.286	83.62
401.51	96.62
401.734	82.62
401.958	86.62
402.182	90.62
402.406	93.62
402.63	97.62
402.854	66.62
403.078	80.62
403.302	85.62
403.526	110.62
403.75	87.62
403.974	88.62
404.198	99.62
404.422	129.62
404.645	157.62
404.869	148.62
405.093	125.62
405.317	97.62
405.541	87.62
405.765	83.62
405.988	86.62
406.212	87.62
406.436	77.62
406.66	83.62
406.883	88.62
407.107	85.62
407.331	97.62
407.555	79.62
407.778	87.62
408.002	79.62
408.226	77.62
408.449	84.62
408.673	78.62
408.896	74.62
409.12	86.62
409.344	86.62
409.567	73.62
409.791	96.62
410.014	83.62
410.238	93.62
410.461	87.62
410.685	75.62
410.908	91.62
411.132	78.62
411.355	74.62
411.578	70.62
411.802	89.62
412.025	88.62
412.249	92.62
412.472	87.62
412.695	77.62
412.919	93.62
413.142	78.62
413.365	75.62
413.589	75.62
413.812	95.62
414.035	81.62
414.258	91.62
414.482	83.62
414.705	84.62
414.928	89.62
415.151	68.62
415.374	82.62
415.597	81.62
415.821	83.62
416.044	78.62
416.267	99.62
416.49	86.62
416.713	103.62
416.936	83.62
417.159	81.62
417.382	78.62
417.605	91.62
417.828	81.62
418.051	73.62
418.274	93.62
418.497	92.62
418.72	83.62
418.943	87.62
419.166	88.62
419.389	94.62
419.611	84.62
419.834	83.62
420.057	82.62
420.28	96.62
420.503	93.62
420.726	85.62
420.948	97.62
421.171	72.62
421.394	84.62
421.617	79.62
421.839	89.62
422.062	72.62
422.285	81.62
422.507	84.62
422.73	87.62
422.953	81.62
423.175	86.62
423.398	80.62
423.621	80.62
423.843	79.62
424.066	91.62
424.288	89.62
424.511	87.62
424.733	88.62
424.956	68.62
425.178	78.62
425.401	79.62
425.623	84.62
425.846	76.62
426.068	78.62
426.291	82.62
426.513	76.62
426.735	89.62
426.958	88.62
427.18	101.62
427.402	85.62
427.625	72.62
427.847	91.62
428.069	95.62
428.292	84.62
428.514	86.62
428.736	95.62
428.958	87.62
429.181	88.62
429.403	88.62
429.625	86.62
429.847	80.62
430.069	89.62
430.292	92.62
430.514	73.62
430.736	83.62
430.958	67.62
431.18	80.62
431.402	91.62
431.624	77.62
431.846	80.62
432.068	84.62
432.29	76.62
432.512	85.62
432.734	96.62
432.956	86.62
433.178	88.62
433.4	86.62
433.622	84.62
433.844	79.62
434.066	82.62
434.287	86.62
434.509	77.62
434.731	83.62
434.953	76.62
435.175	75.62
435.397	92.62
435.618	101.62
435.84	88.62
436.062	75.62
436.284	84.62
436.505	82.62
436.727	85.62
436.949	77.62
437.17	82.62
437.392	86.62
437.614	77.62
437.835	75.62
438.057	57.62
438.278	86.62
438.5	78.62
438.721	86.62
438.943	84.62
439.165	79.62
439.386	98.62
439.608	101.62
439.829	77.62
440.05	79.62
440.272	93.62
440.493	79.62
440.715	84.62
440.936	79.62
441.158	86.62
441.379	79.62
441.6	86.62
441.822	77.62
442.043	71.62
442.264	91.62
442.486	89.62
442.707	101.62
442.928	84.62
443.149	98.62
443.371	81.62
443.592	82.62
443.813	101.62
444.034	79.62
444.255	85.62
444.476	91.62
444.698	88.62
444.919	75.62
445.14	151.62
445.361	110.62
445.582	99.62
445.803	82.62
446.024	92.62
446.245	93.62
446.466	86.62
446.687	87.62
446.908	83.62
447.129	77.62
447.35	86.62
447.571	83.62
447.792	72.62
448.013	92.62
448.234	71.62
448.455	72.62
448.675	87.62
448.896	86.62
449.117	95.62
449.338	93.62
449.559	80.62
449.779	80.62
450	85.62
450.221	97.62
450.442	87.62
450.662	81.62
450.883	80.62
451.104	85.62
451.324	77.62
451.545	85.62
451.766	78.62
451.986	81.62
452.207	80.62
452.428	76.62
452.648	90.62
452.869	68.62
453.089	87.62
453.31	79.62
453.53	77.62
453.751	88.62
453.971	88.62
454.192	84.62
454.412	81.62
454.633	83.62
454.853	73.62
455.073	78.62
455.294	77.62
455.514	81.62
455.734	92.62
455.955	80.62
456.175	72.62
456.395	85.62
456.616	84.62
456.836	78.62
457.056	76.62
457.276	85.62
457.497	76.62
457.717	94.62
457.937	84.62
458.157	70.62
458.377	83.62
458.598	75.62
458.818	81.62
459.038	82.62
459.258	75.62
459.478	90.62
459.698	83.62
459.918	75.62
460.138	80.62
460.358	79.62
460.578	82.62
460.798	64.62
461.018	80.62
461.238	84.62
461.458	77.62
461.678	81.62
461.898	87.62
462.118	84.62
462.338	89.62
462.558	86.62
462.777	84.62
462.997	78.62
463.217	77.62
463.437	96.62
463.657	75.62
463.876	80.62
464.096	91.62
464.316	88.62
464.536	90.62
464.755	87.62
464.975	81.62
465.195	72.62
465.414	77.62
465.634	86.62
465.854	84.62
466.073	87.62
466.293	76.62
466.512	75.62
466.732	64.62
466.951	93.62
467.171	75.62
467.391	93.62
467.61	85.62
467.829	88.62
468.049	79.62
468.268	84.62
468.488	86.62
468.707	77.62
468.927	99.62
469.146	80.62
469.365	75.62
469.585	72.62
469.804	77.62
470.023	85.62
470.243	76.62
470.462	91.62
470.681	97.62
470.901	98.62
471.12	81.62
471.339	85.62
471.558	73.62
471.777	78.62
471.997	58.62
472.216	80.62
472.435	83.62
472.654	76.62
472.873	82.62
473.092	80.62
473.311	85.62
473.53	80.62
473.749	79.62
473.968	89.62
474.187	86.62
474.406	84.62
474.625	79.62
474.844	87.62
475.063	81.62
475.282	86.62
475.501	101.62
475.72	86.62
475.939	67.62
476.158	83.62
476.377	91.62
476.596	77.62
476.814	73.62
477.033	81.62
477.252	78.62
477.471	81.62
477.69	81.62
477.908	82.62
478.127	79.62
478.346	69.62
478.564	75.62
478.783	79.62
479.002	86.62
479.22	90.62
479.439	96.62
479.658	77.62
479.876	80.62
480.095	86.62
480.313	93.62
480.532	84.62
480.751	83.62
480.969	87.62
481.188	84.62
481.406	87.62
481.624	83.62
481.843	74.62
482.061	74.62
482.28	96.62
482.498	72.62
482.717	71.62
482.935	83.62
483.153	73.62
483.372	87.62
483.59	97.62
483.808	76.62
484.027	94.62
484.245	79.62
484.463	88.62
484.681	92.62
484.9	88.62
485.118	88.62
485.336	71.62
485.554	77.62
485.772	66.62
485.99	75.62
486.209	80.62
486.427	72.62
486.645	92.62
486.863	66.62
487.081	72.62
487.299	81.62
487.517	86.62
487.735	85.62
487.953	99.62
488.171	82.62
488.389	93.62
488.607	83.62
488.825	85.62
489.043	83.62
489.261	92.62
489.479	77.62
489.696	85.62
489.914	93.62
490.132	87.62
490.35	101.62
490.568	87.62
490.786	75.62
491.003	104.62
491.221	87.62
491.439	91.62
491.657	112.62
491.874	105.62
492.092	95.62
492.31	83.62
492.527	88.62
492.745	76.62
492.963	94.62
493.18	96.62
493.398	104.62
493.615	74.62
493.833	93.62
494.05	95.62
494.268	95.62
494.485	83.62
494.703	93.62
494.92	87.62
495.138	94.62
495.355	91.62
495.573	105.62
495.79	75.62
496.008	89.62
496.225	89.62
496.442	80.62
496.66	92.62
496.877	86.62
497.094	97.62
497.312	79.62
497.529	91.62
497.746	86.62
497.963	94.62
498.181	107.62
498.398	79.62
498.615	78.62
498.832	83.62
499.049	91.62
499.267	93.62
499.484	96.62
499.701	79.62
499.918	92.62
500.135	79.62
500.352	99.62
500.569	87.62
500.786	95.62
501.003	95.62
501.22	84.62
501.437	89.62
501.654	81.62
501.871	81.62
502.088	75.62
502.305	88.62
502.522	75.62
502.739	93.62
502.956	91.62
503.172	102.62
503.389	84.62
503.606	80.62
503.823	84.62
504.04	75.62
504.256	84.62
504.473	81.62
504.69	84.62
504.907	93.62
505.123	86.62
505.34	99.62
505.557	88.62
505.773	86.62
505.99	83.62
506.207	87.62
506.423	77.62
506.64	84.62
506.856	75.62
507.073	88.62
507.289	100.62
507.506	83.62
507.722	82.62
507.939	92.62
508.155	79.62
508.372	77.62
508.588	81.62
508.805	88.62
509.021	93.62
509.238	85.62
509.454	88.62
509.67	102.62
509.887	83.62
510.103	80.62
510.319	94.62
510.536	85.62
510.752	95.62
510.968	85.62
511.184	89.62
511.401	96.62
511.617	97.62
511.833	81.62
512.049	88.62
512.265	75.62
512.481	76.62
512.698	81.62
512.914	98.62
513.13	85.62
513.346	94.62
513.562	91.62
513.778	97.62
513.994	82.62
514.21	83.62
514.426	103.62
514.642	103.62
514.858	74.62
515.074	84.62
515.29	82.62
515.506	86.62
515.721	87.62
515.937	88.62
516.153	87.62
516.369	78.62
516.585	100.62
516.801	91.62
517.016	77.62
517.232	95.62
517.448	99.62
517.664	96.62
517.879	76.62
518.095	88.62
518.311	105.62
518.527	88.62
518.742	80.62
518.958	93.62
519.173	79.62
519.389	77.62
519.605	86.62
519.82	88.62
