Data from KBrNoHeat_HRD10591_00001.txt Node
Date: Fri Dec 27 14:39:08 EST 2024
User: Yrep
Spectrometer: HR+D1059
Trigger mode: 1
Integration Time (sec): 1.000000E-1
Scans to average: 1
Electric dark correction enabled: true
Nonlinearity correction enabled: false
Boxcar width: 0
XAxis mode: Wavelengths
Number of Pixels in Spectrum: 2048
>>>>>Begin Spectral Data<<<<<
223.165	-18.5
223.4	-18.5
223.635	-18.5
223.869	-17.5
224.104	-12.5
224.338	-13.5
224.573	-11.5
224.808	-7.5
225.042	-4.5
225.277	-7.5
225.511	-0.5
225.746	-1.5
225.98	0.5
226.215	6.5
226.449	15.5
226.683	16.5
226.918	26.5
227.152	29.5
227.387	35.5
227.621	39.5
227.856	43.5
228.09	47.5
228.324	43.5
228.559	59.5
228.793	60.5
229.027	68.5
229.262	65.5
229.496	73.5
229.73	76.5
229.964	75.5
230.199	63.5
230.433	65.5
230.667	73.5
230.901	80.5
231.136	91.5
231.37	75.5
231.604	77.5
231.838	75.5
232.072	75.5
232.306	83.5
232.541	103.5
232.775	69.5
233.009	89.5
233.243	80.5
233.477	79.5
233.711	93.5
233.945	72.5
234.179	90.5
234.413	87.5
234.647	79.5
234.881	73.5
235.115	83.5
235.349	85.5
235.583	63.5
235.817	95.5
236.051	71.5
236.285	78.5
236.519	69.5
236.753	88.5
236.987	84.5
237.221	75.5
237.455	56.5
237.689	80.5
237.922	63.5
238.156	71.5
238.39	73.5
238.624	70.5
238.858	71.5
239.091	81.5
239.325	83.5
239.559	71.5
239.793	57.5
240.027	68.5
240.26	73.5
240.494	78.5
240.728	79.5
240.961	72.5
241.195	78.5
241.429	63.5
241.662	78.5
241.896	77.5
242.13	85.5
242.363	79.5
242.597	86.5
242.83	68.5
243.064	80.5
243.298	81.5
243.531	76.5
243.765	90.5
243.998	79.5
244.232	75.5
244.465	83.5
244.699	74.5
244.932	88.5
245.166	72.5
245.399	71.5
245.633	74.5
245.866	69.5
246.099	74.5
246.333	83.5
246.566	60.5
246.8	66.5
247.033	70.5
247.266	74.5
247.5	66.5
247.733	83.5
247.966	79.5
248.2	66.5
248.433	63.5
248.666	80.5
248.899	72.5
249.133	67.5
249.366	77.5
249.599	79.5
249.832	93.5
250.066	83.5
250.299	79.5
250.532	81.5
250.765	80.5
250.998	92.5
251.231	85.5
251.465	77.5
251.698	71.5
251.931	78.5
252.164	76.5
252.397	79.5
252.63	76.5
252.863	85.5
253.096	70.5
253.329	85.5
253.562	94.5
253.795	77.5
254.028	87.5
254.261	83.5
254.494	87.5
254.727	79.5
254.96	73.5
255.193	65.5
255.426	65.5
255.659	75.5
255.892	98.5
256.124	74.5
256.357	63.5
256.59	88.5
256.823	80.5
257.056	86.5
257.289	85.5
257.521	78.5
257.754	73.5
257.987	87.5
258.22	73.5
258.452	83.5
258.685	81.5
258.918	88.5
259.151	76.5
259.383	79.5
259.616	68.5
259.849	67.5
260.081	74.5
260.314	68.5
260.547	71.5
260.779	77.5
261.012	81.5
261.244	81.5
261.477	79.5
261.71	68.5
261.942	74.5
262.175	74.5
262.407	69.5
262.64	77.5
262.872	78.5
263.105	79.5
263.337	83.5
263.57	96.5
263.802	84.5
264.035	87.5
264.267	90.5
264.499	75.5
264.732	96.5
264.964	79.5
265.197	79.5
265.429	77.5
265.661	78.5
265.894	79.5
266.126	75.5
266.358	85.5
266.591	86.5
266.823	68.5
267.055	78.5
267.287	74.5
267.52	72.5
267.752	96.5
267.984	90.5
268.216	74.5
268.448	94.5
268.681	97.5
268.913	86.5
269.145	90.5
269.377	88.5
269.609	73.5
269.841	87.5
270.073	88.5
270.306	81.5
270.538	72.5
270.77	69.5
271.002	58.5
271.234	77.5
271.466	80.5
271.698	84.5
271.93	85.5
272.162	99.5
272.394	84.5
272.626	81.5
272.858	79.5
273.09	64.5
273.322	75.5
273.553	78.5
273.785	78.5
274.017	74.5
274.249	89.5
274.481	76.5
274.713	76.5
274.945	76.5
275.176	69.5
275.408	76.5
275.64	94.5
275.872	88.5
276.104	79.5
276.335	69.5
276.567	79.5
276.799	73.5
277.031	71.5
277.262	80.5
277.494	86.5
277.726	82.5
277.957	74.5
278.189	72.5
278.421	88.5
278.652	79.5
278.884	72.5
279.115	71.5
279.347	83.5
279.579	84.5
279.81	71.5
280.042	85.5
280.273	78.5
280.505	89.5
280.736	94.5
280.968	77.5
281.199	70.5
281.431	76.5
281.662	98.5
281.894	88.5
282.125	87.5
282.356	91.5
282.588	69.5
282.819	77.5
283.051	77.5
283.282	86.5
283.513	81.5
283.745	79.5
283.976	76.5
284.207	79.5
284.439	79.5
284.67	84.5
284.901	73.5
285.132	72.5
285.364	76.5
285.595	88.5
285.826	87.5
286.057	87.5
286.288	87.5
286.52	85.5
286.751	79.5
286.982	86.5
287.213	78.5
287.444	88.5
287.675	72.5
287.906	79.5
288.138	76.5
288.369	83.5
288.6	74.5
288.831	70.5
289.062	81.5
289.293	70.5
289.524	94.5
289.755	80.5
289.986	91.5
290.217	69.5
290.448	65.5
290.679	78.5
290.91	77.5
291.141	85.5
291.371	71.5
291.602	80.5
291.833	63.5
292.064	75.5
292.295	68.5
292.526	75.5
292.757	86.5
292.987	78.5
293.218	80.5
293.449	85.5
293.68	89.5
293.91	89.5
294.141	83.5
294.372	85.5
294.603	79.5
294.833	83.5
295.064	66.5
295.295	75.5
295.525	87.5
295.756	82.5
295.987	74.5
296.217	87.5
296.448	88.5
296.679	70.5
296.909	90.5
297.14	81.5
297.37	82.5
297.601	85.5
297.831	82.5
298.062	79.5
298.292	79.5
298.523	72.5
298.753	90.5
298.984	85.5
299.214	80.5
299.445	79.5
299.675	78.5
299.905	84.5
300.136	95.5
300.366	84.5
300.597	84.5
300.827	78.5
301.057	77.5
301.288	78.5
301.518	65.5
301.748	75.5
301.979	88.5
302.209	97.5
302.439	85.5
302.669	88.5
302.9	88.5
303.13	93.5
303.36	97.5
303.59	75.5
303.82	83.5
304.051	83.5
304.281	84.5
304.511	87.5
304.741	89.5
304.971	93.5
305.201	87.5
305.431	80.5
305.661	71.5
305.891	61.5
306.121	78.5
306.352	91.5
306.582	89.5
306.812	82.5
307.042	87.5
307.272	66.5
307.502	73.5
307.731	103.5
307.961	77.5
308.191	63.5
308.421	97.5
308.651	88.5
308.881	79.5
309.111	82.5
309.341	70.5
309.571	82.5
309.8	85.5
310.03	74.5
310.26	81.5
310.49	81.5
310.72	87.5
310.949	91.5
311.179	83.5
311.409	85.5
311.639	73.5
311.868	94.5
312.098	77.5
312.328	78.5
312.557	73.5
312.787	88.5
313.017	90.5
313.246	99.5
313.476	89.5
313.706	95.5
313.935	88.5
314.165	89.5
314.394	87.5
314.624	80.5
314.853	78.5
315.083	74.5
315.312	87.5
315.542	89.5
315.771	77.5
316.001	83.5
316.23	70.5
316.46	76.5
316.689	73.5
316.919	86.5
317.148	85.5
317.377	84.5
317.607	75.5
317.836	81.5
318.065	89.5
318.295	86.5
318.524	77.5
318.753	66.5
318.983	71.5
319.212	84.5
319.441	82.5
319.67	78.5
319.9	80.5
320.129	69.5
320.358	89.5
320.587	72.5
320.816	75.5
321.046	85.5
321.275	87.5
321.504	90.5
321.733	87.5
321.962	95.5
322.191	100.5
322.42	90.5
322.649	84.5
322.878	80.5
323.108	74.5
323.337	69.5
323.566	84.5
323.795	81.5
324.024	92.5
324.253	79.5
324.482	77.5
324.71	81.5
324.939	80.5
325.168	87.5
325.397	83.5
325.626	89.5
325.855	81.5
326.084	77.5
326.313	90.5
326.542	84.5
326.77	75.5
326.999	76.5
327.228	84.5
327.457	84.5
327.686	87.5
327.914	87.5
328.143	83.5
328.372	91.5
328.6	83.5
328.829	86.5
329.058	80.5
329.287	72.5
329.515	72.5
329.744	66.5
329.972	76.5
330.201	80.5
330.43	80.5
330.658	85.5
330.887	83.5
331.115	70.5
331.344	93.5
331.572	93.5
331.801	89.5
332.03	84.5
332.258	102.5
332.486	82.5
332.715	78.5
332.943	71.5
333.172	91.5
333.4	89.5
333.629	90.5
333.857	82.5
334.085	78.5
334.314	77.5
334.542	80.5
334.771	77.5
334.999	76.5
335.227	102.5
335.455	67.5
335.684	91.5
335.912	89.5
336.14	72.5
336.369	83.5
336.597	92.5
336.825	95.5
337.053	73.5
337.281	73.5
337.51	76.5
337.738	88.5
337.966	78.5
338.194	84.5
338.422	82.5
338.65	89.5
338.878	69.5
339.106	70.5
339.334	79.5
339.562	85.5
339.79	80.5
340.018	77.5
340.246	73.5
340.474	72.5
340.702	87.5
340.93	81.5
341.158	84.5
341.386	88.5
341.614	77.5
341.842	78.5
342.07	98.5
342.298	89.5
342.526	79.5
342.754	74.5
342.981	81.5
343.209	79.5
343.437	105.5
343.665	87.5
343.893	75.5
344.12	93.5
344.348	93.5
344.576	95.5
344.804	94.5
345.031	78.5
345.259	94.5
345.487	75.5
345.714	85.5
345.942	79.5
346.17	79.5
346.397	81.5
346.625	82.5
346.853	75.5
347.08	83.5
347.308	74.5
347.535	83.5
347.763	81.5
347.99	77.5
348.218	89.5
348.445	85.5
348.673	78.5
348.9	71.5
349.128	84.5
349.355	83.5
349.583	92.5
349.81	89.5
350.037	80.5
350.265	94.5
350.492	74.5
350.72	75.5
350.947	106.5
351.174	80.5
351.402	80.5
351.629	85.5
351.856	78.5
352.083	86.5
352.311	75.5
352.538	89.5
352.765	70.5
352.992	92.5
353.22	71.5
353.447	63.5
353.674	82.5
353.901	85.5
354.128	69.5
354.355	77.5
354.583	79.5
354.81	87.5
355.037	82.5
355.264	87.5
355.491	85.5
355.718	93.5
355.945	85.5
356.172	74.5
356.399	79.5
356.626	98.5
356.853	93.5
357.08	86.5
357.307	75.5
357.534	84.5
357.761	82.5
357.988	82.5
358.215	87.5
358.441	82.5
358.668	86.5
358.895	77.5
359.122	76.5
359.349	99.5
359.576	69.5
359.802	85.5
360.029	76.5
360.256	80.5
360.483	88.5
360.709	82.5
360.936	84.5
361.163	93.5
361.39	88.5
361.616	93.5
361.843	82.5
362.07	79.5
362.296	82.5
362.523	79.5
362.749	61.5
362.976	78.5
363.203	93.5
363.429	90.5
363.656	83.5
363.882	74.5
364.109	85.5
364.335	77.5
364.562	94.5
364.788	81.5
365.015	88.5
365.241	90.5
365.468	86.5
365.694	74.5
365.92	71.5
366.147	77.5
366.373	88.5
366.599	72.5
366.826	78.5
367.052	80.5
367.278	70.5
367.505	88.5
367.731	93.5
367.957	76.5
368.184	80.5
368.41	83.5
368.636	78.5
368.862	88.5
369.089	91.5
369.315	82.5
369.541	88.5
369.767	87.5
369.993	91.5
370.219	92.5
370.445	83.5
370.672	77.5
370.898	78.5
371.124	86.5
371.35	78.5
371.576	94.5
371.802	85.5
372.028	75.5
372.254	84.5
372.48	87.5
372.706	81.5
372.932	82.5
373.158	79.5
373.384	73.5
373.61	93.5
373.835	75.5
374.061	73.5
374.287	77.5
374.513	75.5
374.739	65.5
374.965	77.5
375.191	82.5
375.416	90.5
375.642	93.5
375.868	95.5
376.094	73.5
376.319	84.5
376.545	76.5
376.771	83.5
376.997	82.5
377.222	74.5
377.448	82.5
377.674	75.5
377.899	83.5
378.125	95.5
378.35	90.5
378.576	82.5
378.802	86.5
379.027	72.5
379.253	73.5
379.478	76.5
379.704	97.5
379.929	79.5
380.155	77.5
380.38	82.5
380.606	81.5
380.831	83.5
381.057	99.5
381.282	79.5
381.507	81.5
381.733	75.5
381.958	87.5
382.184	78.5
382.409	96.5
382.634	88.5
382.86	84.5
383.085	90.5
383.31	75.5
383.535	81.5
383.761	83.5
383.986	86.5
384.211	75.5
384.436	73.5
384.662	62.5
384.887	76.5
385.112	83.5
385.337	85.5
385.562	77.5
385.787	83.5
386.013	88.5
386.238	84.5
386.463	72.5
386.688	86.5
386.913	80.5
387.138	85.5
387.363	91.5
387.588	84.5
387.813	71.5
388.038	85.5
388.263	72.5
388.488	91.5
388.713	64.5
388.938	84.5
389.163	93.5
389.387	71.5
389.612	71.5
389.837	81.5
390.062	76.5
390.287	80.5
390.512	77.5
390.736	94.5
390.961	72.5
391.186	85.5
391.411	85.5
391.636	82.5
391.86	84.5
392.085	88.5
392.31	83.5
392.534	81.5
392.759	85.5
392.984	84.5
393.208	84.5
393.433	96.5
393.658	81.5
393.882	85.5
394.107	68.5
394.331	78.5
394.556	83.5
394.78	96.5
395.005	77.5
395.229	89.5
395.454	84.5
395.678	84.5
395.903	85.5
396.127	88.5
396.352	83.5
396.576	95.5
396.801	82.5
397.025	69.5
397.249	79.5
397.474	96.5
397.698	80.5
397.922	104.5
398.147	93.5
398.371	80.5
398.595	77.5
398.82	83.5
399.044	78.5
399.268	92.5
399.492	85.5
399.717	76.5
399.941	91.5
400.165	86.5
400.389	82.5
400.613	78.5
400.837	78.5
401.062	81.5
401.286	81.5
401.51	79.5
401.734	76.5
401.958	78.5
402.182	76.5
402.406	66.5
402.63	74.5
402.854	88.5
403.078	79.5
403.302	89.5
403.526	80.5
403.75	97.5
403.974	98.5
404.198	115.5
404.422	138.5
404.645	168.5
404.869	145.5
405.093	106.5
405.317	97.5
405.541	70.5
405.765	82.5
405.988	78.5
406.212	84.5
406.436	89.5
406.66	86.5
406.883	83.5
407.107	85.5
407.331	75.5
407.555	86.5
407.778	67.5
408.002	70.5
408.226	83.5
408.449	75.5
408.673	76.5
408.896	76.5
409.12	90.5
409.344	94.5
409.567	82.5
409.791	82.5
410.014	80.5
410.238	81.5
410.461	83.5
410.685	89.5
410.908	73.5
411.132	93.5
411.355	73.5
411.578	72.5
411.802	79.5
412.025	84.5
412.249	82.5
412.472	78.5
412.695	82.5
412.919	93.5
413.142	82.5
413.365	75.5
413.589	83.5
413.812	86.5
414.035	75.5
414.258	81.5
414.482	76.5
414.705	78.5
414.928	73.5
415.151	88.5
415.374	84.5
415.597	91.5
415.821	78.5
416.044	87.5
416.267	84.5
416.49	82.5
416.713	75.5
416.936	86.5
417.159	82.5
417.382	88.5
417.605	96.5
417.828	79.5
418.051	85.5
418.274	86.5
418.497	97.5
418.72	88.5
418.943	83.5
419.166	79.5
419.389	71.5
419.611	102.5
419.834	82.5
420.057	83.5
420.28	77.5
420.503	70.5
420.726	77.5
420.948	78.5
421.171	83.5
421.394	82.5
421.617	83.5
421.839	57.5
422.062	65.5
422.285	74.5
422.507	84.5
422.73	95.5
422.953	96.5
423.175	81.5
423.398	90.5
423.621	95.5
423.843	82.5
424.066	88.5
424.288	79.5
424.511	80.5
424.733	102.5
424.956	81.5
425.178	99.5
425.401	75.5
425.623	88.5
425.846	73.5
426.068	68.5
426.291	91.5
426.513	72.5
426.735	81.5
426.958	80.5
427.18	93.5
427.402	75.5
427.625	93.5
427.847	84.5
428.069	82.5
428.292	81.5
428.514	97.5
428.736	79.5
428.958	92.5
429.181	91.5
429.403	69.5
429.625	88.5
429.847	94.5
430.069	83.5
430.292	87.5
430.514	83.5
430.736	91.5
430.958	74.5
431.18	75.5
431.402	80.5
431.624	85.5
431.846	89.5
432.068	73.5
432.29	76.5
432.512	71.5
432.734	82.5
432.956	98.5
433.178	91.5
433.4	92.5
433.622	80.5
433.844	90.5
434.066	77.5
434.287	86.5
434.509	75.5
434.731	88.5
434.953	88.5
435.175	77.5
435.397	73.5
435.618	81.5
435.84	81.5
436.062	81.5
436.284	78.5
436.505	80.5
436.727	82.5
436.949	81.5
437.17	62.5
437.392	63.5
437.614	76.5
437.835	95.5
438.057	69.5
438.278	81.5
438.5	80.5
438.721	69.5
438.943	87.5
439.165	80.5
439.386	81.5
439.608	94.5
439.829	78.5
440.05	83.5
440.272	78.5
440.493	72.5
440.715	88.5
440.936	82.5
441.158	94.5
441.379	92.5
441.6	98.5
441.822	95.5
442.043	89.5
442.264	90.5
442.486	89.5
442.707	86.5
442.928	76.5
443.149	79.5
443.371	79.5
443.592	78.5
443.813	96.5
444.034	89.5
444.255	81.5
444.476	88.5
444.698	90.5
444.919	92.5
445.14	135.5
445.361	101.5
445.582	74.5
445.803	88.5
446.024	79.5
446.245	92.5
446.466	79.5
446.687	80.5
446.908	77.5
447.129	95.5
447.35	70.5
447.571	75.5
447.792	78.5
448.013	78.5
448.234	87.5
448.455	73.5
448.675	74.5
448.896	88.5
449.117	86.5
449.338	73.5
449.559	90.5
449.779	86.5
450	82.5
450.221	79.5
450.442	72.5
450.662	72.5
450.883	90.5
451.104	89.5
451.324	86.5
451.545	82.5
451.766	98.5
451.986	92.5
452.207	97.5
452.428	99.5
452.648	82.5
452.869	77.5
453.089	79.5
453.31	85.5
453.53	77.5
453.751	87.5
453.971	82.5
454.192	81.5
454.412	77.5
454.633	89.5
454.853	83.5
455.073	69.5
455.294	81.5
455.514	89.5
455.734	82.5
455.955	82.5
456.175	82.5
456.395	96.5
456.616	82.5
456.836	80.5
457.056	71.5
457.276	88.5
457.497	65.5
457.717	90.5
457.937	93.5
458.157	89.5
458.377	100.5
458.598	81.5
458.818	71.5
459.038	79.5
459.258	92.5
459.478	82.5
459.698	84.5
459.918	78.5
460.138	87.5
460.358	77.5
460.578	91.5
460.798	80.5
461.018	99.5
461.238	77.5
461.458	85.5
461.678	74.5
461.898	91.5
462.118	97.5
462.338	77.5
462.558	84.5
462.777	84.5
462.997	89.5
463.217	77.5
463.437	95.5
463.657	79.5
463.876	80.5
464.096	87.5
464.316	63.5
464.536	75.5
464.755	84.5
464.975	79.5
465.195	81.5
465.414	75.5
465.634	82.5
465.854	71.5
466.073	85.5
466.293	82.5
466.512	94.5
466.732	81.5
466.951	89.5
467.171	91.5
467.391	95.5
467.61	88.5
467.829	73.5
468.049	77.5
468.268	89.5
468.488	83.5
468.707	85.5
468.927	84.5
469.146	80.5
469.365	84.5
469.585	83.5
469.804	89.5
470.023	82.5
470.243	82.5
470.462	84.5
470.681	88.5
470.901	88.5
471.12	84.5
471.339	79.5
471.558	87.5
471.777	75.5
471.997	90.5
472.216	74.5
472.435	90.5
472.654	83.5
472.873	81.5
473.092	82.5
473.311	103.5
473.53	87.5
473.749	78.5
473.968	100.5
474.187	94.5
474.406	87.5
474.625	88.5
474.844	82.5
475.063	80.5
475.282	94.5
475.501	94.5
475.72	80.5
475.939	81.5
476.158	94.5
476.377	103.5
476.596	74.5
476.814	79.5
477.033	97.5
477.252	90.5
477.471	86.5
477.69	86.5
477.908	97.5
478.127	87.5
478.346	89.5
478.564	72.5
478.783	93.5
479.002	85.5
479.22	95.5
479.439	95.5
479.658	98.5
479.876	88.5
480.095	79.5
480.313	85.5
480.532	82.5
480.751	75.5
480.969	77.5
481.188	95.5
481.406	90.5
481.624	97.5
481.843	88.5
482.061	86.5
482.28	89.5
482.498	75.5
482.717	92.5
482.935	106.5
483.153	84.5
483.372	81.5
483.59	83.5
483.808	76.5
484.027	89.5
484.245	78.5
484.463	76.5
484.681	100.5
484.9	80.5
485.118	92.5
485.336	83.5
485.554	85.5
485.772	74.5
485.99	93.5
486.209	85.5
486.427	102.5
486.645	84.5
486.863	79.5
487.081	90.5
487.299	89.5
487.517	96.5
487.735	82.5
487.953	87.5
488.171	101.5
488.389	83.5
488.607	84.5
488.825	73.5
489.043	89.5
489.261	100.5
489.479	77.5
489.696	85.5
489.914	77.5
490.132	87.5
490.35	83.5
490.568	81.5
490.786	91.5
491.003	90.5
491.221	86.5
491.439	102.5
491.657	89.5
491.874	100.5
492.092	101.5
492.31	91.5
492.527	81.5
492.745	73.5
492.963	88.5
493.18	92.5
493.398	101.5
493.615	89.5
493.833	87.5
494.05	90.5
494.268	97.5
494.485	91.5
494.703	100.5
494.92	105.5
495.138	85.5
495.355	78.5
495.573	101.5
495.79	93.5
496.008	93.5
496.225	96.5
496.442	77.5
496.66	90.5
496.877	90.5
497.094	88.5
497.312	96.5
497.529	76.5
497.746	95.5
497.963	98.5
498.181	87.5
498.398	90.5
498.615	94.5
498.832	87.5
499.049	85.5
499.267	99.5
499.484	73.5
499.701	91.5
499.918	99.5
500.135	89.5
500.352	82.5
500.569	98.5
500.786	99.5
501.003	90.5
501.22	72.5
501.437	82.5
501.654	81.5
501.871	87.5
502.088	68.5
502.305	79.5
502.522	95.5
502.739	81.5
502.956	90.5
503.172	82.5
503.389	86.5
503.606	93.5
503.823	93.5
504.04	89.5
504.256	86.5
504.473	73.5
504.69	81.5
504.907	77.5
505.123	79.5
505.34	91.5
505.557	84.5
505.773	86.5
505.99	96.5
506.207	81.5
506.423	95.5
506.64	94.5
506.856	73.5
507.073	88.5
507.289	91.5
507.506	90.5
507.722	79.5
507.939	99.5
508.155	85.5
508.372	88.5
508.588	88.5
508.805	82.5
509.021	89.5
509.238	58.5
509.454	88.5
509.67	80.5
509.887	86.5
510.103	90.5
510.319	93.5
510.536	75.5
510.752	78.5
510.968	94.5
511.184	82.5
511.401	75.5
511.617	91.5
511.833	81.5
512.049	94.5
512.265	99.5
512.481	91.5
512.698	70.5
512.914	93.5
513.13	79.5
513.346	81.5
513.562	73.5
513.778	85.5
513.994	81.5
514.21	78.5
514.426	86.5
514.642	93.5
514.858	93.5
515.074	68.5
515.29	100.5
515.506	83.5
515.721	77.5
515.937	87.5
516.153	83.5
516.369	88.5
516.585	85.5
516.801	80.5
517.016	90.5
517.232	85.5
517.448	82.5
517.664	97.5
517.879	99.5
518.095	88.5
518.311	69.5
518.527	101.5
518.742	86.5
518.958	83.5
519.173	79.5
519.389	93.5
519.605	85.5
519.82	78.5
520.036	88.5
520.251	94.5
520.467	95.5
520.682	81.5
520.898	89.5
521.113	80.5
521.329	82.5
521.544	87.5
521.76	90.5
521.975	78.5
522.19	83.5
522.406	89.5
522.621	87.5
522.836	88.5
523.052	87.5
523.267	91.5
523.482	84.5
523.698	76.5
523.913	96.5
524.128	84.5
524.343	94.5
524.559	90.5
524.774	83.5
524.989	96.5
525.204	95.5
525.419	100.5
525.634	84.5
525.849	93.5
526.064	85.5
526.28	87.5
526.495	84.5
526.71	91.5
526.925	91.5
527.14	100.5
527.355	86.5
527.57	79.5
527.785	91.5
527.999	90.5
528.214	81.5
528.429	89.5
528.644	79.5
528.859	88.5
529.074	88.5
529.289	90.5
529.503	99.5
529.718	97.5
529.933	90.5
530.148	81.5
530.363	85.5
530.577	94.5
530.792	86.5
531.007	90.5
531.221	73.5
531.436	86.5
531.651	93.5
531.865	73.5
532.08	89.5
532.295	85.5
532.509	94.5
532.724	89.5
532.938	79.5
533.153	89.5
533.367	90.5
533.582	100.5
533.796	90.5
534.011	101.5
534.225	87.5
534.44	81.5
534.654	76.5
534.868	90.5
535.083	95.5
535.297	96.5
535.511	89.5
535.726	86.5
535.94	95.5
536.154	102.5
536.369	85.5
536.583	93.5
536.797	88.5
537.011	77.5
537.225	87.5
537.44	89.5
537.654	81.5
537.868	88.5
538.082	79.5
538.296	69.5
538.51	80.5
538.724	85.5
538.938	93.5
539.153	87.5
539.367	87.5
539.581	96.5
539.795	74.5
540.009	86.5
