Data from KBrNoHeat_HRD10591_00009.txt Node
Date: Fri Dec 27 14:39:16 EST 2024
User: Yrep
Spectrometer: HR+D1059
Trigger mode: 1
Integration Time (sec): 1.000000E-1
Scans to average: 1
Electric dark correction enabled: true
Nonlinearity correction enabled: false
Boxcar width: 0
XAxis mode: Wavelengths
Number of Pixels in Spectrum: 2048
>>>>>Begin Spectral Data<<<<<
223.165	-13.81
223.4	-13.81
223.635	-13.81
223.869	-23.81
224.104	-19.81
224.338	-19.81
224.573	-13.81
224.808	-16.81
225.042	-15.81
225.277	-4.81
225.511	2.19
225.746	10.19
225.98	8.19
226.215	18.19
226.449	10.19
226.683	14.19
226.918	21.19
227.152	44.19
227.387	38.19
227.621	48.19
227.856	42.19
228.09	32.19
228.324	36.19
228.559	52.19
228.793	51.19
229.027	51.19
229.262	62.19
229.496	53.19
229.73	72.19
229.964	73.19
230.199	83.19
230.433	75.19
230.667	75.19
230.901	81.19
231.136	86.19
231.37	72.19
231.604	80.19
231.838	88.19
232.072	78.19
232.306	103.19
232.541	73.19
232.775	79.19
233.009	80.19
233.243	88.19
233.477	73.19
233.711	74.19
233.945	85.19
234.179	92.19
234.413	90.19
234.647	83.19
234.881	85.19
235.115	87.19
235.349	68.19
235.583	77.19
235.817	63.19
236.051	76.19
236.285	95.19
236.519	88.19
236.753	69.19
236.987	70.19
237.221	76.19
237.455	75.19
237.689	96.19
237.922	77.19
238.156	69.19
238.39	70.19
238.624	79.19
238.858	82.19
239.091	73.19
239.325	68.19
239.559	71.19
239.793	64.19
240.027	65.19
240.26	54.19
240.494	76.19
240.728	70.19
240.961	66.19
241.195	84.19
241.429	78.19
241.662	68.19
241.896	77.19
242.13	90.19
242.363	81.19
242.597	77.19
242.83	88.19
243.064	75.19
243.298	69.19
243.531	66.19
243.765	88.19
243.998	93.19
244.232	73.19
244.465	80.19
244.699	70.19
244.932	70.19
245.166	75.19
245.399	65.19
245.633	78.19
245.866	81.19
246.099	97.19
246.333	77.19
246.566	65.19
246.8	74.19
247.033	65.19
247.266	72.19
247.5	85.19
247.733	92.19
247.966	82.19
248.2	74.19
248.433	82.19
248.666	72.19
248.899	66.19
249.133	74.19
249.366	86.19
249.599	87.19
249.832	83.19
250.066	84.19
250.299	73.19
250.532	90.19
250.765	79.19
250.998	76.19
251.231	70.19
251.465	73.19
251.698	83.19
251.931	79.19
252.164	79.19
252.397	84.19
252.63	67.19
252.863	84.19
253.096	89.19
253.329	81.19
253.562	79.19
253.795	76.19
254.028	82.19
254.261	73.19
254.494	90.19
254.727	88.19
254.96	68.19
255.193	69.19
255.426	78.19
255.659	71.19
255.892	77.19
256.124	82.19
256.357	87.19
256.59	78.19
256.823	62.19
257.056	76.19
257.289	92.19
257.521	90.19
257.754	89.19
257.987	52.19
258.22	64.19
258.452	70.19
258.685	80.19
258.918	84.19
259.151	76.19
259.383	83.19
259.616	77.19
259.849	80.19
260.081	75.19
260.314	80.19
260.547	84.19
260.779	67.19
261.012	80.19
261.244	72.19
261.477	92.19
261.71	93.19
261.942	74.19
262.175	85.19
262.407	70.19
262.64	80.19
262.872	83.19
263.105	75.19
263.337	81.19
263.57	100.19
263.802	87.19
264.035	82.19
264.267	92.19
264.499	78.19
264.732	73.19
264.964	68.19
265.197	84.19
265.429	83.19
265.661	67.19
265.894	92.19
266.126	82.19
266.358	67.19
266.591	74.19
266.823	80.19
267.055	81.19
267.287	73.19
267.52	76.19
267.752	90.19
267.984	89.19
268.216	81.19
268.448	76.19
268.681	71.19
268.913	79.19
269.145	75.19
269.377	81.19
269.609	71.19
269.841	92.19
270.073	78.19
270.306	88.19
270.538	81.19
270.77	73.19
271.002	90.19
271.234	80.19
271.466	88.19
271.698	85.19
271.93	83.19
272.162	85.19
272.394	86.19
272.626	101.19
272.858	70.19
273.09	79.19
273.322	92.19
273.553	76.19
273.785	86.19
274.017	83.19
274.249	73.19
274.481	70.19
274.713	72.19
274.945	79.19
275.176	74.19
275.408	88.19
275.64	66.19
275.872	98.19
276.104	97.19
276.335	88.19
276.567	73.19
276.799	83.19
277.031	72.19
277.262	82.19
277.494	76.19
277.726	93.19
277.957	78.19
278.189	85.19
278.421	86.19
278.652	97.19
278.884	86.19
279.115	79.19
279.347	84.19
279.579	77.19
279.81	72.19
280.042	86.19
280.273	81.19
280.505	89.19
280.736	69.19
280.968	68.19
281.199	78.19
281.431	88.19
281.662	88.19
281.894	91.19
282.125	78.19
282.356	81.19
282.588	85.19
282.819	81.19
283.051	73.19
283.282	76.19
283.513	86.19
283.745	77.19
283.976	83.19
284.207	83.19
284.439	76.19
284.67	76.19
284.901	88.19
285.132	76.19
285.364	81.19
285.595	79.19
285.826	80.19
286.057	81.19
286.288	90.19
286.52	100.19
286.751	80.19
286.982	94.19
287.213	75.19
287.444	81.19
287.675	83.19
287.906	92.19
288.138	69.19
288.369	82.19
288.6	81.19
288.831	80.19
289.062	82.19
289.293	93.19
289.524	84.19
289.755	81.19
289.986	91.19
290.217	82.19
290.448	64.19
290.679	81.19
290.91	85.19
291.141	96.19
291.371	90.19
291.602	86.19
291.833	93.19
292.064	84.19
292.295	87.19
292.526	89.19
292.757	77.19
292.987	92.19
293.218	54.19
293.449	79.19
293.68	80.19
293.91	82.19
294.141	81.19
294.372	82.19
294.603	86.19
294.833	92.19
295.064	83.19
295.295	86.19
295.525	96.19
295.756	104.19
295.987	80.19
296.217	74.19
296.448	77.19
296.679	94.19
296.909	96.19
297.14	79.19
297.37	84.19
297.601	87.19
297.831	99.19
298.062	79.19
298.292	77.19
298.523	89.19
298.753	81.19
298.984	88.19
299.214	101.19
299.445	93.19
299.675	101.19
299.905	75.19
300.136	80.19
300.366	78.19
300.597	85.19
300.827	95.19
301.057	68.19
301.288	73.19
301.518	89.19
301.748	79.19
301.979	99.19
302.209	73.19
302.439	85.19
302.669	85.19
302.9	92.19
303.13	92.19
303.36	77.19
303.59	90.19
303.82	82.19
304.051	86.19
304.281	74.19
304.511	90.19
304.741	79.19
304.971	82.19
305.201	75.19
305.431	81.19
305.661	76.19
305.891	94.19
306.121	94.19
306.352	78.19
306.582	92.19
306.812	74.19
307.042	81.19
307.272	68.19
307.502	92.19
307.731	84.19
307.961	82.19
308.191	85.19
308.421	90.19
308.651	75.19
308.881	89.19
309.111	94.19
309.341	80.19
309.571	95.19
309.8	89.19
310.03	86.19
310.26	80.19
310.49	85.19
310.72	89.19
310.949	75.19
311.179	85.19
311.409	88.19
311.639	77.19
311.868	84.19
312.098	87.19
312.328	84.19
312.557	82.19
312.787	86.19
313.017	98.19
313.246	88.19
313.476	86.19
313.706	88.19
313.935	75.19
314.165	80.19
314.394	87.19
314.624	81.19
314.853	94.19
315.083	87.19
315.312	82.19
315.542	93.19
315.771	84.19
316.001	98.19
316.23	76.19
316.46	80.19
316.689	82.19
316.919	86.19
317.148	100.19
317.377	96.19
317.607	94.19
317.836	85.19
318.065	80.19
318.295	86.19
318.524	89.19
318.753	100.19
318.983	68.19
319.212	74.19
319.441	92.19
319.67	83.19
319.9	94.19
320.129	99.19
320.358	80.19
320.587	80.19
320.816	88.19
321.046	86.19
321.275	104.19
321.504	62.19
321.733	98.19
321.962	92.19
322.191	94.19
322.42	80.19
322.649	82.19
322.878	98.19
323.108	84.19
323.337	90.19
323.566	78.19
323.795	84.19
324.024	88.19
324.253	86.19
324.482	68.19
324.71	86.19
324.939	96.19
325.168	81.19
325.397	83.19
325.626	78.19
325.855	82.19
326.084	84.19
326.313	94.19
326.542	83.19
326.77	80.19
326.999	79.19
327.228	85.19
327.457	77.19
327.686	82.19
327.914	77.19
328.143	97.19
328.372	98.19
328.6	98.19
328.829	92.19
329.058	96.19
329.287	105.19
329.515	76.19
329.744	90.19
329.972	98.19
330.201	72.19
330.43	94.19
330.658	81.19
330.887	65.19
331.115	96.19
331.344	88.19
331.572	75.19
331.801	96.19
332.03	73.19
332.258	77.19
332.486	82.19
332.715	79.19
332.943	84.19
333.172	86.19
333.4	85.19
333.629	82.19
333.857	84.19
334.085	77.19
334.314	82.19
334.542	72.19
334.771	89.19
334.999	82.19
335.227	77.19
335.455	72.19
335.684	103.19
335.912	99.19
336.14	73.19
336.369	80.19
336.597	83.19
336.825	87.19
337.053	86.19
337.281	94.19
337.51	85.19
337.738	85.19
337.966	80.19
338.194	88.19
338.422	100.19
338.65	88.19
338.878	82.19
339.106	93.19
339.334	86.19
339.562	88.19
339.79	81.19
340.018	74.19
340.246	79.19
340.474	79.19
340.702	83.19
340.93	85.19
341.158	85.19
341.386	93.19
341.614	89.19
341.842	81.19
342.07	79.19
342.298	82.19
342.526	75.19
342.754	81.19
342.981	81.19
343.209	85.19
343.437	97.19
343.665	86.19
343.893	81.19
344.12	100.19
344.348	84.19
344.576	103.19
344.804	89.19
345.031	76.19
345.259	94.19
345.487	74.19
345.714	81.19
345.942	96.19
346.17	75.19
346.397	70.19
346.625	89.19
346.853	96.19
347.08	87.19
347.308	101.19
347.535	103.19
347.763	89.19
347.99	92.19
348.218	79.19
348.445	86.19
348.673	89.19
348.9	92.19
349.128	96.19
349.355	81.19
349.583	84.19
349.81	84.19
350.037	96.19
350.265	86.19
350.492	75.19
350.72	76.19
350.947	99.19
351.174	104.19
351.402	92.19
351.629	79.19
351.856	88.19
352.083	85.19
352.311	101.19
352.538	79.19
352.765	94.19
352.992	86.19
353.22	84.19
353.447	79.19
353.674	92.19
353.901	108.19
354.128	92.19
354.355	93.19
354.583	79.19
354.81	92.19
355.037	85.19
355.264	91.19
355.491	88.19
355.718	87.19
355.945	105.19
356.172	63.19
356.399	91.19
356.626	81.19
356.853	92.19
357.08	84.19
357.307	92.19
357.534	75.19
357.761	84.19
357.988	89.19
358.215	80.19
358.441	85.19
358.668	69.19
358.895	96.19
359.122	87.19
359.349	92.19
359.576	89.19
359.802	76.19
360.029	77.19
360.256	83.19
360.483	97.19
360.709	82.19
360.936	91.19
361.163	87.19
361.39	77.19
361.616	83.19
361.843	80.19
362.07	82.19
362.296	80.19
362.523	80.19
362.749	83.19
362.976	82.19
363.203	101.19
363.429	90.19
363.656	76.19
363.882	66.19
364.109	85.19
364.335	94.19
364.562	80.19
364.788	81.19
365.015	74.19
365.241	94.19
365.468	94.19
365.694	81.19
365.92	81.19
366.147	89.19
366.373	83.19
366.599	77.19
366.826	88.19
367.052	92.19
367.278	95.19
367.505	82.19
367.731	91.19
367.957	88.19
368.184	81.19
368.41	84.19
368.636	78.19
368.862	88.19
369.089	99.19
369.315	92.19
369.541	86.19
369.767	87.19
369.993	79.19
370.219	87.19
370.445	66.19
370.672	72.19
370.898	70.19
371.124	84.19
371.35	88.19
371.576	98.19
371.802	83.19
372.028	89.19
372.254	85.19
372.48	85.19
372.706	80.19
372.932	84.19
373.158	85.19
373.384	71.19
373.61	87.19
373.835	94.19
374.061	72.19
374.287	81.19
374.513	86.19
374.739	89.19
374.965	106.19
375.191	99.19
375.416	77.19
375.642	72.19
375.868	98.19
376.094	89.19
376.319	82.19
376.545	74.19
376.771	93.19
376.997	92.19
377.222	74.19
377.448	79.19
377.674	82.19
377.899	92.19
378.125	75.19
378.35	71.19
378.576	94.19
378.802	79.19
379.027	88.19
379.253	76.19
379.478	78.19
379.704	88.19
379.929	84.19
380.155	84.19
380.38	80.19
380.606	82.19
380.831	86.19
381.057	80.19
381.282	86.19
381.507	86.19
381.733	86.19
381.958	88.19
382.184	87.19
382.409	82.19
382.634	87.19
382.86	88.19
383.085	90.19
383.31	82.19
383.535	98.19
383.761	86.19
383.986	90.19
384.211	89.19
384.436	81.19
384.662	84.19
384.887	95.19
385.112	80.19
385.337	72.19
385.562	94.19
385.787	83.19
386.013	83.19
386.238	97.19
386.463	88.19
386.688	82.19
386.913	96.19
387.138	97.19
387.363	70.19
387.588	84.19
387.813	82.19
388.038	83.19
388.263	88.19
388.488	93.19
388.713	79.19
388.938	101.19
389.163	86.19
389.387	85.19
389.612	92.19
389.837	74.19
390.062	76.19
390.287	80.19
390.512	73.19
390.736	74.19
390.961	95.19
391.186	86.19
391.411	95.19
391.636	102.19
391.86	83.19
392.085	94.19
392.31	85.19
392.534	86.19
392.759	87.19
392.984	69.19
393.208	90.19
393.433	84.19
393.658	92.19
393.882	79.19
394.107	94.19
394.331	94.19
394.556	79.19
394.78	92.19
395.005	94.19
395.229	88.19
395.454	66.19
395.678	85.19
395.903	69.19
396.127	75.19
396.352	85.19
396.576	71.19
396.801	89.19
397.025	75.19
397.249	100.19
397.474	93.19
397.698	88.19
397.922	90.19
398.147	87.19
398.371	93.19
398.595	79.19
398.82	92.19
399.044	78.19
399.268	89.19
399.492	94.19
399.717	86.19
399.941	96.19
400.165	100.19
400.389	87.19
400.613	85.19
400.837	91.19
401.062	65.19
401.286	84.19
401.51	85.19
401.734	76.19
401.958	76.19
402.182	83.19
402.406	94.19
402.63	94.19
402.854	80.19
403.078	83.19
403.302	87.19
403.526	100.19
403.75	100.19
403.974	98.19
404.198	128.19
404.422	161.19
404.645	179.19
404.869	169.19
405.093	120.19
405.317	102.19
405.541	92.19
405.765	92.19
405.988	89.19
406.212	98.19
406.436	93.19
406.66	91.19
406.883	89.19
407.107	85.19
407.331	87.19
407.555	71.19
407.778	78.19
408.002	82.19
408.226	91.19
408.449	88.19
408.673	90.19
408.896	86.19
409.12	80.19
409.344	84.19
409.567	86.19
409.791	90.19
410.014	85.19
410.238	96.19
410.461	94.19
410.685	85.19
410.908	92.19
411.132	98.19
411.355	86.19
411.578	92.19
411.802	87.19
412.025	86.19
412.249	89.19
412.472	89.19
412.695	75.19
412.919	73.19
413.142	94.19
413.365	95.19
413.589	78.19
413.812	76.19
414.035	88.19
414.258	86.19
414.482	80.19
414.705	93.19
414.928	93.19
415.151	77.19
415.374	85.19
415.597	90.19
415.821	78.19
416.044	94.19
416.267	82.19
416.49	96.19
416.713	71.19
416.936	92.19
417.159	85.19
417.382	76.19
417.605	82.19
417.828	87.19
418.051	76.19
418.274	76.19
418.497	99.19
418.72	86.19
418.943	90.19
419.166	76.19
419.389	92.19
419.611	92.19
419.834	84.19
420.057	85.19
420.28	82.19
420.503	97.19
420.726	81.19
420.948	85.19
421.171	100.19
421.394	88.19
421.617	96.19
421.839	85.19
422.062	84.19
422.285	94.19
422.507	78.19
422.73	87.19
422.953	86.19
423.175	89.19
423.398	82.19
423.621	88.19
423.843	81.19
424.066	94.19
424.288	79.19
424.511	84.19
424.733	65.19
424.956	86.19
425.178	87.19
425.401	89.19
425.623	81.19
425.846	81.19
426.068	82.19
426.291	83.19
426.513	73.19
426.735	81.19
426.958	87.19
427.18	87.19
427.402	84.19
427.625	87.19
427.847	80.19
428.069	82.19
428.292	92.19
428.514	82.19
428.736	84.19
428.958	82.19
429.181	86.19
429.403	98.19
429.625	96.19
429.847	88.19
430.069	89.19
430.292	87.19
430.514	88.19
430.736	83.19
430.958	92.19
431.18	86.19
431.402	91.19
431.624	78.19
431.846	78.19
432.068	88.19
432.29	81.19
432.512	78.19
432.734	84.19
432.956	88.19
433.178	86.19
433.4	99.19
433.622	100.19
433.844	90.19
434.066	84.19
434.287	77.19
434.509	84.19
434.731	80.19
434.953	76.19
435.175	94.19
435.397	95.19
435.618	88.19
435.84	93.19
436.062	72.19
436.284	80.19
436.505	84.19
436.727	76.19
436.949	89.19
437.17	87.19
437.392	86.19
437.614	94.19
437.835	94.19
438.057	89.19
438.278	79.19
438.5	105.19
438.721	88.19
438.943	84.19
439.165	81.19
439.386	83.19
439.608	100.19
439.829	85.19
440.05	96.19
440.272	76.19
440.493	81.19
440.715	75.19
440.936	89.19
441.158	82.19
441.379	85.19
441.6	90.19
441.822	85.19
442.043	84.19
442.264	76.19
442.486	78.19
442.707	100.19
442.928	91.19
443.149	80.19
443.371	81.19
443.592	78.19
443.813	84.19
444.034	70.19
444.255	77.19
444.476	91.19
444.698	90.19
444.919	82.19
445.14	142.19
445.361	104.19
445.582	81.19
445.803	83.19
446.024	78.19
446.245	101.19
446.466	80.19
446.687	69.19
446.908	83.19
447.129	78.19
447.35	87.19
447.571	91.19
447.792	85.19
448.013	82.19
448.234	92.19
448.455	96.19
448.675	97.19
448.896	80.19
449.117	77.19
449.338	89.19
449.559	90.19
449.779	94.19
450	92.19
450.221	84.19
450.442	84.19
450.662	64.19
450.883	104.19
451.104	104.19
451.324	98.19
451.545	94.19
451.766	73.19
451.986	86.19
452.207	92.19
452.428	76.19
452.648	98.19
452.869	83.19
453.089	78.19
453.31	89.19
453.53	87.19
453.751	97.19
453.971	103.19
454.192	87.19
454.412	99.19
454.633	80.19
454.853	92.19
455.073	89.19
455.294	97.19
455.514	72.19
455.734	87.19
455.955	98.19
456.175	76.19
456.395	73.19
456.616	89.19
456.836	78.19
457.056	73.19
457.276	94.19
457.497	92.19
457.717	86.19
457.937	87.19
458.157	83.19
458.377	83.19
458.598	79.19
458.818	70.19
459.038	58.19
459.258	85.19
459.478	72.19
459.698	68.19
459.918	80.19
460.138	83.19
460.358	75.19
460.578	90.19
460.798	80.19
461.018	98.19
461.238	84.19
461.458	90.19
461.678	78.19
461.898	84.19
462.118	83.19
462.338	82.19
462.558	90.19
462.777	81.19
462.997	85.19
463.217	71.19
463.437	84.19
463.657	84.19
463.876	93.19
464.096	94.19
464.316	95.19
464.536	78.19
464.755	90.19
464.975	95.19
465.195	88.19
465.414	92.19
465.634	80.19
465.854	85.19
466.073	99.19
466.293	96.19
466.512	86.19
466.732	76.19
466.951	66.19
467.171	86.19
467.391	91.19
467.61	94.19
467.829	89.19
468.049	94.19
468.268	73.19
468.488	68.19
468.707	98.19
468.927	79.19
469.146	112.19
469.365	93.19
469.585	90.19
469.804	86.19
470.023	88.19
470.243	92.19
470.462	90.19
470.681	83.19
470.901	89.19
471.12	97.19
471.339	112.19
471.558	98.19
471.777	89.19
471.997	82.19
472.216	84.19
472.435	97.19
472.654	84.19
472.873	94.19
473.092	89.19
473.311	72.19
473.53	78.19
473.749	97.19
473.968	84.19
474.187	94.19
474.406	87.19
474.625	82.19
474.844	93.19
475.063	99.19
475.282	93.19
475.501	80.19
475.72	91.19
475.939	91.19
476.158	89.19
476.377	80.19
476.596	93.19
476.814	102.19
477.033	86.19
477.252	99.19
477.471	77.19
477.69	88.19
477.908	89.19
478.127	98.19
478.346	80.19
478.564	87.19
478.783	83.19
479.002	97.19
479.22	89.19
479.439	92.19
479.658	92.19
479.876	81.19
480.095	90.19
480.313	89.19
480.532	89.19
480.751	107.19
480.969	89.19
481.188	93.19
481.406	84.19
481.624	90.19
481.843	103.19
482.061	82.19
482.28	85.19
482.498	73.19
482.717	82.19
482.935	92.19
483.153	76.19
483.372	92.19
483.59	94.19
483.808	90.19
484.027	89.19
484.245	84.19
484.463	87.19
484.681	88.19
484.9	98.19
485.118	88.19
485.336	92.19
485.554	78.19
485.772	89.19
485.99	87.19
486.209	80.19
486.427	94.19
486.645	87.19
486.863	86.19
487.081	102.19
487.299	99.19
487.517	105.19
487.735	89.19
487.953	108.19
488.171	104.19
488.389	75.19
488.607	95.19
488.825	92.19
489.043	99.19
489.261	96.19
489.479	87.19
489.696	97.19
489.914	96.19
490.132	101.19
490.35	102.19
490.568	95.19
490.786	89.19
491.003	97.19
491.221	94.19
491.439	92.19
491.657	97.19
491.874	96.19
492.092	96.19
492.31	82.19
492.527	93.19
492.745	93.19
492.963	102.19
493.18	87.19
493.398	96.19
493.615	93.19
493.833	101.19
494.05	104.19
494.268	108.19
494.485	103.19
494.703	84.19
494.92	99.19
495.138	108.19
495.355	82.19
495.573	92.19
495.79	88.19
496.008	102.19
496.225	95.19
496.442	100.19
496.66	94.19
496.877	97.19
497.094	89.19
497.312	86.19
497.529	98.19
497.746	93.19
497.963	93.19
498.181	89.19
498.398	88.19
498.615	88.19
498.832	82.19
499.049	89.19
499.267	93.19
499.484	91.19
499.701	90.19
499.918	85.19
500.135	81.19
500.352	81.19
500.569	107.19
500.786	99.19
501.003	90.19
501.22	97.19
501.437	77.19
501.654	88.19
501.871	81.19
502.088	78.19
502.305	94.19
502.522	96.19
502.739	95.19
502.956	87.19
503.172	94.19
503.389	84.19
503.606	95.19
503.823	89.19
504.04	106.19
504.256	103.19
504.473	104.19
504.69	101.19
504.907	92.19
505.123	81.19
505.34	74.19
505.557	89.19
505.773	92.19
505.99	95.19
506.207	77.19
506.423	83.19
506.64	80.19
506.856	96.19
507.073	96.19
507.289	93.19
507.506	92.19
507.722	104.19
507.939	75.19
508.155	90.19
508.372	90.19
508.588	92.19
508.805	92.19
509.021	97.19
509.238	97.19
509.454	86.19
509.67	90.19
509.887	96.19
510.103	96.19
510.319	88.19
510.536	78.19
510.752	88.19
510.968	98.19
511.184	94.19
511.401	83.19
511.617	101.19
511.833	95.19
512.049	88.19
512.265	81.19
512.481	80.19
512.698	91.19
512.914	89.19
513.13	91.19
513.346	98.19
513.562	96.19
513.778	85.19
513.994	100.19
514.21	81.19
514.426	89.19
514.642	91.19
514.858	82.19
515.074	88.19
515.29	89.19
515.506	79.19
515.721	76.19
515.937	82.19
516.153	82.19
516.369	88.19
516.585	99.19
516.801	90.19
517.016	84.19
517.232	84.19
517.448	92.19
517.664	88.19
517.879	90.19
518.095	100.19
518.311	84.19
518.527	99.19
518.742	85.19
518.958	90.19
519.173	95.19
