Data from KBrNoHeat_HRD10591_00013.txt Node
Date: Fri Dec 27 14:39:20 EST 2024
User: Yrep
Spectrometer: HR+D1059
Trigger mode: 1
Integration Time (sec): 1.000000E-1
Scans to average: 1
Electric dark correction enabled: true
Nonlinearity correction enabled: false
Boxcar width: 0
XAxis mode: Wavelengths
Number of Pixels in Spectrum: 2048
>>>>>Begin Spectral Data<<<<<
223.165	-18.69
223.4	-18.69
223.635	-18.69
223.869	-13.69
224.104	-35.69
224.338	-6.69
224.573	-2.69
224.808	-13.69
225.042	-14.69
225.277	-12.69
225.511	3.31
225.746	3.31
225.98	7.31
226.215	12.31
226.449	19.31
226.683	24.31
226.918	31.31
227.152	17.31
227.387	31.31
227.621	52.31
227.856	53.31
228.09	45.31
228.324	51.31
228.559	66.31
228.793	73.31
229.027	70.31
229.262	49.31
229.496	52.31
229.73	63.31
229.964	72.31
230.199	82.31
230.433	83.31
230.667	77.31
230.901	77.31
231.136	78.31
231.37	75.31
231.604	88.31
231.838	76.31
232.072	71.31
232.306	90.31
232.541	87.31
232.775	87.31
233.009	75.31
233.243	74.31
233.477	84.31
233.711	79.31
233.945	79.31
234.179	72.31
234.413	74.31
234.647	83.31
234.881	82.31
235.115	87.31
235.349	71.31
235.583	80.31
235.817	65.31
236.051	69.31
236.285	86.31
236.519	77.31
236.753	80.31
236.987	91.31
237.221	76.31
237.455	83.31
237.689	85.31
237.922	90.31
238.156	76.31
238.39	81.31
238.624	80.31
238.858	77.31
239.091	80.31
239.325	70.31
239.559	87.31
239.793	75.31
240.027	82.31
240.26	70.31
240.494	90.31
240.728	75.31
240.961	61.31
241.195	82.31
241.429	85.31
241.662	77.31
241.896	79.31
242.13	85.31
242.363	92.31
242.597	74.31
242.83	80.31
243.064	67.31
243.298	80.31
243.531	77.31
243.765	87.31
243.998	83.31
244.232	75.31
244.465	68.31
244.699	89.31
244.932	83.31
245.166	87.31
245.399	74.31
245.633	72.31
245.866	71.31
246.099	83.31
246.333	84.31
246.566	68.31
246.8	67.31
247.033	77.31
247.266	90.31
247.5	70.31
247.733	83.31
247.966	95.31
248.2	89.31
248.433	70.31
248.666	71.31
248.899	76.31
249.133	84.31
249.366	77.31
249.599	73.31
249.832	75.31
250.066	94.31
250.299	89.31
250.532	80.31
250.765	72.31
250.998	75.31
251.231	69.31
251.465	67.31
251.698	79.31
251.931	80.31
252.164	96.31
252.397	83.31
252.63	82.31
252.863	58.31
253.096	85.31
253.329	88.31
253.562	84.31
253.795	88.31
254.028	91.31
254.261	89.31
254.494	85.31
254.727	77.31
254.96	88.31
255.193	79.31
255.426	87.31
255.659	95.31
255.892	76.31
256.124	81.31
256.357	93.31
256.59	81.31
256.823	89.31
257.056	100.31
257.289	73.31
257.521	82.31
257.754	84.31
257.987	78.31
258.22	84.31
258.452	83.31
258.685	80.31
258.918	65.31
259.151	93.31
259.383	85.31
259.616	66.31
259.849	76.31
260.081	76.31
260.314	76.31
260.547	69.31
260.779	77.31
261.012	93.31
261.244	82.31
261.477	95.31
261.71	92.31
261.942	73.31
262.175	78.31
262.407	79.31
262.64	76.31
262.872	83.31
263.105	102.31
263.337	84.31
263.57	86.31
263.802	83.31
264.035	84.31
264.267	93.31
264.499	91.31
264.732	86.31
264.964	92.31
265.197	72.31
265.429	76.31
265.661	81.31
265.894	92.31
266.126	71.31
266.358	90.31
266.591	75.31
266.823	83.31
267.055	90.31
267.287	73.31
267.52	82.31
267.752	101.31
267.984	91.31
268.216	80.31
268.448	96.31
268.681	79.31
268.913	72.31
269.145	80.31
269.377	74.31
269.609	85.31
269.841	89.31
270.073	83.31
270.306	82.31
270.538	80.31
270.77	80.31
271.002	85.31
271.234	80.31
271.466	92.31
271.698	75.31
271.93	83.31
272.162	85.31
272.394	73.31
272.626	89.31
272.858	84.31
273.09	81.31
273.322	83.31
273.553	76.31
273.785	97.31
274.017	104.31
274.249	98.31
274.481	85.31
274.713	81.31
274.945	81.31
275.176	84.31
275.408	77.31
275.64	66.31
275.872	78.31
276.104	71.31
276.335	79.31
276.567	83.31
276.799	91.31
277.031	92.31
277.262	72.31
277.494	91.31
277.726	88.31
277.957	97.31
278.189	82.31
278.421	100.31
278.652	92.31
278.884	88.31
279.115	75.31
279.347	75.31
279.579	76.31
279.81	79.31
280.042	82.31
280.273	92.31
280.505	81.31
280.736	94.31
280.968	83.31
281.199	89.31
281.431	83.31
281.662	85.31
281.894	89.31
282.125	82.31
282.356	76.31
282.588	82.31
282.819	80.31
283.051	95.31
283.282	83.31
283.513	84.31
283.745	92.31
283.976	84.31
284.207	90.31
284.439	73.31
284.67	76.31
284.901	70.31
285.132	85.31
285.364	97.31
285.595	87.31
285.826	88.31
286.057	87.31
286.288	89.31
286.52	85.31
286.751	75.31
286.982	85.31
287.213	81.31
287.444	93.31
287.675	88.31
287.906	83.31
288.138	86.31
288.369	92.31
288.6	76.31
288.831	84.31
289.062	72.31
289.293	80.31
289.524	95.31
289.755	90.31
289.986	72.31
290.217	92.31
290.448	84.31
290.679	83.31
290.91	89.31
291.141	89.31
291.371	87.31
291.602	78.31
291.833	76.31
292.064	97.31
292.295	81.31
292.526	85.31
292.757	95.31
292.987	80.31
293.218	86.31
293.449	90.31
293.68	85.31
293.91	82.31
294.141	83.31
294.372	68.31
294.603	92.31
294.833	79.31
295.064	90.31
295.295	85.31
295.525	92.31
295.756	87.31
295.987	79.31
296.217	85.31
296.448	84.31
296.679	87.31
296.909	98.31
297.14	85.31
297.37	79.31
297.601	83.31
297.831	83.31
298.062	91.31
298.292	84.31
298.523	81.31
298.753	81.31
298.984	86.31
299.214	100.31
299.445	72.31
299.675	85.31
299.905	73.31
300.136	85.31
300.366	90.31
300.597	80.31
300.827	83.31
301.057	86.31
301.288	77.31
301.518	90.31
301.748	86.31
301.979	100.31
302.209	88.31
302.439	89.31
302.669	90.31
302.9	89.31
303.13	85.31
303.36	88.31
303.59	87.31
303.82	92.31
304.051	90.31
304.281	84.31
304.511	103.31
304.741	95.31
304.971	92.31
305.201	84.31
305.431	84.31
305.661	101.31
305.891	88.31
306.121	90.31
306.352	84.31
306.582	76.31
306.812	83.31
307.042	79.31
307.272	92.31
307.502	80.31
307.731	92.31
307.961	70.31
308.191	85.31
308.421	96.31
308.651	83.31
308.881	97.31
309.111	90.31
309.341	81.31
309.571	88.31
309.8	105.31
310.03	75.31
310.26	86.31
310.49	92.31
310.72	78.31
310.949	92.31
311.179	84.31
311.409	82.31
311.639	90.31
311.868	97.31
312.098	77.31
312.328	80.31
312.557	76.31
312.787	82.31
313.017	87.31
313.246	82.31
313.476	90.31
313.706	76.31
313.935	74.31
314.165	96.31
314.394	93.31
314.624	84.31
314.853	79.31
315.083	102.31
315.312	85.31
315.542	76.31
315.771	81.31
316.001	92.31
316.23	88.31
316.46	93.31
316.689	85.31
316.919	82.31
317.148	100.31
317.377	104.31
317.607	88.31
317.836	81.31
318.065	85.31
318.295	97.31
318.524	99.31
318.753	76.31
318.983	77.31
319.212	89.31
319.441	79.31
319.67	77.31
319.9	99.31
320.129	84.31
320.358	87.31
320.587	86.31
320.816	96.31
321.046	91.31
321.275	87.31
321.504	79.31
321.733	90.31
321.962	95.31
322.191	93.31
322.42	81.31
322.649	96.31
322.878	81.31
323.108	92.31
323.337	94.31
323.566	92.31
323.795	95.31
324.024	75.31
324.253	83.31
324.482	102.31
324.71	99.31
324.939	95.31
325.168	80.31
325.397	98.31
325.626	84.31
325.855	79.31
326.084	89.31
326.313	99.31
326.542	77.31
326.77	73.31
326.999	94.31
327.228	98.31
327.457	84.31
327.686	99.31
327.914	85.31
328.143	84.31
328.372	82.31
328.6	90.31
328.829	86.31
329.058	85.31
329.287	83.31
329.515	90.31
329.744	86.31
329.972	87.31
330.201	83.31
330.43	73.31
330.658	88.31
330.887	84.31
331.115	89.31
331.344	107.31
331.572	85.31
331.801	90.31
332.03	100.31
332.258	83.31
332.486	88.31
332.715	82.31
332.943	81.31
333.172	87.31
333.4	88.31
333.629	86.31
333.857	91.31
334.085	91.31
334.314	84.31
334.542	87.31
334.771	77.31
334.999	82.31
335.227	87.31
335.455	92.31
335.684	92.31
335.912	92.31
336.14	90.31
336.369	83.31
336.597	79.31
336.825	77.31
337.053	75.31
337.281	86.31
337.51	105.31
337.738	88.31
337.966	87.31
338.194	85.31
338.422	80.31
338.65	82.31
338.878	89.31
339.106	83.31
339.334	95.31
339.562	74.31
339.79	79.31
340.018	84.31
340.246	80.31
340.474	84.31
340.702	88.31
340.93	75.31
341.158	87.31
341.386	101.31
341.614	97.31
341.842	76.31
342.07	85.31
342.298	93.31
342.526	95.31
342.754	107.31
342.981	82.31
343.209	89.31
343.437	101.31
343.665	82.31
343.893	82.31
344.12	75.31
344.348	80.31
344.576	83.31
344.804	88.31
345.031	98.31
345.259	85.31
345.487	66.31
345.714	88.31
345.942	97.31
346.17	79.31
346.397	93.31
346.625	85.31
346.853	87.31
347.08	80.31
347.308	79.31
347.535	94.31
347.763	80.31
347.99	75.31
348.218	92.31
348.445	78.31
348.673	88.31
348.9	89.31
349.128	94.31
349.355	85.31
349.583	76.31
349.81	89.31
350.037	97.31
350.265	75.31
350.492	79.31
350.72	91.31
350.947	76.31
351.174	88.31
351.402	83.31
351.629	83.31
351.856	82.31
352.083	71.31
352.311	81.31
352.538	71.31
352.765	92.31
352.992	99.31
353.22	81.31
353.447	78.31
353.674	95.31
353.901	81.31
354.128	90.31
354.355	69.31
354.583	84.31
354.81	75.31
355.037	87.31
355.264	93.31
355.491	82.31
355.718	81.31
355.945	77.31
356.172	78.31
356.399	85.31
356.626	75.31
356.853	86.31
357.08	81.31
357.307	80.31
357.534	90.31
357.761	89.31
357.988	96.31
358.215	82.31
358.441	90.31
358.668	84.31
358.895	93.31
359.122	84.31
359.349	83.31
359.576	86.31
359.802	89.31
360.029	87.31
360.256	82.31
360.483	68.31
360.709	83.31
360.936	96.31
361.163	93.31
361.39	82.31
361.616	87.31
361.843	84.31
362.07	104.31
362.296	81.31
362.523	80.31
362.749	71.31
362.976	74.31
363.203	96.31
363.429	71.31
363.656	98.31
363.882	90.31
364.109	81.31
364.335	94.31
364.562	76.31
364.788	83.31
365.015	86.31
365.241	95.31
365.468	87.31
365.694	83.31
365.92	64.31
366.147	79.31
366.373	88.31
366.599	77.31
366.826	81.31
367.052	99.31
367.278	85.31
367.505	78.31
367.731	92.31
367.957	78.31
368.184	86.31
368.41	80.31
368.636	87.31
368.862	100.31
369.089	81.31
369.315	81.31
369.541	95.31
369.767	87.31
369.993	88.31
370.219	90.31
370.445	78.31
370.672	81.31
370.898	84.31
371.124	80.31
371.35	80.31
371.576	92.31
371.802	80.31
372.028	86.31
372.254	95.31
372.48	85.31
372.706	100.31
372.932	87.31
373.158	79.31
373.384	90.31
373.61	89.31
373.835	88.31
374.061	71.31
374.287	75.31
374.513	80.31
374.739	82.31
374.965	90.31
375.191	86.31
375.416	79.31
375.642	87.31
375.868	87.31
376.094	72.31
376.319	76.31
376.545	95.31
376.771	90.31
376.997	110.31
377.222	81.31
377.448	93.31
377.674	93.31
377.899	89.31
378.125	86.31
378.35	82.31
378.576	84.31
378.802	93.31
379.027	98.31
379.253	74.31
379.478	89.31
379.704	89.31
379.929	69.31
380.155	84.31
380.38	88.31
380.606	79.31
380.831	99.31
381.057	102.31
381.282	85.31
381.507	89.31
381.733	79.31
381.958	73.31
382.184	81.31
382.409	81.31
382.634	73.31
382.86	93.31
383.085	89.31
383.31	87.31
383.535	80.31
383.761	83.31
383.986	89.31
384.211	65.31
384.436	85.31
384.662	85.31
384.887	89.31
385.112	79.31
385.337	87.31
385.562	92.31
385.787	89.31
386.013	78.31
386.238	76.31
386.463	76.31
386.688	97.31
386.913	77.31
387.138	84.31
387.363	84.31
387.588	96.31
387.813	89.31
388.038	72.31
388.263	90.31
388.488	102.31
388.713	82.31
388.938	90.31
389.163	74.31
389.387	90.31
389.612	84.31
389.837	83.31
390.062	82.31
390.287	100.31
390.512	83.31
390.736	79.31
390.961	87.31
391.186	87.31
391.411	85.31
391.636	75.31
391.86	79.31
392.085	89.31
392.31	103.31
392.534	84.31
392.759	88.31
392.984	80.31
393.208	84.31
393.433	95.31
393.658	83.31
393.882	85.31
394.107	80.31
394.331	85.31
394.556	81.31
394.78	87.31
395.005	79.31
395.229	97.31
395.454	93.31
395.678	87.31
395.903	89.31
396.127	93.31
396.352	87.31
396.576	91.31
396.801	73.31
397.025	76.31
397.249	85.31
397.474	86.31
397.698	91.31
397.922	84.31
398.147	84.31
398.371	68.31
398.595	87.31
398.82	83.31
399.044	85.31
399.268	90.31
399.492	96.31
399.717	94.31
399.941	86.31
400.165	79.31
400.389	105.31
400.613	98.31
400.837	84.31
401.062	87.31
401.286	78.31
401.51	91.31
401.734	89.31
401.958	96.31
402.182	71.31
402.406	79.31
402.63	91.31
402.854	86.31
403.078	85.31
403.302	84.31
403.526	77.31
403.75	97.31
403.974	111.31
404.198	117.31
404.422	134.31
404.645	154.31
404.869	132.31
405.093	109.31
405.317	100.31
405.541	95.31
405.765	92.31
405.988	89.31
406.212	80.31
406.436	84.31
406.66	75.31
406.883	89.31
407.107	76.31
407.331	83.31
407.555	75.31
407.778	91.31
408.002	105.31
408.226	82.31
408.449	83.31
408.673	97.31
408.896	88.31
409.12	81.31
409.344	79.31
409.567	87.31
409.791	88.31
410.014	82.31
410.238	93.31
410.461	98.31
410.685	75.31
410.908	80.31
411.132	89.31
411.355	83.31
411.578	78.31
411.802	75.31
412.025	91.31
412.249	83.31
412.472	89.31
412.695	87.31
412.919	88.31
413.142	86.31
413.365	89.31
413.589	74.31
413.812	80.31
414.035	80.31
414.258	77.31
414.482	87.31
414.705	81.31
414.928	99.31
415.151	107.31
415.374	85.31
415.597	69.31
415.821	88.31
416.044	84.31
416.267	87.31
416.49	82.31
416.713	95.31
416.936	81.31
417.159	91.31
417.382	88.31
417.605	64.31
417.828	84.31
418.051	78.31
418.274	89.31
418.497	76.31
418.72	86.31
418.943	84.31
419.166	86.31
419.389	90.31
419.611	84.31
419.834	97.31
420.057	93.31
420.28	81.31
420.503	81.31
420.726	82.31
420.948	90.31
421.171	88.31
421.394	77.31
421.617	97.31
421.839	81.31
422.062	75.31
422.285	65.31
422.507	83.31
422.73	84.31
422.953	99.31
423.175	64.31
423.398	75.31
423.621	69.31
423.843	82.31
424.066	72.31
424.288	101.31
424.511	70.31
424.733	85.31
424.956	79.31
425.178	81.31
425.401	96.31
425.623	77.31
425.846	92.31
426.068	83.31
426.291	86.31
426.513	81.31
426.735	83.31
426.958	85.31
427.18	88.31
427.402	73.31
427.625	86.31
427.847	97.31
428.069	82.31
428.292	84.31
428.514	91.31
428.736	89.31
428.958	71.31
429.181	86.31
429.403	85.31
429.625	88.31
429.847	73.31
430.069	89.31
430.292	89.31
430.514	103.31
430.736	89.31
430.958	80.31
431.18	80.31
431.402	82.31
431.624	91.31
431.846	89.31
432.068	97.31
432.29	88.31
432.512	83.31
432.734	91.31
432.956	83.31
433.178	98.31
433.4	94.31
433.622	92.31
433.844	97.31
434.066	89.31
434.287	77.31
434.509	80.31
434.731	91.31
434.953	93.31
435.175	85.31
435.397	86.31
435.618	97.31
435.84	92.31
436.062	90.31
436.284	65.31
436.505	92.31
436.727	83.31
436.949	92.31
437.17	75.31
437.392	72.31
437.614	92.31
437.835	83.31
438.057	82.31
438.278	93.31
438.5	87.31
438.721	85.31
438.943	83.31
439.165	83.31
439.386	87.31
439.608	86.31
439.829	86.31
440.05	96.31
440.272	86.31
440.493	87.31
440.715	87.31
440.936	76.31
441.158	88.31
441.379	87.31
441.6	86.31
441.822	73.31
442.043	80.31
442.264	95.31
442.486	104.31
442.707	84.31
442.928	85.31
443.149	83.31
443.371	78.31
443.592	94.31
443.813	104.31
444.034	70.31
444.255	74.31
444.476	84.31
444.698	90.31
444.919	89.31
445.14	169.31
445.361	114.31
445.582	91.31
445.803	80.31
446.024	73.31
446.245	95.31
446.466	95.31
446.687	89.31
446.908	87.31
447.129	85.31
447.35	86.31
447.571	85.31
447.792	87.31
448.013	89.31
448.234	85.31
448.455	90.31
448.675	90.31
448.896	99.31
449.117	97.31
449.338	95.31
449.559	88.31
449.779	87.31
450	88.31
450.221	87.31
450.442	85.31
450.662	86.31
450.883	89.31
451.104	91.31
451.324	91.31
451.545	81.31
451.766	63.31
451.986	80.31
452.207	66.31
452.428	73.31
452.648	88.31
452.869	79.31
453.089	96.31
453.31	72.31
453.53	75.31
453.751	75.31
453.971	92.31
454.192	71.31
454.412	78.31
454.633	76.31
454.853	86.31
455.073	93.31
455.294	79.31
455.514	88.31
455.734	89.31
455.955	77.31
456.175	85.31
456.395	79.31
456.616	83.31
456.836	83.31
457.056	80.31
457.276	77.31
457.497	90.31
457.717	88.31
457.937	90.31
458.157	85.31
458.377	74.31
458.598	91.31
458.818	93.31
459.038	91.31
459.258	81.31
459.478	80.31
459.698	78.31
459.918	78.31
460.138	76.31
460.358	87.31
460.578	99.31
460.798	83.31
461.018	107.31
461.238	86.31
461.458	80.31
461.678	88.31
461.898	102.31
462.118	82.31
462.338	91.31
462.558	77.31
462.777	89.31
462.997	82.31
463.217	91.31
463.437	91.31
463.657	88.31
463.876	78.31
464.096	82.31
464.316	95.31
464.536	85.31
464.755	97.31
464.975	84.31
465.195	79.31
465.414	91.31
465.634	96.31
465.854	89.31
466.073	79.31
466.293	79.31
466.512	78.31
466.732	87.31
466.951	85.31
467.171	75.31
467.391	85.31
467.61	82.31
467.829	77.31
468.049	87.31
468.268	74.31
468.488	80.31
468.707	96.31
468.927	87.31
469.146	93.31
469.365	89.31
469.585	108.31
469.804	95.31
470.023	97.31
470.243	80.31
470.462	97.31
470.681	82.31
470.901	88.31
471.12	82.31
471.339	77.31
471.558	84.31
471.777	85.31
471.997	89.31
472.216	80.31
472.435	80.31
472.654	86.31
472.873	76.31
473.092	80.31
473.311	87.31
473.53	87.31
473.749	91.31
473.968	89.31
474.187	88.31
474.406	90.31
474.625	102.31
474.844	89.31
475.063	83.31
475.282	85.31
475.501	88.31
475.72	84.31
475.939	103.31
476.158	81.31
476.377	76.31
476.596	88.31
476.814	95.31
477.033	82.31
477.252	90.31
477.471	89.31
477.69	94.31
477.908	103.31
478.127	87.31
478.346	85.31
478.564	82.31
478.783	82.31
479.002	83.31
479.22	95.31
479.439	82.31
479.658	92.31
479.876	91.31
480.095	85.31
480.313	98.31
480.532	81.31
480.751	81.31
480.969	88.31
481.188	96.31
481.406	90.31
481.624	85.31
481.843	74.31
482.061	93.31
482.28	94.31
482.498	79.31
482.717	77.31
482.935	95.31
483.153	93.31
483.372	85.31
483.59	80.31
483.808	84.31
484.027	99.31
484.245	98.31
484.463	83.31
484.681	111.31
484.9	85.31
485.118	90.31
485.336	84.31
485.554	85.31
485.772	77.31
485.99	86.31
486.209	98.31
486.427	85.31
486.645	91.31
486.863	80.31
487.081	86.31
487.299	88.31
487.517	84.31
487.735	98.31
487.953	76.31
488.171	100.31
488.389	85.31
488.607	97.31
488.825	83.31
489.043	85.31
489.261	100.31
489.479	82.31
489.696	83.31
489.914	91.31
490.132	84.31
490.35	92.31
490.568	101.31
490.786	105.31
491.003	85.31
491.221	106.31
491.439	92.31
491.657	94.31
491.874	89.31
492.092	90.31
492.31	106.31
492.527	112.31
492.745	100.31
492.963	99.31
493.18	96.31
493.398	105.31
493.615	97.31
493.833	84.31
494.05	89.31
494.268	102.31
494.485	105.31
494.703	89.31
494.92	100.31
495.138	94.31
495.355	115.31
495.573	93.31
495.79	95.31
496.008	106.31
496.225	93.31
496.442	97.31
496.66	87.31
496.877	89.31
497.094	93.31
497.312	88.31
497.529	83.31
497.746	90.31
497.963	77.31
498.181	74.31
498.398	101.31
498.615	75.31
498.832	78.31
499.049	98.31
499.267	108.31
499.484	82.31
499.701	84.31
499.918	92.31
500.135	96.31
500.352	82.31
500.569	83.31
500.786	96.31
501.003	96.31
501.22	72.31
501.437	87.31
501.654	92.31
501.871	92.31
502.088	84.31
502.305	86.31
502.522	90.31
502.739	87.31
502.956	87.31
503.172	83.31
503.389	95.31
503.606	76.31
503.823	87.31
504.04	100.31
504.256	95.31
504.473	81.31
504.69	89.31
504.907	101.31
505.123	90.31
505.34	90.31
505.557	93.31
505.773	86.31
505.99	83.31
506.207	96.31
506.423	92.31
506.64	98.31
506.856	86.31
507.073	101.31
507.289	93.31
507.506	100.31
507.722	89.31
507.939	78.31
508.155	76.31
508.372	92.31
508.588	108.31
508.805	87.31
509.021	95.31
509.238	86.31
509.454	89.31
509.67	90.31
509.887	97.31
510.103	95.31
510.319	87.31
510.536	101.31
510.752	82.31
510.968	88.31
511.184	95.31
511.401	80.31
511.617	100.31
511.833	85.31
512.049	102.31
512.265	79.31
512.481	100.31
512.698	103.31
512.914	82.31
513.13	76.31
513.346	90.31
513.562	77.31
513.778	92.31
513.994	88.31
514.21	81.31
514.426	95.31
514.642	79.31
514.858	84.31
515.074	95.31
515.29	91.31
515.506	90.31
515.721	82.31
515.937	101.31
516.153	92.31
516.369	88.31
516.585	75.31
516.801	79.31
517.016	87.31
517.232	97.31
517.448	103.31
517.664	83.31
517.879	80.31
518.095	79.31
518.311	79.31
518.527	71.31
518.742	94.31
518.958	93.31
519.173	93.31
