Data from KBrNoHeat_HRD10591_00002.txt Node
Date: Fri Dec 27 14:39:09 EST 2024
User: Yrep
Spectrometer: HR+D1059
Trigger mode: 1
Integration Time (sec): 1.000000E-1
Scans to average: 1
Electric dark correction enabled: true
Nonlinearity correction enabled: false
Boxcar width: 0
XAxis mode: Wavelengths
Number of Pixels in Spectrum: 2048
>>>>>Begin Spectral Data<<<<<
223.165	-25
223.4	-25
223.635	-25
223.869	-30
224.104	-19
224.338	-12
224.573	-13
224.808	-6
225.042	-4
225.277	-10
225.511	-1
225.746	-3
225.98	22
226.215	11
226.449	14
226.683	7
226.918	35
227.152	34
227.387	34
227.621	41
227.856	51
228.09	38
228.324	51
228.559	65
228.793	61
229.027	58
229.262	75
229.496	62
229.73	82
229.964	76
230.199	69
230.433	66
230.667	72
230.901	82
231.136	80
231.37	74
231.604	76
231.838	69
232.072	70
232.306	82
232.541	91
232.775	87
233.009	82
233.243	81
233.477	77
233.711	83
233.945	75
234.179	85
234.413	81
234.647	85
234.881	80
235.115	83
235.349	86
235.583	75
235.817	77
236.051	72
236.285	63
236.519	71
236.753	81
236.987	66
237.221	82
237.455	69
237.689	84
237.922	60
238.156	63
238.39	63
238.624	73
238.858	66
239.091	81
239.325	83
239.559	78
239.793	67
240.027	78
240.26	84
240.494	83
240.728	87
240.961	87
241.195	71
241.429	79
241.662	73
241.896	72
242.13	73
242.363	63
242.597	82
242.83	74
243.064	69
243.298	79
243.531	66
243.765	87
243.998	76
244.232	68
244.465	66
244.699	74
244.932	59
245.166	80
245.399	79
245.633	73
245.866	72
246.099	88
246.333	81
246.566	78
246.8	88
247.033	83
247.266	80
247.5	84
247.733	84
247.966	79
248.2	78
248.433	76
248.666	61
248.899	80
249.133	79
249.366	84
249.599	74
249.832	81
250.066	84
250.299	79
250.532	77
250.765	68
250.998	75
251.231	69
251.465	83
251.698	89
251.931	80
252.164	82
252.397	85
252.63	71
252.863	87
253.096	81
253.329	64
253.562	78
253.795	72
254.028	89
254.261	80
254.494	85
254.727	87
254.96	66
255.193	91
255.426	81
255.659	66
255.892	63
256.124	70
256.357	90
256.59	67
256.823	75
257.056	83
257.289	70
257.521	75
257.754	68
257.987	73
258.22	71
258.452	79
258.685	73
258.918	74
259.151	81
259.383	77
259.616	74
259.849	74
260.081	74
260.314	74
260.547	88
260.779	83
261.012	75
261.244	87
261.477	83
261.71	84
261.942	76
262.175	84
262.407	81
262.64	81
262.872	85
263.105	83
263.337	72
263.57	74
263.802	82
264.035	76
264.267	78
264.499	90
264.732	85
264.964	81
265.197	80
265.429	75
265.661	82
265.894	76
266.126	87
266.358	93
266.591	86
266.823	82
267.055	79
267.287	83
267.52	79
267.752	94
267.984	84
268.216	83
268.448	89
268.681	79
268.913	80
269.145	70
269.377	76
269.609	94
269.841	86
270.073	89
270.306	88
270.538	94
270.77	85
271.002	79
271.234	78
271.466	91
271.698	90
271.93	78
272.162	86
272.394	74
272.626	79
272.858	76
273.09	74
273.322	79
273.553	73
273.785	76
274.017	97
274.249	80
274.481	74
274.713	82
274.945	86
275.176	97
275.408	73
275.64	75
275.872	98
276.104	94
276.335	90
276.567	98
276.799	76
277.031	94
277.262	83
277.494	82
277.726	84
277.957	91
278.189	85
278.421	78
278.652	86
278.884	79
279.115	83
279.347	91
279.579	91
279.81	83
280.042	98
280.273	88
280.505	98
280.736	85
280.968	86
281.199	81
281.431	75
281.662	90
281.894	94
282.125	90
282.356	87
282.588	80
282.819	70
283.051	67
283.282	85
283.513	88
283.745	81
283.976	85
284.207	91
284.439	66
284.67	88
284.901	76
285.132	79
285.364	87
285.595	97
285.826	84
286.057	96
286.288	98
286.52	92
286.751	75
286.982	86
287.213	81
287.444	74
287.675	75
287.906	82
288.138	79
288.369	84
288.6	95
288.831	84
289.062	85
289.293	70
289.524	77
289.755	77
289.986	91
290.217	83
290.448	79
290.679	77
290.91	76
291.141	84
291.371	90
291.602	90
291.833	90
292.064	89
292.295	83
292.526	79
292.757	75
292.987	95
293.218	74
293.449	92
293.68	86
293.91	83
294.141	79
294.372	90
294.603	80
294.833	90
295.064	85
295.295	84
295.525	96
295.756	83
295.987	75
296.217	87
296.448	76
296.679	83
296.909	92
297.14	101
297.37	76
297.601	73
297.831	71
298.062	77
298.292	61
298.523	76
298.753	86
298.984	85
299.214	78
299.445	94
299.675	80
299.905	87
300.136	75
300.366	87
300.597	89
300.827	79
301.057	72
301.288	92
301.518	80
301.748	75
301.979	106
302.209	78
302.439	78
302.669	78
302.9	95
303.13	72
303.36	98
303.59	90
303.82	92
304.051	82
304.281	85
304.511	98
304.741	88
304.971	94
305.201	98
305.431	97
305.661	87
305.891	77
306.121	87
306.352	93
306.582	85
306.812	78
307.042	91
307.272	88
307.502	83
307.731	90
307.961	84
308.191	89
308.421	76
308.651	83
308.881	89
309.111	85
309.341	84
309.571	71
309.8	79
310.03	76
310.26	89
310.49	88
310.72	81
310.949	76
311.179	92
311.409	71
311.639	76
311.868	69
312.098	82
312.328	98
312.557	100
312.787	71
313.017	85
313.246	87
313.476	85
313.706	87
313.935	97
314.165	87
314.394	86
314.624	91
314.853	100
315.083	87
315.312	84
315.542	96
315.771	88
316.001	92
316.23	91
316.46	90
316.689	89
316.919	94
317.148	79
317.377	88
317.607	90
317.836	85
318.065	85
318.295	91
318.524	86
318.753	87
318.983	97
319.212	99
319.441	85
319.67	83
319.9	85
320.129	82
320.358	74
320.587	90
320.816	77
321.046	94
321.275	97
321.504	71
321.733	97
321.962	86
322.191	86
322.42	87
322.649	104
322.878	96
323.108	99
323.337	75
323.566	91
323.795	91
324.024	87
324.253	79
324.482	78
324.71	68
324.939	89
325.168	69
325.397	85
325.626	91
325.855	83
326.084	84
326.313	99
326.542	74
326.77	86
326.999	94
327.228	84
327.457	78
327.686	86
327.914	88
328.143	78
328.372	86
328.6	89
328.829	95
329.058	87
329.287	76
329.515	76
329.744	85
329.972	81
330.201	92
330.43	86
330.658	83
330.887	87
331.115	86
331.344	89
331.572	103
331.801	94
332.03	93
332.258	82
332.486	80
332.715	72
332.943	87
333.172	82
333.4	68
333.629	79
333.857	78
334.085	76
334.314	86
334.542	94
334.771	92
334.999	78
335.227	85
335.455	84
335.684	78
335.912	88
336.14	83
336.369	97
336.597	89
336.825	81
337.053	75
337.281	87
337.51	89
337.738	87
337.966	94
338.194	88
338.422	98
338.65	89
338.878	75
339.106	80
339.334	93
339.562	80
339.79	87
340.018	85
340.246	86
340.474	86
340.702	80
340.93	85
341.158	85
341.386	95
341.614	85
341.842	87
342.07	96
342.298	89
342.526	96
342.754	86
342.981	64
343.209	84
343.437	102
343.665	82
343.893	96
344.12	98
344.348	92
344.576	86
344.804	87
345.031	82
345.259	75
345.487	68
345.714	83
345.942	85
346.17	84
346.397	85
346.625	85
346.853	89
347.08	89
347.308	94
347.535	79
347.763	86
347.99	102
348.218	91
348.445	79
348.673	82
348.9	87
349.128	104
349.355	82
349.583	92
349.81	76
350.037	82
350.265	80
350.492	82
350.72	95
350.947	87
351.174	92
351.402	67
351.629	81
351.856	75
352.083	76
352.311	78
352.538	80
352.765	94
352.992	91
353.22	88
353.447	88
353.674	89
353.901	75
354.128	89
354.355	79
354.583	88
354.81	91
355.037	87
355.264	89
355.491	97
355.718	75
355.945	75
356.172	79
356.399	84
356.626	73
356.853	98
357.08	84
357.307	89
357.534	79
357.761	88
357.988	82
358.215	80
358.441	83
358.668	87
358.895	88
359.122	96
359.349	90
359.576	97
359.802	82
360.029	77
360.256	96
360.483	75
360.709	79
360.936	93
361.163	86
361.39	81
361.616	90
361.843	75
362.07	100
362.296	88
362.523	100
362.749	75
362.976	97
363.203	89
363.429	87
363.656	87
363.882	79
364.109	79
364.335	85
364.562	91
364.788	77
365.015	94
365.241	86
365.468	92
365.694	86
365.92	82
366.147	83
366.373	94
366.599	79
366.826	75
367.052	87
367.278	89
367.505	92
367.731	100
367.957	85
368.184	85
368.41	95
368.636	87
368.862	109
369.089	91
369.315	79
369.541	88
369.767	73
369.993	79
370.219	94
370.445	68
370.672	86
370.898	83
371.124	73
371.35	64
371.576	75
371.802	76
372.028	74
372.254	95
372.48	94
372.706	96
372.932	87
373.158	88
373.384	80
373.61	83
373.835	92
374.061	91
374.287	86
374.513	83
374.739	98
374.965	93
375.191	87
375.416	85
375.642	86
375.868	91
376.094	91
376.319	89
376.545	83
376.771	80
376.997	73
377.222	82
377.448	87
377.674	80
377.899	91
378.125	106
378.35	74
378.576	75
378.802	74
379.027	86
379.253	99
379.478	87
379.704	87
379.929	89
380.155	86
380.38	79
380.606	82
380.831	77
381.057	90
381.282	83
381.507	84
381.733	83
381.958	84
382.184	83
382.409	84
382.634	102
382.86	77
383.085	92
383.31	83
383.535	100
383.761	79
383.986	82
384.211	72
384.436	76
384.662	87
384.887	81
385.112	76
385.337	94
385.562	89
385.787	89
386.013	75
386.238	76
386.463	98
386.688	91
386.913	74
387.138	94
387.363	90
387.588	102
387.813	84
388.038	98
388.263	86
388.488	77
388.713	90
388.938	80
389.163	86
389.387	84
389.612	91
389.837	88
390.062	88
390.287	79
390.512	87
390.736	68
390.961	93
391.186	87
391.411	82
391.636	94
391.86	77
392.085	90
392.31	80
392.534	89
392.759	76
392.984	77
393.208	84
393.433	88
393.658	78
393.882	81
394.107	94
394.331	87
394.556	80
394.78	80
395.005	81
395.229	81
395.454	86
395.678	88
395.903	89
396.127	81
396.352	95
396.576	90
396.801	74
397.025	74
397.249	95
397.474	99
397.698	90
397.922	83
398.147	90
398.371	65
398.595	96
398.82	89
399.044	73
399.268	68
399.492	89
399.717	66
399.941	71
400.165	87
400.389	90
400.613	94
400.837	98
401.062	83
401.286	86
401.51	91
401.734	84
401.958	85
402.182	80
402.406	87
402.63	92
402.854	87
403.078	95
403.302	87
403.526	76
403.75	87
403.974	91
404.198	120
404.422	160
404.645	182
404.869	142
405.093	120
405.317	94
405.541	77
405.765	74
405.988	84
406.212	98
406.436	79
406.66	95
406.883	84
407.107	94
407.331	83
407.555	84
407.778	83
408.002	95
408.226	76
408.449	98
408.673	71
408.896	96
409.12	73
409.344	104
409.567	89
409.791	86
410.014	97
410.238	86
410.461	84
410.685	94
410.908	82
411.132	93
411.355	74
411.578	78
411.802	89
412.025	84
412.249	88
412.472	77
412.695	78
412.919	92
413.142	84
413.365	79
413.589	92
413.812	89
414.035	79
414.258	89
414.482	81
414.705	93
414.928	90
415.151	87
415.374	93
415.597	89
415.821	76
416.044	89
416.267	83
416.49	100
416.713	94
416.936	82
417.159	87
417.382	81
417.605	91
417.828	95
418.051	80
418.274	91
418.497	89
418.72	84
418.943	93
419.166	76
419.389	74
419.611	96
419.834	84
420.057	90
420.28	92
420.503	85
420.726	90
420.948	87
421.171	87
421.394	75
421.617	99
421.839	87
422.062	71
422.285	91
422.507	84
422.73	100
422.953	89
423.175	82
423.398	92
423.621	93
423.843	87
424.066	88
424.288	95
424.511	79
424.733	88
424.956	92
425.178	79
425.401	84
425.623	99
425.846	75
426.068	86
426.291	96
426.513	90
426.735	85
426.958	86
427.18	88
427.402	74
427.625	94
427.847	72
428.069	76
428.292	91
428.514	84
428.736	81
428.958	83
429.181	81
429.403	91
429.625	95
429.847	86
430.069	92
430.292	79
430.514	76
430.736	79
430.958	98
431.18	82
431.402	96
431.624	82
431.846	85
432.068	90
432.29	81
432.512	98
432.734	84
432.956	82
433.178	99
433.4	89
433.622	84
433.844	105
434.066	92
434.287	86
434.509	73
434.731	85
434.953	80
435.175	89
435.397	90
435.618	76
435.84	82
436.062	78
436.284	80
436.505	78
436.727	98
436.949	82
437.17	87
437.392	87
437.614	79
437.835	78
438.057	87
438.278	79
438.5	79
438.721	99
438.943	83
439.165	90
439.386	94
439.608	95
439.829	101
440.05	88
440.272	87
440.493	82
440.715	94
440.936	90
441.158	99
441.379	83
441.6	82
441.822	82
442.043	78
442.264	91
442.486	95
442.707	75
442.928	97
443.149	81
443.371	98
443.592	80
443.813	94
444.034	90
444.255	92
444.476	91
444.698	77
444.919	84
445.14	143
445.361	112
445.582	98
445.803	78
446.024	94
446.245	97
446.466	104
446.687	86
446.908	91
447.129	91
447.35	90
447.571	83
447.792	91
448.013	84
448.234	85
448.455	77
448.675	94
448.896	88
449.117	81
449.338	74
449.559	98
449.779	78
450	87
450.221	74
450.442	96
450.662	82
450.883	80
451.104	96
451.324	82
451.545	90
451.766	84
451.986	96
452.207	80
452.428	84
452.648	101
452.869	84
453.089	81
453.31	74
453.53	93
453.751	84
453.971	91
454.192	86
454.412	94
454.633	99
454.853	89
455.073	96
455.294	97
455.514	75
455.734	86
455.955	90
456.175	92
456.395	84
456.616	87
456.836	73
457.056	90
457.276	86
457.497	79
457.717	81
457.937	80
458.157	76
458.377	90
458.598	75
458.818	94
459.038	79
459.258	91
459.478	100
459.698	89
459.918	85
460.138	91
460.358	80
460.578	91
460.798	92
461.018	85
461.238	83
461.458	83
461.678	86
461.898	80
462.118	65
462.338	90
462.558	95
462.777	84
462.997	83
463.217	84
463.437	91
463.657	81
463.876	83
464.096	76
464.316	96
464.536	78
464.755	86
464.975	74
465.195	92
465.414	91
465.634	85
465.854	81
466.073	82
466.293	75
466.512	85
466.732	98
466.951	90
467.171	88
467.391	91
467.61	96
467.829	88
468.049	105
468.268	82
468.488	88
468.707	80
468.927	83
469.146	84
469.365	89
469.585	94
469.804	84
470.023	76
470.243	98
470.462	96
470.681	100
470.901	85
471.12	94
471.339	84
471.558	83
471.777	88
471.997	91
472.216	76
472.435	95
472.654	73
472.873	96
473.092	98
473.311	98
473.53	88
473.749	82
473.968	87
474.187	96
474.406	96
474.625	99
474.844	82
475.063	82
475.282	88
475.501	84
475.72	90
475.939	82
476.158	86
476.377	84
476.596	98
476.814	96
477.033	98
477.252	91
477.471	96
477.69	80
477.908	79
478.127	80
478.346	99
478.564	82
478.783	74
479.002	82
479.22	90
479.439	87
479.658	87
479.876	80
480.095	73
480.313	88
480.532	82
480.751	90
480.969	81
481.188	90
481.406	94
481.624	83
481.843	78
482.061	101
482.28	91
482.498	90
482.717	87
482.935	82
483.153	82
483.372	78
483.59	102
483.808	88
484.027	94
484.245	89
484.463	90
484.681	97
484.9	92
485.118	82
485.336	98
485.554	97
485.772	90
485.99	88
486.209	89
486.427	88
486.645	83
486.863	91
487.081	103
487.299	84
487.517	88
487.735	99
487.953	105
488.171	87
488.389	80
488.607	77
488.825	89
489.043	89
489.261	83
489.479	81
489.696	84
489.914	90
490.132	97
490.35	78
490.568	87
490.786	96
491.003	81
491.221	76
491.439	89
491.657	89
491.874	106
492.092	89
492.31	108
492.527	108
492.745	81
492.963	86
493.18	92
493.398	101
493.615	88
493.833	94
494.05	82
494.268	82
494.485	91
494.703	78
494.92	91
495.138	101
495.355	94
495.573	100
495.79	87
496.008	96
496.225	84
496.442	103
496.66	100
496.877	84
497.094	95
497.312	83
497.529	83
497.746	82
497.963	81
498.181	85
498.398	74
498.615	94
498.832	83
499.049	94
499.267	80
499.484	88
499.701	97
499.918	75
500.135	83
500.352	87
500.569	92
500.786	106
501.003	79
501.22	80
501.437	85
501.654	74
501.871	55
502.088	85
502.305	97
502.522	86
502.739	96
502.956	85
503.172	98
503.389	79
503.606	99
503.823	97
504.04	106
504.256	103
504.473	98
504.69	82
504.907	104
505.123	95
505.34	88
505.557	86
505.773	86
505.99	95
506.207	85
506.423	94
506.64	93
506.856	84
507.073	92
507.289	81
507.506	94
507.722	83
507.939	82
508.155	83
508.372	86
508.588	98
508.805	92
509.021	101
509.238	87
509.454	92
509.67	88
509.887	82
510.103	98
510.319	88
510.536	78
510.752	83
510.968	91
511.184	97
511.401	79
511.617	94
511.833	84
512.049	89
512.265	91
512.481	91
512.698	92
512.914	87
513.13	94
513.346	93
513.562	101
513.778	86
513.994	87
514.21	89
514.426	77
514.642	83
514.858	85
515.074	72
515.29	88
515.506	87
515.721	87
515.937	94
516.153	89
516.369	77
516.585	91
516.801	93
517.016	88
517.232	107
517.448	77
517.664	94
517.879	96
518.095	88
518.311	93
518.527	84
518.742	94
518.958	90
519.173	99
519.389	77
519.605	86
519.82	83
520.036	95
520.251	81
520.467	79
520.682	80
520.898	72
521.113	84
521.329	90
521.544	87
521.76	104
521.975	96
522.19	87
522.406	85
522.621	87
522.836	83
523.052	89
523.267	92
523.482	94
523.698	84
523.913	81
524.128	92
524.343	98
524.559	80
524.774	108
524.989	83
525.204	85
525.419	102
525.634	86
525.849	91
526.064	102
526.28	88
526.495	80
526.71	86
526.925	73
527.14	75
527.355	90
527.57	87
527.785	91
527.999	88
528.214	71
528.429	86
528.644	71
528.859	98
529.074	70
529.289	91
529.503	69
529.718	90
529.933	92
530.148	75
530.363	100
530.577	79
530.792	86
531.007	102
531.221	84
531.436	88
531.651	102
531.865	82
532.08	89
532.295	97
532.509	79
532.724	97
532.938	98
533.153	86
533.367	89
533.582	73
533.796	95
534.011	82
534.225	107
534.44	106
534.654	91
534.868	102
535.083	102
535.297	102
535.511	112
535.726	108
535.94	83
536.154	99
536.369	100
536.583	97
536.797	92
537.011	94
537.225	90
537.44	94
537.654	97
537.868	90
538.082	94
538.296	83
538.51	86
538.724	88
538.938	87
539.153	99
539.367	89
539.581	83
539.795	86
540.009	86
540.222	97
540.436	90
540.65	84
540.864	87
541.078	92
541.292	105
541.506	93
541.72	92
541.934	94
542.147	89
542.361	92
542.575	82
542.789	87
543.002	87
543.216	98
543.43	86
543.644	86
543.857	85
544.071	99
544.285	89
544.498	98
544.712	88
544.925	99
545.139	96
545.352	83
545.566	87
545.779	94
545.993	105
546.206	102
546.42	87
546.633	101
546.847	81
547.06	88
547.274	97
547.487	97
547.7	88
547.914	95
548.127	85
548.34	75
548.554	83
548.767	86
548.98	89
549.193	94
549.407	87
549.62	86
549.833	98
550.046	99
550.259	84
550.473	106
550.686	88
550.899	90
551.112	76
551.325	82
551.538	87
551.751	82
551.964	82
552.177	89
552.39	96
552.603	94
552.816	84
553.029	78
553.242	78
553.455	79
553.667	97
553.88	89
554.093	100
554.306	84
554.519	91
554.732	78
554.944	82
555.157	84
555.37	80
555.583	98
555.795	71
556.008	98
556.221	91
556.433	88
556.646	73
556.859	107
557.071	97
557.284	92
557.496	71
557.709	69
557.921	86
558.134	82
558.346	90
558.559	86
558.771	79
558.984	82
559.196	85
559.409	87
559.621	87
559.833	90
560.046	92
560.258	83
560.47	81
560.683	75
560.895	79
561.107	92
561.32	84
561.532	84
561.744	100
561.956	100
562.168	88
562.381	102
562.593	87
562.805	80
563.017	82
563.229	106
563.441	98
563.653	85
563.865	96
564.077	73
564.289	90
564.501	86
564.713	82
564.925	79
565.137	81
565.349	90
565.561	91
565.773	87
565.985	88
566.197	89
566.408	58
566.62	81
566.832	87
567.044	79
567.255	92
567.467	98
567.679	80
567.891	90
568.102	99
568.314	87
568.526	88
568.737	96
568.949	84
569.161	83
569.372	89
569.584	91
569.795	90
570.007	83
570.218	80
570.43	91
570.641	89
570.853	91
571.064	87
571.276	90
571.487	90
571.698	88
571.91	87
572.121	87
572.333	83
572.544	76
572.755	91
572.966	95
573.178	77
573.389	86
573.6	85
573.811	93
574.023	93
574.234	94
574.445	94
574.656	77
574.867	81
575.078	95
575.289	86
575.501	89
575.712	88
575.923	91
576.134	83
576.345	84
576.556	92
576.767	87
576.978	86
577.188	87
577.399	94
577.61	99
577.821	95
578.032	89
578.243	85
578.454	104
578.665	98
578.875	95
579.086	114
579.297	98
579.508	89
579.718	91
579.929	99
580.14	106
580.35	118
580.561	122
580.772	117
580.982	105
581.193	113
581.403	104
581.614	97
581.825	94
582.035	91
582.246	85
582.456	81
582.667	92
582.877	87
583.087	87
583.298	88
583.508	115
583.719	103
583.929	100
584.139	105
584.35	89
584.56	87
584.77	97
584.981	94
585.191	85
585.401	76
585.611	96
585.821	105
586.032	99
586.242	84
586.452	87
586.662	76
586.872	82
587.082	90
587.292	96
587.502	78
587.713	82
587.923	89
588.133	84
588.343	89
588.553	99
588.762	95
588.972	144
589.182	253
589.392	166
