Data from KBrNoHeat_HRD10591_00010.txt Node
Date: Fri Dec 27 14:39:17 EST 2024
User: Yrep
Spectrometer: HR+D1059
Trigger mode: 1
Integration Time (sec): 1.000000E-1
Scans to average: 1
Electric dark correction enabled: true
Nonlinearity correction enabled: false
Boxcar width: 0
XAxis mode: Wavelengths
Number of Pixels in Spectrum: 2048
>>>>>Begin Spectral Data<<<<<
223.165	-15.31
223.4	-15.31
223.635	-15.31
223.869	-27.31
224.104	-9.31
224.338	-10.31
224.573	-10.31
224.808	-26.31
225.042	-10.31
225.277	-6.31
225.511	4.69
225.746	4.69
225.98	-3.31
226.215	13.69
226.449	18.69
226.683	21.69
226.918	28.69
227.152	26.69
227.387	38.69
227.621	44.69
227.856	48.69
228.09	44.69
228.324	58.69
228.559	52.69
228.793	64.69
229.027	72.69
229.262	62.69
229.496	62.69
229.73	65.69
229.964	77.69
230.199	59.69
230.433	73.69
230.667	86.69
230.901	86.69
231.136	85.69
231.37	80.69
231.604	81.69
231.838	77.69
232.072	77.69
232.306	76.69
232.541	84.69
232.775	68.69
233.009	88.69
233.243	90.69
233.477	85.69
233.711	76.69
233.945	77.69
234.179	77.69
234.413	71.69
234.647	68.69
234.881	99.69
235.115	96.69
235.349	76.69
235.583	95.69
235.817	66.69
236.051	79.69
236.285	84.69
236.519	80.69
236.753	86.69
236.987	90.69
237.221	73.69
237.455	74.69
237.689	98.69
237.922	96.69
238.156	86.69
238.39	69.69
238.624	76.69
238.858	87.69
239.091	88.69
239.325	88.69
239.559	75.69
239.793	75.69
240.027	62.69
240.26	88.69
240.494	87.69
240.728	77.69
240.961	73.69
241.195	71.69
241.429	81.69
241.662	70.69
241.896	82.69
242.13	99.69
242.363	90.69
242.597	73.69
242.83	97.69
243.064	76.69
243.298	77.69
243.531	77.69
243.765	86.69
243.998	78.69
244.232	96.69
244.465	79.69
244.699	67.69
244.932	83.69
245.166	76.69
245.399	92.69
245.633	83.69
245.866	75.69
246.099	91.69
246.333	77.69
246.566	78.69
246.8	77.69
247.033	80.69
247.266	88.69
247.5	87.69
247.733	91.69
247.966	92.69
248.2	84.69
248.433	91.69
248.666	86.69
248.899	95.69
249.133	74.69
249.366	90.69
249.599	79.69
249.832	83.69
250.066	69.69
250.299	80.69
250.532	91.69
250.765	78.69
250.998	92.69
251.231	77.69
251.465	80.69
251.698	82.69
251.931	78.69
252.164	68.69
252.397	74.69
252.63	67.69
252.863	80.69
253.096	82.69
253.329	70.69
253.562	84.69
253.795	87.69
254.028	79.69
254.261	86.69
254.494	74.69
254.727	69.69
254.96	80.69
255.193	78.69
255.426	82.69
255.659	83.69
255.892	92.69
256.124	65.69
256.357	89.69
256.59	97.69
256.823	87.69
257.056	93.69
257.289	90.69
257.521	90.69
257.754	70.69
257.987	86.69
258.22	88.69
258.452	87.69
258.685	85.69
258.918	69.69
259.151	74.69
259.383	82.69
259.616	91.69
259.849	82.69
260.081	85.69
260.314	82.69
260.547	89.69
260.779	80.69
261.012	85.69
261.244	88.69
261.477	90.69
261.71	90.69
261.942	82.69
262.175	88.69
262.407	93.69
262.64	87.69
262.872	86.69
263.105	79.69
263.337	81.69
263.57	73.69
263.802	87.69
264.035	83.69
264.267	90.69
264.499	85.69
264.732	87.69
264.964	81.69
265.197	85.69
265.429	90.69
265.661	83.69
265.894	77.69
266.126	82.69
266.358	106.69
266.591	82.69
266.823	89.69
267.055	91.69
267.287	93.69
267.52	85.69
267.752	91.69
267.984	82.69
268.216	85.69
268.448	83.69
268.681	87.69
268.913	84.69
269.145	93.69
269.377	78.69
269.609	76.69
269.841	74.69
270.073	94.69
270.306	90.69
270.538	106.69
270.77	85.69
271.002	93.69
271.234	72.69
271.466	91.69
271.698	92.69
271.93	79.69
272.162	91.69
272.394	86.69
272.626	95.69
272.858	98.69
273.09	73.69
273.322	86.69
273.553	89.69
273.785	92.69
274.017	75.69
274.249	90.69
274.481	94.69
274.713	97.69
274.945	79.69
275.176	85.69
275.408	82.69
275.64	97.69
275.872	89.69
276.104	88.69
276.335	87.69
276.567	67.69
276.799	83.69
277.031	83.69
277.262	97.69
277.494	110.69
277.726	86.69
277.957	99.69
278.189	81.69
278.421	81.69
278.652	90.69
278.884	91.69
279.115	78.69
279.347	90.69
279.579	99.69
279.81	88.69
280.042	80.69
280.273	92.69
280.505	82.69
280.736	85.69
280.968	94.69
281.199	99.69
281.431	80.69
281.662	93.69
281.894	87.69
282.125	78.69
282.356	85.69
282.588	78.69
282.819	84.69
283.051	78.69
283.282	80.69
283.513	86.69
283.745	88.69
283.976	88.69
284.207	92.69
284.439	84.69
284.67	81.69
284.901	88.69
285.132	74.69
285.364	68.69
285.595	92.69
285.826	102.69
286.057	104.69
286.288	85.69
286.52	97.69
286.751	88.69
286.982	95.69
287.213	82.69
287.444	69.69
287.675	84.69
287.906	90.69
288.138	83.69
288.369	87.69
288.6	102.69
288.831	89.69
289.062	91.69
289.293	96.69
289.524	91.69
289.755	104.69
289.986	92.69
290.217	99.69
290.448	87.69
290.679	86.69
290.91	95.69
291.141	94.69
291.371	95.69
291.602	84.69
291.833	82.69
292.064	97.69
292.295	98.69
292.526	82.69
292.757	96.69
292.987	80.69
293.218	91.69
293.449	75.69
293.68	95.69
293.91	80.69
294.141	77.69
294.372	87.69
294.603	89.69
294.833	106.69
295.064	91.69
295.295	93.69
295.525	94.69
295.756	92.69
295.987	93.69
296.217	81.69
296.448	85.69
296.679	80.69
296.909	85.69
297.14	93.69
297.37	81.69
297.601	101.69
297.831	86.69
298.062	82.69
298.292	97.69
298.523	105.69
298.753	100.69
298.984	98.69
299.214	76.69
299.445	98.69
299.675	88.69
299.905	82.69
300.136	96.69
300.366	83.69
300.597	88.69
300.827	82.69
301.057	99.69
301.288	85.69
301.518	82.69
301.748	88.69
301.979	109.69
302.209	92.69
302.439	79.69
302.669	89.69
302.9	84.69
303.13	94.69
303.36	95.69
303.59	93.69
303.82	72.69
304.051	84.69
304.281	106.69
304.511	82.69
304.741	79.69
304.971	80.69
305.201	104.69
305.431	98.69
305.661	81.69
305.891	88.69
306.121	88.69
306.352	89.69
306.582	91.69
306.812	100.69
307.042	101.69
307.272	89.69
307.502	103.69
307.731	96.69
307.961	86.69
308.191	93.69
308.421	88.69
308.651	115.69
308.881	91.69
309.111	80.69
309.341	66.69
309.571	88.69
309.8	91.69
310.03	102.69
310.26	102.69
310.49	97.69
310.72	94.69
310.949	84.69
311.179	100.69
311.409	79.69
311.639	88.69
311.868	94.69
312.098	89.69
312.328	85.69
312.557	99.69
312.787	93.69
313.017	91.69
313.246	93.69
313.476	100.69
313.706	80.69
313.935	80.69
314.165	79.69
314.394	92.69
314.624	100.69
314.853	93.69
315.083	90.69
315.312	93.69
315.542	101.69
315.771	96.69
316.001	83.69
316.23	93.69
316.46	103.69
316.689	72.69
316.919	84.69
317.148	74.69
317.377	98.69
317.607	79.69
317.836	96.69
318.065	88.69
318.295	82.69
318.524	100.69
318.753	86.69
318.983	93.69
319.212	91.69
319.441	101.69
319.67	86.69
319.9	88.69
320.129	74.69
320.358	82.69
320.587	88.69
320.816	90.69
321.046	76.69
321.275	82.69
321.504	85.69
321.733	86.69
321.962	104.69
322.191	76.69
322.42	86.69
322.649	104.69
322.878	88.69
323.108	78.69
323.337	79.69
323.566	92.69
323.795	85.69
324.024	96.69
324.253	87.69
324.482	83.69
324.71	79.69
324.939	80.69
325.168	84.69
325.397	85.69
325.626	80.69
325.855	96.69
326.084	83.69
326.313	107.69
326.542	87.69
326.77	92.69
326.999	77.69
327.228	83.69
327.457	106.69
327.686	92.69
327.914	85.69
328.143	88.69
328.372	98.69
328.6	87.69
328.829	92.69
329.058	81.69
329.287	81.69
329.515	98.69
329.744	88.69
329.972	87.69
330.201	103.69
330.43	87.69
330.658	84.69
330.887	91.69
331.115	83.69
331.344	85.69
331.572	104.69
331.801	76.69
332.03	92.69
332.258	100.69
332.486	76.69
332.715	101.69
332.943	76.69
333.172	75.69
333.4	86.69
333.629	104.69
333.857	101.69
334.085	80.69
334.314	76.69
334.542	90.69
334.771	83.69
334.999	89.69
335.227	82.69
335.455	90.69
335.684	97.69
335.912	90.69
336.14	105.69
336.369	90.69
336.597	84.69
336.825	99.69
337.053	73.69
337.281	83.69
337.51	86.69
337.738	88.69
337.966	82.69
338.194	88.69
338.422	89.69
338.65	83.69
338.878	95.69
339.106	88.69
339.334	100.69
339.562	88.69
339.79	90.69
340.018	80.69
340.246	84.69
340.474	90.69
340.702	100.69
340.93	88.69
341.158	75.69
341.386	87.69
341.614	92.69
341.842	90.69
342.07	84.69
342.298	83.69
342.526	82.69
342.754	88.69
342.981	97.69
343.209	80.69
343.437	108.69
343.665	87.69
343.893	85.69
344.12	77.69
344.348	100.69
344.576	91.69
344.804	106.69
345.031	96.69
345.259	84.69
345.487	85.69
345.714	82.69
345.942	79.69
346.17	92.69
346.397	91.69
346.625	100.69
346.853	84.69
347.08	100.69
347.308	93.69
347.535	82.69
347.763	75.69
347.99	87.69
348.218	84.69
348.445	92.69
348.673	93.69
348.9	79.69
349.128	81.69
349.355	80.69
349.583	93.69
349.81	106.69
350.037	92.69
350.265	91.69
350.492	95.69
350.72	100.69
350.947	94.69
351.174	104.69
351.402	81.69
351.629	90.69
351.856	91.69
352.083	95.69
352.311	89.69
352.538	76.69
352.765	82.69
352.992	85.69
353.22	74.69
353.447	79.69
353.674	80.69
353.901	85.69
354.128	93.69
354.355	81.69
354.583	85.69
354.81	85.69
355.037	81.69
355.264	97.69
355.491	82.69
355.718	79.69
355.945	78.69
356.172	96.69
356.399	80.69
356.626	95.69
356.853	79.69
357.08	79.69
357.307	89.69
357.534	85.69
357.761	80.69
357.988	104.69
358.215	90.69
358.441	88.69
358.668	87.69
358.895	92.69
359.122	90.69
359.349	88.69
359.576	93.69
359.802	78.69
360.029	84.69
360.256	96.69
360.483	77.69
360.709	87.69
360.936	97.69
361.163	83.69
361.39	80.69
361.616	84.69
361.843	100.69
362.07	103.69
362.296	86.69
362.523	74.69
362.749	96.69
362.976	78.69
363.203	87.69
363.429	86.69
363.656	85.69
363.882	82.69
364.109	92.69
364.335	88.69
364.562	99.69
364.788	96.69
365.015	89.69
365.241	88.69
365.468	78.69
365.694	92.69
365.92	88.69
366.147	80.69
366.373	90.69
366.599	88.69
366.826	84.69
367.052	91.69
367.278	104.69
367.505	100.69
367.731	93.69
367.957	92.69
368.184	80.69
368.41	77.69
368.636	70.69
368.862	98.69
369.089	88.69
369.315	83.69
369.541	90.69
369.767	83.69
369.993	80.69
370.219	73.69
370.445	80.69
370.672	83.69
370.898	95.69
371.124	91.69
371.35	96.69
371.576	89.69
371.802	87.69
372.028	89.69
372.254	90.69
372.48	100.69
372.706	97.69
372.932	87.69
373.158	80.69
373.384	85.69
373.61	106.69
373.835	82.69
374.061	87.69
374.287	81.69
374.513	94.69
374.739	92.69
374.965	89.69
375.191	77.69
375.416	93.69
375.642	90.69
375.868	97.69
376.094	87.69
376.319	93.69
376.545	90.69
376.771	78.69
376.997	88.69
377.222	84.69
377.448	85.69
377.674	78.69
377.899	92.69
378.125	85.69
378.35	96.69
378.576	94.69
378.802	72.69
379.027	88.69
379.253	93.69
379.478	101.69
379.704	92.69
379.929	106.69
380.155	90.69
380.38	90.69
380.606	85.69
380.831	89.69
381.057	100.69
381.282	87.69
381.507	84.69
381.733	87.69
381.958	80.69
382.184	68.69
382.409	99.69
382.634	86.69
382.86	75.69
383.085	100.69
383.31	102.69
383.535	85.69
383.761	73.69
383.986	89.69
384.211	83.69
384.436	85.69
384.662	82.69
384.887	61.69
385.112	79.69
385.337	82.69
385.562	89.69
385.787	89.69
386.013	100.69
386.238	80.69
386.463	75.69
386.688	113.69
386.913	93.69
387.138	93.69
387.363	88.69
387.588	75.69
387.813	103.69
388.038	72.69
388.263	98.69
388.488	85.69
388.713	87.69
388.938	86.69
389.163	88.69
389.387	75.69
389.612	86.69
389.837	82.69
390.062	91.69
390.287	80.69
390.512	83.69
390.736	82.69
390.961	100.69
391.186	80.69
391.411	78.69
391.636	96.69
391.86	87.69
392.085	84.69
392.31	91.69
392.534	79.69
392.759	94.69
392.984	108.69
393.208	92.69
393.433	90.69
393.658	87.69
393.882	99.69
394.107	99.69
394.331	86.69
394.556	85.69
394.78	97.69
395.005	89.69
395.229	88.69
395.454	92.69
395.678	91.69
395.903	101.69
396.127	91.69
396.352	85.69
396.576	74.69
396.801	87.69
397.025	86.69
397.249	88.69
397.474	83.69
397.698	84.69
397.922	92.69
398.147	89.69
398.371	93.69
398.595	88.69
398.82	86.69
399.044	91.69
399.268	86.69
399.492	80.69
399.717	87.69
399.941	86.69
400.165	88.69
400.389	91.69
400.613	75.69
400.837	92.69
401.062	91.69
401.286	91.69
401.51	76.69
401.734	82.69
401.958	84.69
402.182	92.69
402.406	83.69
402.63	102.69
402.854	83.69
403.078	85.69
403.302	77.69
403.526	85.69
403.75	102.69
403.974	108.69
404.198	116.69
404.422	167.69
404.645	189.69
404.869	178.69
405.093	127.69
405.317	87.69
405.541	95.69
405.765	76.69
405.988	83.69
406.212	75.69
406.436	89.69
406.66	91.69
406.883	104.69
407.107	85.69
407.331	98.69
407.555	84.69
407.778	94.69
408.002	105.69
408.226	88.69
408.449	88.69
408.673	88.69
408.896	90.69
409.12	90.69
409.344	91.69
409.567	96.69
409.791	84.69
410.014	96.69
410.238	95.69
410.461	93.69
410.685	100.69
410.908	85.69
411.132	105.69
411.355	87.69
411.578	100.69
411.802	89.69
412.025	80.69
412.249	73.69
412.472	93.69
412.695	98.69
412.919	96.69
413.142	82.69
413.365	92.69
413.589	88.69
413.812	93.69
414.035	99.69
414.258	97.69
414.482	88.69
414.705	73.69
414.928	85.69
415.151	94.69
415.374	108.69
415.597	85.69
415.821	101.69
416.044	80.69
416.267	93.69
416.49	84.69
416.713	90.69
416.936	88.69
417.159	93.69
417.382	91.69
417.605	83.69
417.828	100.69
418.051	80.69
418.274	92.69
418.497	89.69
418.72	94.69
418.943	83.69
419.166	77.69
419.389	87.69
419.611	81.69
419.834	85.69
420.057	91.69
420.28	78.69
420.503	91.69
420.726	78.69
420.948	80.69
421.171	89.69
421.394	91.69
421.617	97.69
421.839	85.69
422.062	80.69
422.285	93.69
422.507	106.69
422.73	100.69
422.953	88.69
423.175	98.69
423.398	83.69
423.621	96.69
423.843	86.69
424.066	84.69
424.288	94.69
424.511	97.69
424.733	90.69
424.956	73.69
425.178	98.69
425.401	79.69
425.623	91.69
425.846	85.69
426.068	82.69
426.291	89.69
426.513	84.69
426.735	80.69
426.958	90.69
427.18	102.69
427.402	89.69
427.625	86.69
427.847	97.69
428.069	79.69
428.292	86.69
428.514	81.69
428.736	85.69
428.958	88.69
429.181	76.69
429.403	79.69
429.625	85.69
429.847	89.69
430.069	98.69
430.292	95.69
430.514	99.69
430.736	85.69
430.958	94.69
431.18	88.69
431.402	76.69
431.624	82.69
431.846	86.69
432.068	90.69
432.29	96.69
432.512	103.69
432.734	82.69
432.956	92.69
433.178	90.69
433.4	97.69
433.622	94.69
433.844	87.69
434.066	96.69
434.287	83.69
434.509	84.69
434.731	88.69
434.953	88.69
435.175	84.69
435.397	89.69
435.618	85.69
435.84	83.69
436.062	83.69
436.284	88.69
436.505	90.69
436.727	106.69
436.949	88.69
437.17	89.69
437.392	95.69
437.614	75.69
437.835	84.69
438.057	96.69
438.278	87.69
438.5	101.69
438.721	81.69
438.943	102.69
439.165	73.69
439.386	93.69
439.608	87.69
439.829	87.69
440.05	96.69
440.272	96.69
440.493	91.69
440.715	83.69
440.936	86.69
441.158	88.69
441.379	81.69
441.6	83.69
441.822	92.69
442.043	95.69
442.264	96.69
442.486	85.69
442.707	82.69
442.928	91.69
443.149	92.69
443.371	95.69
443.592	81.69
443.813	91.69
444.034	79.69
444.255	84.69
444.476	93.69
444.698	105.69
444.919	92.69
445.14	147.69
445.361	120.69
445.582	85.69
445.803	94.69
446.024	85.69
446.245	87.69
446.466	91.69
446.687	73.69
446.908	96.69
447.129	100.69
447.35	85.69
447.571	92.69
447.792	92.69
448.013	76.69
448.234	88.69
448.455	85.69
448.675	81.69
448.896	91.69
449.117	108.69
449.338	94.69
449.559	75.69
449.779	78.69
450	88.69
450.221	82.69
450.442	84.69
450.662	86.69
450.883	96.69
451.104	92.69
451.324	82.69
451.545	80.69
451.766	96.69
451.986	98.69
452.207	92.69
452.428	65.69
452.648	87.69
452.869	99.69
453.089	92.69
453.31	88.69
453.53	79.69
453.751	100.69
453.971	80.69
454.192	82.69
454.412	88.69
454.633	90.69
454.853	86.69
455.073	89.69
455.294	94.69
455.514	93.69
455.734	90.69
455.955	77.69
456.175	95.69
456.395	96.69
456.616	82.69
456.836	88.69
457.056	77.69
457.276	85.69
457.497	89.69
457.717	77.69
457.937	100.69
458.157	83.69
458.377	93.69
458.598	98.69
458.818	90.69
459.038	87.69
459.258	100.69
459.478	87.69
459.698	91.69
459.918	96.69
460.138	95.69
460.358	73.69
460.578	83.69
460.798	85.69
461.018	96.69
461.238	72.69
461.458	85.69
461.678	68.69
461.898	87.69
462.118	93.69
462.338	70.69
462.558	97.69
462.777	81.69
462.997	85.69
463.217	86.69
463.437	61.69
463.657	80.69
463.876	101.69
464.096	88.69
464.316	98.69
464.536	88.69
464.755	100.69
464.975	98.69
465.195	80.69
465.414	96.69
465.634	79.69
465.854	85.69
466.073	83.69
466.293	107.69
466.512	88.69
466.732	77.69
466.951	86.69
467.171	101.69
467.391	78.69
467.61	85.69
467.829	73.69
468.049	85.69
468.268	86.69
468.488	103.69
468.707	84.69
468.927	88.69
469.146	86.69
469.365	100.69
469.585	80.69
469.804	81.69
470.023	98.69
470.243	99.69
470.462	93.69
470.681	84.69
470.901	105.69
471.12	89.69
471.339	99.69
471.558	85.69
471.777	93.69
471.997	81.69
472.216	83.69
472.435	82.69
472.654	85.69
472.873	94.69
473.092	90.69
473.311	79.69
473.53	100.69
473.749	101.69
473.968	96.69
474.187	78.69
474.406	91.69
474.625	91.69
474.844	106.69
475.063	100.69
475.282	89.69
475.501	96.69
475.72	94.69
475.939	93.69
476.158	93.69
476.377	95.69
476.596	80.69
476.814	78.69
477.033	101.69
477.252	84.69
477.471	91.69
477.69	99.69
477.908	102.69
478.127	107.69
478.346	85.69
478.564	75.69
478.783	73.69
479.002	87.69
479.22	108.69
479.439	91.69
479.658	92.69
479.876	83.69
480.095	75.69
480.313	92.69
480.532	87.69
480.751	94.69
480.969	83.69
481.188	87.69
481.406	90.69
481.624	97.69
481.843	92.69
482.061	101.69
482.28	92.69
482.498	78.69
482.717	83.69
482.935	89.69
483.153	107.69
483.372	94.69
483.59	91.69
483.808	90.69
484.027	98.69
484.245	91.69
484.463	101.69
484.681	106.69
484.9	96.69
485.118	93.69
485.336	94.69
485.554	91.69
485.772	86.69
485.99	93.69
486.209	83.69
486.427	91.69
486.645	93.69
486.863	101.69
487.081	92.69
487.299	89.69
487.517	84.69
487.735	93.69
487.953	89.69
488.171	92.69
488.389	104.69
488.607	81.69
488.825	83.69
489.043	97.69
489.261	106.69
489.479	93.69
489.696	94.69
489.914	93.69
490.132	73.69
490.35	88.69
490.568	91.69
490.786	90.69
491.003	99.69
491.221	97.69
491.439	92.69
491.657	103.69
491.874	94.69
492.092	90.69
492.31	112.69
492.527	102.69
492.745	94.69
492.963	91.69
493.18	104.69
493.398	86.69
493.615	92.69
493.833	97.69
494.05	92.69
494.268	98.69
494.485	93.69
494.703	96.69
494.92	94.69
495.138	96.69
495.355	96.69
495.573	102.69
495.79	92.69
496.008	95.69
496.225	93.69
496.442	96.69
496.66	108.69
496.877	89.69
497.094	101.69
497.312	92.69
497.529	100.69
497.746	93.69
497.963	92.69
498.181	85.69
498.398	105.69
498.615	82.69
498.832	103.69
499.049	96.69
499.267	81.69
499.484	84.69
499.701	83.69
499.918	96.69
500.135	85.69
500.352	88.69
500.569	79.69
500.786	89.69
501.003	101.69
501.22	99.69
501.437	88.69
501.654	92.69
501.871	93.69
502.088	96.69
502.305	94.69
502.522	95.69
502.739	85.69
502.956	96.69
503.172	108.69
503.389	93.69
503.606	96.69
503.823	84.69
504.04	89.69
504.256	85.69
504.473	94.69
504.69	84.69
504.907	90.69
505.123	88.69
505.34	85.69
505.557	83.69
505.773	90.69
505.99	102.69
506.207	82.69
506.423	81.69
506.64	76.69
506.856	84.69
507.073	93.69
507.289	118.69
507.506	109.69
507.722	92.69
507.939	83.69
508.155	88.69
508.372	90.69
508.588	78.69
508.805	93.69
509.021	85.69
509.238	93.69
509.454	92.69
509.67	100.69
509.887	93.69
510.103	96.69
510.319	84.69
510.536	82.69
510.752	103.69
510.968	92.69
511.184	110.69
511.401	100.69
511.617	93.69
511.833	101.69
512.049	91.69
512.265	104.69
512.481	89.69
512.698	90.69
512.914	93.69
513.13	93.69
513.346	101.69
513.562	89.69
513.778	100.69
513.994	96.69
514.21	98.69
514.426	92.69
514.642	92.69
514.858	76.69
515.074	98.69
515.29	72.69
515.506	82.69
515.721	93.69
515.937	81.69
516.153	93.69
516.369	76.69
516.585	83.69
516.801	94.69
517.016	90.69
517.232	82.69
517.448	100.69
517.664	80.69
517.879	89.69
518.095	87.69
