Data from KBrNoHeat_HRD10591_00019.txt Node
Date: Fri Dec 27 14:39:26 EST 2024
User: Yrep
Spectrometer: HR+D1059
Trigger mode: 1
Integration Time (sec): 1.000000E-1
Scans to average: 1
Electric dark correction enabled: true
Nonlinearity correction enabled: false
Boxcar width: 0
XAxis mode: Wavelengths
Number of Pixels in Spectrum: 2048
>>>>>Begin Spectral Data<<<<<
223.165	-14.81
223.4	-14.81
223.635	-14.81
223.869	-15.81
224.104	-18.81
224.338	-16.81
224.573	-8.81
224.808	-18.81
225.042	-12.81
225.277	-2.81
225.511	-6.81
225.746	2.19
225.98	-2.81
226.215	11.19
226.449	12.19
226.683	18.19
226.918	32.19
227.152	43.19
227.387	11.19
227.621	41.19
227.856	34.19
228.09	36.19
228.324	44.19
228.559	56.19
228.793	56.19
229.027	70.19
229.262	71.19
229.496	71.19
229.73	73.19
229.964	71.19
230.199	70.19
230.433	69.19
230.667	98.19
230.901	73.19
231.136	66.19
231.37	72.19
231.604	84.19
231.838	89.19
232.072	70.19
232.306	84.19
232.541	69.19
232.775	85.19
233.009	92.19
233.243	87.19
233.477	77.19
233.711	77.19
233.945	78.19
234.179	76.19
234.413	77.19
234.647	74.19
234.881	68.19
235.115	93.19
235.349	80.19
235.583	84.19
235.817	83.19
236.051	82.19
236.285	72.19
236.519	71.19
236.753	67.19
236.987	85.19
237.221	83.19
237.455	79.19
237.689	76.19
237.922	74.19
238.156	73.19
238.39	76.19
238.624	75.19
238.858	84.19
239.091	67.19
239.325	63.19
239.559	76.19
239.793	64.19
240.027	79.19
240.26	79.19
240.494	68.19
240.728	68.19
240.961	85.19
241.195	87.19
241.429	73.19
241.662	62.19
241.896	54.19
242.13	79.19
242.363	72.19
242.597	78.19
242.83	89.19
243.064	65.19
243.298	75.19
243.531	77.19
243.765	81.19
243.998	64.19
244.232	74.19
244.465	65.19
244.699	76.19
244.932	75.19
245.166	83.19
245.399	77.19
245.633	69.19
245.866	76.19
246.099	73.19
246.333	77.19
246.566	84.19
246.8	72.19
247.033	64.19
247.266	76.19
247.5	64.19
247.733	72.19
247.966	82.19
248.2	78.19
248.433	88.19
248.666	73.19
248.899	76.19
249.133	88.19
249.366	85.19
249.599	65.19
249.832	84.19
250.066	77.19
250.299	72.19
250.532	75.19
250.765	76.19
250.998	79.19
251.231	73.19
251.465	75.19
251.698	65.19
251.931	79.19
252.164	84.19
252.397	79.19
252.63	73.19
252.863	78.19
253.096	69.19
253.329	79.19
253.562	88.19
253.795	80.19
254.028	64.19
254.261	68.19
254.494	74.19
254.727	65.19
254.96	83.19
255.193	77.19
255.426	83.19
255.659	62.19
255.892	77.19
256.124	79.19
256.357	68.19
256.59	91.19
256.823	64.19
257.056	82.19
257.289	87.19
257.521	75.19
257.754	75.19
257.987	78.19
258.22	67.19
258.452	87.19
258.685	78.19
258.918	84.19
259.151	81.19
259.383	85.19
259.616	88.19
259.849	89.19
260.081	84.19
260.314	76.19
260.547	77.19
260.779	84.19
261.012	85.19
261.244	72.19
261.477	77.19
261.71	80.19
261.942	87.19
262.175	80.19
262.407	85.19
262.64	75.19
262.872	86.19
263.105	73.19
263.337	81.19
263.57	81.19
263.802	92.19
264.035	78.19
264.267	95.19
264.499	79.19
264.732	81.19
264.964	79.19
265.197	86.19
265.429	79.19
265.661	89.19
265.894	76.19
266.126	88.19
266.358	66.19
266.591	85.19
266.823	71.19
267.055	83.19
267.287	69.19
267.52	72.19
267.752	71.19
267.984	71.19
268.216	58.19
268.448	100.19
268.681	86.19
268.913	95.19
269.145	88.19
269.377	84.19
269.609	77.19
269.841	80.19
270.073	70.19
270.306	88.19
270.538	77.19
270.77	83.19
271.002	83.19
271.234	74.19
271.466	80.19
271.698	77.19
271.93	76.19
272.162	81.19
272.394	83.19
272.626	76.19
272.858	84.19
273.09	95.19
273.322	71.19
273.553	79.19
273.785	90.19
274.017	87.19
274.249	87.19
274.481	77.19
274.713	75.19
274.945	84.19
275.176	74.19
275.408	87.19
275.64	83.19
275.872	80.19
276.104	67.19
276.335	61.19
276.567	91.19
276.799	83.19
277.031	81.19
277.262	74.19
277.494	93.19
277.726	89.19
277.957	80.19
278.189	91.19
278.421	89.19
278.652	75.19
278.884	74.19
279.115	90.19
279.347	85.19
279.579	90.19
279.81	89.19
280.042	76.19
280.273	89.19
280.505	85.19
280.736	68.19
280.968	71.19
281.199	87.19
281.431	86.19
281.662	90.19
281.894	80.19
282.125	83.19
282.356	84.19
282.588	80.19
282.819	71.19
283.051	74.19
283.282	91.19
283.513	86.19
283.745	71.19
283.976	66.19
284.207	69.19
284.439	89.19
284.67	71.19
284.901	84.19
285.132	74.19
285.364	68.19
285.595	101.19
285.826	88.19
286.057	75.19
286.288	81.19
286.52	76.19
286.751	91.19
286.982	80.19
287.213	98.19
287.444	76.19
287.675	78.19
287.906	89.19
288.138	79.19
288.369	71.19
288.6	82.19
288.831	68.19
289.062	88.19
289.293	83.19
289.524	84.19
289.755	74.19
289.986	76.19
290.217	85.19
290.448	95.19
290.679	85.19
290.91	73.19
291.141	84.19
291.371	96.19
291.602	83.19
291.833	96.19
292.064	99.19
292.295	61.19
292.526	83.19
292.757	95.19
292.987	86.19
293.218	78.19
293.449	84.19
293.68	81.19
293.91	84.19
294.141	79.19
294.372	82.19
294.603	77.19
294.833	85.19
295.064	91.19
295.295	78.19
295.525	70.19
295.756	76.19
295.987	79.19
296.217	84.19
296.448	86.19
296.679	84.19
296.909	73.19
297.14	91.19
297.37	81.19
297.601	79.19
297.831	88.19
298.062	85.19
298.292	78.19
298.523	76.19
298.753	71.19
298.984	89.19
299.214	85.19
299.445	79.19
299.675	83.19
299.905	97.19
300.136	66.19
300.366	80.19
300.597	77.19
300.827	72.19
301.057	75.19
301.288	89.19
301.518	80.19
301.748	74.19
301.979	99.19
302.209	75.19
302.439	73.19
302.669	76.19
302.9	86.19
303.13	93.19
303.36	77.19
303.59	75.19
303.82	76.19
304.051	84.19
304.281	87.19
304.511	83.19
304.741	89.19
304.971	82.19
305.201	83.19
305.431	86.19
305.661	73.19
305.891	91.19
306.121	90.19
306.352	87.19
306.582	72.19
306.812	86.19
307.042	81.19
307.272	77.19
307.502	96.19
307.731	88.19
307.961	87.19
308.191	79.19
308.421	65.19
308.651	68.19
308.881	81.19
309.111	88.19
309.341	93.19
309.571	76.19
309.8	84.19
310.03	89.19
310.26	76.19
310.49	85.19
310.72	80.19
310.949	78.19
311.179	79.19
311.409	95.19
311.639	92.19
311.868	77.19
312.098	80.19
312.328	82.19
312.557	83.19
312.787	83.19
313.017	66.19
313.246	78.19
313.476	81.19
313.706	69.19
313.935	79.19
314.165	72.19
314.394	87.19
314.624	106.19
314.853	99.19
315.083	90.19
315.312	82.19
315.542	79.19
315.771	72.19
316.001	88.19
316.23	78.19
316.46	96.19
316.689	93.19
316.919	100.19
317.148	83.19
317.377	86.19
317.607	76.19
317.836	79.19
318.065	92.19
318.295	81.19
318.524	76.19
318.753	95.19
318.983	71.19
319.212	79.19
319.441	88.19
319.67	79.19
319.9	75.19
320.129	86.19
320.358	86.19
320.587	82.19
320.816	89.19
321.046	77.19
321.275	98.19
321.504	87.19
321.733	79.19
321.962	89.19
322.191	100.19
322.42	87.19
322.649	82.19
322.878	82.19
323.108	89.19
323.337	99.19
323.566	79.19
323.795	84.19
324.024	72.19
324.253	86.19
324.482	70.19
324.71	88.19
324.939	84.19
325.168	83.19
325.397	89.19
325.626	78.19
325.855	87.19
326.084	91.19
326.313	77.19
326.542	83.19
326.77	84.19
326.999	87.19
327.228	84.19
327.457	80.19
327.686	93.19
327.914	81.19
328.143	96.19
328.372	84.19
328.6	81.19
328.829	77.19
329.058	86.19
329.287	72.19
329.515	84.19
329.744	79.19
329.972	81.19
330.201	82.19
330.43	77.19
330.658	84.19
330.887	77.19
331.115	83.19
331.344	82.19
331.572	86.19
331.801	81.19
332.03	75.19
332.258	73.19
332.486	89.19
332.715	86.19
332.943	84.19
333.172	87.19
333.4	96.19
333.629	82.19
333.857	83.19
334.085	82.19
334.314	95.19
334.542	88.19
334.771	85.19
334.999	76.19
335.227	72.19
335.455	89.19
335.684	91.19
335.912	86.19
336.14	91.19
336.369	77.19
336.597	101.19
336.825	77.19
337.053	91.19
337.281	83.19
337.51	78.19
337.738	77.19
337.966	77.19
338.194	98.19
338.422	87.19
338.65	79.19
338.878	77.19
339.106	89.19
339.334	76.19
339.562	79.19
339.79	75.19
340.018	84.19
340.246	84.19
340.474	83.19
340.702	79.19
340.93	85.19
341.158	83.19
341.386	79.19
341.614	74.19
341.842	60.19
342.07	84.19
342.298	84.19
342.526	67.19
342.754	75.19
342.981	79.19
343.209	78.19
343.437	96.19
343.665	73.19
343.893	84.19
344.12	78.19
344.348	80.19
344.576	86.19
344.804	82.19
345.031	85.19
345.259	88.19
345.487	86.19
345.714	88.19
345.942	85.19
346.17	80.19
346.397	84.19
346.625	82.19
346.853	87.19
347.08	71.19
347.308	73.19
347.535	87.19
347.763	91.19
347.99	81.19
348.218	87.19
348.445	83.19
348.673	86.19
348.9	74.19
349.128	84.19
349.355	82.19
349.583	78.19
349.81	78.19
350.037	87.19
350.265	75.19
350.492	84.19
350.72	98.19
350.947	82.19
351.174	87.19
351.402	76.19
351.629	84.19
351.856	76.19
352.083	76.19
352.311	93.19
352.538	58.19
352.765	103.19
352.992	78.19
353.22	80.19
353.447	92.19
353.674	88.19
353.901	85.19
354.128	92.19
354.355	91.19
354.583	79.19
354.81	79.19
355.037	71.19
355.264	75.19
355.491	87.19
355.718	80.19
355.945	75.19
356.172	76.19
356.399	87.19
356.626	80.19
356.853	80.19
357.08	94.19
357.307	94.19
357.534	83.19
357.761	93.19
357.988	79.19
358.215	93.19
358.441	93.19
358.668	86.19
358.895	71.19
359.122	69.19
359.349	80.19
359.576	72.19
359.802	75.19
360.029	77.19
360.256	84.19
360.483	72.19
360.709	81.19
360.936	82.19
361.163	72.19
361.39	94.19
361.616	73.19
361.843	93.19
362.07	88.19
362.296	80.19
362.523	81.19
362.749	90.19
362.976	81.19
363.203	85.19
363.429	84.19
363.656	93.19
363.882	94.19
364.109	98.19
364.335	76.19
364.562	85.19
364.788	81.19
365.015	92.19
365.241	73.19
365.468	92.19
365.694	80.19
365.92	67.19
366.147	70.19
366.373	69.19
366.599	74.19
366.826	87.19
367.052	78.19
367.278	75.19
367.505	82.19
367.731	104.19
367.957	75.19
368.184	86.19
368.41	87.19
368.636	84.19
368.862	86.19
369.089	69.19
369.315	87.19
369.541	97.19
369.767	81.19
369.993	72.19
370.219	77.19
370.445	85.19
370.672	92.19
370.898	75.19
371.124	93.19
371.35	92.19
371.576	72.19
371.802	71.19
372.028	94.19
372.254	72.19
372.48	78.19
372.706	72.19
372.932	83.19
373.158	85.19
373.384	87.19
373.61	81.19
373.835	80.19
374.061	79.19
374.287	73.19
374.513	79.19
374.739	79.19
374.965	61.19
375.191	81.19
375.416	85.19
375.642	80.19
375.868	82.19
376.094	94.19
376.319	69.19
376.545	59.19
376.771	70.19
376.997	95.19
377.222	83.19
377.448	82.19
377.674	70.19
377.899	107.19
378.125	83.19
378.35	75.19
378.576	94.19
378.802	91.19
379.027	84.19
379.253	102.19
379.478	79.19
379.704	74.19
379.929	96.19
380.155	93.19
380.38	88.19
380.606	87.19
380.831	85.19
381.057	96.19
381.282	73.19
381.507	82.19
381.733	73.19
381.958	77.19
382.184	88.19
382.409	86.19
382.634	86.19
382.86	69.19
383.085	80.19
383.31	82.19
383.535	77.19
383.761	81.19
383.986	87.19
384.211	94.19
384.436	86.19
384.662	84.19
384.887	71.19
385.112	77.19
385.337	75.19
385.562	69.19
385.787	80.19
386.013	85.19
386.238	95.19
386.463	87.19
386.688	88.19
386.913	75.19
387.138	78.19
387.363	85.19
387.588	79.19
387.813	87.19
388.038	76.19
388.263	66.19
388.488	88.19
388.713	80.19
388.938	81.19
389.163	96.19
389.387	78.19
389.612	69.19
389.837	96.19
390.062	71.19
390.287	85.19
390.512	97.19
390.736	70.19
390.961	75.19
391.186	83.19
391.411	76.19
391.636	71.19
391.86	85.19
392.085	92.19
392.31	79.19
392.534	79.19
392.759	71.19
392.984	96.19
393.208	81.19
393.433	83.19
393.658	67.19
393.882	89.19
394.107	98.19
394.331	88.19
394.556	95.19
394.78	83.19
395.005	83.19
395.229	85.19
395.454	85.19
395.678	79.19
395.903	79.19
396.127	78.19
396.352	83.19
396.576	79.19
396.801	78.19
397.025	86.19
397.249	82.19
397.474	80.19
397.698	83.19
397.922	75.19
398.147	82.19
398.371	77.19
398.595	83.19
398.82	81.19
399.044	89.19
399.268	70.19
399.492	86.19
399.717	73.19
399.941	89.19
400.165	86.19
400.389	86.19
400.613	75.19
400.837	83.19
401.062	92.19
401.286	74.19
401.51	78.19
401.734	82.19
401.958	77.19
402.182	70.19
402.406	87.19
402.63	76.19
402.854	82.19
403.078	84.19
403.302	78.19
403.526	103.19
403.75	91.19
403.974	84.19
404.198	107.19
404.422	139.19
404.645	130.19
404.869	121.19
405.093	111.19
405.317	91.19
405.541	89.19
405.765	79.19
405.988	91.19
406.212	89.19
406.436	84.19
406.66	84.19
406.883	73.19
407.107	89.19
407.331	86.19
407.555	79.19
407.778	89.19
408.002	84.19
408.226	83.19
408.449	73.19
408.673	88.19
408.896	93.19
409.12	81.19
409.344	83.19
409.567	78.19
409.791	86.19
410.014	74.19
410.238	81.19
410.461	75.19
410.685	82.19
410.908	87.19
411.132	84.19
411.355	80.19
411.578	86.19
411.802	76.19
412.025	78.19
412.249	87.19
412.472	82.19
412.695	92.19
412.919	83.19
413.142	85.19
413.365	83.19
413.589	99.19
413.812	95.19
414.035	86.19
414.258	86.19
414.482	88.19
414.705	77.19
414.928	82.19
415.151	77.19
415.374	88.19
415.597	80.19
415.821	75.19
416.044	80.19
416.267	76.19
416.49	85.19
416.713	80.19
416.936	81.19
417.159	86.19
417.382	87.19
417.605	80.19
417.828	74.19
418.051	96.19
418.274	77.19
418.497	79.19
418.72	91.19
418.943	91.19
419.166	77.19
419.389	88.19
419.611	61.19
419.834	81.19
420.057	93.19
420.28	86.19
420.503	76.19
420.726	93.19
420.948	68.19
421.171	84.19
421.394	67.19
421.617	81.19
421.839	77.19
422.062	87.19
422.285	74.19
422.507	94.19
422.73	86.19
422.953	79.19
423.175	80.19
423.398	88.19
423.621	94.19
423.843	95.19
424.066	80.19
424.288	88.19
424.511	87.19
424.733	86.19
424.956	90.19
425.178	91.19
425.401	83.19
425.623	78.19
425.846	80.19
426.068	78.19
426.291	69.19
426.513	86.19
426.735	72.19
426.958	82.19
427.18	90.19
427.402	91.19
427.625	80.19
427.847	67.19
428.069	68.19
428.292	77.19
428.514	95.19
428.736	91.19
428.958	96.19
429.181	73.19
429.403	78.19
429.625	72.19
429.847	81.19
430.069	81.19
430.292	80.19
430.514	79.19
430.736	74.19
430.958	86.19
431.18	76.19
431.402	95.19
431.624	80.19
431.846	95.19
432.068	61.19
432.29	91.19
432.512	92.19
432.734	76.19
432.956	85.19
433.178	81.19
433.4	85.19
433.622	100.19
433.844	85.19
434.066	82.19
434.287	85.19
434.509	86.19
434.731	86.19
434.953	91.19
435.175	75.19
435.397	84.19
435.618	81.19
435.84	72.19
436.062	80.19
436.284	79.19
436.505	84.19
436.727	69.19
436.949	87.19
437.17	73.19
437.392	77.19
437.614	78.19
437.835	80.19
438.057	81.19
438.278	67.19
438.5	79.19
438.721	74.19
438.943	75.19
439.165	70.19
439.386	72.19
439.608	87.19
439.829	104.19
440.05	80.19
440.272	84.19
440.493	75.19
440.715	103.19
440.936	76.19
441.158	77.19
441.379	79.19
441.6	72.19
441.822	75.19
442.043	71.19
442.264	88.19
442.486	86.19
442.707	89.19
442.928	93.19
443.149	84.19
443.371	81.19
443.592	86.19
443.813	93.19
444.034	82.19
444.255	86.19
444.476	87.19
444.698	82.19
444.919	67.19
445.14	151.19
445.361	104.19
445.582	84.19
445.803	77.19
446.024	78.19
446.245	92.19
446.466	92.19
446.687	92.19
446.908	78.19
447.129	82.19
447.35	81.19
447.571	81.19
447.792	85.19
448.013	76.19
448.234	76.19
448.455	84.19
448.675	77.19
448.896	77.19
449.117	80.19
449.338	75.19
449.559	93.19
449.779	93.19
450	72.19
450.221	83.19
450.442	103.19
450.662	91.19
450.883	82.19
451.104	78.19
451.324	82.19
451.545	86.19
451.766	78.19
451.986	78.19
452.207	76.19
452.428	88.19
452.648	76.19
452.869	92.19
453.089	91.19
453.31	83.19
453.53	83.19
453.751	66.19
453.971	77.19
454.192	88.19
454.412	78.19
454.633	72.19
454.853	85.19
455.073	71.19
455.294	88.19
455.514	73.19
455.734	97.19
455.955	71.19
456.175	86.19
456.395	85.19
456.616	99.19
456.836	79.19
457.056	81.19
457.276	83.19
457.497	78.19
457.717	81.19
457.937	83.19
458.157	77.19
458.377	78.19
458.598	65.19
458.818	69.19
459.038	85.19
459.258	96.19
459.478	85.19
459.698	83.19
459.918	70.19
460.138	91.19
460.358	76.19
460.578	84.19
460.798	82.19
461.018	67.19
461.238	107.19
461.458	86.19
461.678	97.19
461.898	86.19
462.118	91.19
462.338	87.19
462.558	84.19
462.777	87.19
462.997	78.19
463.217	79.19
463.437	87.19
463.657	76.19
463.876	80.19
464.096	78.19
464.316	83.19
464.536	66.19
464.755	73.19
464.975	66.19
465.195	95.19
465.414	78.19
465.634	71.19
465.854	85.19
466.073	77.19
466.293	81.19
466.512	91.19
466.732	78.19
466.951	84.19
467.171	92.19
467.391	75.19
467.61	76.19
467.829	89.19
468.049	92.19
468.268	84.19
468.488	89.19
468.707	88.19
468.927	87.19
469.146	90.19
469.365	80.19
469.585	87.19
469.804	91.19
470.023	93.19
470.243	94.19
470.462	91.19
470.681	78.19
470.901	101.19
471.12	83.19
471.339	95.19
471.558	86.19
471.777	87.19
471.997	78.19
472.216	88.19
472.435	75.19
472.654	91.19
472.873	87.19
473.092	98.19
473.311	79.19
473.53	81.19
473.749	81.19
473.968	82.19
474.187	88.19
474.406	79.19
474.625	71.19
474.844	84.19
475.063	80.19
475.282	92.19
475.501	75.19
475.72	95.19
475.939	76.19
476.158	85.19
476.377	72.19
476.596	78.19
476.814	83.19
477.033	81.19
477.252	86.19
477.471	92.19
477.69	80.19
477.908	81.19
478.127	98.19
478.346	96.19
478.564	85.19
478.783	91.19
479.002	75.19
479.22	87.19
479.439	103.19
479.658	84.19
479.876	89.19
480.095	94.19
480.313	85.19
480.532	76.19
480.751	84.19
480.969	83.19
481.188	67.19
481.406	94.19
481.624	82.19
481.843	87.19
482.061	97.19
482.28	101.19
482.498	86.19
482.717	80.19
482.935	82.19
483.153	79.19
483.372	95.19
483.59	93.19
483.808	84.19
484.027	75.19
484.245	79.19
484.463	85.19
484.681	91.19
484.9	86.19
485.118	89.19
485.336	83.19
485.554	74.19
485.772	95.19
485.99	75.19
486.209	92.19
486.427	79.19
486.645	91.19
486.863	76.19
487.081	86.19
487.299	86.19
487.517	91.19
487.735	103.19
487.953	77.19
488.171	89.19
488.389	73.19
488.607	79.19
488.825	86.19
489.043	94.19
489.261	81.19
489.479	89.19
489.696	86.19
489.914	88.19
490.132	87.19
490.35	80.19
490.568	91.19
490.786	101.19
491.003	93.19
491.221	94.19
491.439	97.19
491.657	87.19
491.874	76.19
492.092	87.19
492.31	89.19
492.527	86.19
492.745	91.19
492.963	88.19
493.18	99.19
493.398	95.19
493.615	84.19
493.833	101.19
494.05	95.19
494.268	80.19
494.485	87.19
494.703	88.19
494.92	89.19
495.138	91.19
495.355	105.19
495.573	80.19
495.79	95.19
496.008	88.19
496.225	97.19
496.442	81.19
496.66	107.19
496.877	81.19
497.094	96.19
497.312	96.19
497.529	97.19
497.746	96.19
497.963	74.19
498.181	58.19
498.398	86.19
498.615	77.19
498.832	95.19
499.049	98.19
499.267	85.19
499.484	75.19
499.701	96.19
499.918	96.19
500.135	93.19
500.352	71.19
500.569	81.19
500.786	101.19
501.003	84.19
501.22	87.19
501.437	92.19
501.654	95.19
501.871	85.19
502.088	86.19
502.305	95.19
502.522	85.19
502.739	87.19
502.956	96.19
503.172	79.19
503.389	85.19
503.606	91.19
503.823	93.19
504.04	91.19
504.256	95.19
504.473	71.19
504.69	80.19
504.907	93.19
505.123	82.19
505.34	69.19
505.557	86.19
505.773	96.19
505.99	77.19
506.207	75.19
506.423	82.19
506.64	80.19
506.856	79.19
507.073	98.19
507.289	95.19
507.506	96.19
507.722	75.19
507.939	77.19
508.155	92.19
508.372	88.19
508.588	82.19
508.805	94.19
509.021	88.19
509.238	93.19
509.454	85.19
509.67	91.19
509.887	84.19
510.103	87.19
510.319	101.19
510.536	91.19
510.752	91.19
510.968	91.19
511.184	97.19
511.401	81.19
511.617	85.19
511.833	93.19
512.049	101.19
512.265	81.19
512.481	86.19
512.698	89.19
512.914	83.19
513.13	84.19
513.346	81.19
513.562	85.19
513.778	84.19
513.994	98.19
514.21	86.19
514.426	86.19
514.642	73.19
514.858	92.19
515.074	91.19
515.29	84.19
515.506	91.19
515.721	95.19
515.937	96.19
516.153	87.19
516.369	83.19
516.585	78.19
516.801	91.19
517.016	91.19
517.232	94.19
517.448	82.19
517.664	94.19
517.879	87.19
518.095	84.19
518.311	89.19
518.527	82.19
518.742	80.19
518.958	81.19
519.173	91.19
519.389	89.19
519.605	84.19
519.82	87.19
