Data from KBrNoHeat_HRD10591_00004.txt Node
Date: Fri Dec 27 14:39:11 EST 2024
User: Yrep
Spectrometer: HR+D1059
Trigger mode: 1
Integration Time (sec): 1.000000E-1
Scans to average: 1
Electric dark correction enabled: true
Nonlinearity correction enabled: false
Boxcar width: 0
XAxis mode: Wavelengths
Number of Pixels in Spectrum: 2048
>>>>>Begin Spectral Data<<<<<
223.165	-10.31
223.4	-10.31
223.635	-10.31
223.869	-12.31
224.104	-16.31
224.338	-19.31
224.573	-9.31
224.808	-13.31
225.042	-5.31
225.277	0.69
225.511	7.69
225.746	0.69
225.98	13.69
226.215	1.69
226.449	9.69
226.683	5.69
226.918	18.69
227.152	27.69
227.387	48.69
227.621	25.69
227.856	47.69
228.09	45.69
228.324	51.69
228.559	55.69
228.793	70.69
229.027	76.69
229.262	69.69
229.496	77.69
229.73	64.69
229.964	70.69
230.199	86.69
230.433	81.69
230.667	74.69
230.901	74.69
231.136	78.69
231.37	66.69
231.604	81.69
231.838	69.69
232.072	64.69
232.306	86.69
232.541	75.69
232.775	82.69
233.009	80.69
233.243	93.69
233.477	80.69
233.711	79.69
233.945	84.69
234.179	90.69
234.413	96.69
234.647	69.69
234.881	78.69
235.115	84.69
235.349	95.69
235.583	72.69
235.817	81.69
236.051	79.69
236.285	83.69
236.519	76.69
236.753	71.69
236.987	78.69
237.221	57.69
237.455	58.69
237.689	76.69
237.922	66.69
238.156	85.69
238.39	64.69
238.624	70.69
238.858	70.69
239.091	77.69
239.325	68.69
239.559	68.69
239.793	69.69
240.027	74.69
240.26	76.69
240.494	81.69
240.728	80.69
240.961	70.69
241.195	93.69
241.429	70.69
241.662	73.69
241.896	71.69
242.13	76.69
242.363	74.69
242.597	87.69
242.83	76.69
243.064	83.69
243.298	81.69
243.531	71.69
243.765	89.69
243.998	84.69
244.232	67.69
244.465	84.69
244.699	96.69
244.932	74.69
245.166	75.69
245.399	74.69
245.633	75.69
245.866	88.69
246.099	72.69
246.333	72.69
246.566	71.69
246.8	68.69
247.033	65.69
247.266	75.69
247.5	81.69
247.733	77.69
247.966	71.69
248.2	78.69
248.433	76.69
248.666	69.69
248.899	70.69
249.133	79.69
249.366	84.69
249.599	82.69
249.832	75.69
250.066	88.69
250.299	90.69
250.532	91.69
250.765	84.69
250.998	78.69
251.231	61.69
251.465	77.69
251.698	105.69
251.931	92.69
252.164	85.69
252.397	74.69
252.63	84.69
252.863	85.69
253.096	75.69
253.329	67.69
253.562	82.69
253.795	64.69
254.028	75.69
254.261	80.69
254.494	84.69
254.727	85.69
254.96	82.69
255.193	71.69
255.426	92.69
255.659	78.69
255.892	78.69
256.124	70.69
256.357	86.69
256.59	78.69
256.823	83.69
257.056	81.69
257.289	94.69
257.521	84.69
257.754	78.69
257.987	66.69
258.22	73.69
258.452	83.69
258.685	80.69
258.918	70.69
259.151	83.69
259.383	104.69
259.616	89.69
259.849	86.69
260.081	75.69
260.314	82.69
260.547	72.69
260.779	76.69
261.012	82.69
261.244	89.69
261.477	81.69
261.71	84.69
261.942	82.69
262.175	84.69
262.407	71.69
262.64	73.69
262.872	82.69
263.105	62.69
263.337	77.69
263.57	71.69
263.802	87.69
264.035	71.69
264.267	84.69
264.499	72.69
264.732	74.69
264.964	97.69
265.197	80.69
265.429	88.69
265.661	102.69
265.894	81.69
266.126	95.69
266.358	83.69
266.591	84.69
266.823	75.69
267.055	74.69
267.287	81.69
267.52	80.69
267.752	93.69
267.984	70.69
268.216	69.69
268.448	71.69
268.681	65.69
268.913	69.69
269.145	80.69
269.377	94.69
269.609	77.69
269.841	95.69
270.073	76.69
270.306	88.69
270.538	67.69
270.77	81.69
271.002	78.69
271.234	88.69
271.466	87.69
271.698	93.69
271.93	83.69
272.162	92.69
272.394	96.69
272.626	94.69
272.858	85.69
273.09	82.69
273.322	80.69
273.553	85.69
273.785	82.69
274.017	79.69
274.249	101.69
274.481	74.69
274.713	78.69
274.945	84.69
275.176	85.69
275.408	72.69
275.64	78.69
275.872	70.69
276.104	92.69
276.335	77.69
276.567	73.69
276.799	82.69
277.031	81.69
277.262	80.69
277.494	76.69
277.726	68.69
277.957	83.69
278.189	87.69
278.421	81.69
278.652	78.69
278.884	73.69
279.115	100.69
279.347	97.69
279.579	78.69
279.81	84.69
280.042	78.69
280.273	78.69
280.505	75.69
280.736	73.69
280.968	74.69
281.199	77.69
281.431	94.69
281.662	100.69
281.894	88.69
282.125	89.69
282.356	80.69
282.588	87.69
282.819	93.69
283.051	84.69
283.282	82.69
283.513	94.69
283.745	82.69
283.976	86.69
284.207	89.69
284.439	77.69
284.67	76.69
284.901	79.69
285.132	83.69
285.364	92.69
285.595	75.69
285.826	78.69
286.057	93.69
286.288	77.69
286.52	71.69
286.751	95.69
286.982	78.69
287.213	100.69
287.444	84.69
287.675	75.69
287.906	85.69
288.138	81.69
288.369	98.69
288.6	87.69
288.831	86.69
289.062	93.69
289.293	96.69
289.524	78.69
289.755	80.69
289.986	79.69
290.217	73.69
290.448	81.69
290.679	93.69
290.91	92.69
291.141	78.69
291.371	80.69
291.602	85.69
291.833	86.69
292.064	95.69
292.295	72.69
292.526	85.69
292.757	84.69
292.987	77.69
293.218	80.69
293.449	70.69
293.68	87.69
293.91	77.69
294.141	95.69
294.372	70.69
294.603	83.69
294.833	87.69
295.064	71.69
295.295	89.69
295.525	82.69
295.756	85.69
295.987	83.69
296.217	85.69
296.448	80.69
296.679	78.69
296.909	97.69
297.14	85.69
297.37	67.69
297.601	80.69
297.831	78.69
298.062	88.69
298.292	90.69
298.523	83.69
298.753	85.69
298.984	85.69
299.214	80.69
299.445	81.69
299.675	81.69
299.905	83.69
300.136	75.69
300.366	89.69
300.597	98.69
300.827	86.69
301.057	82.69
301.288	70.69
301.518	81.69
301.748	80.69
301.979	103.69
302.209	72.69
302.439	81.69
302.669	96.69
302.9	79.69
303.13	71.69
303.36	81.69
303.59	87.69
303.82	83.69
304.051	91.69
304.281	82.69
304.511	87.69
304.741	83.69
304.971	92.69
305.201	85.69
305.431	90.69
305.661	79.69
305.891	77.69
306.121	78.69
306.352	88.69
306.582	87.69
306.812	82.69
307.042	80.69
307.272	83.69
307.502	78.69
307.731	85.69
307.961	87.69
308.191	85.69
308.421	80.69
308.651	101.69
308.881	76.69
309.111	71.69
309.341	81.69
309.571	93.69
309.8	83.69
310.03	80.69
310.26	73.69
310.49	84.69
310.72	91.69
310.949	83.69
311.179	96.69
311.409	87.69
311.639	82.69
311.868	87.69
312.098	81.69
312.328	81.69
312.557	71.69
312.787	81.69
313.017	71.69
313.246	78.69
313.476	89.69
313.706	85.69
313.935	96.69
314.165	81.69
314.394	70.69
314.624	81.69
314.853	78.69
315.083	74.69
315.312	74.69
315.542	80.69
315.771	74.69
316.001	88.69
316.23	79.69
316.46	76.69
316.689	85.69
316.919	73.69
317.148	80.69
317.377	89.69
317.607	89.69
317.836	86.69
318.065	92.69
318.295	88.69
318.524	73.69
318.753	93.69
318.983	71.69
319.212	71.69
319.441	81.69
319.67	82.69
319.9	81.69
320.129	86.69
320.358	83.69
320.587	92.69
320.816	85.69
321.046	84.69
321.275	74.69
321.504	98.69
321.733	96.69
321.962	79.69
322.191	95.69
322.42	92.69
322.649	73.69
322.878	92.69
323.108	85.69
323.337	78.69
323.566	96.69
323.795	86.69
324.024	89.69
324.253	93.69
324.482	75.69
324.71	77.69
324.939	87.69
325.168	91.69
325.397	81.69
325.626	86.69
325.855	66.69
326.084	76.69
326.313	93.69
326.542	81.69
326.77	88.69
326.999	98.69
327.228	88.69
327.457	84.69
327.686	86.69
327.914	87.69
328.143	89.69
328.372	99.69
328.6	84.69
328.829	87.69
329.058	92.69
329.287	82.69
329.515	82.69
329.744	83.69
329.972	85.69
330.201	89.69
330.43	71.69
330.658	85.69
330.887	92.69
331.115	83.69
331.344	79.69
331.572	84.69
331.801	90.69
332.03	74.69
332.258	86.69
332.486	93.69
332.715	74.69
332.943	98.69
333.172	68.69
333.4	73.69
333.629	79.69
333.857	91.69
334.085	84.69
334.314	98.69
334.542	88.69
334.771	79.69
334.999	83.69
335.227	78.69
335.455	82.69
335.684	79.69
335.912	90.69
336.14	99.69
336.369	96.69
336.597	72.69
336.825	96.69
337.053	77.69
337.281	74.69
337.51	84.69
337.738	87.69
337.966	84.69
338.194	76.69
338.422	68.69
338.65	84.69
338.878	73.69
339.106	87.69
339.334	88.69
339.562	89.69
339.79	97.69
340.018	79.69
340.246	77.69
340.474	99.69
340.702	79.69
340.93	77.69
341.158	82.69
341.386	86.69
341.614	91.69
341.842	87.69
342.07	78.69
342.298	95.69
342.526	77.69
342.754	94.69
342.981	89.69
343.209	87.69
343.437	94.69
343.665	73.69
343.893	79.69
344.12	77.69
344.348	74.69
344.576	79.69
344.804	80.69
345.031	88.69
345.259	95.69
345.487	80.69
345.714	93.69
345.942	92.69
346.17	83.69
346.397	92.69
346.625	76.69
346.853	85.69
347.08	93.69
347.308	74.69
347.535	79.69
347.763	101.69
347.99	86.69
348.218	79.69
348.445	81.69
348.673	81.69
348.9	68.69
349.128	94.69
349.355	72.69
349.583	80.69
349.81	83.69
350.037	94.69
350.265	76.69
350.492	80.69
350.72	94.69
350.947	97.69
351.174	89.69
351.402	87.69
351.629	91.69
351.856	83.69
352.083	83.69
352.311	84.69
352.538	93.69
352.765	89.69
352.992	100.69
353.22	84.69
353.447	85.69
353.674	88.69
353.901	69.69
354.128	77.69
354.355	83.69
354.583	88.69
354.81	82.69
355.037	85.69
355.264	88.69
355.491	88.69
355.718	98.69
355.945	89.69
356.172	78.69
356.399	72.69
356.626	78.69
356.853	85.69
357.08	73.69
357.307	86.69
357.534	86.69
357.761	101.69
357.988	101.69
358.215	106.69
358.441	95.69
358.668	89.69
358.895	77.69
359.122	82.69
359.349	87.69
359.576	87.69
359.802	85.69
360.029	92.69
360.256	90.69
360.483	91.69
360.709	82.69
360.936	88.69
361.163	85.69
361.39	81.69
361.616	87.69
361.843	72.69
362.07	66.69
362.296	84.69
362.523	82.69
362.749	77.69
362.976	88.69
363.203	74.69
363.429	87.69
363.656	80.69
363.882	65.69
364.109	76.69
364.335	82.69
364.562	71.69
364.788	75.69
365.015	68.69
365.241	82.69
365.468	98.69
365.694	90.69
365.92	95.69
366.147	89.69
366.373	77.69
366.599	64.69
366.826	81.69
367.052	83.69
367.278	80.69
367.505	85.69
367.731	82.69
367.957	95.69
368.184	83.69
368.41	81.69
368.636	74.69
368.862	77.69
369.089	76.69
369.315	92.69
369.541	83.69
369.767	73.69
369.993	88.69
370.219	73.69
370.445	82.69
370.672	89.69
370.898	79.69
371.124	71.69
371.35	85.69
371.576	76.69
371.802	95.69
372.028	89.69
372.254	90.69
372.48	82.69
372.706	74.69
372.932	78.69
373.158	82.69
373.384	80.69
373.61	88.69
373.835	89.69
374.061	76.69
374.287	84.69
374.513	84.69
374.739	90.69
374.965	88.69
375.191	100.69
375.416	83.69
375.642	85.69
375.868	89.69
376.094	89.69
376.319	72.69
376.545	73.69
376.771	76.69
376.997	76.69
377.222	73.69
377.448	83.69
377.674	88.69
377.899	89.69
378.125	86.69
378.35	102.69
378.576	86.69
378.802	72.69
379.027	81.69
379.253	86.69
379.478	102.69
379.704	83.69
379.929	76.69
380.155	85.69
380.38	71.69
380.606	72.69
380.831	67.69
381.057	84.69
381.282	81.69
381.507	91.69
381.733	88.69
381.958	80.69
382.184	97.69
382.409	77.69
382.634	90.69
382.86	84.69
383.085	83.69
383.31	85.69
383.535	102.69
383.761	76.69
383.986	78.69
384.211	86.69
384.436	65.69
384.662	81.69
384.887	82.69
385.112	78.69
385.337	72.69
385.562	77.69
385.787	79.69
386.013	95.69
386.238	82.69
386.463	76.69
386.688	105.69
386.913	86.69
387.138	91.69
387.363	80.69
387.588	94.69
387.813	84.69
388.038	78.69
388.263	88.69
388.488	95.69
388.713	65.69
388.938	96.69
389.163	85.69
389.387	87.69
389.612	104.69
389.837	76.69
390.062	81.69
390.287	77.69
390.512	82.69
390.736	89.69
390.961	88.69
391.186	98.69
391.411	82.69
391.636	90.69
391.86	70.69
392.085	90.69
392.31	97.69
392.534	93.69
392.759	86.69
392.984	84.69
393.208	87.69
393.433	86.69
393.658	93.69
393.882	92.69
394.107	74.69
394.331	80.69
394.556	93.69
394.78	79.69
395.005	84.69
395.229	85.69
395.454	78.69
395.678	93.69
395.903	75.69
396.127	85.69
396.352	85.69
396.576	87.69
396.801	71.69
397.025	90.69
397.249	80.69
397.474	89.69
397.698	82.69
397.922	84.69
398.147	85.69
398.371	87.69
398.595	79.69
398.82	94.69
399.044	86.69
399.268	87.69
399.492	81.69
399.717	79.69
399.941	76.69
400.165	72.69
400.389	67.69
400.613	82.69
400.837	80.69
401.062	79.69
401.286	75.69
401.51	82.69
401.734	89.69
401.958	89.69
402.182	93.69
402.406	97.69
402.63	98.69
402.854	71.69
403.078	80.69
403.302	93.69
403.526	85.69
403.75	90.69
403.974	89.69
404.198	118.69
404.422	155.69
404.645	158.69
404.869	131.69
405.093	110.69
405.317	98.69
405.541	83.69
405.765	88.69
405.988	88.69
406.212	76.69
406.436	69.69
406.66	77.69
406.883	99.69
407.107	88.69
407.331	69.69
407.555	85.69
407.778	84.69
408.002	92.69
408.226	80.69
408.449	76.69
408.673	76.69
408.896	72.69
409.12	104.69
409.344	86.69
409.567	82.69
409.791	76.69
410.014	80.69
410.238	74.69
410.461	88.69
410.685	73.69
410.908	77.69
411.132	78.69
411.355	73.69
411.578	75.69
411.802	87.69
412.025	78.69
412.249	89.69
412.472	90.69
412.695	80.69
412.919	76.69
413.142	88.69
413.365	89.69
413.589	89.69
413.812	85.69
414.035	84.69
414.258	82.69
414.482	91.69
414.705	62.69
414.928	82.69
415.151	89.69
415.374	81.69
415.597	82.69
415.821	85.69
416.044	84.69
416.267	91.69
416.49	73.69
416.713	73.69
416.936	82.69
417.159	90.69
417.382	104.69
417.605	92.69
417.828	75.69
418.051	74.69
418.274	78.69
418.497	81.69
418.72	84.69
418.943	92.69
419.166	76.69
419.389	85.69
419.611	83.69
419.834	78.69
420.057	83.69
420.28	86.69
420.503	73.69
420.726	75.69
420.948	96.69
421.171	85.69
421.394	81.69
421.617	77.69
421.839	82.69
422.062	76.69
422.285	88.69
422.507	82.69
422.73	97.69
422.953	96.69
423.175	75.69
423.398	80.69
423.621	100.69
423.843	88.69
424.066	79.69
424.288	78.69
424.511	81.69
424.733	81.69
424.956	78.69
425.178	82.69
425.401	80.69
425.623	84.69
425.846	86.69
426.068	77.69
426.291	87.69
426.513	84.69
426.735	88.69
426.958	89.69
427.18	87.69
427.402	83.69
427.625	100.69
427.847	83.69
428.069	84.69
428.292	61.69
428.514	89.69
428.736	73.69
428.958	80.69
429.181	87.69
429.403	88.69
429.625	80.69
429.847	83.69
430.069	101.69
430.292	94.69
430.514	81.69
430.736	94.69
430.958	77.69
431.18	83.69
431.402	73.69
431.624	80.69
431.846	97.69
432.068	94.69
432.29	68.69
432.512	78.69
432.734	72.69
432.956	71.69
433.178	97.69
433.4	81.69
433.622	97.69
433.844	101.69
434.066	89.69
434.287	92.69
434.509	77.69
434.731	71.69
434.953	89.69
435.175	89.69
435.397	97.69
435.618	92.69
435.84	82.69
436.062	80.69
436.284	86.69
436.505	77.69
436.727	90.69
436.949	86.69
437.17	96.69
437.392	84.69
437.614	97.69
437.835	78.69
438.057	78.69
438.278	83.69
438.5	78.69
438.721	70.69
438.943	78.69
439.165	85.69
439.386	83.69
439.608	80.69
439.829	80.69
440.05	88.69
440.272	84.69
440.493	80.69
440.715	87.69
440.936	80.69
441.158	82.69
441.379	86.69
441.6	87.69
441.822	85.69
442.043	88.69
442.264	99.69
442.486	95.69
442.707	67.69
442.928	85.69
443.149	95.69
443.371	90.69
443.592	79.69
443.813	69.69
444.034	81.69
444.255	85.69
444.476	83.69
444.698	88.69
444.919	85.69
445.14	153.69
445.361	121.69
445.582	82.69
445.803	67.69
446.024	83.69
446.245	77.69
446.466	78.69
446.687	108.69
446.908	92.69
447.129	80.69
447.35	82.69
447.571	92.69
447.792	67.69
448.013	86.69
448.234	93.69
448.455	81.69
448.675	90.69
448.896	79.69
449.117	86.69
449.338	101.69
449.559	84.69
449.779	92.69
450	90.69
450.221	94.69
450.442	72.69
450.662	86.69
450.883	89.69
451.104	88.69
451.324	97.69
451.545	89.69
451.766	76.69
451.986	88.69
452.207	88.69
452.428	80.69
452.648	93.69
452.869	86.69
453.089	85.69
453.31	88.69
453.53	73.69
453.751	83.69
453.971	83.69
454.192	72.69
454.412	83.69
454.633	82.69
454.853	84.69
455.073	80.69
455.294	98.69
455.514	81.69
455.734	75.69
455.955	96.69
456.175	93.69
456.395	101.69
456.616	79.69
456.836	67.69
457.056	80.69
457.276	77.69
457.497	82.69
457.717	72.69
457.937	82.69
458.157	80.69
458.377	88.69
458.598	82.69
458.818	89.69
459.038	89.69
459.258	84.69
459.478	72.69
459.698	92.69
459.918	77.69
460.138	80.69
460.358	86.69
460.578	85.69
460.798	75.69
461.018	84.69
461.238	82.69
461.458	77.69
461.678	73.69
461.898	76.69
462.118	73.69
462.338	85.69
462.558	82.69
462.777	88.69
462.997	78.69
463.217	79.69
463.437	84.69
463.657	67.69
463.876	92.69
464.096	94.69
464.316	85.69
464.536	84.69
464.755	85.69
464.975	89.69
465.195	84.69
465.414	94.69
465.634	96.69
465.854	96.69
466.073	83.69
466.293	71.69
466.512	89.69
466.732	87.69
466.951	91.69
467.171	92.69
467.391	85.69
467.61	81.69
467.829	97.69
468.049	82.69
468.268	85.69
468.488	80.69
468.707	80.69
468.927	78.69
469.146	90.69
469.365	88.69
469.585	96.69
469.804	84.69
470.023	87.69
470.243	87.69
470.462	90.69
470.681	88.69
470.901	79.69
471.12	97.69
471.339	94.69
471.558	70.69
471.777	80.69
471.997	76.69
472.216	84.69
472.435	79.69
472.654	80.69
472.873	95.69
473.092	89.69
473.311	79.69
473.53	86.69
473.749	92.69
473.968	102.69
474.187	84.69
474.406	102.69
474.625	89.69
474.844	87.69
475.063	80.69
475.282	104.69
475.501	83.69
475.72	101.69
475.939	76.69
476.158	83.69
476.377	82.69
476.596	92.69
476.814	102.69
477.033	87.69
477.252	94.69
477.471	80.69
477.69	76.69
477.908	84.69
478.127	99.69
478.346	81.69
478.564	83.69
478.783	91.69
479.002	96.69
479.22	79.69
479.439	98.69
479.658	97.69
479.876	99.69
480.095	70.69
480.313	83.69
480.532	79.69
480.751	92.69
480.969	85.69
481.188	90.69
481.406	93.69
481.624	74.69
481.843	84.69
482.061	84.69
482.28	87.69
482.498	89.69
482.717	97.69
482.935	84.69
483.153	100.69
483.372	84.69
483.59	90.69
483.808	85.69
484.027	89.69
484.245	89.69
484.463	90.69
484.681	96.69
484.9	86.69
485.118	78.69
485.336	96.69
485.554	96.69
485.772	76.69
485.99	92.69
486.209	85.69
486.427	92.69
486.645	86.69
486.863	82.69
487.081	90.69
487.299	74.69
487.517	88.69
487.735	92.69
487.953	77.69
488.171	98.69
488.389	82.69
488.607	74.69
488.825	83.69
489.043	86.69
489.261	85.69
489.479	78.69
489.696	93.69
489.914	94.69
490.132	91.69
490.35	80.69
490.568	84.69
490.786	72.69
491.003	76.69
491.221	99.69
491.439	92.69
491.657	98.69
491.874	94.69
492.092	89.69
492.31	103.69
492.527	92.69
492.745	95.69
492.963	98.69
493.18	94.69
493.398	99.69
493.615	93.69
493.833	111.69
494.05	96.69
494.268	95.69
494.485	78.69
494.703	102.69
494.92	97.69
495.138	92.69
495.355	98.69
495.573	97.69
495.79	89.69
496.008	82.69
496.225	81.69
496.442	71.69
496.66	92.69
496.877	98.69
497.094	105.69
497.312	80.69
497.529	80.69
497.746	93.69
497.963	97.69
498.181	89.69
498.398	94.69
498.615	91.69
498.832	85.69
499.049	82.69
499.267	99.69
499.484	94.69
499.701	89.69
499.918	96.69
500.135	86.69
500.352	81.69
500.569	85.69
500.786	83.69
501.003	71.69
501.22	96.69
501.437	80.69
501.654	79.69
501.871	79.69
502.088	99.69
502.305	87.69
502.522	90.69
502.739	85.69
502.956	87.69
503.172	96.69
503.389	77.69
503.606	82.69
503.823	79.69
504.04	90.69
504.256	88.69
504.473	104.69
504.69	104.69
504.907	83.69
505.123	91.69
505.34	80.69
505.557	98.69
505.773	85.69
505.99	80.69
506.207	81.69
506.423	84.69
506.64	99.69
506.856	95.69
507.073	80.69
507.289	98.69
507.506	76.69
507.722	78.69
507.939	81.69
508.155	94.69
508.372	82.69
508.588	99.69
508.805	92.69
509.021	78.69
509.238	90.69
509.454	82.69
509.67	81.69
509.887	87.69
510.103	85.69
510.319	78.69
510.536	77.69
510.752	94.69
510.968	86.69
511.184	80.69
511.401	81.69
511.617	79.69
511.833	77.69
512.049	101.69
512.265	94.69
512.481	83.69
512.698	82.69
512.914	79.69
513.13	93.69
513.346	85.69
513.562	89.69
513.778	81.69
513.994	90.69
514.21	72.69
514.426	83.69
514.642	98.69
514.858	81.69
515.074	85.69
515.29	94.69
515.506	98.69
515.721	91.69
515.937	82.69
516.153	94.69
516.369	88.69
516.585	87.69
516.801	83.69
517.016	88.69
517.232	88.69
517.448	81.69
517.664	95.69
517.879	82.69
518.095	88.69
518.311	74.69
518.527	86.69
518.742	85.69
518.958	101.69
519.173	84.69
519.389	82.69
519.605	83.69
