Data from StA_HRD10591_042.txt Node
Date: Fri May 16 15:19:04 EDT 2025
User: Yrep
Spectrometer: HR+D1059
Trigger mode: 1
Integration Time (sec): 1.000000E-1
Scans to average: 1
Electric dark correction enabled: true
Nonlinearity correction enabled: false
Boxcar width: 0
XAxis mode: Wavelengths
Number of Pixels in Spectrum: 2048
>>>>>Begin Spectral Data<<<<<
223.165	-20.62
223.4	-20.62
223.635	-20.62
223.869	-27.62
224.104	-22.62
224.338	-16.62
224.573	-23.62
224.808	-10.62
225.042	-8.62
225.277	-7.62
225.511	8.38
225.746	-2.62
225.98	15.38
226.215	12.38
226.449	25.38
226.683	21.38
226.918	29.38
227.152	28.38
227.387	39.38
227.621	37.38
227.856	54.38
228.09	40.38
228.324	37.38
228.559	57.38
228.793	59.38
229.027	77.38
229.262	56.38
229.496	83.38
229.73	87.38
229.964	81.38
230.199	78.38
230.433	94.38
230.667	83.38
230.901	80.38
231.136	88.38
231.37	102.38
231.604	101.38
231.838	99.38
232.072	91.38
232.306	95.38
232.541	90.38
232.775	98.38
233.009	105.38
233.243	108.38
233.477	103.38
233.711	91.38
233.945	78.38
234.179	96.38
234.413	86.38
234.647	91.38
234.881	100.38
235.115	106.38
235.349	93.38
235.583	87.38
235.817	67.38
236.051	75.38
236.285	84.38
236.519	84.38
236.753	94.38
236.987	87.38
237.221	86.38
237.455	78.38
237.689	79.38
237.922	86.38
238.156	87.38
238.39	80.38
238.624	91.38
238.858	95.38
239.091	101.38
239.325	94.38
239.559	90.38
239.793	87.38
240.027	97.38
240.26	90.38
240.494	100.38
240.728	77.38
240.961	96.38
241.195	94.38
241.429	86.38
241.662	99.38
241.896	111.38
242.13	104.38
242.363	99.38
242.597	89.38
242.83	90.38
243.064	104.38
243.298	85.38
243.531	95.38
243.765	89.38
243.998	109.38
244.232	104.38
244.465	109.38
244.699	103.38
244.932	108.38
245.166	85.38
245.399	107.38
245.633	95.38
245.866	99.38
246.099	94.38
246.333	98.38
246.566	104.38
246.8	115.38
247.033	113.38
247.266	107.38
247.5	123.38
247.733	102.38
247.966	124.38
248.2	124.38
248.433	113.38
248.666	129.38
248.899	136.38
249.133	128.38
249.366	129.38
249.599	129.38
249.832	128.38
250.066	135.38
250.299	124.38
250.532	127.38
250.765	133.38
250.998	116.38
251.231	121.38
251.465	135.38
251.698	140.38
251.931	144.38
252.164	132.38
252.397	151.38
252.63	150.38
252.863	146.38
253.096	136.38
253.329	149.38
253.562	141.38
253.795	142.38
254.028	160.38
254.261	155.38
254.494	155.38
254.727	149.38
254.96	136.38
255.193	143.38
255.426	148.38
255.659	132.38
255.892	152.38
256.124	149.38
256.357	167.38
256.59	155.38
256.823	156.38
257.056	151.38
257.289	165.38
257.521	158.38
257.754	159.38
257.987	165.38
258.22	172.38
258.452	172.38
258.685	157.38
258.918	183.38
259.151	176.38
259.383	163.38
259.616	171.38
259.849	163.38
260.081	175.38
260.314	170.38
260.547	163.38
260.779	185.38
261.012	198.38
261.244	187.38
261.477	185.38
261.71	185.38
261.942	172.38
262.175	183.38
262.407	195.38
262.64	183.38
262.872	193.38
263.105	191.38
263.337	163.38
263.57	194.38
263.802	174.38
264.035	189.38
264.267	179.38
264.499	152.38
264.732	167.38
264.964	159.38
265.197	170.38
265.429	199.38
265.661	225.38
265.894	240.38
266.126	255.38
266.358	288.38
266.591	307.38
266.823	308.38
267.055	327.38
267.287	309.38
267.52	336.38
267.752	350.38
267.984	358.38
268.216	286.38
268.448	252.38
268.681	238.38
268.913	294.38
269.145	299.38
269.377	284.38
269.609	279.38
269.841	298.38
270.073	323.38
270.306	293.38
270.538	268.38
270.77	237.38
271.002	236.38
271.234	248.38
271.466	244.38
271.698	214.38
271.93	239.38
272.162	249.38
272.394	260.38
272.626	264.38
272.858	233.38
273.09	234.38
273.322	190.38
273.553	199.38
273.785	201.38
274.017	234.38
274.249	284.38
274.481	308.38
274.713	328.38
274.945	359.38
275.176	393.38
275.408	377.38
275.64	341.38
275.872	393.38
276.104	464.38
276.335	456.38
276.567	447.38
276.799	413.38
277.031	351.38
277.262	284.38
277.494	273.38
277.726	268.38
277.957	312.38
278.189	329.38
278.421	313.38
278.652	289.38
278.884	314.38
279.115	295.38
279.347	277.38
279.579	267.38
279.81	257.38
280.042	271.38
280.273	287.38
280.505	260.38
280.736	247.38
280.968	259.38
281.199	303.38
281.431	307.38
281.662	317.38
281.894	344.38
282.125	365.38
282.356	394.38
282.588	358.38
282.819	329.38
283.051	396.38
283.282	483.38
283.513	556.38
283.745	629.38
283.976	543.38
284.207	536.38
284.439	536.38
284.67	511.38
284.901	487.38
285.132	522.38
285.364	524.38
285.595	533.38
285.826	532.38
286.057	540.38
286.288	526.38
286.52	573.38
286.751	584.38
286.982	533.38
287.213	438.38
287.444	450.38
287.675	501.38
287.906	454.38
288.138	359.38
288.369	325.38
288.6	323.38
288.831	331.38
289.062	384.38
289.293	427.38
289.524	421.38
289.755	450.38
289.986	425.38
290.217	343.38
290.448	270.38
290.679	263.38
290.91	271.38
291.141	283.38
291.371	269.38
291.602	289.38
291.833	303.38
292.064	308.38
292.295	373.38
292.526	378.38
292.757	408.38
292.987	410.38
293.218	364.38
293.449	380.38
293.68	357.38
293.91	297.38
294.141	296.38
294.372	283.38
294.603	283.38
294.833	256.38
295.064	299.38
295.295	257.38
295.525	277.38
295.756	254.38
295.987	237.38
296.217	262.38
296.448	260.38
296.679	268.38
296.909	298.38
297.14	324.38
297.37	357.38
297.601	330.38
297.831	329.38
298.062	351.38
298.292	340.38
298.523	374.38
298.753	367.38
298.984	350.38
299.214	300.38
299.445	270.38
299.675	233.38
299.905	218.38
300.136	229.38
300.366	215.38
300.597	228.38
300.827	215.38
301.057	237.38
301.288	256.38
301.518	294.38
301.748	313.38
301.979	299.38
302.209	279.38
302.439	277.38
302.669	295.38
302.9	300.38
303.13	286.38
303.36	256.38
303.59	253.38
303.82	283.38
304.051	326.38
304.281	363.38
304.511	311.38
304.741	276.38
304.971	312.38
305.201	331.38
305.431	282.38
305.661	239.38
305.891	229.38
306.121	219.38
306.352	209.38
306.582	206.38
306.812	194.38
307.042	198.38
307.272	207.38
307.502	196.38
307.731	215.38
307.961	201.38
308.191	207.38
308.421	200.38
308.651	206.38
308.881	199.38
309.111	229.38
309.341	238.38
309.571	255.38
309.8	244.38
310.03	226.38
310.26	213.38
310.49	224.38
310.72	236.38
310.949	257.38
311.179	238.38
311.409	297.38
311.639	367.38
311.868	488.38
312.098	582.38
312.328	563.38
312.557	577.38
312.787	528.38
313.017	519.38
313.246	559.38
313.476	532.38
313.706	417.38
313.935	336.38
314.165	284.38
314.394	288.38
314.624	299.38
314.853	288.38
315.083	263.38
315.312	260.38
315.542	240.38
315.771	228.38
316.001	222.38
316.23	217.38
316.46	198.38
316.689	208.38
316.919	208.38
317.148	218.38
317.377	241.38
317.607	241.38
317.836	257.38
318.065	302.38
318.295	315.38
318.524	283.38
318.753	216.38
318.983	207.38
319.212	225.38
319.441	231.38
319.67	285.38
319.9	301.38
320.129	263.38
320.358	237.38
320.587	259.38
320.816	265.38
321.046	275.38
321.275	276.38
321.504	266.38
321.733	256.38
321.962	280.38
322.191	229.38
322.42	214.38
322.649	199.38
322.878	200.38
323.108	216.38
323.337	235.38
323.566	244.38
323.795	217.38
324.024	219.38
324.253	206.38
324.482	195.38
324.71	195.38
324.939	190.38
325.168	199.38
325.397	202.38
325.626	209.38
325.855	193.38
326.084	211.38
326.313	220.38
326.542	215.38
326.77	217.38
326.999	214.38
327.228	209.38
327.457	194.38
327.686	180.38
327.914	185.38
328.143	188.38
328.372	188.38
328.6	199.38
328.829	193.38
329.058	213.38
329.287	213.38
329.515	236.38
329.744	231.38
329.972	199.38
330.201	202.38
330.43	228.38
330.658	240.38
330.887	257.38
331.115	270.38
331.344	266.38
331.572	245.38
331.801	232.38
332.03	222.38
332.258	251.38
332.486	261.38
332.715	241.38
332.943	239.38
333.172	235.38
333.4	275.38
333.629	320.38
333.857	315.38
334.085	317.38
334.314	312.38
334.542	271.38
334.771	272.38
334.999	281.38
335.227	265.38
335.455	280.38
335.684	333.38
335.912	378.38
336.14	405.38
336.369	352.38
336.597	359.38
336.825	413.38
337.053	362.38
337.281	265.38
337.51	235.38
337.738	259.38
337.966	307.38
338.194	311.38
338.422	257.38
338.65	237.38
338.878	232.38
339.106	234.38
339.334	269.38
339.562	277.38
339.79	259.38
340.018	254.38
340.246	277.38
340.474	328.38
340.702	317.38
340.93	320.38
341.158	293.38
341.386	240.38
341.614	241.38
341.842	275.38
342.07	307.38
342.298	348.38
342.526	287.38
342.754	250.38
342.981	239.38
343.209	257.38
343.437	280.38
343.665	233.38
343.893	224.38
344.12	215.38
344.348	215.38
344.576	206.38
344.804	213.38
345.031	191.38
345.259	200.38
345.487	209.38
345.714	222.38
345.942	198.38
346.17	192.38
346.397	200.38
346.625	181.38
346.853	200.38
347.08	175.38
347.308	186.38
347.535	190.38
347.763	180.38
347.99	189.38
348.218	207.38
348.445	203.38
348.673	179.38
348.9	184.38
349.128	188.38
349.355	179.38
349.583	209.38
349.81	204.38
350.037	180.38
350.265	177.38
350.492	173.38
350.72	183.38
350.947	179.38
351.174	203.38
351.402	178.38
351.629	184.38
351.856	176.38
352.083	178.38
352.311	177.38
352.538	183.38
352.765	191.38
352.992	174.38
353.22	189.38
353.447	167.38
353.674	169.38
353.901	172.38
354.128	169.38
354.355	188.38
354.583	185.38
354.81	180.38
355.037	193.38
355.264	201.38
355.491	202.38
355.718	197.38
355.945	201.38
356.172	194.38
356.399	216.38
356.626	204.38
356.853	207.38
357.08	223.38
357.307	250.38
357.534	262.38
357.761	297.38
357.988	325.38
358.215	300.38
358.441	260.38
358.668	258.38
358.895	239.38
359.122	252.38
359.349	289.38
359.576	289.38
359.802	232.38
360.029	215.38
360.256	252.38
360.483	275.38
360.709	290.38
360.936	223.38
361.163	205.38
361.39	213.38
361.616	181.38
361.843	187.38
362.07	173.38
362.296	188.38
362.523	171.38
362.749	203.38
362.976	212.38
363.203	231.38
363.429	206.38
363.656	208.38
363.882	223.38
364.109	212.38
364.335	219.38
364.562	199.38
364.788	206.38
365.015	198.38
365.241	217.38
365.468	199.38
365.694	192.38
365.92	207.38
366.147	184.38
366.373	195.38
366.599	205.38
366.826	199.38
367.052	188.38
367.278	201.38
367.505	188.38
367.731	207.38
367.957	214.38
368.184	209.38
368.41	216.38
368.636	192.38
368.862	198.38
369.089	192.38
369.315	192.38
369.541	187.38
369.767	196.38
369.993	188.38
370.219	199.38
370.445	183.38
370.672	187.38
370.898	184.38
371.124	192.38
371.35	187.38
371.576	197.38
371.802	188.38
372.028	181.38
372.254	180.38
372.48	190.38
372.706	173.38
372.932	193.38
373.158	197.38
373.384	190.38
373.61	184.38
373.835	185.38
374.061	189.38
374.287	229.38
374.513	214.38
374.739	208.38
374.965	213.38
375.191	190.38
375.416	186.38
375.642	197.38
375.868	206.38
376.094	195.38
376.319	195.38
376.545	197.38
376.771	194.38
376.997	190.38
377.222	200.38
377.448	187.38
377.674	191.38
377.899	191.38
378.125	194.38
378.35	193.38
378.576	182.38
378.802	190.38
379.027	194.38
379.253	213.38
379.478	201.38
379.704	208.38
379.929	196.38
380.155	190.38
380.38	203.38
380.606	223.38
380.831	212.38
381.057	189.38
381.282	205.38
381.507	207.38
381.733	201.38
381.958	200.38
382.184	211.38
382.409	204.38
382.634	201.38
382.86	214.38
383.085	205.38
383.31	215.38
383.535	201.38
383.761	202.38
383.986	234.38
384.211	219.38
384.436	216.38
384.662	208.38
384.887	217.38
385.112	239.38
385.337	224.38
385.562	230.38
385.787	227.38
386.013	208.38
386.238	211.38
386.463	225.38
386.688	223.38
386.913	231.38
387.138	220.38
387.363	197.38
387.588	228.38
387.813	216.38
388.038	207.38
388.263	229.38
388.488	233.38
388.713	227.38
388.938	216.38
389.163	211.38
389.387	194.38
389.612	206.38
389.837	219.38
390.062	207.38
390.287	211.38
390.512	213.38
390.736	224.38
390.961	215.38
391.186	223.38
391.411	211.38
391.636	212.38
391.86	236.38
392.085	227.38
392.31	208.38
392.534	203.38
392.759	205.38
392.984	217.38
393.208	212.38
393.433	209.38
393.658	193.38
393.882	192.38
394.107	214.38
394.331	217.38
394.556	214.38
394.78	203.38
395.005	211.38
395.229	186.38
395.454	207.38
395.678	203.38
395.903	204.38
396.127	243.38
396.352	247.38
396.576	259.38
396.801	241.38
397.025	240.38
397.249	238.38
397.474	233.38
397.698	246.38
397.922	253.38
398.147	239.38
398.371	248.38
398.595	263.38
398.82	243.38
399.044	273.38
399.268	253.38
399.492	277.38
399.717	261.38
399.941	252.38
400.165	255.38
400.389	248.38
400.613	232.38
400.837	226.38
401.062	216.38
401.286	233.38
401.51	237.38
401.734	222.38
401.958	219.38
402.182	206.38
402.406	220.38
402.63	227.38
402.854	244.38
403.078	219.38
403.302	220.38
403.526	219.38
403.75	240.38
403.974	241.38
404.198	247.38
404.422	245.38
404.645	223.38
404.869	220.38
405.093	236.38
405.317	217.38
405.541	239.38
405.765	219.38
405.988	237.38
406.212	229.38
406.436	213.38
406.66	229.38
406.883	234.38
407.107	248.38
407.331	239.38
407.555	249.38
407.778	246.38
408.002	233.38
408.226	242.38
408.449	235.38
408.673	216.38
408.896	242.38
409.12	223.38
409.344	236.38
409.567	224.38
409.791	224.38
410.014	232.38
410.238	231.38
410.461	224.38
410.685	222.38
410.908	234.38
411.132	231.38
411.355	221.38
411.578	224.38
411.802	233.38
412.025	237.38
412.249	228.38
412.472	238.38
412.695	231.38
412.919	232.38
413.142	216.38
413.365	229.38
413.589	221.38
413.812	213.38
414.035	206.38
414.258	231.38
414.482	232.38
414.705	212.38
414.928	235.38
415.151	224.38
415.374	219.38
415.597	223.38
415.821	213.38
416.044	229.38
416.267	212.38
416.49	219.38
416.713	216.38
416.936	220.38
417.159	205.38
417.382	199.38
417.605	205.38
417.828	215.38
418.051	214.38
418.274	221.38
418.497	219.38
418.72	214.38
418.943	218.38
419.166	226.38
419.389	244.38
419.611	209.38
419.834	216.38
420.057	231.38
420.28	221.38
420.503	197.38
420.726	205.38
420.948	219.38
421.171	216.38
421.394	217.38
421.617	228.38
421.839	224.38
422.062	227.38
422.285	214.38
422.507	216.38
422.73	233.38
422.953	218.38
423.175	221.38
423.398	224.38
423.621	241.38
423.843	221.38
424.066	232.38
424.288	232.38
424.511	234.38
424.733	228.38
424.956	235.38
425.178	238.38
425.401	312.38
425.623	365.38
425.846	262.38
426.068	239.38
426.291	249.38
426.513	249.38
426.735	240.38
426.958	259.38
427.18	267.38
427.402	325.38
427.625	352.38
427.847	277.38
428.069	228.38
428.292	229.38
428.514	228.38
428.736	263.38
428.958	310.38
429.181	315.38
429.403	230.38
429.625	224.38
429.847	210.38
430.069	219.38
430.292	220.38
430.514	210.38
430.736	200.38
430.958	227.38
431.18	210.38
431.402	188.38
431.624	205.38
431.846	212.38
432.068	207.38
432.29	213.38
432.512	215.38
432.734	204.38
432.956	199.38
433.178	206.38
433.4	203.38
433.622	233.38
433.844	245.38
434.066	265.38
434.287	246.38
434.509	257.38
434.731	256.38
434.953	243.38
435.175	235.38
435.397	247.38
435.618	223.38
435.84	207.38
436.062	223.38
436.284	212.38
436.505	206.38
436.727	217.38
436.949	210.38
437.17	222.38
437.392	218.38
437.614	216.38
437.835	196.38
438.057	213.38
438.278	206.38
438.5	216.38
438.721	209.38
438.943	206.38
439.165	200.38
439.386	204.38
439.608	224.38
439.829	206.38
440.05	197.38
440.272	204.38
440.493	214.38
440.715	203.38
440.936	213.38
441.158	221.38
441.379	241.38
441.6	209.38
441.822	213.38
442.043	200.38
442.264	216.38
442.486	197.38
442.707	211.38
442.928	211.38
443.149	212.38
443.371	224.38
443.592	217.38
443.813	220.38
444.034	210.38
444.255	221.38
444.476	214.38
444.698	218.38
444.919	228.38
445.14	295.38
445.361	253.38
445.582	231.38
445.803	211.38
446.024	226.38
446.245	212.38
446.466	207.38
446.687	207.38
446.908	191.38
447.129	199.38
447.35	199.38
447.571	212.38
447.792	215.38
448.013	207.38
448.234	207.38
448.455	197.38
448.675	220.38
448.896	197.38
449.117	205.38
449.338	200.38
449.559	219.38
449.779	243.38
450	244.38
450.221	228.38
450.442	223.38
450.662	185.38
450.883	203.38
451.104	189.38
451.324	216.38
451.545	211.38
451.766	207.38
451.986	215.38
452.207	208.38
452.428	203.38
452.648	216.38
452.869	213.38
453.089	215.38
453.31	223.38
453.53	221.38
453.751	208.38
453.971	205.38
454.192	228.38
454.412	222.38
454.633	210.38
454.853	214.38
455.073	196.38
455.294	199.38
455.514	208.38
455.734	204.38
455.955	225.38
456.175	218.38
456.395	190.38
456.616	204.38
456.836	214.38
457.056	203.38
457.276	191.38
457.497	190.38
457.717	209.38
457.937	219.38
458.157	219.38
458.377	208.38
458.598	200.38
458.818	215.38
459.038	232.38
459.258	215.38
459.478	233.38
459.698	231.38
459.918	223.38
460.138	219.38
460.358	236.38
460.578	209.38
460.798	229.38
461.018	230.38
461.238	223.38
461.458	256.38
461.678	272.38
461.898	257.38
462.118	266.38
462.338	247.38
462.558	245.38
462.777	242.38
462.997	248.38
463.217	238.38
463.437	251.38
463.657	233.38
463.876	247.38
464.096	246.38
464.316	264.38
464.536	262.38
464.755	301.38
464.975	269.38
465.195	255.38
465.414	263.38
465.634	231.38
465.854	220.38
466.073	194.38
466.293	207.38
466.512	213.38
466.732	215.38
466.951	215.38
467.171	228.38
467.391	221.38
467.61	198.38
467.829	185.38
468.049	212.38
468.268	207.38
468.488	188.38
468.707	197.38
468.927	191.38
469.146	208.38
469.365	217.38
469.585	208.38
469.804	214.38
470.023	222.38
470.243	207.38
470.462	214.38
470.681	195.38
470.901	220.38
471.12	216.38
471.339	204.38
471.558	201.38
471.777	207.38
471.997	226.38
472.216	207.38
472.435	199.38
472.654	214.38
472.873	208.38
473.092	220.38
473.311	217.38
473.53	215.38
473.749	214.38
473.968	212.38
474.187	217.38
474.406	207.38
474.625	200.38
474.844	201.38
475.063	203.38
475.282	216.38
475.501	225.38
475.72	232.38
475.939	233.38
476.158	201.38
476.377	198.38
476.596	220.38
476.814	213.38
477.033	188.38
477.252	206.38
477.471	230.38
477.69	215.38
477.908	219.38
478.127	210.38
478.346	214.38
478.564	214.38
478.783	216.38
479.002	256.38
479.22	229.38
479.439	248.38
479.658	251.38
479.876	209.38
480.095	231.38
480.313	255.38
480.532	240.38
480.751	231.38
480.969	229.38
481.188	231.38
481.406	223.38
481.624	231.38
481.843	227.38
482.061	227.38
482.28	228.38
482.498	250.38
482.717	238.38
482.935	237.38
483.153	243.38
483.372	215.38
483.59	220.38
483.808	230.38
484.027	227.38
484.245	210.38
484.463	204.38
484.681	235.38
484.9	243.38
485.118	222.38
485.336	226.38
485.554	208.38
485.772	245.38
485.99	234.38
486.209	241.38
486.427	252.38
486.645	230.38
486.863	237.38
487.081	252.38
487.299	248.38
487.517	231.38
487.735	228.38
487.953	246.38
488.171	246.38
488.389	231.38
488.607	256.38
488.825	256.38
489.043	249.38
489.261	217.38
489.479	241.38
489.696	237.38
489.914	223.38
490.132	233.38
490.35	258.38
490.568	238.38
490.786	239.38
491.003	248.38
491.221	236.38
491.439	234.38
491.657	229.38
491.874	230.38
492.092	254.38
492.31	298.38
492.527	281.38
492.745	245.38
492.963	255.38
493.18	253.38
493.398	260.38
493.615	243.38
493.833	248.38
494.05	257.38
494.268	233.38
494.485	232.38
494.703	248.38
494.92	239.38
495.138	235.38
495.355	264.38
495.573	252.38
495.79	250.38
496.008	251.38
496.225	248.38
496.442	264.38
496.66	252.38
496.877	261.38
497.094	263.38
497.312	271.38
497.529	283.38
497.746	266.38
497.963	269.38
498.181	294.38
498.398	268.38
498.615	293.38
498.832	295.38
499.049	333.38
499.267	311.38
499.484	314.38
499.701	336.38
499.918	346.38
500.135	359.38
500.352	391.38
500.569	379.38
500.786	389.38
501.003	378.38
501.22	341.38
501.437	332.38
501.654	329.38
501.871	299.38
502.088	292.38
502.305	278.38
502.522	302.38
502.739	279.38
502.956	274.38
503.172	280.38
503.389	275.38
503.606	270.38
