Data from StA_HRD10591_090.txt Node
Date: Fri May 16 15:19:28 EDT 2025
User: Yrep
Spectrometer: HR+D1059
Trigger mode: 1
Integration Time (sec): 1.000000E-1
Scans to average: 1
Electric dark correction enabled: true
Nonlinearity correction enabled: false
Boxcar width: 0
XAxis mode: Wavelengths
Number of Pixels in Spectrum: 2048
>>>>>Begin Spectral Data<<<<<
223.165	-24.06
223.4	-24.06
223.635	-24.06
223.869	-19.06
224.104	-13.06
224.338	-19.06
224.573	-18.06
224.808	-22.06
225.042	-14.06
225.277	-5.06
225.511	5.94
225.746	6.94
225.98	9.94
226.215	13.94
226.449	21.94
226.683	15.94
226.918	27.94
227.152	31.94
227.387	44.94
227.621	45.94
227.856	38.94
228.09	51.94
228.324	47.94
228.559	61.94
228.793	36.94
229.027	55.94
229.262	75.94
229.496	65.94
229.73	61.94
229.964	64.94
230.199	50.94
230.433	72.94
230.667	73.94
230.901	75.94
231.136	88.94
231.37	69.94
231.604	75.94
231.838	69.94
232.072	84.94
232.306	78.94
232.541	87.94
232.775	79.94
233.009	84.94
233.243	84.94
233.477	59.94
233.711	80.94
233.945	90.94
234.179	75.94
234.413	69.94
234.647	73.94
234.881	74.94
235.115	78.94
235.349	89.94
235.583	83.94
235.817	68.94
236.051	81.94
236.285	77.94
236.519	74.94
236.753	79.94
236.987	91.94
237.221	85.94
237.455	82.94
237.689	85.94
237.922	79.94
238.156	90.94
238.39	65.94
238.624	74.94
238.858	83.94
239.091	85.94
239.325	79.94
239.559	73.94
239.793	75.94
240.027	77.94
240.26	77.94
240.494	66.94
240.728	81.94
240.961	72.94
241.195	61.94
241.429	68.94
241.662	83.94
241.896	83.94
242.13	80.94
242.363	64.94
242.597	72.94
242.83	75.94
243.064	76.94
243.298	80.94
243.531	86.94
243.765	78.94
243.998	84.94
244.232	88.94
244.465	71.94
244.699	69.94
244.932	69.94
245.166	71.94
245.399	79.94
245.633	80.94
245.866	83.94
246.099	76.94
246.333	85.94
246.566	75.94
246.8	64.94
247.033	69.94
247.266	82.94
247.5	71.94
247.733	71.94
247.966	62.94
248.2	85.94
248.433	69.94
248.666	89.94
248.899	89.94
249.133	79.94
249.366	77.94
249.599	87.94
249.832	83.94
250.066	72.94
250.299	88.94
250.532	69.94
250.765	79.94
250.998	91.94
251.231	78.94
251.465	72.94
251.698	80.94
251.931	86.94
252.164	76.94
252.397	75.94
252.63	72.94
252.863	78.94
253.096	66.94
253.329	69.94
253.562	75.94
253.795	101.94
254.028	73.94
254.261	73.94
254.494	78.94
254.727	74.94
254.96	80.94
255.193	80.94
255.426	77.94
255.659	67.94
255.892	85.94
256.124	85.94
256.357	82.94
256.59	80.94
256.823	66.94
257.056	68.94
257.289	89.94
257.521	87.94
257.754	70.94
257.987	79.94
258.22	89.94
258.452	78.94
258.685	71.94
258.918	78.94
259.151	85.94
259.383	72.94
259.616	80.94
259.849	79.94
260.081	77.94
260.314	86.94
260.547	73.94
260.779	83.94
261.012	78.94
261.244	83.94
261.477	94.94
261.71	89.94
261.942	78.94
262.175	88.94
262.407	74.94
262.64	85.94
262.872	74.94
263.105	93.94
263.337	79.94
263.57	79.94
263.802	76.94
264.035	92.94
264.267	72.94
264.499	93.94
264.732	94.94
264.964	91.94
265.197	88.94
265.429	74.94
265.661	69.94
265.894	72.94
266.126	80.94
266.358	77.94
266.591	72.94
266.823	66.94
267.055	85.94
267.287	83.94
267.52	93.94
267.752	95.94
267.984	79.94
268.216	102.94
268.448	76.94
268.681	87.94
268.913	76.94
269.145	83.94
269.377	96.94
269.609	69.94
269.841	59.94
270.073	80.94
270.306	87.94
270.538	90.94
270.77	70.94
271.002	75.94
271.234	92.94
271.466	85.94
271.698	73.94
271.93	95.94
272.162	86.94
272.394	86.94
272.626	84.94
272.858	89.94
273.09	88.94
273.322	80.94
273.553	100.94
273.785	84.94
274.017	86.94
274.249	83.94
274.481	84.94
274.713	80.94
274.945	81.94
275.176	62.94
275.408	90.94
275.64	93.94
275.872	96.94
276.104	81.94
276.335	80.94
276.567	79.94
276.799	81.94
277.031	94.94
277.262	98.94
277.494	86.94
277.726	83.94
277.957	85.94
278.189	94.94
278.421	81.94
278.652	80.94
278.884	82.94
279.115	75.94
279.347	71.94
279.579	91.94
279.81	78.94
280.042	85.94
280.273	89.94
280.505	79.94
280.736	86.94
280.968	79.94
281.199	92.94
281.431	72.94
281.662	91.94
281.894	80.94
282.125	95.94
282.356	78.94
282.588	96.94
282.819	78.94
283.051	84.94
283.282	79.94
283.513	95.94
283.745	89.94
283.976	77.94
284.207	96.94
284.439	100.94
284.67	92.94
284.901	84.94
285.132	72.94
285.364	87.94
285.595	85.94
285.826	84.94
286.057	88.94
286.288	76.94
286.52	99.94
286.751	94.94
286.982	109.94
287.213	77.94
287.444	103.94
287.675	83.94
287.906	87.94
288.138	87.94
288.369	96.94
288.6	88.94
288.831	83.94
289.062	96.94
289.293	85.94
289.524	80.94
289.755	84.94
289.986	94.94
290.217	72.94
290.448	81.94
290.679	79.94
290.91	85.94
291.141	75.94
291.371	91.94
291.602	93.94
291.833	69.94
292.064	87.94
292.295	78.94
292.526	88.94
292.757	76.94
292.987	81.94
293.218	77.94
293.449	84.94
293.68	83.94
293.91	83.94
294.141	83.94
294.372	78.94
294.603	83.94
294.833	85.94
295.064	85.94
295.295	86.94
295.525	89.94
295.756	86.94
295.987	81.94
296.217	89.94
296.448	86.94
296.679	88.94
296.909	90.94
297.14	96.94
297.37	86.94
297.601	75.94
297.831	93.94
298.062	94.94
298.292	80.94
298.523	91.94
298.753	99.94
298.984	101.94
299.214	97.94
299.445	86.94
299.675	101.94
299.905	94.94
300.136	84.94
300.366	74.94
300.597	79.94
300.827	93.94
301.057	93.94
301.288	95.94
301.518	89.94
301.748	95.94
301.979	114.94
302.209	104.94
302.439	89.94
302.669	94.94
302.9	102.94
303.13	83.94
303.36	93.94
303.59	94.94
303.82	83.94
304.051	96.94
304.281	84.94
304.511	78.94
304.741	87.94
304.971	89.94
305.201	86.94
305.431	95.94
305.661	88.94
305.891	91.94
306.121	81.94
306.352	83.94
306.582	93.94
306.812	91.94
307.042	88.94
307.272	69.94
307.502	79.94
307.731	83.94
307.961	80.94
308.191	94.94
308.421	98.94
308.651	73.94
308.881	84.94
309.111	95.94
309.341	85.94
309.571	109.94
309.8	80.94
310.03	73.94
310.26	91.94
310.49	79.94
310.72	72.94
310.949	91.94
311.179	85.94
311.409	88.94
311.639	93.94
311.868	106.94
312.098	90.94
312.328	86.94
312.557	93.94
312.787	73.94
313.017	96.94
313.246	90.94
313.476	79.94
313.706	79.94
313.935	81.94
314.165	69.94
314.394	79.94
314.624	92.94
314.853	80.94
315.083	93.94
315.312	90.94
315.542	75.94
315.771	78.94
316.001	86.94
316.23	90.94
316.46	82.94
316.689	85.94
316.919	79.94
317.148	79.94
317.377	86.94
317.607	85.94
317.836	93.94
318.065	100.94
318.295	85.94
318.524	96.94
318.753	84.94
318.983	80.94
319.212	80.94
319.441	88.94
319.67	84.94
319.9	77.94
320.129	100.94
320.358	87.94
320.587	89.94
320.816	88.94
321.046	100.94
321.275	83.94
321.504	85.94
321.733	74.94
321.962	86.94
322.191	81.94
322.42	78.94
322.649	78.94
322.878	80.94
323.108	91.94
323.337	76.94
323.566	79.94
323.795	88.94
324.024	72.94
324.253	68.94
324.482	78.94
324.71	82.94
324.939	89.94
325.168	94.94
325.397	85.94
325.626	83.94
325.855	84.94
326.084	85.94
326.313	92.94
326.542	99.94
326.77	84.94
326.999	70.94
327.228	85.94
327.457	83.94
327.686	95.94
327.914	87.94
328.143	95.94
328.372	92.94
328.6	89.94
328.829	87.94
329.058	94.94
329.287	85.94
329.515	74.94
329.744	83.94
329.972	96.94
330.201	89.94
330.43	88.94
330.658	81.94
330.887	81.94
331.115	75.94
331.344	88.94
331.572	87.94
331.801	85.94
332.03	81.94
332.258	86.94
332.486	87.94
332.715	93.94
332.943	76.94
333.172	97.94
333.4	89.94
333.629	77.94
333.857	84.94
334.085	78.94
334.314	82.94
334.542	103.94
334.771	84.94
334.999	88.94
335.227	76.94
335.455	85.94
335.684	83.94
335.912	78.94
336.14	98.94
336.369	73.94
336.597	79.94
336.825	82.94
337.053	81.94
337.281	91.94
337.51	96.94
337.738	75.94
337.966	77.94
338.194	88.94
338.422	87.94
338.65	86.94
338.878	83.94
339.106	78.94
339.334	69.94
339.562	72.94
339.79	71.94
340.018	74.94
340.246	99.94
340.474	75.94
340.702	81.94
340.93	85.94
341.158	95.94
341.386	75.94
341.614	87.94
341.842	91.94
342.07	90.94
342.298	87.94
342.526	80.94
342.754	75.94
342.981	82.94
343.209	80.94
343.437	99.94
343.665	85.94
343.893	96.94
344.12	95.94
344.348	77.94
344.576	80.94
344.804	99.94
345.031	74.94
345.259	94.94
345.487	89.94
345.714	99.94
345.942	77.94
346.17	79.94
346.397	89.94
346.625	91.94
346.853	80.94
347.08	83.94
347.308	79.94
347.535	76.94
347.763	82.94
347.99	93.94
348.218	86.94
348.445	75.94
348.673	87.94
348.9	77.94
349.128	84.94
349.355	65.94
349.583	92.94
349.81	101.94
350.037	89.94
350.265	94.94
350.492	77.94
350.72	91.94
350.947	72.94
351.174	79.94
351.402	83.94
351.629	97.94
351.856	90.94
352.083	90.94
352.311	86.94
352.538	93.94
352.765	79.94
352.992	86.94
353.22	81.94
353.447	85.94
353.674	94.94
353.901	67.94
354.128	85.94
354.355	82.94
354.583	80.94
354.81	84.94
355.037	88.94
355.264	97.94
355.491	80.94
355.718	83.94
355.945	93.94
356.172	85.94
356.399	76.94
356.626	83.94
356.853	89.94
357.08	85.94
357.307	101.94
357.534	103.94
357.761	115.94
357.988	121.94
358.215	107.94
358.441	81.94
358.668	92.94
358.895	99.94
359.122	108.94
359.349	120.94
359.576	100.94
359.802	83.94
360.029	92.94
360.256	81.94
360.483	108.94
360.709	117.94
360.936	96.94
361.163	98.94
361.39	81.94
361.616	77.94
361.843	84.94
362.07	81.94
362.296	75.94
362.523	70.94
362.749	66.94
362.976	95.94
363.203	87.94
363.429	91.94
363.656	78.94
363.882	81.94
364.109	96.94
364.335	94.94
364.562	101.94
364.788	88.94
365.015	83.94
365.241	79.94
365.468	69.94
365.694	74.94
365.92	81.94
366.147	83.94
366.373	83.94
366.599	75.94
366.826	92.94
367.052	81.94
367.278	86.94
367.505	75.94
367.731	86.94
367.957	83.94
368.184	79.94
368.41	100.94
368.636	81.94
368.862	81.94
369.089	96.94
369.315	89.94
369.541	93.94
369.767	82.94
369.993	83.94
370.219	89.94
370.445	81.94
370.672	92.94
370.898	77.94
371.124	77.94
371.35	70.94
371.576	95.94
371.802	83.94
372.028	83.94
372.254	79.94
372.48	83.94
372.706	87.94
372.932	78.94
373.158	76.94
373.384	83.94
373.61	83.94
373.835	89.94
374.061	86.94
374.287	102.94
374.513	95.94
374.739	97.94
374.965	94.94
375.191	84.94
375.416	81.94
375.642	94.94
375.868	100.94
376.094	87.94
376.319	86.94
376.545	76.94
376.771	79.94
376.997	84.94
377.222	91.94
377.448	82.94
377.674	82.94
377.899	83.94
378.125	75.94
378.35	81.94
378.576	89.94
378.802	69.94
379.027	84.94
379.253	90.94
379.478	86.94
379.704	92.94
379.929	77.94
380.155	88.94
380.38	91.94
380.606	89.94
380.831	92.94
381.057	92.94
381.282	86.94
381.507	69.94
381.733	91.94
381.958	97.94
382.184	79.94
382.409	85.94
382.634	86.94
382.86	68.94
383.085	80.94
383.31	92.94
383.535	77.94
383.761	79.94
383.986	77.94
384.211	86.94
384.436	83.94
384.662	91.94
384.887	95.94
385.112	88.94
385.337	95.94
385.562	89.94
385.787	100.94
386.013	99.94
386.238	84.94
386.463	80.94
386.688	87.94
386.913	68.94
387.138	75.94
387.363	81.94
387.588	86.94
387.813	82.94
388.038	80.94
388.263	88.94
388.488	80.94
388.713	95.94
388.938	85.94
389.163	89.94
389.387	70.94
389.612	81.94
389.837	85.94
390.062	93.94
390.287	85.94
390.512	92.94
390.736	81.94
390.961	87.94
391.186	80.94
391.411	79.94
391.636	84.94
391.86	95.94
392.085	101.94
392.31	76.94
392.534	75.94
392.759	87.94
392.984	95.94
393.208	91.94
393.433	84.94
393.658	90.94
393.882	75.94
394.107	77.94
394.331	83.94
394.556	85.94
394.78	86.94
395.005	87.94
395.229	77.94
395.454	86.94
395.678	77.94
395.903	94.94
396.127	92.94
396.352	95.94
396.576	92.94
396.801	96.94
397.025	90.94
397.249	86.94
397.474	83.94
397.698	95.94
397.922	90.94
398.147	88.94
398.371	101.94
398.595	91.94
398.82	86.94
399.044	88.94
399.268	79.94
399.492	79.94
399.717	85.94
399.941	87.94
400.165	85.94
400.389	84.94
400.613	71.94
400.837	87.94
401.062	88.94
401.286	74.94
401.51	87.94
401.734	76.94
401.958	75.94
402.182	82.94
402.406	82.94
402.63	81.94
402.854	88.94
403.078	79.94
403.302	80.94
403.526	83.94
403.75	73.94
403.974	87.94
404.198	92.94
404.422	87.94
404.645	74.94
404.869	96.94
405.093	89.94
405.317	86.94
405.541	85.94
405.765	88.94
405.988	85.94
406.212	88.94
406.436	84.94
406.66	84.94
406.883	77.94
407.107	74.94
407.331	92.94
407.555	74.94
407.778	78.94
408.002	104.94
408.226	88.94
408.449	80.94
408.673	78.94
408.896	70.94
409.12	75.94
409.344	87.94
409.567	81.94
409.791	81.94
410.014	86.94
410.238	84.94
410.461	86.94
410.685	75.94
410.908	92.94
411.132	99.94
411.355	71.94
411.578	91.94
411.802	84.94
412.025	76.94
412.249	89.94
412.472	86.94
412.695	79.94
412.919	93.94
413.142	87.94
413.365	60.94
413.589	87.94
413.812	91.94
414.035	85.94
414.258	83.94
414.482	90.94
414.705	73.94
414.928	87.94
415.151	86.94
415.374	70.94
415.597	73.94
415.821	71.94
416.044	81.94
416.267	87.94
416.49	82.94
416.713	94.94
416.936	86.94
417.159	83.94
417.382	93.94
417.605	87.94
417.828	76.94
418.051	82.94
418.274	77.94
418.497	85.94
418.72	66.94
418.943	83.94
419.166	75.94
419.389	79.94
419.611	89.94
419.834	70.94
420.057	73.94
420.28	84.94
420.503	79.94
420.726	77.94
420.948	70.94
421.171	68.94
421.394	80.94
421.617	93.94
421.839	103.94
422.062	75.94
422.285	80.94
422.507	80.94
422.73	83.94
422.953	82.94
423.175	86.94
423.398	70.94
423.621	88.94
423.843	80.94
424.066	83.94
424.288	80.94
424.511	83.94
424.733	80.94
424.956	86.94
425.178	88.94
425.401	124.94
425.623	140.94
425.846	104.94
426.068	75.94
426.291	78.94
426.513	92.94
426.735	85.94
426.958	77.94
427.18	89.94
427.402	111.94
427.625	126.94
427.847	112.94
428.069	80.94
428.292	92.94
428.514	79.94
428.736	87.94
428.958	122.94
429.181	125.94
429.403	79.94
429.625	87.94
429.847	81.94
430.069	88.94
430.292	93.94
430.514	87.94
430.736	87.94
430.958	78.94
431.18	91.94
431.402	66.94
431.624	74.94
431.846	78.94
432.068	61.94
432.29	76.94
432.512	88.94
432.734	84.94
432.956	79.94
433.178	85.94
433.4	84.94
433.622	91.94
433.844	109.94
434.066	99.94
434.287	89.94
434.509	97.94
434.731	85.94
434.953	90.94
435.175	113.94
435.397	97.94
435.618	93.94
435.84	95.94
436.062	99.94
436.284	81.94
436.505	87.94
436.727	79.94
436.949	89.94
437.17	89.94
437.392	97.94
437.614	89.94
437.835	78.94
438.057	92.94
438.278	88.94
438.5	93.94
438.721	87.94
438.943	83.94
439.165	79.94
439.386	77.94
439.608	84.94
439.829	69.94
440.05	71.94
440.272	76.94
440.493	85.94
440.715	73.94
440.936	94.94
441.158	76.94
441.379	75.94
441.6	66.94
441.822	78.94
442.043	78.94
442.264	78.94
442.486	86.94
442.707	75.94
442.928	81.94
443.149	73.94
443.371	77.94
443.592	83.94
443.813	89.94
444.034	85.94
444.255	71.94
444.476	68.94
444.698	76.94
444.919	80.94
445.14	170.94
445.361	116.94
445.582	83.94
445.803	83.94
446.024	90.94
446.245	74.94
446.466	76.94
446.687	90.94
446.908	96.94
447.129	93.94
447.35	76.94
447.571	79.94
447.792	80.94
448.013	83.94
448.234	69.94
448.455	89.94
448.675	90.94
448.896	85.94
449.117	76.94
449.338	78.94
449.559	88.94
449.779	106.94
450	83.94
450.221	77.94
450.442	85.94
450.662	73.94
450.883	81.94
451.104	77.94
451.324	76.94
451.545	75.94
451.766	80.94
451.986	90.94
452.207	80.94
452.428	85.94
452.648	90.94
452.869	99.94
453.089	91.94
453.31	77.94
453.53	76.94
453.751	82.94
453.971	78.94
454.192	81.94
454.412	66.94
454.633	90.94
454.853	97.94
455.073	80.94
455.294	76.94
455.514	91.94
455.734	84.94
455.955	72.94
456.175	92.94
456.395	83.94
456.616	79.94
456.836	73.94
457.056	80.94
457.276	88.94
457.497	75.94
457.717	71.94
457.937	72.94
458.157	99.94
458.377	105.94
458.598	89.94
458.818	89.94
459.038	80.94
459.258	77.94
459.478	88.94
459.698	90.94
459.918	84.94
460.138	99.94
460.358	84.94
460.578	88.94
460.798	81.94
461.018	90.94
461.238	75.94
461.458	83.94
461.678	114.94
461.898	89.94
462.118	93.94
462.338	95.94
462.558	93.94
462.777	91.94
462.997	87.94
463.217	92.94
463.437	78.94
463.657	80.94
463.876	86.94
464.096	75.94
464.316	84.94
464.536	96.94
464.755	107.94
464.975	96.94
465.195	117.94
465.414	103.94
465.634	88.94
465.854	83.94
466.073	63.94
466.293	63.94
466.512	82.94
466.732	92.94
466.951	103.94
467.171	89.94
467.391	75.94
467.61	84.94
467.829	85.94
468.049	72.94
468.268	87.94
468.488	76.94
468.707	85.94
468.927	83.94
469.146	100.94
469.365	83.94
469.585	90.94
469.804	79.94
470.023	75.94
470.243	87.94
470.462	62.94
470.681	78.94
470.901	87.94
471.12	85.94
471.339	84.94
471.558	80.94
471.777	92.94
471.997	78.94
472.216	84.94
472.435	85.94
472.654	85.94
472.873	75.94
473.092	93.94
473.311	76.94
473.53	90.94
473.749	83.94
473.968	85.94
474.187	75.94
474.406	74.94
474.625	81.94
474.844	83.94
475.063	79.94
475.282	84.94
475.501	77.94
475.72	94.94
475.939	99.94
476.158	95.94
476.377	87.94
476.596	76.94
476.814	105.94
477.033	90.94
477.252	73.94
477.471	98.94
477.69	83.94
477.908	83.94
478.127	84.94
478.346	76.94
478.564	80.94
478.783	74.94
479.002	94.94
479.22	74.94
479.439	88.94
479.658	79.94
479.876	70.94
480.095	85.94
480.313	91.94
480.532	75.94
480.751	78.94
480.969	77.94
481.188	88.94
481.406	83.94
481.624	78.94
481.843	94.94
482.061	64.94
482.28	72.94
482.498	78.94
482.717	102.94
482.935	93.94
483.153	99.94
483.372	92.94
483.59	87.94
483.808	75.94
484.027	76.94
484.245	79.94
484.463	79.94
484.681	93.94
484.9	95.94
485.118	94.94
485.336	76.94
485.554	81.94
485.772	84.94
485.99	81.94
486.209	97.94
486.427	83.94
486.645	75.94
486.863	89.94
487.081	82.94
487.299	92.94
487.517	84.94
487.735	85.94
487.953	89.94
488.171	85.94
488.389	69.94
488.607	86.94
488.825	75.94
489.043	84.94
489.261	93.94
489.479	102.94
489.696	83.94
489.914	77.94
490.132	76.94
490.35	74.94
490.568	85.94
490.786	93.94
491.003	75.94
491.221	76.94
491.439	89.94
491.657	93.94
491.874	99.94
492.092	100.94
492.31	111.94
492.527	107.94
492.745	90.94
492.963	89.94
493.18	78.94
493.398	86.94
493.615	87.94
493.833	83.94
494.05	91.94
494.268	80.94
494.485	91.94
494.703	88.94
494.92	81.94
495.138	74.94
495.355	90.94
495.573	96.94
495.79	94.94
496.008	88.94
496.225	84.94
496.442	85.94
496.66	94.94
496.877	89.94
497.094	99.94
497.312	100.94
497.529	95.94
497.746	90.94
497.963	78.94
498.181	94.94
498.398	80.94
498.615	77.94
498.832	74.94
499.049	90.94
499.267	81.94
499.484	96.94
499.701	84.94
499.918	88.94
500.135	92.94
500.352	72.94
500.569	100.94
500.786	101.94
501.003	79.94
501.22	101.94
501.437	93.94
501.654	79.94
501.871	78.94
502.088	91.94
502.305	72.94
502.522	94.94
502.739	93.94
502.956	80.94
503.172	89.94
503.389	68.94
503.606	84.94
503.823	74.94
504.04	86.94
504.256	81.94
504.473	84.94
504.69	84.94
504.907	84.94
505.123	96.94
505.34	81.94
505.557	89.94
505.773	83.94
505.99	89.94
506.207	76.94
506.423	87.94
506.64	83.94
506.856	96.94
507.073	95.94
507.289	97.94
507.506	92.94
507.722	103.94
507.939	88.94
508.155	71.94
508.372	83.94
508.588	83.94
508.805	87.94
509.021	75.94
509.238	85.94
509.454	70.94
509.67	100.94
509.887	88.94
510.103	83.94
510.319	100.94
510.536	78.94
510.752	77.94
510.968	89.94
511.184	83.94
511.401	77.94
511.617	91.94
511.833	79.94
512.049	72.94
512.265	94.94
512.481	93.94
512.698	94.94
512.914	89.94
513.13	85.94
513.346	81.94
513.562	76.94
513.778	84.94
513.994	75.94
514.21	79.94
514.426	84.94
514.642	90.94
514.858	87.94
515.074	90.94
515.29	84.94
515.506	78.94
515.721	99.94
515.937	75.94
516.153	94.94
516.369	76.94
516.585	92.94
516.801	89.94
517.016	80.94
517.232	84.94
517.448	71.94
517.664	78.94
517.879	81.94
518.095	81.94
518.311	99.94
518.527	87.94
518.742	87.94
518.958	83.94
519.173	79.94
519.389	88.94
