Data from StA_HRD10591_026.txt Node
Date: Fri May 16 15:18:57 EDT 2025
User: Yrep
Spectrometer: HR+D1059
Trigger mode: 1
Integration Time (sec): 1.000000E-1
Scans to average: 1
Electric dark correction enabled: true
Nonlinearity correction enabled: false
Boxcar width: 0
XAxis mode: Wavelengths
Number of Pixels in Spectrum: 2048
>>>>>Begin Spectral Data<<<<<
223.165	-20.69
223.4	-20.69
223.635	-20.69
223.869	-31.69
224.104	-23.69
224.338	-16.69
224.573	-2.69
224.808	-17.69
225.042	-1.69
225.277	-0.69
225.511	15.31
225.746	11.31
225.98	12.31
226.215	5.31
226.449	8.31
226.683	15.31
226.918	29.31
227.152	18.31
227.387	36.31
227.621	27.31
227.856	44.31
228.09	42.31
228.324	59.31
228.559	46.31
228.793	56.31
229.027	65.31
229.262	79.31
229.496	87.31
229.73	80.31
229.964	82.31
230.199	92.31
230.433	84.31
230.667	86.31
230.901	92.31
231.136	86.31
231.37	100.31
231.604	93.31
231.838	111.31
232.072	102.31
232.306	94.31
232.541	94.31
232.775	106.31
233.009	92.31
233.243	98.31
233.477	86.31
233.711	108.31
233.945	88.31
234.179	104.31
234.413	81.31
234.647	82.31
234.881	88.31
235.115	92.31
235.349	82.31
235.583	97.31
235.817	84.31
236.051	89.31
236.285	86.31
236.519	86.31
236.753	106.31
236.987	82.31
237.221	92.31
237.455	95.31
237.689	87.31
237.922	88.31
238.156	87.31
238.39	88.31
238.624	87.31
238.858	83.31
239.091	94.31
239.325	81.31
239.559	99.31
239.793	94.31
240.027	96.31
240.26	104.31
240.494	89.31
240.728	92.31
240.961	96.31
241.195	88.31
241.429	94.31
241.662	89.31
241.896	97.31
242.13	95.31
242.363	89.31
242.597	87.31
242.83	103.31
243.064	94.31
243.298	99.31
243.531	91.31
243.765	112.31
243.998	93.31
244.232	85.31
244.465	89.31
244.699	104.31
244.932	98.31
245.166	108.31
245.399	84.31
245.633	100.31
245.866	104.31
246.099	98.31
246.333	96.31
246.566	114.31
246.8	122.31
247.033	117.31
247.266	118.31
247.5	114.31
247.733	103.31
247.966	104.31
248.2	126.31
248.433	110.31
248.666	108.31
248.899	127.31
249.133	138.31
249.366	124.31
249.599	122.31
249.832	125.31
250.066	123.31
250.299	114.31
250.532	136.31
250.765	123.31
250.998	119.31
251.231	122.31
251.465	121.31
251.698	135.31
251.931	132.31
252.164	144.31
252.397	163.31
252.63	139.31
252.863	151.31
253.096	147.31
253.329	134.31
253.562	145.31
253.795	136.31
254.028	168.31
254.261	149.31
254.494	145.31
254.727	144.31
254.96	150.31
255.193	143.31
255.426	136.31
255.659	128.31
255.892	139.31
256.124	140.31
256.357	151.31
256.59	155.31
256.823	156.31
257.056	148.31
257.289	157.31
257.521	154.31
257.754	160.31
257.987	161.31
258.22	160.31
258.452	160.31
258.685	156.31
258.918	151.31
259.151	160.31
259.383	177.31
259.616	160.31
259.849	149.31
260.081	159.31
260.314	149.31
260.547	163.31
260.779	152.31
261.012	176.31
261.244	148.31
261.477	184.31
261.71	174.31
261.942	169.31
262.175	180.31
262.407	188.31
262.64	183.31
262.872	188.31
263.105	180.31
263.337	184.31
263.57	177.31
263.802	183.31
264.035	169.31
264.267	153.31
264.499	155.31
264.732	158.31
264.964	161.31
265.197	186.31
265.429	175.31
265.661	204.31
265.894	207.31
266.126	253.31
266.358	268.31
266.591	288.31
266.823	302.31
267.055	277.31
267.287	295.31
267.52	322.31
267.752	330.31
267.984	348.31
268.216	278.31
268.448	232.31
268.681	241.31
268.913	262.31
269.145	272.31
269.377	267.31
269.609	263.31
269.841	266.31
270.073	306.31
270.306	280.31
270.538	252.31
270.77	226.31
271.002	232.31
271.234	256.31
271.466	231.31
271.698	233.31
271.93	229.31
272.162	229.31
272.394	263.31
272.626	262.31
272.858	229.31
273.09	206.31
273.322	196.31
273.553	192.31
273.785	199.31
274.017	218.31
274.249	263.31
274.481	303.31
274.713	308.31
274.945	323.31
275.176	345.31
275.408	341.31
275.64	343.31
275.872	371.31
276.104	420.31
276.335	410.31
276.567	410.31
276.799	382.31
277.031	340.31
277.262	263.31
277.494	242.31
277.726	270.31
277.957	289.31
278.189	278.31
278.421	292.31
278.652	286.31
278.884	290.31
279.115	295.31
279.347	271.31
279.579	244.31
279.81	246.31
280.042	280.31
280.273	261.31
280.505	260.31
280.736	229.31
280.968	256.31
281.199	281.31
281.431	299.31
281.662	294.31
281.894	330.31
282.125	348.31
282.356	364.31
282.588	341.31
282.819	316.31
283.051	368.31
283.282	477.31
283.513	517.31
283.745	552.31
283.976	481.31
284.207	501.31
284.439	480.31
284.67	474.31
284.901	440.31
285.132	500.31
285.364	496.31
285.595	479.31
285.826	503.31
286.057	491.31
286.288	501.31
286.52	513.31
286.751	544.31
286.982	495.31
287.213	412.31
287.444	417.31
287.675	450.31
287.906	422.31
288.138	320.31
288.369	304.31
288.6	306.31
288.831	324.31
289.062	378.31
289.293	392.31
289.524	395.31
289.755	402.31
289.986	391.31
290.217	329.31
290.448	268.31
290.679	246.31
290.91	255.31
291.141	266.31
291.371	269.31
291.602	272.31
291.833	294.31
292.064	294.31
292.295	334.31
292.526	362.31
292.757	373.31
292.987	377.31
293.218	344.31
293.449	348.31
293.68	333.31
293.91	302.31
294.141	282.31
294.372	266.31
294.603	257.31
294.833	248.31
295.064	264.31
295.295	259.31
295.525	246.31
295.756	234.31
295.987	217.31
296.217	220.31
296.448	231.31
296.679	258.31
296.909	282.31
297.14	309.31
297.37	350.31
297.601	287.31
297.831	297.31
298.062	326.31
298.292	332.31
298.523	342.31
298.753	364.31
298.984	316.31
299.214	287.31
299.445	239.31
299.675	232.31
299.905	228.31
300.136	234.31
300.366	225.31
300.597	218.31
300.827	208.31
301.057	209.31
301.288	248.31
301.518	261.31
301.748	286.31
301.979	288.31
302.209	271.31
302.439	271.31
302.669	280.31
302.9	301.31
303.13	252.31
303.36	240.31
303.59	256.31
303.82	267.31
304.051	285.31
304.281	334.31
304.511	304.31
304.741	288.31
304.971	314.31
305.201	308.31
305.431	254.31
305.661	239.31
305.891	217.31
306.121	212.31
306.352	202.31
306.582	205.31
306.812	204.31
307.042	201.31
307.272	205.31
307.502	196.31
307.731	198.31
307.961	210.31
308.191	205.31
308.421	196.31
308.651	196.31
308.881	204.31
309.111	222.31
309.341	225.31
309.571	210.31
309.8	224.31
310.03	201.31
310.26	206.31
310.49	221.31
310.72	244.31
310.949	229.31
311.179	267.31
311.409	288.31
311.639	349.31
311.868	443.31
312.098	521.31
312.328	516.31
312.557	523.31
312.787	488.31
313.017	487.31
313.246	528.31
313.476	489.31
313.706	374.31
313.935	306.31
314.165	280.31
314.394	270.31
314.624	294.31
314.853	296.31
315.083	279.31
315.312	248.31
315.542	229.31
315.771	201.31
316.001	203.31
316.23	200.31
316.46	218.31
316.689	204.31
316.919	213.31
317.148	192.31
317.377	223.31
317.607	222.31
317.836	248.31
318.065	309.31
318.295	310.31
318.524	266.31
318.753	234.31
318.983	208.31
319.212	206.31
319.441	231.31
319.67	266.31
319.9	289.31
320.129	234.31
320.358	235.31
320.587	221.31
320.816	240.31
321.046	271.31
321.275	251.31
321.504	246.31
321.733	262.31
321.962	248.31
322.191	232.31
322.42	201.31
322.649	194.31
322.878	202.31
323.108	205.31
323.337	221.31
323.566	225.31
323.795	232.31
324.024	216.31
324.253	203.31
324.482	184.31
324.71	186.31
324.939	201.31
325.168	183.31
325.397	194.31
325.626	201.31
325.855	213.31
326.084	209.31
326.313	188.31
326.542	200.31
326.77	233.31
326.999	210.31
327.228	210.31
327.457	197.31
327.686	191.31
327.914	184.31
328.143	182.31
328.372	196.31
328.6	192.31
328.829	192.31
329.058	217.31
329.287	222.31
329.515	206.31
329.744	214.31
329.972	214.31
330.201	201.31
330.43	233.31
330.658	237.31
330.887	277.31
331.115	263.31
331.344	261.31
331.572	234.31
331.801	221.31
332.03	229.31
332.258	238.31
332.486	248.31
332.715	247.31
332.943	224.31
333.172	236.31
333.4	250.31
333.629	308.31
333.857	308.31
334.085	274.31
334.314	296.31
334.542	272.31
334.771	273.31
334.999	237.31
335.227	231.31
335.455	266.31
335.684	307.31
335.912	353.31
336.14	354.31
336.369	334.31
336.597	344.31
336.825	386.31
337.053	366.31
337.281	270.31
337.51	258.31
337.738	259.31
337.966	305.31
338.194	288.31
338.422	240.31
338.65	241.31
338.878	236.31
339.106	231.31
339.334	260.31
339.562	251.31
339.79	236.31
340.018	258.31
340.246	274.31
340.474	311.31
340.702	304.31
340.93	298.31
341.158	274.31
341.386	232.31
341.614	212.31
341.842	252.31
342.07	304.31
342.298	321.31
342.526	289.31
342.754	229.31
342.981	246.31
343.209	244.31
343.437	277.31
343.665	246.31
343.893	236.31
344.12	214.31
344.348	221.31
344.576	201.31
344.804	200.31
345.031	205.31
345.259	216.31
345.487	225.31
345.714	214.31
345.942	194.31
346.17	187.31
346.397	192.31
346.625	176.31
346.853	182.31
347.08	194.31
347.308	186.31
347.535	173.31
347.763	181.31
347.99	185.31
348.218	184.31
348.445	172.31
348.673	194.31
348.9	195.31
349.128	184.31
349.355	186.31
349.583	181.31
349.81	172.31
350.037	172.31
350.265	170.31
350.492	181.31
350.72	181.31
350.947	186.31
351.174	190.31
351.402	168.31
351.629	164.31
351.856	169.31
352.083	168.31
352.311	174.31
352.538	177.31
352.765	167.31
352.992	168.31
353.22	190.31
353.447	185.31
353.674	177.31
353.901	179.31
354.128	173.31
354.355	181.31
354.583	183.31
354.81	183.31
355.037	179.31
355.264	180.31
355.491	198.31
355.718	185.31
355.945	210.31
356.172	193.31
356.399	205.31
356.626	202.31
356.853	198.31
357.08	190.31
357.307	218.31
357.534	255.31
357.761	293.31
357.988	329.31
358.215	273.31
358.441	258.31
358.668	254.31
358.895	248.31
359.122	266.31
359.349	297.31
359.576	281.31
359.802	213.31
360.029	221.31
360.256	248.31
360.483	286.31
360.709	272.31
360.936	244.31
361.163	205.31
361.39	195.31
361.616	199.31
361.843	177.31
362.07	174.31
362.296	187.31
362.523	180.31
362.749	196.31
362.976	191.31
363.203	232.31
363.429	203.31
363.656	221.31
363.882	229.31
364.109	225.31
364.335	203.31
364.562	203.31
364.788	198.31
365.015	208.31
365.241	206.31
365.468	195.31
365.694	196.31
365.92	189.31
366.147	194.31
366.373	193.31
366.599	186.31
366.826	191.31
367.052	195.31
367.278	193.31
367.505	189.31
367.731	211.31
367.957	204.31
368.184	202.31
368.41	192.31
368.636	215.31
368.862	208.31
369.089	188.31
369.315	170.31
369.541	195.31
369.767	181.31
369.993	185.31
370.219	183.31
370.445	187.31
370.672	185.31
370.898	180.31
371.124	197.31
371.35	206.31
371.576	194.31
371.802	189.31
372.028	178.31
372.254	189.31
372.48	186.31
372.706	180.31
372.932	188.31
373.158	185.31
373.384	173.31
373.61	182.31
373.835	184.31
374.061	209.31
374.287	217.31
374.513	220.31
374.739	190.31
374.965	206.31
375.191	210.31
375.416	209.31
375.642	190.31
375.868	188.31
376.094	185.31
376.319	190.31
376.545	174.31
376.771	179.31
376.997	174.31
377.222	177.31
377.448	178.31
377.674	172.31
377.899	180.31
378.125	173.31
378.35	173.31
378.576	187.31
378.802	179.31
379.027	178.31
379.253	229.31
379.478	191.31
379.704	200.31
379.929	206.31
380.155	194.31
380.38	182.31
380.606	196.31
380.831	189.31
381.057	200.31
381.282	207.31
381.507	210.31
381.733	213.31
381.958	214.31
382.184	212.31
382.409	220.31
382.634	208.31
382.86	197.31
383.085	202.31
383.31	204.31
383.535	197.31
383.761	206.31
383.986	202.31
384.211	212.31
384.436	204.31
384.662	213.31
384.887	230.31
385.112	228.31
385.337	211.31
385.562	222.31
385.787	213.31
386.013	218.31
386.238	208.31
386.463	209.31
386.688	236.31
386.913	204.31
387.138	208.31
387.363	224.31
387.588	208.31
387.813	207.31
388.038	198.31
388.263	219.31
388.488	238.31
388.713	231.31
388.938	214.31
389.163	184.31
389.387	204.31
389.612	204.31
389.837	205.31
390.062	205.31
390.287	188.31
390.512	207.31
390.736	227.31
390.961	225.31
391.186	224.31
391.411	213.31
391.636	217.31
391.86	234.31
392.085	241.31
392.31	218.31
392.534	204.31
392.759	228.31
392.984	224.31
393.208	206.31
393.433	224.31
393.658	206.31
393.882	207.31
394.107	198.31
394.331	207.31
394.556	202.31
394.78	200.31
395.005	196.31
395.229	189.31
395.454	212.31
395.678	219.31
395.903	206.31
396.127	222.31
396.352	243.31
396.576	254.31
396.801	250.31
397.025	254.31
397.249	247.31
397.474	252.31
397.698	239.31
397.922	244.31
398.147	242.31
398.371	242.31
398.595	248.31
398.82	246.31
399.044	267.31
399.268	273.31
399.492	259.31
399.717	257.31
399.941	251.31
400.165	252.31
400.389	246.31
400.613	224.31
400.837	225.31
401.062	241.31
401.286	233.31
401.51	238.31
401.734	222.31
401.958	195.31
402.182	222.31
402.406	228.31
402.63	210.31
402.854	237.31
403.078	239.31
403.302	234.31
403.526	232.31
403.75	222.31
403.974	230.31
404.198	221.31
404.422	216.31
404.645	205.31
404.869	218.31
405.093	232.31
405.317	220.31
405.541	230.31
405.765	233.31
405.988	238.31
406.212	218.31
406.436	224.31
406.66	236.31
406.883	244.31
407.107	248.31
407.331	245.31
407.555	240.31
407.778	239.31
408.002	231.31
408.226	238.31
408.449	248.31
408.673	238.31
408.896	228.31
409.12	218.31
409.344	212.31
409.567	221.31
409.791	238.31
410.014	231.31
410.238	215.31
410.461	232.31
410.685	236.31
410.908	225.31
411.132	248.31
411.355	225.31
411.578	215.31
411.802	217.31
412.025	198.31
412.249	224.31
412.472	240.31
412.695	239.31
412.919	239.31
413.142	250.31
413.365	222.31
413.589	221.31
413.812	210.31
414.035	209.31
414.258	216.31
414.482	224.31
414.705	221.31
414.928	215.31
415.151	229.31
415.374	222.31
415.597	206.31
415.821	221.31
416.044	210.31
416.267	217.31
416.49	228.31
416.713	208.31
416.936	237.31
417.159	225.31
417.382	232.31
417.605	223.31
417.828	200.31
418.051	206.31
418.274	212.31
418.497	213.31
418.72	221.31
418.943	221.31
419.166	232.31
419.389	238.31
419.611	243.31
419.834	240.31
420.057	232.31
420.28	211.31
420.503	209.31
420.726	220.31
420.948	224.31
421.171	223.31
421.394	212.31
421.617	203.31
421.839	209.31
422.062	217.31
422.285	210.31
422.507	230.31
422.73	243.31
422.953	233.31
423.175	223.31
423.398	232.31
423.621	216.31
423.843	215.31
424.066	220.31
424.288	218.31
424.511	214.31
424.733	243.31
424.956	218.31
425.178	277.31
425.401	328.31
425.623	348.31
425.846	264.31
426.068	212.31
426.291	240.31
426.513	237.31
426.735	234.31
426.958	249.31
427.18	251.31
427.402	302.31
427.625	362.31
427.847	278.31
428.069	246.31
428.292	217.31
428.514	212.31
428.736	238.31
428.958	312.31
429.181	303.31
429.403	242.31
429.625	215.31
429.847	229.31
430.069	213.31
430.292	210.31
430.514	231.31
430.736	211.31
430.958	206.31
431.18	210.31
431.402	209.31
431.624	221.31
431.846	192.31
432.068	198.31
432.29	199.31
432.512	196.31
432.734	207.31
432.956	205.31
433.178	206.31
433.4	220.31
433.622	230.31
433.844	253.31
434.066	269.31
434.287	260.31
434.509	257.31
434.731	241.31
434.953	236.31
435.175	249.31
435.397	262.31
435.618	216.31
435.84	219.31
436.062	227.31
436.284	242.31
436.505	200.31
436.727	208.31
436.949	212.31
437.17	209.31
437.392	237.31
437.614	199.31
437.835	209.31
438.057	215.31
438.278	214.31
438.5	218.31
438.721	221.31
438.943	204.31
439.165	193.31
439.386	201.31
439.608	208.31
439.829	213.31
440.05	181.31
440.272	214.31
440.493	213.31
440.715	210.31
440.936	206.31
441.158	205.31
441.379	214.31
441.6	212.31
441.822	206.31
442.043	207.31
442.264	214.31
442.486	212.31
442.707	228.31
442.928	227.31
443.149	213.31
443.371	225.31
443.592	208.31
443.813	226.31
444.034	228.31
444.255	208.31
444.476	220.31
444.698	224.31
444.919	233.31
445.14	308.31
445.361	263.31
445.582	220.31
445.803	218.31
446.024	210.31
446.245	230.31
446.466	200.31
446.687	198.31
446.908	215.31
447.129	212.31
447.35	206.31
447.571	205.31
447.792	179.31
448.013	214.31
448.234	212.31
448.455	208.31
448.675	200.31
448.896	222.31
449.117	215.31
449.338	212.31
449.559	206.31
449.779	214.31
450	229.31
450.221	214.31
450.442	217.31
450.662	200.31
450.883	197.31
451.104	206.31
451.324	209.31
451.545	200.31
451.766	201.31
451.986	208.31
452.207	222.31
452.428	210.31
452.648	217.31
452.869	236.31
453.089	220.31
453.31	221.31
453.53	201.31
453.751	228.31
453.971	222.31
454.192	206.31
454.412	210.31
454.633	216.31
454.853	215.31
455.073	184.31
455.294	205.31
455.514	199.31
455.734	226.31
455.955	212.31
456.175	218.31
456.395	196.31
456.616	205.31
456.836	201.31
457.056	189.31
457.276	212.31
457.497	204.31
457.717	177.31
457.937	206.31
458.157	196.31
458.377	212.31
458.598	195.31
458.818	221.31
459.038	223.31
459.258	226.31
459.478	205.31
459.698	228.31
459.918	214.31
460.138	236.31
460.358	248.31
460.578	217.31
460.798	228.31
461.018	195.31
461.238	227.31
461.458	250.31
461.678	252.31
461.898	246.31
462.118	265.31
462.338	244.31
462.558	244.31
462.777	253.31
462.997	241.31
463.217	237.31
463.437	241.31
463.657	239.31
463.876	235.31
464.096	249.31
464.316	240.31
464.536	266.31
464.755	276.31
464.975	261.31
465.195	274.31
465.414	277.31
465.634	229.31
465.854	212.31
466.073	221.31
466.293	205.31
466.512	211.31
466.732	211.31
466.951	223.31
467.171	219.31
467.391	193.31
467.61	199.31
467.829	202.31
468.049	210.31
468.268	201.31
468.488	190.31
468.707	190.31
468.927	208.31
469.146	206.31
469.365	184.31
469.585	204.31
469.804	211.31
470.023	202.31
470.243	214.31
470.462	214.31
470.681	201.31
470.901	210.31
471.12	224.31
471.339	222.31
471.558	205.31
471.777	225.31
471.997	228.31
472.216	216.31
472.435	206.31
472.654	219.31
472.873	193.31
473.092	199.31
473.311	206.31
473.53	199.31
473.749	208.31
473.968	197.31
474.187	191.31
474.406	206.31
474.625	206.31
474.844	204.31
475.063	213.31
475.282	206.31
475.501	215.31
475.72	250.31
475.939	218.31
476.158	215.31
476.377	230.31
476.596	207.31
476.814	200.31
477.033	219.31
477.252	205.31
477.471	219.31
477.69	222.31
477.908	223.31
478.127	229.31
478.346	221.31
478.564	226.31
478.783	242.31
479.002	251.31
479.22	248.31
479.439	245.31
479.658	226.31
479.876	232.31
480.095	251.31
480.313	252.31
480.532	246.31
480.751	216.31
480.969	228.31
481.188	232.31
481.406	217.31
481.624	232.31
481.843	209.31
482.061	216.31
482.28	236.31
482.498	247.31
482.717	236.31
482.935	220.31
483.153	247.31
483.372	222.31
483.59	207.31
483.808	225.31
484.027	219.31
484.245	214.31
484.463	216.31
484.681	246.31
484.9	240.31
485.118	242.31
485.336	239.31
485.554	233.31
485.772	217.31
485.99	231.31
486.209	241.31
486.427	244.31
486.645	250.31
486.863	228.31
487.081	248.31
487.299	273.31
487.517	238.31
487.735	240.31
487.953	236.31
488.171	234.31
488.389	230.31
488.607	240.31
488.825	278.31
489.043	262.31
489.261	237.31
489.479	234.31
489.696	241.31
489.914	243.31
490.132	241.31
490.35	232.31
490.568	239.31
490.786	235.31
491.003	213.31
491.221	238.31
491.439	242.31
491.657	236.31
491.874	238.31
492.092	253.31
492.31	287.31
492.527	280.31
492.745	246.31
492.963	235.31
493.18	248.31
493.398	244.31
493.615	245.31
493.833	245.31
494.05	259.31
494.268	233.31
494.485	237.31
494.703	256.31
494.92	232.31
495.138	240.31
495.355	242.31
495.573	260.31
495.79	258.31
496.008	260.31
496.225	270.31
496.442	246.31
496.66	273.31
496.877	253.31
497.094	294.31
497.312	269.31
497.529	254.31
497.746	272.31
497.963	268.31
498.181	266.31
498.398	273.31
498.615	281.31
498.832	303.31
499.049	292.31
499.267	293.31
499.484	339.31
499.701	333.31
499.918	361.31
500.135	370.31
500.352	393.31
500.569	387.31
500.786	393.31
501.003	367.31
501.22	344.31
501.437	333.31
501.654	310.31
501.871	312.31
502.088	306.31
502.305	291.31
502.522	294.31
502.739	278.31
502.956	271.31
503.172	262.31
503.389	279.31
503.606	281.31
