Data from StA_HRD10591_067.txt Node
Date: Fri May 16 15:19:17 EDT 2025
User: Yrep
Spectrometer: HR+D1059
Trigger mode: 1
Integration Time (sec): 1.000000E-1
Scans to average: 1
Electric dark correction enabled: true
Nonlinearity correction enabled: false
Boxcar width: 0
XAxis mode: Wavelengths
Number of Pixels in Spectrum: 2048
>>>>>Begin Spectral Data<<<<<
223.165	-20.81
223.4	-20.81
223.635	-20.81
223.869	-19.81
224.104	-15.81
224.338	-12.81
224.573	-15.81
224.808	-12.81
225.042	-4.81
225.277	-0.81
225.511	-2.81
225.746	6.19
225.98	14.19
226.215	12.19
226.449	1.19
226.683	9.19
226.918	20.19
227.152	43.19
227.387	37.19
227.621	40.19
227.856	45.19
228.09	37.19
228.324	48.19
228.559	56.19
228.793	59.19
229.027	64.19
229.262	64.19
229.496	74.19
229.73	84.19
229.964	89.19
230.199	89.19
230.433	87.19
230.667	96.19
230.901	90.19
231.136	85.19
231.37	88.19
231.604	102.19
231.838	101.19
232.072	103.19
232.306	92.19
232.541	93.19
232.775	87.19
233.009	86.19
233.243	87.19
233.477	89.19
233.711	113.19
233.945	99.19
234.179	102.19
234.413	91.19
234.647	99.19
234.881	102.19
235.115	95.19
235.349	91.19
235.583	109.19
235.817	89.19
236.051	75.19
236.285	83.19
236.519	77.19
236.753	95.19
236.987	107.19
237.221	75.19
237.455	74.19
237.689	87.19
237.922	93.19
238.156	87.19
238.39	102.19
238.624	84.19
238.858	93.19
239.091	97.19
239.325	95.19
239.559	105.19
239.793	85.19
240.027	90.19
240.26	96.19
240.494	101.19
240.728	92.19
240.961	100.19
241.195	96.19
241.429	101.19
241.662	87.19
241.896	83.19
242.13	90.19
242.363	90.19
242.597	94.19
242.83	96.19
243.064	85.19
243.298	96.19
243.531	86.19
243.765	91.19
243.998	79.19
244.232	101.19
244.465	91.19
244.699	105.19
244.932	117.19
245.166	103.19
245.399	111.19
245.633	99.19
245.866	100.19
246.099	120.19
246.333	108.19
246.566	109.19
246.8	125.19
247.033	103.19
247.266	118.19
247.5	115.19
247.733	115.19
247.966	110.19
248.2	96.19
248.433	132.19
248.666	108.19
248.899	120.19
249.133	135.19
249.366	139.19
249.599	135.19
249.832	136.19
250.066	138.19
250.299	128.19
250.532	130.19
250.765	129.19
250.998	126.19
251.231	125.19
251.465	132.19
251.698	143.19
251.931	165.19
252.164	143.19
252.397	153.19
252.63	151.19
252.863	148.19
253.096	151.19
253.329	148.19
253.562	167.19
253.795	145.19
254.028	156.19
254.261	160.19
254.494	129.19
254.727	152.19
254.96	150.19
255.193	142.19
255.426	132.19
255.659	139.19
255.892	152.19
256.124	161.19
256.357	165.19
256.59	158.19
256.823	171.19
257.056	156.19
257.289	168.19
257.521	177.19
257.754	177.19
257.987	157.19
258.22	167.19
258.452	165.19
258.685	179.19
258.918	170.19
259.151	168.19
259.383	187.19
259.616	164.19
259.849	171.19
260.081	175.19
260.314	169.19
260.547	170.19
260.779	177.19
261.012	184.19
261.244	167.19
261.477	195.19
261.71	171.19
261.942	185.19
262.175	181.19
262.407	192.19
262.64	183.19
262.872	191.19
263.105	183.19
263.337	192.19
263.57	185.19
263.802	181.19
264.035	186.19
264.267	188.19
264.499	170.19
264.732	165.19
264.964	167.19
265.197	173.19
265.429	204.19
265.661	221.19
265.894	245.19
266.126	263.19
266.358	294.19
266.591	321.19
266.823	324.19
267.055	313.19
267.287	330.19
267.52	335.19
267.752	355.19
267.984	400.19
268.216	306.19
268.448	233.19
268.681	251.19
268.913	295.19
269.145	303.19
269.377	295.19
269.609	280.19
269.841	303.19
270.073	323.19
270.306	279.19
270.538	266.19
270.77	235.19
271.002	252.19
271.234	279.19
271.466	253.19
271.698	250.19
271.93	256.19
272.162	287.19
272.394	285.19
272.626	286.19
272.858	231.19
273.09	221.19
273.322	193.19
273.553	201.19
273.785	220.19
274.017	227.19
274.249	267.19
274.481	337.19
274.713	350.19
274.945	351.19
275.176	396.19
275.408	388.19
275.64	396.19
275.872	402.19
276.104	445.19
276.335	462.19
276.567	454.19
276.799	433.19
277.031	382.19
277.262	289.19
277.494	293.19
277.726	299.19
277.957	316.19
278.189	328.19
278.421	307.19
278.652	319.19
278.884	336.19
279.115	299.19
279.347	306.19
279.579	278.19
279.81	256.19
280.042	281.19
280.273	294.19
280.505	257.19
280.736	240.19
280.968	255.19
281.199	316.19
281.431	341.19
281.662	320.19
281.894	360.19
282.125	404.19
282.356	395.19
282.588	395.19
282.819	347.19
283.051	420.19
283.282	513.19
283.513	571.19
283.745	617.19
283.976	554.19
284.207	559.19
284.439	566.19
284.67	515.19
284.901	520.19
285.132	586.19
285.364	533.19
285.595	522.19
285.826	542.19
286.057	547.19
286.288	587.19
286.52	592.19
286.751	588.19
286.982	555.19
287.213	469.19
287.444	475.19
287.675	498.19
287.906	465.19
288.138	368.19
288.369	336.19
288.6	320.19
288.831	359.19
289.062	409.19
289.293	444.19
289.524	450.19
289.755	472.19
289.986	449.19
290.217	357.19
290.448	281.19
290.679	275.19
290.91	273.19
291.141	277.19
291.371	293.19
291.602	305.19
291.833	292.19
292.064	336.19
292.295	396.19
292.526	401.19
292.757	414.19
292.987	425.19
293.218	372.19
293.449	377.19
293.68	372.19
293.91	312.19
294.141	298.19
294.372	275.19
294.603	283.19
294.833	283.19
295.064	278.19
295.295	280.19
295.525	275.19
295.756	260.19
295.987	252.19
296.217	267.19
296.448	251.19
296.679	262.19
296.909	296.19
297.14	343.19
297.37	389.19
297.601	328.19
297.831	333.19
298.062	370.19
298.292	364.19
298.523	378.19
298.753	409.19
298.984	364.19
299.214	336.19
299.445	273.19
299.675	268.19
299.905	241.19
300.136	232.19
300.366	227.19
300.597	234.19
300.827	216.19
301.057	239.19
301.288	267.19
301.518	310.19
301.748	321.19
301.979	304.19
302.209	273.19
302.439	311.19
302.669	312.19
302.9	317.19
303.13	280.19
303.36	261.19
303.59	273.19
303.82	286.19
304.051	325.19
304.281	371.19
304.511	311.19
304.741	283.19
304.971	324.19
305.201	335.19
305.431	288.19
305.661	268.19
305.891	223.19
306.121	229.19
306.352	209.19
306.582	210.19
306.812	189.19
307.042	224.19
307.272	207.19
307.502	195.19
307.731	219.19
307.961	219.19
308.191	202.19
308.421	198.19
308.651	211.19
308.881	215.19
309.111	214.19
309.341	224.19
309.571	251.19
309.8	232.19
310.03	215.19
310.26	219.19
310.49	241.19
310.72	251.19
310.949	255.19
311.179	250.19
311.409	284.19
311.639	396.19
311.868	522.19
312.098	606.19
312.328	603.19
312.557	591.19
312.787	557.19
313.017	531.19
313.246	570.19
313.476	523.19
313.706	437.19
313.935	337.19
314.165	283.19
314.394	281.19
314.624	291.19
314.853	293.19
315.083	304.19
315.312	255.19
315.542	239.19
315.771	215.19
316.001	207.19
316.23	205.19
316.46	207.19
316.689	211.19
316.919	210.19
317.148	222.19
317.377	235.19
317.607	224.19
317.836	257.19
318.065	319.19
318.295	326.19
318.524	248.19
318.753	239.19
318.983	218.19
319.212	235.19
319.441	256.19
319.67	278.19
319.9	297.19
320.129	260.19
320.358	255.19
320.587	261.19
320.816	270.19
321.046	286.19
321.275	286.19
321.504	269.19
321.733	282.19
321.962	267.19
322.191	223.19
322.42	199.19
322.649	208.19
322.878	201.19
323.108	219.19
323.337	240.19
323.566	232.19
323.795	244.19
324.024	233.19
324.253	217.19
324.482	216.19
324.71	211.19
324.939	204.19
325.168	191.19
325.397	201.19
325.626	190.19
325.855	216.19
326.084	215.19
326.313	214.19
326.542	201.19
326.77	214.19
326.999	231.19
327.228	214.19
327.457	205.19
327.686	196.19
327.914	192.19
328.143	192.19
328.372	191.19
328.6	209.19
328.829	207.19
329.058	218.19
329.287	220.19
329.515	260.19
329.744	235.19
329.972	215.19
330.201	219.19
330.43	234.19
330.658	251.19
330.887	269.19
331.115	276.19
331.344	261.19
331.572	256.19
331.801	239.19
332.03	229.19
332.258	266.19
332.486	260.19
332.715	276.19
332.943	236.19
333.172	251.19
333.4	277.19
333.629	310.19
333.857	313.19
334.085	315.19
334.314	311.19
334.542	310.19
334.771	291.19
334.999	278.19
335.227	263.19
335.455	292.19
335.684	333.19
335.912	384.19
336.14	391.19
336.369	377.19
336.597	392.19
336.825	420.19
337.053	391.19
337.281	285.19
337.51	259.19
337.738	284.19
337.966	295.19
338.194	314.19
338.422	295.19
338.65	235.19
338.878	250.19
339.106	238.19
339.334	257.19
339.562	274.19
339.79	248.19
340.018	264.19
340.246	303.19
340.474	327.19
340.702	307.19
340.93	329.19
341.158	275.19
341.386	237.19
341.614	243.19
341.842	270.19
342.07	333.19
342.298	372.19
342.526	311.19
342.754	232.19
342.981	243.19
343.209	248.19
343.437	297.19
343.665	252.19
343.893	219.19
344.12	215.19
344.348	218.19
344.576	223.19
344.804	210.19
345.031	210.19
345.259	204.19
345.487	225.19
345.714	235.19
345.942	210.19
346.17	203.19
346.397	195.19
346.625	183.19
346.853	193.19
347.08	192.19
347.308	210.19
347.535	188.19
347.763	171.19
347.99	175.19
348.218	191.19
348.445	190.19
348.673	194.19
348.9	194.19
349.128	189.19
349.355	188.19
349.583	195.19
349.81	187.19
350.037	167.19
350.265	183.19
350.492	183.19
350.72	192.19
350.947	186.19
351.174	212.19
351.402	191.19
351.629	173.19
351.856	182.19
352.083	185.19
352.311	192.19
352.538	172.19
352.765	179.19
352.992	187.19
353.22	184.19
353.447	156.19
353.674	179.19
353.901	185.19
354.128	184.19
354.355	188.19
354.583	196.19
354.81	187.19
355.037	187.19
355.264	182.19
355.491	191.19
355.718	195.19
355.945	192.19
356.172	189.19
356.399	196.19
356.626	220.19
356.853	207.19
357.08	216.19
357.307	222.19
357.534	274.19
357.761	331.19
357.988	361.19
358.215	296.19
358.441	257.19
358.668	281.19
358.895	252.19
359.122	278.19
359.349	320.19
359.576	289.19
359.802	243.19
360.029	229.19
360.256	263.19
360.483	312.19
360.709	303.19
360.936	232.19
361.163	205.19
361.39	192.19
361.616	193.19
361.843	187.19
362.07	184.19
362.296	186.19
362.523	182.19
362.749	185.19
362.976	190.19
363.203	216.19
363.429	230.19
363.656	218.19
363.882	248.19
364.109	232.19
364.335	232.19
364.562	210.19
364.788	212.19
365.015	216.19
365.241	194.19
365.468	204.19
365.694	203.19
365.92	194.19
366.147	184.19
366.373	217.19
366.599	203.19
366.826	211.19
367.052	196.19
367.278	213.19
367.505	193.19
367.731	213.19
367.957	223.19
368.184	204.19
368.41	224.19
368.636	205.19
368.862	209.19
369.089	182.19
369.315	187.19
369.541	174.19
369.767	190.19
369.993	196.19
370.219	189.19
370.445	188.19
370.672	177.19
370.898	175.19
371.124	200.19
371.35	205.19
371.576	207.19
371.802	202.19
372.028	202.19
372.254	180.19
372.48	188.19
372.706	183.19
372.932	185.19
373.158	192.19
373.384	187.19
373.61	195.19
373.835	192.19
374.061	207.19
374.287	230.19
374.513	240.19
374.739	215.19
374.965	205.19
375.191	204.19
375.416	196.19
375.642	193.19
375.868	188.19
376.094	185.19
376.319	187.19
376.545	193.19
376.771	177.19
376.997	188.19
377.222	171.19
377.448	180.19
377.674	191.19
377.899	209.19
378.125	176.19
378.35	175.19
378.576	180.19
378.802	188.19
379.027	218.19
379.253	213.19
379.478	207.19
379.704	201.19
379.929	192.19
380.155	195.19
380.38	211.19
380.606	196.19
380.831	211.19
381.057	217.19
381.282	201.19
381.507	191.19
381.733	206.19
381.958	213.19
382.184	212.19
382.409	206.19
382.634	220.19
382.86	211.19
383.085	229.19
383.31	215.19
383.535	219.19
383.761	209.19
383.986	217.19
384.211	218.19
384.436	212.19
384.662	220.19
384.887	227.19
385.112	246.19
385.337	246.19
385.562	229.19
385.787	224.19
386.013	210.19
386.238	215.19
386.463	222.19
386.688	254.19
386.913	227.19
387.138	203.19
387.363	208.19
387.588	220.19
387.813	230.19
388.038	220.19
388.263	217.19
388.488	229.19
388.713	222.19
388.938	203.19
389.163	211.19
389.387	207.19
389.612	210.19
389.837	187.19
390.062	198.19
390.287	214.19
390.512	222.19
390.736	209.19
390.961	231.19
391.186	216.19
391.411	223.19
391.636	219.19
391.86	236.19
392.085	256.19
392.31	230.19
392.534	212.19
392.759	213.19
392.984	217.19
393.208	203.19
393.433	197.19
393.658	191.19
393.882	208.19
394.107	205.19
394.331	204.19
394.556	207.19
394.78	203.19
395.005	214.19
395.229	219.19
395.454	209.19
395.678	201.19
395.903	198.19
396.127	215.19
396.352	249.19
396.576	256.19
396.801	228.19
397.025	235.19
397.249	245.19
397.474	245.19
397.698	250.19
397.922	254.19
398.147	241.19
398.371	255.19
398.595	245.19
398.82	249.19
399.044	261.19
399.268	273.19
399.492	282.19
399.717	259.19
399.941	253.19
400.165	243.19
400.389	242.19
400.613	212.19
400.837	227.19
401.062	235.19
401.286	235.19
401.51	215.19
401.734	222.19
401.958	229.19
402.182	211.19
402.406	221.19
402.63	205.19
402.854	247.19
403.078	231.19
403.302	224.19
403.526	236.19
403.75	253.19
403.974	244.19
404.198	213.19
404.422	230.19
404.645	218.19
404.869	243.19
405.093	237.19
405.317	214.19
405.541	197.19
405.765	240.19
405.988	243.19
406.212	231.19
406.436	227.19
406.66	224.19
406.883	232.19
407.107	233.19
407.331	236.19
407.555	238.19
407.778	235.19
408.002	241.19
408.226	236.19
408.449	225.19
408.673	224.19
408.896	229.19
409.12	222.19
409.344	221.19
409.567	205.19
409.791	220.19
410.014	228.19
410.238	201.19
410.461	221.19
410.685	231.19
410.908	219.19
411.132	232.19
411.355	229.19
411.578	228.19
411.802	221.19
412.025	229.19
412.249	230.19
412.472	235.19
412.695	254.19
412.919	240.19
413.142	236.19
413.365	211.19
413.589	212.19
413.812	201.19
414.035	213.19
414.258	221.19
414.482	227.19
414.705	213.19
414.928	220.19
415.151	210.19
415.374	217.19
415.597	196.19
415.821	213.19
416.044	222.19
416.267	236.19
416.49	225.19
416.713	204.19
416.936	219.19
417.159	218.19
417.382	236.19
417.605	214.19
417.828	227.19
418.051	227.19
418.274	237.19
418.497	207.19
418.72	219.19
418.943	206.19
419.166	210.19
419.389	236.19
419.611	219.19
419.834	229.19
420.057	224.19
420.28	206.19
420.503	200.19
420.726	206.19
420.948	222.19
421.171	241.19
421.394	228.19
421.617	224.19
421.839	223.19
422.062	224.19
422.285	228.19
422.507	211.19
422.73	223.19
422.953	205.19
423.175	221.19
423.398	209.19
423.621	216.19
423.843	223.19
424.066	245.19
424.288	227.19
424.511	237.19
424.733	237.19
424.956	229.19
425.178	259.19
425.401	316.19
425.623	371.19
425.846	260.19
426.068	245.19
426.291	241.19
426.513	247.19
426.735	231.19
426.958	245.19
427.18	272.19
427.402	304.19
427.625	381.19
427.847	291.19
428.069	215.19
428.292	209.19
428.514	220.19
428.736	249.19
428.958	305.19
429.181	317.19
429.403	232.19
429.625	213.19
429.847	229.19
430.069	229.19
430.292	215.19
430.514	214.19
430.736	212.19
430.958	209.19
431.18	195.19
431.402	208.19
431.624	214.19
431.846	207.19
432.068	200.19
432.29	211.19
432.512	222.19
432.734	217.19
432.956	216.19
433.178	226.19
433.4	216.19
433.622	231.19
433.844	255.19
434.066	279.19
434.287	255.19
434.509	255.19
434.731	266.19
434.953	237.19
435.175	272.19
435.397	262.19
435.618	233.19
435.84	214.19
436.062	209.19
436.284	213.19
436.505	207.19
436.727	210.19
436.949	208.19
437.17	221.19
437.392	229.19
437.614	229.19
437.835	204.19
438.057	199.19
438.278	185.19
438.5	212.19
438.721	201.19
438.943	215.19
439.165	196.19
439.386	215.19
439.608	208.19
439.829	198.19
440.05	197.19
440.272	206.19
440.493	204.19
440.715	194.19
440.936	192.19
441.158	220.19
441.379	203.19
441.6	209.19
441.822	200.19
442.043	219.19
442.264	233.19
442.486	237.19
442.707	206.19
442.928	211.19
443.149	219.19
443.371	230.19
443.592	213.19
443.813	221.19
444.034	225.19
444.255	220.19
444.476	232.19
444.698	226.19
444.919	222.19
445.14	298.19
445.361	245.19
445.582	221.19
445.803	219.19
446.024	227.19
446.245	211.19
446.466	211.19
446.687	206.19
446.908	213.19
447.129	203.19
447.35	220.19
447.571	194.19
447.792	197.19
448.013	196.19
448.234	193.19
448.455	207.19
448.675	199.19
448.896	212.19
449.117	213.19
449.338	205.19
449.559	215.19
449.779	229.19
450	225.19
450.221	217.19
450.442	200.19
450.662	201.19
450.883	191.19
451.104	188.19
451.324	211.19
451.545	210.19
451.766	211.19
451.986	200.19
452.207	204.19
452.428	204.19
452.648	220.19
452.869	223.19
453.089	213.19
453.31	224.19
453.53	211.19
453.751	214.19
453.971	224.19
454.192	231.19
454.412	233.19
454.633	229.19
454.853	217.19
455.073	189.19
455.294	179.19
455.514	198.19
455.734	211.19
455.955	238.19
456.175	217.19
456.395	206.19
456.616	197.19
456.836	193.19
457.056	217.19
457.276	193.19
457.497	194.19
457.717	209.19
457.937	187.19
458.157	193.19
458.377	198.19
458.598	209.19
458.818	235.19
459.038	248.19
459.258	231.19
459.478	222.19
459.698	233.19
459.918	223.19
460.138	233.19
460.358	233.19
460.578	235.19
460.798	205.19
461.018	211.19
461.238	220.19
461.458	239.19
461.678	255.19
461.898	269.19
462.118	247.19
462.338	245.19
462.558	249.19
462.777	254.19
462.997	246.19
463.217	252.19
463.437	261.19
463.657	243.19
463.876	245.19
464.096	268.19
464.316	251.19
464.536	249.19
464.755	281.19
464.975	249.19
465.195	265.19
465.414	263.19
465.634	232.19
465.854	197.19
466.073	200.19
466.293	212.19
466.512	223.19
466.732	213.19
466.951	223.19
467.171	224.19
467.391	216.19
467.61	216.19
467.829	194.19
468.049	197.19
468.268	205.19
468.488	201.19
468.707	203.19
468.927	203.19
469.146	192.19
469.365	213.19
469.585	205.19
469.804	217.19
470.023	227.19
470.243	201.19
470.462	208.19
470.681	203.19
470.901	220.19
471.12	226.19
471.339	192.19
471.558	192.19
471.777	215.19
471.997	220.19
472.216	211.19
472.435	222.19
472.654	220.19
472.873	219.19
473.092	225.19
473.311	219.19
473.53	189.19
473.749	208.19
473.968	220.19
474.187	185.19
474.406	207.19
474.625	204.19
474.844	203.19
475.063	212.19
475.282	206.19
475.501	237.19
475.72	252.19
475.939	241.19
476.158	200.19
476.377	217.19
476.596	218.19
476.814	223.19
477.033	208.19
477.252	206.19
477.471	219.19
477.69	224.19
477.908	221.19
478.127	227.19
478.346	228.19
478.564	235.19
478.783	236.19
479.002	255.19
479.22	255.19
479.439	252.19
479.658	237.19
479.876	243.19
480.095	235.19
480.313	249.19
480.532	239.19
480.751	215.19
480.969	204.19
481.188	227.19
481.406	230.19
481.624	230.19
481.843	226.19
482.061	231.19
482.28	218.19
482.498	234.19
482.717	247.19
482.935	253.19
483.153	241.19
483.372	224.19
483.59	221.19
483.808	237.19
484.027	222.19
484.245	227.19
484.463	233.19
484.681	241.19
484.9	238.19
485.118	241.19
485.336	225.19
485.554	241.19
485.772	214.19
485.99	239.19
486.209	247.19
486.427	243.19
486.645	246.19
486.863	243.19
487.081	251.19
487.299	249.19
487.517	231.19
487.735	253.19
487.953	238.19
488.171	225.19
488.389	231.19
488.607	248.19
488.825	268.19
489.043	268.19
489.261	243.19
489.479	236.19
489.696	227.19
489.914	241.19
490.132	234.19
490.35	245.19
490.568	244.19
490.786	230.19
491.003	235.19
491.221	243.19
491.439	251.19
491.657	218.19
491.874	245.19
492.092	253.19
492.31	286.19
492.527	293.19
492.745	261.19
492.963	236.19
493.18	256.19
493.398	272.19
493.615	244.19
493.833	267.19
494.05	239.19
494.268	250.19
494.485	256.19
494.703	247.19
494.92	240.19
495.138	239.19
495.355	271.19
495.573	285.19
495.79	244.19
496.008	244.19
496.225	234.19
496.442	251.19
496.66	269.19
496.877	266.19
497.094	258.19
497.312	274.19
497.529	276.19
497.746	263.19
497.963	280.19
498.181	291.19
498.398	283.19
498.615	294.19
498.832	307.19
499.049	297.19
499.267	323.19
499.484	333.19
499.701	321.19
499.918	331.19
500.135	349.19
500.352	385.19
500.569	365.19
500.786	374.19
501.003	378.19
501.22	348.19
501.437	347.19
501.654	307.19
501.871	309.19
502.088	291.19
502.305	287.19
502.522	287.19
502.739	282.19
502.956	269.19
503.172	280.19
503.389	273.19
503.606	264.19
