Data from StA_HRD10591_035.txt Node
Date: Fri May 16 15:19:01 EDT 2025
User: Yrep
Spectrometer: HR+D1059
Trigger mode: 1
Integration Time (sec): 1.000000E-1
Scans to average: 1
Electric dark correction enabled: true
Nonlinearity correction enabled: false
Boxcar width: 0
XAxis mode: Wavelengths
Number of Pixels in Spectrum: 2048
>>>>>Begin Spectral Data<<<<<
223.165	-20.5
223.4	-20.5
223.635	-20.5
223.869	-21.5
224.104	-16.5
224.338	-16.5
224.573	-11.5
224.808	-16.5
225.042	-8.5
225.277	-7.5
225.511	-7.5
225.746	4.5
225.98	5.5
226.215	23.5
226.449	24.5
226.683	15.5
226.918	16.5
227.152	36.5
227.387	46.5
227.621	48.5
227.856	59.5
228.09	40.5
228.324	53.5
228.559	66.5
228.793	65.5
229.027	76.5
229.262	68.5
229.496	72.5
229.73	72.5
229.964	78.5
230.199	84.5
230.433	69.5
230.667	79.5
230.901	90.5
231.136	87.5
231.37	96.5
231.604	103.5
231.838	87.5
232.072	81.5
232.306	91.5
232.541	94.5
232.775	92.5
233.009	81.5
233.243	101.5
233.477	89.5
233.711	96.5
233.945	102.5
234.179	96.5
234.413	101.5
234.647	96.5
234.881	80.5
235.115	88.5
235.349	84.5
235.583	89.5
235.817	96.5
236.051	90.5
236.285	90.5
236.519	79.5
236.753	88.5
236.987	71.5
237.221	106.5
237.455	79.5
237.689	83.5
237.922	91.5
238.156	71.5
238.39	91.5
238.624	79.5
238.858	95.5
239.091	88.5
239.325	96.5
239.559	94.5
239.793	91.5
240.027	102.5
240.26	103.5
240.494	86.5
240.728	76.5
240.961	84.5
241.195	82.5
241.429	95.5
241.662	104.5
241.896	85.5
242.13	100.5
242.363	95.5
242.597	73.5
242.83	78.5
243.064	96.5
243.298	105.5
243.531	95.5
243.765	109.5
243.998	97.5
244.232	102.5
244.465	107.5
244.699	95.5
244.932	105.5
245.166	93.5
245.399	103.5
245.633	103.5
245.866	105.5
246.099	117.5
246.333	107.5
246.566	95.5
246.8	99.5
247.033	116.5
247.266	113.5
247.5	107.5
247.733	109.5
247.966	118.5
248.2	123.5
248.433	119.5
248.666	129.5
248.899	125.5
249.133	132.5
249.366	123.5
249.599	105.5
249.832	134.5
250.066	141.5
250.299	110.5
250.532	112.5
250.765	117.5
250.998	134.5
251.231	116.5
251.465	132.5
251.698	133.5
251.931	149.5
252.164	157.5
252.397	148.5
252.63	145.5
252.863	131.5
253.096	127.5
253.329	156.5
253.562	131.5
253.795	138.5
254.028	147.5
254.261	139.5
254.494	161.5
254.727	146.5
254.96	142.5
255.193	133.5
255.426	157.5
255.659	140.5
255.892	130.5
256.124	152.5
256.357	144.5
256.59	158.5
256.823	167.5
257.056	161.5
257.289	157.5
257.521	168.5
257.754	165.5
257.987	163.5
258.22	168.5
258.452	156.5
258.685	164.5
258.918	176.5
259.151	161.5
259.383	172.5
259.616	168.5
259.849	150.5
260.081	158.5
260.314	159.5
260.547	155.5
260.779	178.5
261.012	180.5
261.244	180.5
261.477	183.5
261.71	190.5
261.942	172.5
262.175	193.5
262.407	180.5
262.64	186.5
262.872	184.5
263.105	177.5
263.337	181.5
263.57	193.5
263.802	177.5
264.035	182.5
264.267	177.5
264.499	154.5
264.732	160.5
264.964	172.5
265.197	181.5
265.429	186.5
265.661	203.5
265.894	228.5
266.126	261.5
266.358	273.5
266.591	314.5
266.823	314.5
267.055	285.5
267.287	299.5
267.52	332.5
267.752	330.5
267.984	363.5
268.216	294.5
268.448	219.5
268.681	260.5
268.913	270.5
269.145	294.5
269.377	263.5
269.609	259.5
269.841	272.5
270.073	305.5
270.306	270.5
270.538	235.5
270.77	252.5
271.002	228.5
271.234	242.5
271.466	240.5
271.698	227.5
271.93	244.5
272.162	261.5
272.394	279.5
272.626	267.5
272.858	235.5
273.09	217.5
273.322	187.5
273.553	190.5
273.785	204.5
274.017	217.5
274.249	255.5
274.481	305.5
274.713	339.5
274.945	344.5
275.176	347.5
275.408	364.5
275.64	332.5
275.872	386.5
276.104	413.5
276.335	438.5
276.567	423.5
276.799	406.5
277.031	342.5
277.262	266.5
277.494	274.5
277.726	272.5
277.957	310.5
278.189	320.5
278.421	284.5
278.652	287.5
278.884	307.5
279.115	284.5
279.347	272.5
279.579	240.5
279.81	238.5
280.042	269.5
280.273	299.5
280.505	247.5
280.736	235.5
280.968	252.5
281.199	292.5
281.431	311.5
281.662	308.5
281.894	334.5
282.125	371.5
282.356	382.5
282.588	356.5
282.819	320.5
283.051	374.5
283.282	463.5
283.513	513.5
283.745	567.5
283.976	514.5
284.207	514.5
284.439	536.5
284.67	470.5
284.901	464.5
285.132	517.5
285.364	501.5
285.595	473.5
285.826	509.5
286.057	510.5
286.288	526.5
286.52	555.5
286.751	560.5
286.982	483.5
287.213	429.5
287.444	436.5
287.675	461.5
287.906	417.5
288.138	338.5
288.369	301.5
288.6	304.5
288.831	324.5
289.062	367.5
289.293	405.5
289.524	398.5
289.755	418.5
289.986	422.5
290.217	326.5
290.448	276.5
290.679	251.5
290.91	247.5
291.141	271.5
291.371	295.5
291.602	279.5
291.833	287.5
292.064	314.5
292.295	337.5
292.526	391.5
292.757	392.5
292.987	385.5
293.218	358.5
293.449	333.5
293.68	336.5
293.91	280.5
294.141	280.5
294.372	271.5
294.603	291.5
294.833	247.5
295.064	259.5
295.295	267.5
295.525	253.5
295.756	252.5
295.987	233.5
296.217	237.5
296.448	245.5
296.679	273.5
296.909	279.5
297.14	327.5
297.37	359.5
297.601	311.5
297.831	326.5
298.062	349.5
298.292	349.5
298.523	336.5
298.753	361.5
298.984	329.5
299.214	287.5
299.445	271.5
299.675	237.5
299.905	217.5
300.136	222.5
300.366	213.5
300.597	214.5
300.827	218.5
301.057	229.5
301.288	238.5
301.518	267.5
301.748	303.5
301.979	304.5
302.209	277.5
302.439	291.5
302.669	295.5
302.9	284.5
303.13	266.5
303.36	254.5
303.59	260.5
303.82	281.5
304.051	314.5
304.281	350.5
304.511	312.5
304.741	269.5
304.971	309.5
305.201	328.5
305.431	275.5
305.661	235.5
305.891	229.5
306.121	221.5
306.352	219.5
306.582	224.5
306.812	200.5
307.042	197.5
307.272	195.5
307.502	213.5
307.731	181.5
307.961	194.5
308.191	202.5
308.421	220.5
308.651	208.5
308.881	214.5
309.111	211.5
309.341	254.5
309.571	238.5
309.8	212.5
310.03	203.5
310.26	203.5
310.49	226.5
310.72	235.5
310.949	258.5
311.179	253.5
311.409	297.5
311.639	347.5
311.868	470.5
312.098	549.5
312.328	544.5
312.557	529.5
312.787	506.5
313.017	489.5
313.246	526.5
313.476	483.5
313.706	387.5
313.935	325.5
314.165	285.5
314.394	274.5
314.624	265.5
314.853	297.5
315.083	279.5
315.312	252.5
315.542	242.5
315.771	223.5
316.001	205.5
316.23	204.5
316.46	206.5
316.689	207.5
316.919	220.5
317.148	213.5
317.377	229.5
317.607	228.5
317.836	233.5
318.065	280.5
318.295	312.5
318.524	262.5
318.753	225.5
318.983	218.5
319.212	195.5
319.441	223.5
319.67	257.5
319.9	276.5
320.129	241.5
320.358	223.5
320.587	235.5
320.816	256.5
321.046	283.5
321.275	263.5
321.504	249.5
321.733	243.5
321.962	257.5
322.191	216.5
322.42	190.5
322.649	200.5
322.878	216.5
323.108	199.5
323.337	231.5
323.566	251.5
323.795	237.5
324.024	215.5
324.253	198.5
324.482	199.5
324.71	201.5
324.939	200.5
325.168	199.5
325.397	201.5
325.626	194.5
325.855	196.5
326.084	207.5
326.313	205.5
326.542	211.5
326.77	217.5
326.999	224.5
327.228	211.5
327.457	187.5
327.686	185.5
327.914	169.5
328.143	169.5
328.372	203.5
328.6	179.5
328.829	208.5
329.058	217.5
329.287	230.5
329.515	207.5
329.744	217.5
329.972	208.5
330.201	194.5
330.43	221.5
330.658	252.5
330.887	254.5
331.115	261.5
331.344	273.5
331.572	250.5
331.801	224.5
332.03	221.5
332.258	248.5
332.486	253.5
332.715	246.5
332.943	232.5
333.172	240.5
333.4	265.5
333.629	317.5
333.857	313.5
334.085	315.5
334.314	280.5
334.542	264.5
334.771	272.5
334.999	264.5
335.227	262.5
335.455	268.5
335.684	305.5
335.912	376.5
336.14	374.5
336.369	339.5
336.597	369.5
336.825	387.5
337.053	356.5
337.281	272.5
337.51	261.5
337.738	272.5
337.966	278.5
338.194	279.5
338.422	253.5
338.65	224.5
338.878	221.5
339.106	238.5
339.334	267.5
339.562	256.5
339.79	257.5
340.018	261.5
340.246	276.5
340.474	319.5
340.702	299.5
340.93	312.5
341.158	286.5
341.386	213.5
341.614	227.5
341.842	264.5
342.07	298.5
342.298	334.5
342.526	298.5
342.754	234.5
342.981	224.5
343.209	252.5
343.437	276.5
343.665	247.5
343.893	215.5
344.12	209.5
344.348	199.5
344.576	215.5
344.804	203.5
345.031	190.5
345.259	205.5
345.487	218.5
345.714	217.5
345.942	202.5
346.17	192.5
346.397	184.5
346.625	196.5
346.853	185.5
347.08	189.5
347.308	198.5
347.535	176.5
347.763	183.5
347.99	180.5
348.218	191.5
348.445	180.5
348.673	187.5
348.9	172.5
349.128	191.5
349.355	191.5
349.583	201.5
349.81	180.5
350.037	190.5
350.265	191.5
350.492	181.5
350.72	181.5
350.947	173.5
351.174	207.5
351.402	196.5
351.629	201.5
351.856	177.5
352.083	171.5
352.311	177.5
352.538	172.5
352.765	192.5
352.992	184.5
353.22	181.5
353.447	187.5
353.674	187.5
353.901	191.5
354.128	173.5
354.355	173.5
354.583	177.5
354.81	192.5
355.037	195.5
355.264	205.5
355.491	188.5
355.718	189.5
355.945	179.5
356.172	196.5
356.399	203.5
356.626	216.5
356.853	201.5
357.08	216.5
357.307	233.5
357.534	241.5
357.761	307.5
357.988	333.5
358.215	284.5
358.441	249.5
358.668	236.5
358.895	238.5
359.122	255.5
359.349	289.5
359.576	296.5
359.802	237.5
360.029	219.5
360.256	256.5
360.483	285.5
360.709	294.5
360.936	240.5
361.163	219.5
361.39	208.5
361.616	191.5
361.843	173.5
362.07	182.5
362.296	175.5
362.523	176.5
362.749	190.5
362.976	207.5
363.203	218.5
363.429	208.5
363.656	206.5
363.882	204.5
364.109	239.5
364.335	200.5
364.562	195.5
364.788	194.5
365.015	216.5
365.241	211.5
365.468	206.5
365.694	197.5
365.92	199.5
366.147	189.5
366.373	192.5
366.599	197.5
366.826	197.5
367.052	197.5
367.278	184.5
367.505	193.5
367.731	217.5
367.957	201.5
368.184	203.5
368.41	196.5
368.636	206.5
368.862	212.5
369.089	196.5
369.315	180.5
369.541	182.5
369.767	193.5
369.993	191.5
370.219	184.5
370.445	181.5
370.672	207.5
370.898	195.5
371.124	211.5
371.35	205.5
371.576	214.5
371.802	217.5
372.028	199.5
372.254	179.5
372.48	199.5
372.706	186.5
372.932	189.5
373.158	206.5
373.384	175.5
373.61	197.5
373.835	189.5
374.061	203.5
374.287	206.5
374.513	206.5
374.739	234.5
374.965	224.5
375.191	220.5
375.416	188.5
375.642	189.5
375.868	213.5
376.094	193.5
376.319	186.5
376.545	182.5
376.771	180.5
376.997	183.5
377.222	188.5
377.448	185.5
377.674	169.5
377.899	178.5
378.125	171.5
378.35	192.5
378.576	182.5
378.802	190.5
379.027	182.5
379.253	193.5
379.478	214.5
379.704	219.5
379.929	204.5
380.155	189.5
380.38	197.5
380.606	211.5
380.831	190.5
381.057	186.5
381.282	193.5
381.507	200.5
381.733	202.5
381.958	218.5
382.184	209.5
382.409	191.5
382.634	199.5
382.86	205.5
383.085	223.5
383.31	223.5
383.535	214.5
383.761	220.5
383.986	208.5
384.211	231.5
384.436	208.5
384.662	216.5
384.887	240.5
385.112	227.5
385.337	224.5
385.562	234.5
385.787	228.5
386.013	220.5
386.238	237.5
386.463	233.5
386.688	224.5
386.913	205.5
387.138	217.5
387.363	223.5
387.588	222.5
387.813	232.5
388.038	217.5
388.263	225.5
388.488	230.5
388.713	203.5
388.938	204.5
389.163	194.5
389.387	213.5
389.612	206.5
389.837	201.5
390.062	207.5
390.287	203.5
390.512	239.5
390.736	207.5
390.961	195.5
391.186	212.5
391.411	204.5
391.636	243.5
391.86	236.5
392.085	241.5
392.31	200.5
392.534	205.5
392.759	212.5
392.984	225.5
393.208	198.5
393.433	212.5
393.658	184.5
393.882	205.5
394.107	206.5
394.331	205.5
394.556	193.5
394.78	205.5
395.005	189.5
395.229	197.5
395.454	203.5
395.678	208.5
395.903	216.5
396.127	229.5
396.352	250.5
396.576	257.5
396.801	230.5
397.025	259.5
397.249	243.5
397.474	244.5
397.698	253.5
397.922	243.5
398.147	237.5
398.371	243.5
398.595	249.5
398.82	235.5
399.044	263.5
399.268	266.5
399.492	260.5
399.717	252.5
399.941	256.5
400.165	251.5
400.389	239.5
400.613	233.5
400.837	220.5
401.062	230.5
401.286	219.5
401.51	222.5
401.734	229.5
401.958	229.5
402.182	236.5
402.406	215.5
402.63	220.5
402.854	223.5
403.078	213.5
403.302	230.5
403.526	213.5
403.75	225.5
403.974	233.5
404.198	228.5
404.422	223.5
404.645	231.5
404.869	237.5
405.093	253.5
405.317	229.5
405.541	238.5
405.765	230.5
405.988	236.5
406.212	238.5
406.436	206.5
406.66	239.5
406.883	243.5
407.107	251.5
407.331	253.5
407.555	254.5
407.778	237.5
408.002	253.5
408.226	243.5
408.449	239.5
408.673	233.5
408.896	220.5
409.12	225.5
409.344	234.5
409.567	221.5
409.791	220.5
410.014	231.5
410.238	235.5
410.461	238.5
410.685	221.5
410.908	205.5
411.132	236.5
411.355	205.5
411.578	244.5
411.802	220.5
412.025	227.5
412.249	229.5
412.472	230.5
412.695	237.5
412.919	246.5
413.142	247.5
413.365	227.5
413.589	223.5
413.812	228.5
414.035	233.5
414.258	231.5
414.482	231.5
414.705	221.5
414.928	237.5
415.151	209.5
415.374	239.5
415.597	235.5
415.821	214.5
416.044	221.5
416.267	205.5
416.49	211.5
416.713	227.5
416.936	224.5
417.159	217.5
417.382	205.5
417.605	216.5
417.828	227.5
418.051	219.5
418.274	223.5
418.497	215.5
418.72	212.5
418.943	216.5
419.166	229.5
419.389	236.5
419.611	242.5
419.834	206.5
420.057	223.5
420.28	224.5
420.503	219.5
420.726	218.5
420.948	220.5
421.171	209.5
421.394	219.5
421.617	216.5
421.839	207.5
422.062	214.5
422.285	185.5
422.507	216.5
422.73	224.5
422.953	224.5
423.175	217.5
423.398	220.5
423.621	225.5
423.843	215.5
424.066	220.5
424.288	236.5
424.511	237.5
424.733	216.5
424.956	247.5
425.178	260.5
425.401	330.5
425.623	374.5
425.846	255.5
426.068	240.5
426.291	256.5
426.513	246.5
426.735	235.5
426.958	249.5
427.18	272.5
427.402	301.5
427.625	341.5
427.847	276.5
428.069	241.5
428.292	223.5
428.514	216.5
428.736	252.5
428.958	299.5
429.181	323.5
429.403	246.5
429.625	219.5
429.847	229.5
430.069	227.5
430.292	206.5
430.514	224.5
430.736	215.5
430.958	204.5
431.18	193.5
431.402	211.5
431.624	200.5
431.846	200.5
432.068	191.5
432.29	197.5
432.512	235.5
432.734	205.5
432.956	219.5
433.178	185.5
433.4	221.5
433.622	225.5
433.844	256.5
434.066	280.5
434.287	257.5
434.509	251.5
434.731	227.5
434.953	223.5
435.175	263.5
435.397	264.5
435.618	212.5
435.84	206.5
436.062	208.5
436.284	217.5
436.505	202.5
436.727	204.5
436.949	223.5
437.17	223.5
437.392	218.5
437.614	219.5
437.835	218.5
438.057	193.5
438.278	205.5
438.5	209.5
438.721	204.5
438.943	206.5
439.165	193.5
439.386	204.5
439.608	192.5
439.829	215.5
440.05	209.5
440.272	203.5
440.493	207.5
440.715	201.5
440.936	191.5
441.158	229.5
441.379	194.5
441.6	210.5
441.822	213.5
442.043	222.5
442.264	215.5
442.486	233.5
442.707	210.5
442.928	239.5
443.149	230.5
443.371	225.5
443.592	212.5
443.813	222.5
444.034	223.5
444.255	212.5
444.476	228.5
444.698	212.5
444.919	214.5
445.14	302.5
445.361	272.5
445.582	229.5
445.803	228.5
446.024	218.5
446.245	208.5
446.466	207.5
446.687	192.5
446.908	198.5
447.129	203.5
447.35	186.5
447.571	222.5
447.792	208.5
448.013	203.5
448.234	205.5
448.455	193.5
448.675	206.5
448.896	202.5
449.117	211.5
449.338	204.5
449.559	214.5
449.779	245.5
450	245.5
450.221	213.5
450.442	213.5
450.662	199.5
450.883	201.5
451.104	188.5
451.324	212.5
451.545	219.5
451.766	202.5
451.986	216.5
452.207	205.5
452.428	213.5
452.648	220.5
452.869	216.5
453.089	199.5
453.31	201.5
453.53	217.5
453.751	230.5
453.971	202.5
454.192	221.5
454.412	224.5
454.633	213.5
454.853	219.5
455.073	192.5
455.294	192.5
455.514	198.5
455.734	206.5
455.955	211.5
456.175	192.5
456.395	203.5
456.616	201.5
456.836	200.5
457.056	203.5
457.276	184.5
457.497	204.5
457.717	183.5
457.937	197.5
458.157	207.5
458.377	200.5
458.598	214.5
458.818	231.5
459.038	243.5
459.258	227.5
459.478	210.5
459.698	221.5
459.918	218.5
460.138	243.5
460.358	235.5
460.578	211.5
460.798	241.5
461.018	231.5
461.238	214.5
461.458	233.5
461.678	249.5
461.898	278.5
462.118	268.5
462.338	240.5
462.558	271.5
462.777	245.5
462.997	255.5
463.217	252.5
463.437	250.5
463.657	250.5
463.876	265.5
464.096	247.5
464.316	235.5
464.536	250.5
464.755	289.5
464.975	252.5
465.195	267.5
465.414	240.5
465.634	229.5
465.854	212.5
466.073	195.5
466.293	206.5
466.512	222.5
466.732	212.5
466.951	221.5
467.171	212.5
467.391	222.5
467.61	220.5
467.829	191.5
468.049	209.5
468.268	203.5
468.488	197.5
468.707	183.5
468.927	206.5
469.146	206.5
469.365	202.5
469.585	217.5
469.804	220.5
470.023	215.5
470.243	214.5
470.462	207.5
470.681	207.5
470.901	211.5
471.12	203.5
471.339	193.5
471.558	204.5
471.777	196.5
471.997	208.5
472.216	223.5
472.435	207.5
472.654	215.5
472.873	209.5
473.092	194.5
473.311	209.5
473.53	214.5
473.749	207.5
473.968	217.5
474.187	213.5
474.406	208.5
474.625	196.5
474.844	209.5
475.063	205.5
475.282	206.5
475.501	218.5
475.72	221.5
475.939	215.5
476.158	217.5
476.377	205.5
476.596	222.5
476.814	223.5
477.033	224.5
477.252	207.5
477.471	219.5
477.69	227.5
477.908	235.5
478.127	219.5
478.346	207.5
478.564	229.5
478.783	233.5
479.002	228.5
479.22	252.5
479.439	245.5
479.658	245.5
479.876	232.5
480.095	227.5
480.313	243.5
480.532	249.5
480.751	222.5
480.969	209.5
481.188	245.5
481.406	227.5
481.624	216.5
481.843	221.5
482.061	229.5
482.28	223.5
482.498	255.5
482.717	231.5
482.935	246.5
483.153	261.5
483.372	238.5
483.59	209.5
483.808	234.5
484.027	221.5
484.245	214.5
484.463	218.5
484.681	246.5
484.9	243.5
485.118	239.5
485.336	228.5
485.554	221.5
485.772	228.5
485.99	234.5
486.209	238.5
486.427	251.5
486.645	253.5
486.863	248.5
487.081	243.5
487.299	251.5
487.517	240.5
487.735	232.5
487.953	250.5
488.171	222.5
488.389	237.5
488.607	245.5
488.825	264.5
489.043	261.5
489.261	243.5
489.479	227.5
489.696	222.5
489.914	224.5
490.132	233.5
490.35	245.5
490.568	250.5
490.786	240.5
491.003	232.5
491.221	230.5
491.439	239.5
491.657	232.5
491.874	244.5
492.092	256.5
492.31	307.5
492.527	299.5
492.745	251.5
492.963	237.5
493.18	228.5
493.398	223.5
493.615	229.5
493.833	270.5
494.05	241.5
494.268	241.5
494.485	250.5
494.703	254.5
494.92	238.5
495.138	249.5
495.355	255.5
495.573	251.5
495.79	252.5
496.008	251.5
496.225	249.5
496.442	256.5
496.66	270.5
496.877	263.5
497.094	246.5
497.312	260.5
497.529	255.5
497.746	266.5
497.963	257.5
498.181	278.5
498.398	295.5
498.615	291.5
498.832	304.5
499.049	292.5
499.267	310.5
499.484	335.5
499.701	357.5
499.918	341.5
500.135	364.5
500.352	384.5
500.569	372.5
500.786	391.5
501.003	364.5
501.22	357.5
501.437	340.5
501.654	320.5
501.871	317.5
502.088	316.5
502.305	291.5
502.522	293.5
502.739	292.5
502.956	267.5
503.172	274.5
503.389	265.5
503.606	278.5
503.823	273.5
504.04	290.5
504.256	259.5
504.473	275.5
504.69	257.5
504.907	270.5
505.123	254.5
505.34	240.5
505.557	253.5
505.773	259.5
505.99	235.5
506.207	243.5
506.423	241.5
506.64	227.5
506.856	239.5
507.073	233.5
507.289	238.5
507.506	253.5
507.722	232.5
507.939	237.5
508.155	225.5
508.372	226.5
508.588	221.5
508.805	235.5
509.021	219.5
509.238	209.5
509.454	224.5
509.67	221.5
509.887	213.5
510.103	234.5
510.319	229.5
510.536	231.5
510.752	206.5
510.968	213.5
511.184	228.5
511.401	214.5
511.617	204.5
511.833	223.5
512.049	215.5
512.265	219.5
512.481	203.5
512.698	215.5
512.914	239.5
513.13	230.5
513.346	227.5
513.562	228.5
513.778	229.5
513.994	227.5
514.21	224.5
514.426	230.5
514.642	229.5
514.858	232.5
515.074	235.5
515.29	219.5
515.506	229.5
515.721	241.5
515.937	224.5
516.153	238.5
516.369	218.5
516.585	236.5
516.801	256.5
517.016	259.5
517.232	247.5
517.448	241.5
517.664	254.5
517.879	241.5
518.095	235.5
518.311	247.5
518.527	273.5
518.742	253.5
518.958	234.5
519.173	243.5
519.389	251.5
519.605	265.5
519.82	255.5
520.036	245.5
520.251	279.5
520.467	421.5
520.682	778.5
520.898	788.5
521.113	639.5
521.329	311.5
521.544	251.5
