Data from StA_HRD10591_032.txt Node
Date: Fri May 16 15:19:00 EDT 2025
User: Yrep
Spectrometer: HR+D1059
Trigger mode: 1
Integration Time (sec): 1.000000E-1
Scans to average: 1
Electric dark correction enabled: true
Nonlinearity correction enabled: false
Boxcar width: 0
XAxis mode: Wavelengths
Number of Pixels in Spectrum: 2048
>>>>>Begin Spectral Data<<<<<
223.165	-27.5
223.4	-27.5
223.635	-27.5
223.869	-11.5
224.104	-25.5
224.338	-14.5
224.573	-18.5
224.808	-22.5
225.042	-4.5
225.277	2.5
225.511	-1.5
225.746	11.5
225.98	17.5
226.215	14.5
226.449	15.5
226.683	18.5
226.918	30.5
227.152	15.5
227.387	38.5
227.621	34.5
227.856	52.5
228.09	42.5
228.324	37.5
228.559	49.5
228.793	61.5
229.027	57.5
229.262	60.5
229.496	71.5
229.73	69.5
229.964	55.5
230.199	78.5
230.433	70.5
230.667	71.5
230.901	80.5
231.136	80.5
231.37	63.5
231.604	91.5
231.838	59.5
232.072	68.5
232.306	87.5
232.541	104.5
232.775	73.5
233.009	70.5
233.243	87.5
233.477	77.5
233.711	68.5
233.945	88.5
234.179	71.5
234.413	80.5
234.647	78.5
234.881	67.5
235.115	73.5
235.349	79.5
235.583	61.5
235.817	74.5
236.051	71.5
236.285	76.5
236.519	78.5
236.753	78.5
236.987	76.5
237.221	81.5
237.455	71.5
237.689	68.5
237.922	73.5
238.156	71.5
238.39	78.5
238.624	81.5
238.858	90.5
239.091	67.5
239.325	85.5
239.559	84.5
239.793	82.5
240.027	66.5
240.26	63.5
240.494	69.5
240.728	75.5
240.961	72.5
241.195	67.5
241.429	64.5
241.662	70.5
241.896	74.5
242.13	69.5
242.363	81.5
242.597	45.5
242.83	70.5
243.064	76.5
243.298	85.5
243.531	63.5
243.765	65.5
243.998	62.5
244.232	74.5
244.465	66.5
244.699	64.5
244.932	75.5
245.166	83.5
245.399	67.5
245.633	79.5
245.866	81.5
246.099	77.5
246.333	85.5
246.566	76.5
246.8	69.5
247.033	75.5
247.266	78.5
247.5	89.5
247.733	87.5
247.966	67.5
248.2	60.5
248.433	62.5
248.666	68.5
248.899	67.5
249.133	77.5
249.366	85.5
249.599	89.5
249.832	66.5
250.066	93.5
250.299	85.5
250.532	87.5
250.765	82.5
250.998	77.5
251.231	71.5
251.465	75.5
251.698	71.5
251.931	104.5
252.164	69.5
252.397	77.5
252.63	73.5
252.863	75.5
253.096	74.5
253.329	74.5
253.562	74.5
253.795	86.5
254.028	83.5
254.261	78.5
254.494	83.5
254.727	84.5
254.96	87.5
255.193	73.5
255.426	76.5
255.659	80.5
255.892	89.5
256.124	72.5
256.357	86.5
256.59	91.5
256.823	76.5
257.056	82.5
257.289	87.5
257.521	78.5
257.754	79.5
257.987	64.5
258.22	71.5
258.452	83.5
258.685	93.5
258.918	70.5
259.151	91.5
259.383	67.5
259.616	83.5
259.849	76.5
260.081	82.5
260.314	83.5
260.547	82.5
260.779	63.5
261.012	66.5
261.244	62.5
261.477	85.5
261.71	76.5
261.942	82.5
262.175	69.5
262.407	87.5
262.64	93.5
262.872	89.5
263.105	73.5
263.337	86.5
263.57	69.5
263.802	62.5
264.035	69.5
264.267	62.5
264.499	77.5
264.732	77.5
264.964	85.5
265.197	76.5
265.429	85.5
265.661	63.5
265.894	82.5
266.126	80.5
266.358	77.5
266.591	72.5
266.823	66.5
267.055	82.5
267.287	65.5
267.52	74.5
267.752	60.5
267.984	74.5
268.216	85.5
268.448	80.5
268.681	86.5
268.913	81.5
269.145	84.5
269.377	89.5
269.609	94.5
269.841	82.5
270.073	73.5
270.306	83.5
270.538	107.5
270.77	56.5
271.002	71.5
271.234	83.5
271.466	87.5
271.698	86.5
271.93	76.5
272.162	70.5
272.394	85.5
272.626	73.5
272.858	84.5
273.09	67.5
273.322	73.5
273.553	75.5
273.785	82.5
274.017	74.5
274.249	98.5
274.481	85.5
274.713	89.5
274.945	71.5
275.176	86.5
275.408	85.5
275.64	79.5
275.872	77.5
276.104	100.5
276.335	85.5
276.567	90.5
276.799	78.5
277.031	82.5
277.262	81.5
277.494	76.5
277.726	77.5
277.957	81.5
278.189	71.5
278.421	65.5
278.652	80.5
278.884	70.5
279.115	81.5
279.347	80.5
279.579	71.5
279.81	87.5
280.042	78.5
280.273	75.5
280.505	86.5
280.736	72.5
280.968	85.5
281.199	67.5
281.431	78.5
281.662	67.5
281.894	87.5
282.125	74.5
282.356	84.5
282.588	82.5
282.819	86.5
283.051	84.5
283.282	81.5
283.513	94.5
283.745	90.5
283.976	90.5
284.207	78.5
284.439	90.5
284.67	83.5
284.901	81.5
285.132	99.5
285.364	94.5
285.595	94.5
285.826	76.5
286.057	91.5
286.288	93.5
286.52	92.5
286.751	98.5
286.982	90.5
287.213	86.5
287.444	75.5
287.675	86.5
287.906	92.5
288.138	86.5
288.369	81.5
288.6	83.5
288.831	78.5
289.062	89.5
289.293	90.5
289.524	73.5
289.755	78.5
289.986	75.5
290.217	93.5
290.448	81.5
290.679	75.5
290.91	91.5
291.141	86.5
291.371	80.5
291.602	80.5
291.833	71.5
292.064	89.5
292.295	83.5
292.526	89.5
292.757	70.5
292.987	83.5
293.218	65.5
293.449	75.5
293.68	72.5
293.91	85.5
294.141	100.5
294.372	69.5
294.603	77.5
294.833	81.5
295.064	96.5
295.295	86.5
295.525	87.5
295.756	84.5
295.987	81.5
296.217	90.5
296.448	83.5
296.679	70.5
296.909	89.5
297.14	73.5
297.37	79.5
297.601	78.5
297.831	76.5
298.062	72.5
298.292	77.5
298.523	89.5
298.753	85.5
298.984	84.5
299.214	85.5
299.445	89.5
299.675	92.5
299.905	79.5
300.136	79.5
300.366	78.5
300.597	88.5
300.827	108.5
301.057	94.5
301.288	88.5
301.518	84.5
301.748	97.5
301.979	107.5
302.209	96.5
302.439	97.5
302.669	87.5
302.9	93.5
303.13	76.5
303.36	93.5
303.59	91.5
303.82	81.5
304.051	75.5
304.281	83.5
304.511	76.5
304.741	76.5
304.971	79.5
305.201	84.5
305.431	97.5
305.661	83.5
305.891	94.5
306.121	78.5
306.352	76.5
306.582	79.5
306.812	79.5
307.042	72.5
307.272	76.5
307.502	91.5
307.731	77.5
307.961	96.5
308.191	98.5
308.421	69.5
308.651	88.5
308.881	78.5
309.111	95.5
309.341	92.5
309.571	72.5
309.8	76.5
310.03	79.5
310.26	81.5
310.49	87.5
310.72	87.5
310.949	97.5
311.179	71.5
311.409	73.5
311.639	94.5
311.868	75.5
312.098	88.5
312.328	102.5
312.557	81.5
312.787	94.5
313.017	98.5
313.246	74.5
313.476	89.5
313.706	79.5
313.935	71.5
314.165	93.5
314.394	84.5
314.624	84.5
314.853	83.5
315.083	83.5
315.312	93.5
315.542	96.5
315.771	85.5
316.001	87.5
316.23	90.5
316.46	85.5
316.689	86.5
316.919	80.5
317.148	79.5
317.377	74.5
317.607	82.5
317.836	76.5
318.065	77.5
318.295	90.5
318.524	67.5
318.753	82.5
318.983	84.5
319.212	94.5
319.441	78.5
319.67	103.5
319.9	89.5
320.129	81.5
320.358	78.5
320.587	81.5
320.816	84.5
321.046	76.5
321.275	91.5
321.504	67.5
321.733	76.5
321.962	86.5
322.191	83.5
322.42	74.5
322.649	87.5
322.878	70.5
323.108	80.5
323.337	92.5
323.566	73.5
323.795	87.5
324.024	85.5
324.253	81.5
324.482	78.5
324.71	87.5
324.939	84.5
325.168	77.5
325.397	81.5
325.626	85.5
325.855	72.5
326.084	72.5
326.313	70.5
326.542	87.5
326.77	79.5
326.999	86.5
327.228	77.5
327.457	90.5
327.686	87.5
327.914	69.5
328.143	86.5
328.372	63.5
328.6	89.5
328.829	76.5
329.058	73.5
329.287	71.5
329.515	68.5
329.744	85.5
329.972	74.5
330.201	92.5
330.43	88.5
330.658	87.5
330.887	84.5
331.115	85.5
331.344	79.5
331.572	82.5
331.801	77.5
332.03	91.5
332.258	77.5
332.486	77.5
332.715	61.5
332.943	81.5
333.172	79.5
333.4	97.5
333.629	101.5
333.857	86.5
334.085	81.5
334.314	85.5
334.542	97.5
334.771	90.5
334.999	83.5
335.227	86.5
335.455	83.5
335.684	83.5
335.912	98.5
336.14	73.5
336.369	85.5
336.597	85.5
336.825	85.5
337.053	86.5
337.281	65.5
337.51	80.5
337.738	93.5
337.966	82.5
338.194	80.5
338.422	74.5
338.65	85.5
338.878	71.5
339.106	91.5
339.334	69.5
339.562	77.5
339.79	82.5
340.018	64.5
340.246	91.5
340.474	85.5
340.702	92.5
340.93	98.5
341.158	89.5
341.386	85.5
341.614	86.5
341.842	90.5
342.07	91.5
342.298	84.5
342.526	90.5
342.754	76.5
342.981	78.5
343.209	85.5
343.437	78.5
343.665	94.5
343.893	88.5
344.12	76.5
344.348	86.5
344.576	77.5
344.804	85.5
345.031	82.5
345.259	80.5
345.487	72.5
345.714	73.5
345.942	91.5
346.17	78.5
346.397	82.5
346.625	78.5
346.853	87.5
347.08	85.5
347.308	90.5
347.535	79.5
347.763	82.5
347.99	82.5
348.218	92.5
348.445	81.5
348.673	76.5
348.9	83.5
349.128	82.5
349.355	88.5
349.583	85.5
349.81	70.5
350.037	79.5
350.265	78.5
350.492	76.5
350.72	74.5
350.947	81.5
351.174	97.5
351.402	90.5
351.629	83.5
351.856	78.5
352.083	96.5
352.311	99.5
352.538	84.5
352.765	76.5
352.992	85.5
353.22	87.5
353.447	96.5
353.674	72.5
353.901	83.5
354.128	76.5
354.355	84.5
354.583	87.5
354.81	76.5
355.037	88.5
355.264	90.5
355.491	79.5
355.718	88.5
355.945	82.5
356.172	71.5
356.399	85.5
356.626	86.5
356.853	91.5
357.08	81.5
357.307	91.5
357.534	92.5
357.761	109.5
357.988	121.5
358.215	93.5
358.441	95.5
358.668	93.5
358.895	89.5
359.122	99.5
359.349	113.5
359.576	109.5
359.802	86.5
360.029	93.5
360.256	109.5
360.483	123.5
360.709	117.5
360.936	94.5
361.163	74.5
361.39	87.5
361.616	78.5
361.843	90.5
362.07	74.5
362.296	89.5
362.523	81.5
362.749	79.5
362.976	85.5
363.203	99.5
363.429	81.5
363.656	72.5
363.882	85.5
364.109	86.5
364.335	85.5
364.562	92.5
364.788	79.5
365.015	87.5
365.241	78.5
365.468	95.5
365.694	84.5
365.92	74.5
366.147	72.5
366.373	76.5
366.599	83.5
366.826	71.5
367.052	90.5
367.278	78.5
367.505	64.5
367.731	91.5
367.957	74.5
368.184	82.5
368.41	74.5
368.636	86.5
368.862	82.5
369.089	84.5
369.315	85.5
369.541	82.5
369.767	71.5
369.993	81.5
370.219	79.5
370.445	77.5
370.672	81.5
370.898	72.5
371.124	67.5
371.35	80.5
371.576	74.5
371.802	83.5
372.028	77.5
372.254	69.5
372.48	67.5
372.706	79.5
372.932	83.5
373.158	76.5
373.384	81.5
373.61	87.5
373.835	76.5
374.061	82.5
374.287	93.5
374.513	86.5
374.739	84.5
374.965	97.5
375.191	92.5
375.416	75.5
375.642	67.5
375.868	88.5
376.094	73.5
376.319	83.5
376.545	89.5
376.771	85.5
376.997	92.5
377.222	81.5
377.448	86.5
377.674	68.5
377.899	83.5
378.125	74.5
378.35	89.5
378.576	90.5
378.802	73.5
379.027	92.5
379.253	85.5
379.478	85.5
379.704	81.5
379.929	85.5
380.155	81.5
380.38	83.5
380.606	81.5
380.831	85.5
381.057	85.5
381.282	80.5
381.507	74.5
381.733	80.5
381.958	79.5
382.184	88.5
382.409	71.5
382.634	89.5
382.86	81.5
383.085	82.5
383.31	85.5
383.535	79.5
383.761	66.5
383.986	85.5
384.211	93.5
384.436	87.5
384.662	86.5
384.887	98.5
385.112	89.5
385.337	92.5
385.562	90.5
385.787	76.5
386.013	92.5
386.238	76.5
386.463	73.5
386.688	87.5
386.913	92.5
387.138	87.5
387.363	94.5
387.588	81.5
387.813	83.5
388.038	86.5
388.263	91.5
388.488	85.5
388.713	95.5
388.938	92.5
389.163	87.5
389.387	81.5
389.612	79.5
389.837	81.5
390.062	79.5
390.287	76.5
390.512	83.5
390.736	85.5
390.961	85.5
391.186	88.5
391.411	87.5
391.636	89.5
391.86	94.5
392.085	77.5
392.31	74.5
392.534	81.5
392.759	93.5
392.984	83.5
393.208	69.5
393.433	75.5
393.658	70.5
393.882	84.5
394.107	82.5
394.331	87.5
394.556	89.5
394.78	84.5
395.005	70.5
395.229	75.5
395.454	84.5
395.678	85.5
395.903	99.5
396.127	91.5
396.352	91.5
396.576	98.5
396.801	94.5
397.025	85.5
397.249	94.5
397.474	89.5
397.698	93.5
397.922	86.5
398.147	93.5
398.371	74.5
398.595	94.5
398.82	82.5
399.044	88.5
399.268	90.5
399.492	80.5
399.717	89.5
399.941	88.5
400.165	94.5
400.389	76.5
400.613	83.5
400.837	73.5
401.062	90.5
401.286	89.5
401.51	87.5
401.734	73.5
401.958	65.5
402.182	78.5
402.406	83.5
402.63	84.5
402.854	69.5
403.078	78.5
403.302	85.5
403.526	73.5
403.75	90.5
403.974	66.5
404.198	93.5
404.422	73.5
404.645	83.5
404.869	92.5
405.093	80.5
405.317	90.5
405.541	72.5
405.765	83.5
405.988	64.5
406.212	92.5
406.436	70.5
406.66	95.5
406.883	76.5
407.107	81.5
407.331	70.5
407.555	73.5
407.778	95.5
408.002	65.5
408.226	63.5
408.449	76.5
408.673	77.5
408.896	80.5
409.12	73.5
409.344	76.5
409.567	70.5
409.791	77.5
410.014	93.5
410.238	88.5
410.461	70.5
410.685	76.5
410.908	70.5
411.132	82.5
411.355	80.5
411.578	80.5
411.802	74.5
412.025	68.5
412.249	74.5
412.472	70.5
412.695	92.5
412.919	80.5
413.142	68.5
413.365	75.5
413.589	59.5
413.812	94.5
414.035	77.5
414.258	79.5
414.482	86.5
414.705	58.5
414.928	89.5
415.151	81.5
415.374	84.5
415.597	76.5
415.821	84.5
416.044	76.5
416.267	75.5
416.49	76.5
416.713	84.5
416.936	80.5
417.159	83.5
417.382	85.5
417.605	83.5
417.828	76.5
418.051	86.5
418.274	85.5
418.497	70.5
418.72	78.5
418.943	67.5
419.166	75.5
419.389	81.5
419.611	82.5
419.834	71.5
420.057	86.5
420.28	79.5
420.503	82.5
420.726	76.5
420.948	76.5
421.171	68.5
421.394	84.5
421.617	71.5
421.839	69.5
422.062	79.5
422.285	87.5
422.507	83.5
422.73	79.5
422.953	90.5
423.175	91.5
423.398	69.5
423.621	76.5
423.843	92.5
424.066	69.5
424.288	84.5
424.511	77.5
424.733	84.5
424.956	93.5
425.178	101.5
425.401	131.5
425.623	149.5
425.846	86.5
426.068	89.5
426.291	90.5
426.513	89.5
426.735	84.5
426.958	97.5
427.18	103.5
427.402	112.5
427.625	125.5
427.847	101.5
428.069	99.5
428.292	84.5
428.514	77.5
428.736	91.5
428.958	118.5
429.181	124.5
429.403	87.5
429.625	84.5
429.847	88.5
430.069	79.5
430.292	99.5
430.514	79.5
430.736	78.5
430.958	75.5
431.18	89.5
431.402	78.5
431.624	80.5
431.846	74.5
432.068	81.5
432.29	85.5
432.512	86.5
432.734	97.5
432.956	84.5
433.178	79.5
433.4	86.5
433.622	110.5
433.844	105.5
434.066	133.5
434.287	93.5
434.509	105.5
434.731	98.5
434.953	90.5
435.175	92.5
435.397	110.5
435.618	102.5
435.84	83.5
436.062	81.5
436.284	81.5
436.505	75.5
436.727	64.5
436.949	64.5
437.17	78.5
437.392	82.5
437.614	81.5
437.835	70.5
438.057	83.5
438.278	81.5
438.5	96.5
438.721	93.5
438.943	83.5
439.165	74.5
439.386	79.5
439.608	87.5
439.829	87.5
440.05	81.5
440.272	87.5
440.493	73.5
440.715	73.5
440.936	78.5
441.158	81.5
441.379	80.5
441.6	81.5
441.822	76.5
442.043	74.5
442.264	81.5
442.486	81.5
442.707	91.5
442.928	88.5
443.149	86.5
443.371	75.5
443.592	83.5
443.813	85.5
444.034	75.5
444.255	93.5
444.476	80.5
444.698	77.5
444.919	77.5
445.14	156.5
445.361	125.5
445.582	76.5
445.803	81.5
446.024	87.5
446.245	78.5
446.466	83.5
446.687	81.5
446.908	74.5
447.129	67.5
447.35	90.5
447.571	82.5
447.792	73.5
448.013	80.5
448.234	78.5
448.455	89.5
448.675	93.5
448.896	74.5
449.117	73.5
449.338	76.5
449.559	86.5
449.779	100.5
450	94.5
450.221	77.5
450.442	84.5
450.662	71.5
450.883	85.5
451.104	73.5
451.324	93.5
451.545	81.5
451.766	84.5
451.986	93.5
452.207	76.5
452.428	73.5
452.648	89.5
452.869	76.5
453.089	80.5
453.31	78.5
453.53	87.5
453.751	80.5
453.971	94.5
454.192	77.5
454.412	92.5
454.633	92.5
454.853	92.5
455.073	70.5
455.294	88.5
455.514	85.5
455.734	85.5
455.955	90.5
456.175	80.5
456.395	78.5
456.616	88.5
456.836	85.5
457.056	84.5
457.276	81.5
457.497	93.5
457.717	84.5
457.937	75.5
458.157	85.5
458.377	97.5
458.598	92.5
458.818	85.5
459.038	87.5
459.258	82.5
459.478	83.5
459.698	92.5
459.918	87.5
460.138	89.5
460.358	90.5
460.578	88.5
460.798	83.5
461.018	78.5
461.238	94.5
461.458	94.5
461.678	92.5
461.898	88.5
462.118	91.5
462.338	75.5
462.558	83.5
462.777	106.5
462.997	89.5
463.217	59.5
463.437	86.5
463.657	83.5
463.876	67.5
464.096	69.5
464.316	85.5
464.536	92.5
464.755	120.5
464.975	97.5
465.195	98.5
465.414	110.5
465.634	91.5
465.854	69.5
466.073	87.5
466.293	82.5
466.512	79.5
466.732	78.5
466.951	86.5
467.171	87.5
467.391	94.5
467.61	84.5
467.829	74.5
468.049	76.5
468.268	80.5
468.488	90.5
468.707	91.5
468.927	85.5
469.146	98.5
469.365	84.5
469.585	78.5
469.804	93.5
470.023	90.5
470.243	63.5
470.462	75.5
470.681	85.5
470.901	95.5
471.12	85.5
471.339	85.5
471.558	79.5
471.777	91.5
471.997	83.5
472.216	89.5
472.435	71.5
472.654	89.5
472.873	86.5
473.092	91.5
473.311	83.5
473.53	85.5
473.749	73.5
473.968	87.5
474.187	78.5
474.406	72.5
474.625	91.5
474.844	89.5
475.063	66.5
475.282	92.5
475.501	71.5
475.72	115.5
475.939	83.5
476.158	75.5
476.377	66.5
476.596	77.5
476.814	77.5
477.033	78.5
477.252	83.5
477.471	70.5
477.69	84.5
477.908	70.5
478.127	76.5
478.346	87.5
478.564	74.5
478.783	81.5
479.002	85.5
479.22	94.5
479.439	84.5
479.658	84.5
479.876	85.5
480.095	78.5
480.313	66.5
480.532	76.5
480.751	92.5
480.969	90.5
481.188	85.5
481.406	92.5
481.624	84.5
481.843	87.5
482.061	74.5
482.28	84.5
482.498	96.5
482.717	77.5
482.935	86.5
483.153	103.5
483.372	76.5
483.59	86.5
483.808	86.5
484.027	87.5
484.245	79.5
484.463	74.5
484.681	85.5
484.9	79.5
485.118	77.5
485.336	79.5
485.554	64.5
485.772	74.5
485.99	88.5
486.209	71.5
486.427	91.5
486.645	67.5
486.863	83.5
487.081	102.5
487.299	102.5
487.517	81.5
487.735	77.5
487.953	87.5
488.171	64.5
488.389	81.5
488.607	78.5
488.825	100.5
489.043	93.5
489.261	81.5
489.479	86.5
489.696	73.5
489.914	80.5
490.132	74.5
490.35	80.5
490.568	82.5
490.786	89.5
491.003	83.5
491.221	92.5
491.439	85.5
491.657	85.5
491.874	100.5
492.092	91.5
492.31	117.5
492.527	95.5
492.745	92.5
492.963	73.5
493.18	90.5
493.398	87.5
493.615	81.5
493.833	94.5
494.05	71.5
494.268	76.5
494.485	88.5
494.703	83.5
494.92	87.5
495.138	79.5
495.355	76.5
495.573	91.5
495.79	89.5
496.008	68.5
496.225	77.5
496.442	92.5
496.66	91.5
496.877	66.5
497.094	92.5
497.312	78.5
497.529	87.5
497.746	77.5
497.963	64.5
498.181	85.5
498.398	77.5
498.615	86.5
498.832	81.5
499.049	96.5
499.267	89.5
499.484	76.5
499.701	97.5
499.918	62.5
500.135	69.5
500.352	85.5
500.569	82.5
500.786	98.5
501.003	83.5
501.22	62.5
501.437	101.5
501.654	70.5
501.871	86.5
502.088	77.5
502.305	83.5
502.522	73.5
502.739	76.5
502.956	77.5
503.172	85.5
503.389	95.5
503.606	85.5
503.823	78.5
504.04	90.5
504.256	70.5
504.473	74.5
504.69	74.5
504.907	84.5
505.123	79.5
505.34	78.5
505.557	83.5
505.773	80.5
505.99	78.5
506.207	82.5
506.423	78.5
506.64	86.5
506.856	76.5
507.073	73.5
507.289	87.5
507.506	90.5
507.722	75.5
507.939	90.5
508.155	81.5
508.372	93.5
508.588	86.5
508.805	76.5
509.021	79.5
509.238	86.5
509.454	82.5
509.67	73.5
509.887	77.5
510.103	79.5
510.319	82.5
510.536	82.5
510.752	94.5
510.968	76.5
511.184	81.5
511.401	83.5
511.617	71.5
511.833	67.5
512.049	83.5
512.265	93.5
512.481	80.5
512.698	90.5
512.914	70.5
513.13	85.5
513.346	89.5
513.562	85.5
513.778	78.5
513.994	83.5
514.21	84.5
514.426	82.5
514.642	95.5
514.858	76.5
515.074	62.5
515.29	101.5
515.506	88.5
515.721	82.5
515.937	87.5
516.153	86.5
516.369	78.5
516.585	73.5
516.801	81.5
517.016	81.5
517.232	63.5
517.448	73.5
517.664	93.5
517.879	89.5
518.095	86.5
518.311	73.5
518.527	82.5
518.742	93.5
518.958	85.5
519.173	82.5
519.389	88.5
519.605	90.5
519.82	88.5
520.036	82.5
520.251	100.5
520.467	186.5
520.682	409.5
520.898	369.5
521.113	286.5
521.329	109.5
521.544	89.5
521.76	81.5
521.975	77.5
522.19	74.5
522.406	99.5
522.621	89.5
522.836	95.5
523.052	84.5
523.267	77.5
523.482	67.5
523.698	67.5
523.913	87.5
524.128	80.5
524.343	93.5
524.559	91.5
524.774	84.5
524.989	106.5
525.204	94.5
525.419	84.5
525.634	98.5
525.849	106.5
526.064	87.5
526.28	83.5
526.495	127.5
526.71	140.5
526.925	97.5
527.14	97.5
527.355	79.5
527.57	118.5
527.785	121.5
527.999	89.5
528.214	82.5
528.429	85.5
528.644	73.5
528.859	71.5
529.074	101.5
529.289	80.5
529.503	99.5
529.718	134.5
529.933	197.5
530.148	157.5
530.363	98.5
530.577	111.5
530.792	92.5
531.007	75.5
531.221	89.5
531.436	90.5
531.651	82.5
531.865	101.5
532.08	92.5
532.295	77.5
532.509	97.5
532.724	108.5
532.938	128.5
533.153	128.5
533.367	89.5
533.582	71.5
533.796	80.5
534.011	90.5
534.225	82.5
534.44	90.5
534.654	148.5
534.868	153.5
535.083	125.5
535.297	84.5
535.511	87.5
535.726	73.5
535.94	95.5
536.154	88.5
536.369	76.5
536.583	92.5
536.797	82.5
537.011	81.5
537.225	87.5
537.44	77.5
537.654	79.5
537.868	78.5
538.082	88.5
538.296	75.5
538.51	89.5
538.724	87.5
538.938	84.5
539.153	89.5
539.367	98.5
539.581	87.5
539.795	86.5
