Data from StA_HRD10591_087.txt Node
Date: Fri May 16 15:19:26 EDT 2025
User: Yrep
Spectrometer: HR+D1059
Trigger mode: 1
Integration Time (sec): 1.000000E-1
Scans to average: 1
Electric dark correction enabled: true
Nonlinearity correction enabled: false
Boxcar width: 0
XAxis mode: Wavelengths
Number of Pixels in Spectrum: 2048
>>>>>Begin Spectral Data<<<<<
223.165	-16.81
223.4	-16.81
223.635	-16.81
223.869	-29.81
224.104	-17.81
224.338	-11.81
224.573	-12.81
224.808	-16.81
225.042	-8.81
225.277	-5.81
225.511	-7.81
225.746	10.19
225.98	12.19
226.215	16.19
226.449	14.19
226.683	15.19
226.918	30.19
227.152	30.19
227.387	30.19
227.621	30.19
227.856	35.19
228.09	55.19
228.324	40.19
228.559	42.19
228.793	48.19
229.027	52.19
229.262	51.19
229.496	71.19
229.73	64.19
229.964	58.19
230.199	62.19
230.433	68.19
230.667	76.19
230.901	77.19
231.136	79.19
231.37	76.19
231.604	63.19
231.838	76.19
232.072	85.19
232.306	83.19
232.541	67.19
232.775	88.19
233.009	84.19
233.243	85.19
233.477	93.19
233.711	85.19
233.945	85.19
234.179	76.19
234.413	72.19
234.647	80.19
234.881	64.19
235.115	80.19
235.349	82.19
235.583	76.19
235.817	79.19
236.051	78.19
236.285	67.19
236.519	86.19
236.753	70.19
236.987	73.19
237.221	77.19
237.455	68.19
237.689	61.19
237.922	84.19
238.156	81.19
238.39	70.19
238.624	84.19
238.858	74.19
239.091	68.19
239.325	78.19
239.559	86.19
239.793	81.19
240.027	69.19
240.26	74.19
240.494	74.19
240.728	87.19
240.961	76.19
241.195	96.19
241.429	81.19
241.662	96.19
241.896	76.19
242.13	79.19
242.363	68.19
242.597	81.19
242.83	72.19
243.064	68.19
243.298	67.19
243.531	75.19
243.765	84.19
243.998	80.19
244.232	68.19
244.465	81.19
244.699	80.19
244.932	65.19
245.166	74.19
245.399	90.19
245.633	80.19
245.866	80.19
246.099	83.19
246.333	91.19
246.566	77.19
246.8	74.19
247.033	80.19
247.266	80.19
247.5	65.19
247.733	72.19
247.966	82.19
248.2	80.19
248.433	71.19
248.666	86.19
248.899	79.19
249.133	75.19
249.366	82.19
249.599	85.19
249.832	82.19
250.066	80.19
250.299	81.19
250.532	89.19
250.765	78.19
250.998	64.19
251.231	84.19
251.465	84.19
251.698	77.19
251.931	65.19
252.164	64.19
252.397	82.19
252.63	83.19
252.863	70.19
253.096	67.19
253.329	86.19
253.562	84.19
253.795	72.19
254.028	71.19
254.261	86.19
254.494	82.19
254.727	72.19
254.96	74.19
255.193	87.19
255.426	84.19
255.659	82.19
255.892	61.19
256.124	78.19
256.357	70.19
256.59	79.19
256.823	83.19
257.056	93.19
257.289	79.19
257.521	77.19
257.754	68.19
257.987	81.19
258.22	85.19
258.452	83.19
258.685	84.19
258.918	74.19
259.151	75.19
259.383	71.19
259.616	79.19
259.849	78.19
260.081	72.19
260.314	77.19
260.547	76.19
260.779	80.19
261.012	97.19
261.244	81.19
261.477	73.19
261.71	80.19
261.942	66.19
262.175	87.19
262.407	72.19
262.64	89.19
262.872	64.19
263.105	88.19
263.337	86.19
263.57	81.19
263.802	80.19
264.035	88.19
264.267	79.19
264.499	90.19
264.732	81.19
264.964	61.19
265.197	72.19
265.429	85.19
265.661	85.19
265.894	93.19
266.126	95.19
266.358	81.19
266.591	85.19
266.823	88.19
267.055	91.19
267.287	88.19
267.52	92.19
267.752	86.19
267.984	85.19
268.216	84.19
268.448	92.19
268.681	88.19
268.913	83.19
269.145	81.19
269.377	90.19
269.609	78.19
269.841	84.19
270.073	80.19
270.306	80.19
270.538	75.19
270.77	80.19
271.002	82.19
271.234	80.19
271.466	78.19
271.698	81.19
271.93	88.19
272.162	82.19
272.394	93.19
272.626	95.19
272.858	82.19
273.09	76.19
273.322	76.19
273.553	75.19
273.785	79.19
274.017	105.19
274.249	78.19
274.481	80.19
274.713	87.19
274.945	78.19
275.176	91.19
275.408	91.19
275.64	78.19
275.872	77.19
276.104	65.19
276.335	82.19
276.567	100.19
276.799	74.19
277.031	85.19
277.262	89.19
277.494	89.19
277.726	67.19
277.957	80.19
278.189	84.19
278.421	94.19
278.652	80.19
278.884	79.19
279.115	76.19
279.347	75.19
279.579	101.19
279.81	93.19
280.042	92.19
280.273	96.19
280.505	92.19
280.736	87.19
280.968	86.19
281.199	76.19
281.431	87.19
281.662	92.19
281.894	97.19
282.125	93.19
282.356	90.19
282.588	79.19
282.819	86.19
283.051	78.19
283.282	89.19
283.513	86.19
283.745	85.19
283.976	85.19
284.207	87.19
284.439	90.19
284.67	98.19
284.901	80.19
285.132	88.19
285.364	89.19
285.595	90.19
285.826	104.19
286.057	94.19
286.288	84.19
286.52	82.19
286.751	93.19
286.982	97.19
287.213	89.19
287.444	86.19
287.675	89.19
287.906	93.19
288.138	84.19
288.369	72.19
288.6	75.19
288.831	84.19
289.062	76.19
289.293	70.19
289.524	78.19
289.755	78.19
289.986	79.19
290.217	73.19
290.448	81.19
290.679	94.19
290.91	80.19
291.141	86.19
291.371	89.19
291.602	96.19
291.833	102.19
292.064	90.19
292.295	77.19
292.526	82.19
292.757	83.19
292.987	90.19
293.218	90.19
293.449	85.19
293.68	94.19
293.91	87.19
294.141	81.19
294.372	82.19
294.603	81.19
294.833	80.19
295.064	89.19
295.295	97.19
295.525	64.19
295.756	90.19
295.987	89.19
296.217	94.19
296.448	85.19
296.679	85.19
296.909	79.19
297.14	83.19
297.37	98.19
297.601	104.19
297.831	85.19
298.062	92.19
298.292	104.19
298.523	100.19
298.753	95.19
298.984	97.19
299.214	87.19
299.445	88.19
299.675	98.19
299.905	98.19
300.136	92.19
300.366	90.19
300.597	88.19
300.827	93.19
301.057	81.19
301.288	82.19
301.518	92.19
301.748	100.19
301.979	93.19
302.209	88.19
302.439	99.19
302.669	87.19
302.9	94.19
303.13	85.19
303.36	95.19
303.59	89.19
303.82	85.19
304.051	92.19
304.281	84.19
304.511	100.19
304.741	104.19
304.971	77.19
305.201	102.19
305.431	77.19
305.661	84.19
305.891	88.19
306.121	93.19
306.352	94.19
306.582	75.19
306.812	90.19
307.042	102.19
307.272	104.19
307.502	88.19
307.731	89.19
307.961	84.19
308.191	87.19
308.421	92.19
308.651	97.19
308.881	100.19
309.111	80.19
309.341	81.19
309.571	80.19
309.8	81.19
310.03	77.19
310.26	84.19
310.49	79.19
310.72	97.19
310.949	97.19
311.179	93.19
311.409	87.19
311.639	93.19
311.868	84.19
312.098	86.19
312.328	80.19
312.557	103.19
312.787	94.19
313.017	89.19
313.246	90.19
313.476	75.19
313.706	85.19
313.935	77.19
314.165	78.19
314.394	92.19
314.624	94.19
314.853	97.19
315.083	79.19
315.312	93.19
315.542	82.19
315.771	85.19
316.001	86.19
316.23	88.19
316.46	80.19
316.689	99.19
316.919	85.19
317.148	86.19
317.377	78.19
317.607	88.19
317.836	100.19
318.065	86.19
318.295	89.19
318.524	84.19
318.753	82.19
318.983	93.19
319.212	91.19
319.441	84.19
319.67	78.19
319.9	85.19
320.129	77.19
320.358	96.19
320.587	104.19
320.816	93.19
321.046	86.19
321.275	102.19
321.504	86.19
321.733	84.19
321.962	80.19
322.191	78.19
322.42	72.19
322.649	90.19
322.878	92.19
323.108	80.19
323.337	88.19
323.566	90.19
323.795	84.19
324.024	89.19
324.253	78.19
324.482	84.19
324.71	88.19
324.939	84.19
325.168	91.19
325.397	95.19
325.626	92.19
325.855	78.19
326.084	101.19
326.313	85.19
326.542	81.19
326.77	88.19
326.999	73.19
327.228	77.19
327.457	66.19
327.686	103.19
327.914	86.19
328.143	73.19
328.372	80.19
328.6	95.19
328.829	76.19
329.058	84.19
329.287	89.19
329.515	91.19
329.744	88.19
329.972	97.19
330.201	75.19
330.43	84.19
330.658	78.19
330.887	76.19
331.115	75.19
331.344	78.19
331.572	72.19
331.801	86.19
332.03	78.19
332.258	83.19
332.486	83.19
332.715	98.19
332.943	94.19
333.172	92.19
333.4	98.19
333.629	106.19
333.857	86.19
334.085	88.19
334.314	103.19
334.542	78.19
334.771	91.19
334.999	89.19
335.227	91.19
335.455	82.19
335.684	94.19
335.912	91.19
336.14	93.19
336.369	89.19
336.597	87.19
336.825	94.19
337.053	98.19
337.281	82.19
337.51	87.19
337.738	89.19
337.966	84.19
338.194	89.19
338.422	84.19
338.65	92.19
338.878	85.19
339.106	86.19
339.334	93.19
339.562	98.19
339.79	72.19
340.018	91.19
340.246	95.19
340.474	81.19
340.702	93.19
340.93	98.19
341.158	78.19
341.386	68.19
341.614	75.19
341.842	81.19
342.07	88.19
342.298	98.19
342.526	84.19
342.754	84.19
342.981	101.19
343.209	89.19
343.437	107.19
343.665	76.19
343.893	91.19
344.12	89.19
344.348	79.19
344.576	70.19
344.804	79.19
345.031	85.19
345.259	74.19
345.487	69.19
345.714	86.19
345.942	90.19
346.17	69.19
346.397	87.19
346.625	78.19
346.853	86.19
347.08	97.19
347.308	82.19
347.535	89.19
347.763	97.19
347.99	86.19
348.218	86.19
348.445	82.19
348.673	80.19
348.9	94.19
349.128	91.19
349.355	81.19
349.583	81.19
349.81	87.19
350.037	80.19
350.265	82.19
350.492	88.19
350.72	89.19
350.947	68.19
351.174	88.19
351.402	93.19
351.629	71.19
351.856	88.19
352.083	81.19
352.311	93.19
352.538	82.19
352.765	93.19
352.992	95.19
353.22	88.19
353.447	75.19
353.674	83.19
353.901	101.19
354.128	84.19
354.355	90.19
354.583	80.19
354.81	76.19
355.037	88.19
355.264	88.19
355.491	87.19
355.718	86.19
355.945	80.19
356.172	74.19
356.399	80.19
356.626	76.19
356.853	77.19
357.08	93.19
357.307	105.19
357.534	94.19
357.761	116.19
357.988	126.19
358.215	107.19
358.441	96.19
358.668	85.19
358.895	99.19
359.122	106.19
359.349	113.19
359.576	119.19
359.802	96.19
360.029	103.19
360.256	111.19
360.483	92.19
360.709	112.19
360.936	91.19
361.163	73.19
361.39	95.19
361.616	82.19
361.843	91.19
362.07	80.19
362.296	81.19
362.523	78.19
362.749	87.19
362.976	86.19
363.203	83.19
363.429	90.19
363.656	85.19
363.882	87.19
364.109	96.19
364.335	89.19
364.562	62.19
364.788	88.19
365.015	83.19
365.241	86.19
365.468	96.19
365.694	87.19
365.92	88.19
366.147	94.19
366.373	75.19
366.599	85.19
366.826	87.19
367.052	78.19
367.278	79.19
367.505	90.19
367.731	92.19
367.957	86.19
368.184	89.19
368.41	93.19
368.636	78.19
368.862	100.19
369.089	74.19
369.315	88.19
369.541	97.19
369.767	95.19
369.993	93.19
370.219	86.19
370.445	85.19
370.672	80.19
370.898	78.19
371.124	89.19
371.35	85.19
371.576	80.19
371.802	84.19
372.028	80.19
372.254	87.19
372.48	88.19
372.706	69.19
372.932	91.19
373.158	83.19
373.384	92.19
373.61	84.19
373.835	94.19
374.061	92.19
374.287	105.19
374.513	102.19
374.739	90.19
374.965	88.19
375.191	98.19
375.416	87.19
375.642	87.19
375.868	78.19
376.094	111.19
376.319	79.19
376.545	86.19
376.771	89.19
376.997	88.19
377.222	78.19
377.448	80.19
377.674	83.19
377.899	89.19
378.125	84.19
378.35	85.19
378.576	85.19
378.802	87.19
379.027	86.19
379.253	81.19
379.478	83.19
379.704	87.19
379.929	85.19
380.155	106.19
380.38	94.19
380.606	84.19
380.831	87.19
381.057	104.19
381.282	95.19
381.507	88.19
381.733	92.19
381.958	99.19
382.184	84.19
382.409	80.19
382.634	84.19
382.86	92.19
383.085	91.19
383.31	86.19
383.535	85.19
383.761	77.19
383.986	81.19
384.211	87.19
384.436	73.19
384.662	82.19
384.887	78.19
385.112	92.19
385.337	89.19
385.562	96.19
385.787	84.19
386.013	93.19
386.238	84.19
386.463	67.19
386.688	93.19
386.913	88.19
387.138	86.19
387.363	87.19
387.588	85.19
387.813	100.19
388.038	92.19
388.263	89.19
388.488	111.19
388.713	97.19
388.938	83.19
389.163	88.19
389.387	88.19
389.612	94.19
389.837	89.19
390.062	85.19
390.287	73.19
390.512	86.19
390.736	98.19
390.961	74.19
391.186	84.19
391.411	89.19
391.636	95.19
391.86	100.19
392.085	89.19
392.31	80.19
392.534	88.19
392.759	89.19
392.984	76.19
393.208	86.19
393.433	78.19
393.658	77.19
393.882	88.19
394.107	73.19
394.331	90.19
394.556	81.19
394.78	76.19
395.005	81.19
395.229	85.19
395.454	62.19
395.678	86.19
395.903	70.19
396.127	91.19
396.352	95.19
396.576	88.19
396.801	82.19
397.025	92.19
397.249	96.19
397.474	93.19
397.698	95.19
397.922	101.19
398.147	93.19
398.371	84.19
398.595	89.19
398.82	75.19
399.044	93.19
399.268	91.19
399.492	88.19
399.717	81.19
399.941	85.19
400.165	73.19
400.389	79.19
400.613	87.19
400.837	88.19
401.062	93.19
401.286	81.19
401.51	91.19
401.734	85.19
401.958	84.19
402.182	90.19
402.406	85.19
402.63	72.19
402.854	88.19
403.078	87.19
403.302	82.19
403.526	74.19
403.75	84.19
403.974	74.19
404.198	77.19
404.422	81.19
404.645	81.19
404.869	87.19
405.093	87.19
405.317	81.19
405.541	93.19
405.765	94.19
405.988	86.19
406.212	91.19
406.436	80.19
406.66	92.19
406.883	76.19
407.107	69.19
407.331	74.19
407.555	86.19
407.778	85.19
408.002	81.19
408.226	91.19
408.449	88.19
408.673	92.19
408.896	95.19
409.12	87.19
409.344	77.19
409.567	76.19
409.791	82.19
410.014	78.19
410.238	96.19
410.461	64.19
410.685	73.19
410.908	100.19
411.132	79.19
411.355	88.19
411.578	100.19
411.802	75.19
412.025	90.19
412.249	84.19
412.472	81.19
412.695	93.19
412.919	96.19
413.142	94.19
413.365	82.19
413.589	82.19
413.812	81.19
414.035	96.19
414.258	71.19
414.482	91.19
414.705	63.19
414.928	86.19
415.151	86.19
415.374	85.19
415.597	79.19
415.821	83.19
416.044	91.19
416.267	82.19
416.49	89.19
416.713	70.19
416.936	85.19
417.159	86.19
417.382	76.19
417.605	89.19
417.828	87.19
418.051	73.19
418.274	96.19
418.497	78.19
418.72	81.19
418.943	65.19
419.166	81.19
419.389	85.19
419.611	95.19
419.834	90.19
420.057	101.19
420.28	82.19
420.503	79.19
420.726	82.19
420.948	86.19
421.171	81.19
421.394	82.19
421.617	80.19
421.839	83.19
422.062	85.19
422.285	87.19
422.507	90.19
422.73	86.19
422.953	86.19
423.175	81.19
423.398	93.19
423.621	84.19
423.843	77.19
424.066	72.19
424.288	81.19
424.511	84.19
424.733	81.19
424.956	74.19
425.178	101.19
425.401	121.19
425.623	155.19
425.846	106.19
426.068	79.19
426.291	91.19
426.513	80.19
426.735	84.19
426.958	91.19
427.18	92.19
427.402	111.19
427.625	136.19
427.847	98.19
428.069	98.19
428.292	88.19
428.514	84.19
428.736	80.19
428.958	109.19
429.181	116.19
429.403	88.19
429.625	74.19
429.847	71.19
430.069	91.19
430.292	80.19
430.514	70.19
430.736	92.19
430.958	95.19
431.18	78.19
431.402	72.19
431.624	85.19
431.846	88.19
432.068	96.19
432.29	80.19
432.512	90.19
432.734	85.19
432.956	85.19
433.178	89.19
433.4	92.19
433.622	80.19
433.844	113.19
434.066	119.19
434.287	107.19
434.509	93.19
434.731	101.19
434.953	92.19
435.175	110.19
435.397	126.19
435.618	86.19
435.84	92.19
436.062	101.19
436.284	93.19
436.505	86.19
436.727	85.19
436.949	88.19
437.17	84.19
437.392	102.19
437.614	80.19
437.835	75.19
438.057	80.19
438.278	85.19
438.5	90.19
438.721	93.19
438.943	80.19
439.165	85.19
439.386	101.19
439.608	90.19
439.829	76.19
440.05	95.19
440.272	96.19
440.493	81.19
440.715	80.19
440.936	95.19
441.158	87.19
441.379	97.19
441.6	79.19
441.822	86.19
442.043	78.19
442.264	83.19
442.486	90.19
442.707	71.19
442.928	84.19
443.149	74.19
443.371	82.19
443.592	80.19
443.813	87.19
444.034	87.19
444.255	73.19
444.476	84.19
444.698	87.19
444.919	84.19
445.14	178.19
445.361	135.19
445.582	88.19
445.803	82.19
446.024	78.19
446.245	90.19
446.466	101.19
446.687	91.19
446.908	98.19
447.129	96.19
447.35	81.19
447.571	78.19
447.792	79.19
448.013	70.19
448.234	56.19
448.455	87.19
448.675	81.19
448.896	89.19
449.117	86.19
449.338	75.19
449.559	86.19
449.779	98.19
450	110.19
450.221	86.19
450.442	88.19
450.662	81.19
450.883	69.19
451.104	78.19
451.324	85.19
451.545	97.19
451.766	80.19
451.986	66.19
452.207	65.19
452.428	84.19
452.648	101.19
452.869	89.19
453.089	92.19
453.31	90.19
453.53	86.19
453.751	91.19
453.971	95.19
454.192	104.19
454.412	90.19
454.633	93.19
454.853	93.19
455.073	84.19
455.294	77.19
455.514	94.19
455.734	80.19
455.955	77.19
456.175	70.19
456.395	94.19
456.616	73.19
456.836	75.19
457.056	80.19
457.276	90.19
457.497	88.19
457.717	64.19
457.937	80.19
458.157	96.19
458.377	88.19
458.598	92.19
458.818	78.19
459.038	88.19
459.258	93.19
459.478	81.19
459.698	74.19
459.918	80.19
460.138	104.19
460.358	84.19
460.578	80.19
460.798	67.19
461.018	84.19
461.238	80.19
461.458	102.19
461.678	92.19
461.898	88.19
462.118	84.19
462.338	89.19
462.558	91.19
462.777	86.19
462.997	86.19
463.217	84.19
463.437	78.19
463.657	64.19
463.876	76.19
464.096	79.19
464.316	79.19
464.536	106.19
464.755	115.19
464.975	101.19
465.195	108.19
465.414	118.19
465.634	99.19
465.854	92.19
466.073	89.19
466.293	81.19
466.512	96.19
466.732	93.19
466.951	75.19
467.171	92.19
467.391	96.19
467.61	81.19
467.829	76.19
468.049	87.19
468.268	92.19
468.488	84.19
468.707	90.19
468.927	89.19
469.146	89.19
469.365	82.19
469.585	87.19
469.804	78.19
470.023	80.19
470.243	78.19
470.462	80.19
470.681	79.19
470.901	82.19
471.12	95.19
471.339	80.19
471.558	83.19
471.777	91.19
471.997	96.19
472.216	73.19
472.435	79.19
472.654	93.19
472.873	87.19
473.092	91.19
473.311	84.19
473.53	76.19
473.749	92.19
473.968	95.19
474.187	82.19
474.406	81.19
474.625	77.19
474.844	74.19
475.063	85.19
475.282	82.19
475.501	77.19
475.72	106.19
475.939	78.19
476.158	81.19
476.377	90.19
476.596	80.19
476.814	83.19
477.033	86.19
477.252	73.19
477.471	88.19
477.69	90.19
477.908	84.19
478.127	81.19
478.346	72.19
478.564	95.19
478.783	71.19
479.002	87.19
479.22	79.19
479.439	88.19
479.658	86.19
479.876	72.19
480.095	90.19
480.313	104.19
480.532	95.19
480.751	79.19
480.969	91.19
481.188	75.19
481.406	78.19
481.624	81.19
481.843	84.19
482.061	84.19
482.28	92.19
482.498	82.19
482.717	80.19
482.935	84.19
483.153	72.19
483.372	85.19
483.59	81.19
483.808	93.19
484.027	79.19
484.245	101.19
484.463	79.19
484.681	104.19
484.9	78.19
485.118	76.19
485.336	80.19
485.554	92.19
485.772	83.19
485.99	77.19
486.209	69.19
486.427	98.19
486.645	90.19
486.863	92.19
487.081	84.19
487.299	80.19
487.517	88.19
487.735	84.19
487.953	103.19
488.171	78.19
488.389	75.19
488.607	92.19
488.825	106.19
489.043	80.19
489.261	67.19
489.479	84.19
489.696	85.19
489.914	71.19
490.132	91.19
490.35	80.19
490.568	83.19
490.786	81.19
491.003	88.19
491.221	74.19
491.439	77.19
491.657	86.19
491.874	78.19
492.092	77.19
492.31	108.19
492.527	88.19
492.745	81.19
492.963	96.19
493.18	87.19
493.398	81.19
493.615	86.19
493.833	91.19
494.05	78.19
494.268	82.19
494.485	80.19
494.703	92.19
494.92	93.19
495.138	83.19
495.355	102.19
495.573	96.19
495.79	92.19
496.008	85.19
496.225	91.19
496.442	89.19
496.66	86.19
496.877	97.19
497.094	88.19
497.312	95.19
497.529	78.19
497.746	83.19
497.963	87.19
498.181	84.19
498.398	94.19
498.615	86.19
498.832	82.19
499.049	82.19
499.267	102.19
499.484	93.19
499.701	67.19
499.918	88.19
500.135	63.19
500.352	76.19
500.569	74.19
500.786	92.19
501.003	91.19
501.22	77.19
501.437	92.19
501.654	89.19
501.871	91.19
502.088	85.19
502.305	81.19
502.522	71.19
502.739	86.19
502.956	77.19
503.172	88.19
503.389	83.19
503.606	86.19
503.823	77.19
504.04	94.19
504.256	90.19
504.473	91.19
504.69	81.19
504.907	75.19
505.123	77.19
505.34	88.19
505.557	84.19
505.773	90.19
505.99	90.19
506.207	85.19
506.423	83.19
506.64	90.19
506.856	100.19
507.073	84.19
507.289	69.19
507.506	92.19
507.722	86.19
507.939	86.19
508.155	85.19
508.372	70.19
508.588	78.19
508.805	72.19
509.021	77.19
509.238	82.19
509.454	79.19
509.67	88.19
509.887	57.19
510.103	87.19
510.319	79.19
510.536	86.19
510.752	79.19
510.968	96.19
511.184	84.19
511.401	84.19
511.617	69.19
511.833	87.19
512.049	92.19
512.265	79.19
512.481	82.19
512.698	87.19
512.914	82.19
513.13	78.19
513.346	82.19
513.562	88.19
513.778	91.19
513.994	73.19
514.21	76.19
514.426	84.19
514.642	76.19
514.858	85.19
515.074	88.19
515.29	79.19
515.506	80.19
515.721	91.19
515.937	71.19
516.153	88.19
516.369	87.19
516.585	79.19
516.801	80.19
517.016	100.19
517.232	79.19
517.448	85.19
517.664	101.19
517.879	87.19
518.095	86.19
518.311	80.19
518.527	94.19
518.742	80.19
518.958	90.19
