Data from StA_HRD10591_069.txt Node
Date: Fri May 16 15:19:18 EDT 2025
User: Yrep
Spectrometer: HR+D1059
Trigger mode: 1
Integration Time (sec): 1.000000E-1
Scans to average: 1
Electric dark correction enabled: true
Nonlinearity correction enabled: false
Boxcar width: 0
XAxis mode: Wavelengths
Number of Pixels in Spectrum: 2048
>>>>>Begin Spectral Data<<<<<
223.165	-22.06
223.4	-22.06
223.635	-22.06
223.869	-16.06
224.104	-16.06
224.338	2.94
224.573	-16.06
224.808	-13.06
225.042	-17.06
225.277	-13.06
225.511	-11.06
225.746	0.94
225.98	8.94
226.215	8.94
226.449	24.94
226.683	18.94
226.918	18.94
227.152	39.94
227.387	36.94
227.621	39.94
227.856	61.94
228.09	41.94
228.324	38.94
228.559	63.94
228.793	64.94
229.027	61.94
229.262	70.94
229.496	76.94
229.73	60.94
229.964	75.94
230.199	81.94
230.433	78.94
230.667	84.94
230.901	90.94
231.136	91.94
231.37	81.94
231.604	83.94
231.838	99.94
232.072	80.94
232.306	103.94
232.541	93.94
232.775	91.94
233.009	99.94
233.243	83.94
233.477	95.94
233.711	82.94
233.945	95.94
234.179	88.94
234.413	103.94
234.647	99.94
234.881	110.94
235.115	87.94
235.349	97.94
235.583	86.94
235.817	83.94
236.051	86.94
236.285	83.94
236.519	75.94
236.753	86.94
236.987	106.94
237.221	77.94
237.455	77.94
237.689	78.94
237.922	87.94
238.156	95.94
238.39	76.94
238.624	98.94
238.858	97.94
239.091	98.94
239.325	84.94
239.559	100.94
239.793	80.94
240.027	90.94
240.26	112.94
240.494	95.94
240.728	88.94
240.961	94.94
241.195	77.94
241.429	88.94
241.662	86.94
241.896	102.94
242.13	85.94
242.363	101.94
242.597	91.94
242.83	91.94
243.064	89.94
243.298	98.94
243.531	90.94
243.765	97.94
243.998	91.94
244.232	105.94
244.465	75.94
244.699	98.94
244.932	102.94
245.166	118.94
245.399	105.94
245.633	102.94
245.866	120.94
246.099	91.94
246.333	97.94
246.566	116.94
246.8	127.94
247.033	115.94
247.266	113.94
247.5	103.94
247.733	117.94
247.966	120.94
248.2	136.94
248.433	114.94
248.666	125.94
248.899	136.94
249.133	126.94
249.366	145.94
249.599	135.94
249.832	130.94
250.066	117.94
250.299	122.94
250.532	132.94
250.765	131.94
250.998	121.94
251.231	120.94
251.465	137.94
251.698	122.94
251.931	139.94
252.164	161.94
252.397	159.94
252.63	142.94
252.863	157.94
253.096	147.94
253.329	131.94
253.562	137.94
253.795	145.94
254.028	147.94
254.261	150.94
254.494	150.94
254.727	154.94
254.96	143.94
255.193	158.94
255.426	140.94
255.659	134.94
255.892	161.94
256.124	139.94
256.357	150.94
256.59	169.94
256.823	155.94
257.056	163.94
257.289	157.94
257.521	179.94
257.754	166.94
257.987	172.94
258.22	162.94
258.452	162.94
258.685	163.94
258.918	158.94
259.151	171.94
259.383	162.94
259.616	152.94
259.849	161.94
260.081	158.94
260.314	170.94
260.547	165.94
260.779	174.94
261.012	185.94
261.244	201.94
261.477	193.94
261.71	178.94
261.942	182.94
262.175	186.94
262.407	176.94
262.64	182.94
262.872	190.94
263.105	203.94
263.337	190.94
263.57	181.94
263.802	188.94
264.035	188.94
264.267	169.94
264.499	186.94
264.732	169.94
264.964	188.94
265.197	182.94
265.429	198.94
265.661	227.94
265.894	240.94
266.126	271.94
266.358	289.94
266.591	339.94
266.823	318.94
267.055	314.94
267.287	337.94
267.52	342.94
267.752	357.94
267.984	352.94
268.216	310.94
268.448	245.94
268.681	245.94
268.913	292.94
269.145	289.94
269.377	293.94
269.609	281.94
269.841	307.94
270.073	329.94
270.306	284.94
270.538	256.94
270.77	245.94
271.002	250.94
271.234	263.94
271.466	255.94
271.698	236.94
271.93	267.94
272.162	259.94
272.394	287.94
272.626	272.94
272.858	216.94
273.09	210.94
273.322	194.94
273.553	170.94
273.785	217.94
274.017	241.94
274.249	266.94
274.481	316.94
274.713	356.94
274.945	371.94
275.176	401.94
275.408	391.94
275.64	373.94
275.872	411.94
276.104	444.94
276.335	462.94
276.567	442.94
276.799	427.94
277.031	360.94
277.262	278.94
277.494	259.94
277.726	277.94
277.957	311.94
278.189	350.94
278.421	328.94
278.652	314.94
278.884	329.94
279.115	304.94
279.347	284.94
279.579	259.94
279.81	256.94
280.042	284.94
280.273	305.94
280.505	263.94
280.736	246.94
280.968	275.94
281.199	285.94
281.431	316.94
281.662	298.94
281.894	343.94
282.125	383.94
282.356	397.94
282.588	369.94
282.819	356.94
283.051	419.94
283.282	499.94
283.513	541.94
283.745	582.94
283.976	538.94
284.207	536.94
284.439	561.94
284.67	491.94
284.901	505.94
285.132	568.94
285.364	541.94
285.595	512.94
285.826	544.94
286.057	565.94
286.288	582.94
286.52	578.94
286.751	579.94
286.982	542.94
287.213	455.94
287.444	458.94
287.675	492.94
287.906	467.94
288.138	380.94
288.369	313.94
288.6	297.94
288.831	332.94
289.062	405.94
289.293	439.94
289.524	423.94
289.755	456.94
289.986	441.94
290.217	341.94
290.448	273.94
290.679	271.94
290.91	256.94
291.141	279.94
291.371	267.94
291.602	292.94
291.833	297.94
292.064	329.94
292.295	374.94
292.526	404.94
292.757	420.94
292.987	426.94
293.218	386.94
293.449	392.94
293.68	366.94
293.91	313.94
294.141	287.94
294.372	284.94
294.603	283.94
294.833	294.94
295.064	279.94
295.295	282.94
295.525	275.94
295.756	248.94
295.987	240.94
296.217	250.94
296.448	272.94
296.679	270.94
296.909	301.94
297.14	353.94
297.37	372.94
297.601	338.94
297.831	323.94
298.062	345.94
298.292	355.94
298.523	373.94
298.753	390.94
298.984	368.94
299.214	312.94
299.445	278.94
299.675	245.94
299.905	232.94
300.136	238.94
300.366	233.94
300.597	219.94
300.827	220.94
301.057	230.94
301.288	265.94
301.518	284.94
301.748	317.94
301.979	313.94
302.209	263.94
302.439	295.94
302.669	294.94
302.9	296.94
303.13	280.94
303.36	256.94
303.59	249.94
303.82	284.94
304.051	314.94
304.281	355.94
304.511	332.94
304.741	304.94
304.971	303.94
305.201	325.94
305.431	282.94
305.661	237.94
305.891	237.94
306.121	210.94
306.352	225.94
306.582	219.94
306.812	203.94
307.042	213.94
307.272	198.94
307.502	213.94
307.731	214.94
307.961	214.94
308.191	195.94
308.421	207.94
308.651	215.94
308.881	206.94
309.111	203.94
309.341	237.94
309.571	225.94
309.8	248.94
310.03	219.94
310.26	211.94
310.49	226.94
310.72	236.94
310.949	238.94
311.179	251.94
311.409	301.94
311.639	393.94
311.868	496.94
312.098	574.94
312.328	583.94
312.557	575.94
312.787	559.94
313.017	530.94
313.246	577.94
313.476	533.94
313.706	429.94
313.935	355.94
314.165	295.94
314.394	272.94
314.624	289.94
314.853	296.94
315.083	290.94
315.312	254.94
315.542	238.94
315.771	233.94
316.001	197.94
316.23	206.94
316.46	186.94
316.689	212.94
316.919	214.94
317.148	221.94
317.377	225.94
317.607	231.94
317.836	253.94
318.065	307.94
318.295	327.94
318.524	272.94
318.753	239.94
318.983	225.94
319.212	212.94
319.441	245.94
319.67	283.94
319.9	310.94
320.129	255.94
320.358	245.94
320.587	246.94
320.816	266.94
321.046	307.94
321.275	287.94
321.504	270.94
321.733	270.94
321.962	280.94
322.191	230.94
322.42	211.94
322.649	197.94
322.878	225.94
323.108	225.94
323.337	239.94
323.566	255.94
323.795	245.94
324.024	237.94
324.253	192.94
324.482	213.94
324.71	188.94
324.939	190.94
325.168	207.94
325.397	220.94
325.626	201.94
325.855	212.94
326.084	200.94
326.313	198.94
326.542	202.94
326.77	212.94
326.999	221.94
327.228	215.94
327.457	199.94
327.686	186.94
327.914	181.94
328.143	193.94
328.372	189.94
328.6	194.94
328.829	207.94
329.058	209.94
329.287	242.94
329.515	229.94
329.744	227.94
329.972	213.94
330.201	213.94
330.43	232.94
330.658	243.94
330.887	262.94
331.115	279.94
331.344	258.94
331.572	265.94
331.801	243.94
332.03	232.94
332.258	263.94
332.486	266.94
332.715	249.94
332.943	229.94
333.172	256.94
333.4	278.94
333.629	309.94
333.857	312.94
334.085	300.94
334.314	318.94
334.542	283.94
334.771	270.94
334.999	261.94
335.227	256.94
335.455	283.94
335.684	330.94
335.912	383.94
336.14	394.94
336.369	373.94
336.597	382.94
336.825	414.94
337.053	393.94
337.281	294.94
337.51	269.94
337.738	319.94
337.966	290.94
338.194	315.94
338.422	275.94
338.65	234.94
338.878	233.94
339.106	236.94
339.334	265.94
339.562	267.94
339.79	242.94
340.018	274.94
340.246	285.94
340.474	328.94
340.702	317.94
340.93	345.94
341.158	295.94
341.386	239.94
341.614	232.94
341.842	258.94
342.07	310.94
342.298	354.94
342.526	313.94
342.754	237.94
342.981	247.94
343.209	249.94
343.437	293.94
343.665	251.94
343.893	213.94
344.12	226.94
344.348	208.94
344.576	217.94
344.804	205.94
345.031	210.94
345.259	212.94
345.487	223.94
345.714	222.94
345.942	218.94
346.17	195.94
346.397	189.94
346.625	185.94
346.853	188.94
347.08	193.94
347.308	206.94
347.535	198.94
347.763	184.94
347.99	189.94
348.218	188.94
348.445	173.94
348.673	177.94
348.9	182.94
349.128	188.94
349.355	170.94
349.583	167.94
349.81	172.94
350.037	190.94
350.265	170.94
350.492	179.94
350.72	188.94
350.947	208.94
351.174	213.94
351.402	185.94
351.629	179.94
351.856	178.94
352.083	174.94
352.311	183.94
352.538	175.94
352.765	180.94
352.992	185.94
353.22	168.94
353.447	189.94
353.674	193.94
353.901	193.94
354.128	194.94
354.355	177.94
354.583	202.94
354.81	188.94
355.037	188.94
355.264	200.94
355.491	191.94
355.718	188.94
355.945	211.94
356.172	201.94
356.399	217.94
356.626	210.94
356.853	226.94
357.08	205.94
357.307	233.94
357.534	277.94
357.761	317.94
357.988	355.94
358.215	281.94
358.441	256.94
358.668	269.94
358.895	255.94
359.122	267.94
359.349	309.94
359.576	282.94
359.802	222.94
360.029	210.94
360.256	251.94
360.483	295.94
360.709	313.94
360.936	242.94
361.163	210.94
361.39	183.94
361.616	201.94
361.843	185.94
362.07	191.94
362.296	174.94
362.523	181.94
362.749	173.94
362.976	214.94
363.203	241.94
363.429	211.94
363.656	215.94
363.882	234.94
364.109	226.94
364.335	209.94
364.562	209.94
364.788	208.94
365.015	206.94
365.241	190.94
365.468	185.94
365.694	199.94
365.92	202.94
366.147	196.94
366.373	188.94
366.599	203.94
366.826	184.94
367.052	194.94
367.278	213.94
367.505	204.94
367.731	212.94
367.957	204.94
368.184	185.94
368.41	204.94
368.636	222.94
368.862	186.94
369.089	189.94
369.315	183.94
369.541	183.94
369.767	184.94
369.993	195.94
370.219	179.94
370.445	183.94
370.672	190.94
370.898	165.94
371.124	197.94
371.35	189.94
371.576	210.94
371.802	202.94
372.028	183.94
372.254	195.94
372.48	193.94
372.706	184.94
372.932	186.94
373.158	197.94
373.384	187.94
373.61	196.94
373.835	201.94
374.061	206.94
374.287	230.94
374.513	237.94
374.739	225.94
374.965	225.94
375.191	199.94
375.416	179.94
375.642	207.94
375.868	219.94
376.094	200.94
376.319	193.94
376.545	195.94
376.771	205.94
376.997	197.94
377.222	184.94
377.448	186.94
377.674	173.94
377.899	182.94
378.125	187.94
378.35	197.94
378.576	183.94
378.802	200.94
379.027	213.94
379.253	197.94
379.478	199.94
379.704	206.94
379.929	206.94
380.155	194.94
380.38	201.94
380.606	225.94
380.831	200.94
381.057	205.94
381.282	196.94
381.507	205.94
381.733	203.94
381.958	212.94
382.184	197.94
382.409	192.94
382.634	212.94
382.86	226.94
383.085	205.94
383.31	207.94
383.535	198.94
383.761	202.94
383.986	214.94
384.211	226.94
384.436	215.94
384.662	214.94
384.887	224.94
385.112	250.94
385.337	234.94
385.562	251.94
385.787	219.94
386.013	231.94
386.238	223.94
386.463	207.94
386.688	221.94
386.913	203.94
387.138	223.94
387.363	229.94
387.588	204.94
387.813	233.94
388.038	226.94
388.263	222.94
388.488	229.94
388.713	217.94
388.938	209.94
389.163	209.94
389.387	204.94
389.612	190.94
389.837	217.94
390.062	210.94
390.287	204.94
390.512	237.94
390.736	216.94
390.961	221.94
391.186	216.94
391.411	231.94
391.636	227.94
391.86	236.94
392.085	244.94
392.31	211.94
392.534	203.94
392.759	201.94
392.984	201.94
393.208	200.94
393.433	211.94
393.658	188.94
393.882	190.94
394.107	199.94
394.331	207.94
394.556	194.94
394.78	187.94
395.005	209.94
395.229	219.94
395.454	210.94
395.678	203.94
395.903	209.94
396.127	238.94
396.352	249.94
396.576	242.94
396.801	242.94
397.025	259.94
397.249	263.94
397.474	240.94
397.698	253.94
397.922	257.94
398.147	241.94
398.371	251.94
398.595	257.94
398.82	261.94
399.044	243.94
399.268	294.94
399.492	275.94
399.717	259.94
399.941	249.94
400.165	266.94
400.389	253.94
400.613	227.94
400.837	231.94
401.062	229.94
401.286	236.94
401.51	236.94
401.734	222.94
401.958	237.94
402.182	201.94
402.406	216.94
402.63	240.94
402.854	222.94
403.078	238.94
403.302	250.94
403.526	226.94
403.75	225.94
403.974	245.94
404.198	240.94
404.422	213.94
404.645	220.94
404.869	215.94
405.093	249.94
405.317	252.94
405.541	229.94
405.765	229.94
405.988	228.94
406.212	227.94
406.436	224.94
406.66	236.94
406.883	234.94
407.107	225.94
407.331	236.94
407.555	260.94
407.778	227.94
408.002	250.94
408.226	225.94
408.449	241.94
408.673	221.94
408.896	202.94
409.12	219.94
409.344	231.94
409.567	227.94
409.791	222.94
410.014	229.94
410.238	211.94
410.461	201.94
410.685	213.94
410.908	237.94
411.132	233.94
411.355	237.94
411.578	241.94
411.802	227.94
412.025	213.94
412.249	238.94
412.472	217.94
412.695	230.94
412.919	220.94
413.142	234.94
413.365	207.94
413.589	235.94
413.812	234.94
414.035	223.94
414.258	213.94
414.482	207.94
414.705	219.94
414.928	230.94
415.151	219.94
415.374	213.94
415.597	218.94
415.821	213.94
416.044	213.94
416.267	235.94
416.49	233.94
416.713	226.94
416.936	223.94
417.159	220.94
417.382	234.94
417.605	236.94
417.828	236.94
418.051	220.94
418.274	223.94
418.497	212.94
418.72	219.94
418.943	210.94
419.166	228.94
419.389	239.94
419.611	229.94
419.834	218.94
420.057	227.94
420.28	209.94
420.503	214.94
420.726	221.94
420.948	225.94
421.171	199.94
421.394	219.94
421.617	210.94
421.839	218.94
422.062	225.94
422.285	219.94
422.507	235.94
422.73	217.94
422.953	208.94
423.175	222.94
423.398	227.94
423.621	217.94
423.843	233.94
424.066	228.94
424.288	226.94
424.511	225.94
424.733	232.94
424.956	231.94
425.178	244.94
425.401	344.94
425.623	377.94
425.846	262.94
426.068	243.94
426.291	243.94
426.513	228.94
426.735	251.94
426.958	254.94
427.18	253.94
427.402	311.94
427.625	333.94
427.847	269.94
428.069	226.94
428.292	225.94
428.514	238.94
428.736	216.94
428.958	301.94
429.181	327.94
429.403	254.94
429.625	229.94
429.847	219.94
430.069	225.94
430.292	226.94
430.514	219.94
430.736	202.94
430.958	199.94
431.18	197.94
431.402	211.94
431.624	203.94
431.846	204.94
432.068	207.94
432.29	201.94
432.512	207.94
432.734	197.94
432.956	199.94
433.178	212.94
433.4	205.94
433.622	225.94
433.844	255.94
434.066	298.94
434.287	257.94
434.509	267.94
434.731	256.94
434.953	229.94
435.175	260.94
435.397	267.94
435.618	226.94
435.84	202.94
436.062	213.94
436.284	219.94
436.505	204.94
436.727	193.94
436.949	206.94
437.17	218.94
437.392	252.94
437.614	216.94
437.835	198.94
438.057	205.94
438.278	210.94
438.5	196.94
438.721	205.94
438.943	199.94
439.165	201.94
439.386	210.94
439.608	205.94
439.829	206.94
440.05	220.94
440.272	207.94
440.493	212.94
440.715	197.94
440.936	202.94
441.158	206.94
441.379	221.94
441.6	210.94
441.822	212.94
442.043	221.94
442.264	231.94
442.486	216.94
442.707	217.94
442.928	225.94
443.149	228.94
443.371	215.94
443.592	217.94
443.813	211.94
444.034	207.94
444.255	214.94
444.476	211.94
444.698	231.94
444.919	219.94
445.14	299.94
445.361	256.94
445.582	219.94
445.803	206.94
446.024	213.94
446.245	211.94
446.466	194.94
446.687	206.94
446.908	217.94
447.129	209.94
447.35	206.94
447.571	212.94
447.792	206.94
448.013	208.94
448.234	201.94
448.455	197.94
448.675	187.94
448.896	213.94
449.117	223.94
449.338	223.94
449.559	214.94
449.779	221.94
450	233.94
450.221	221.94
450.442	212.94
450.662	206.94
450.883	193.94
451.104	203.94
451.324	189.94
451.545	213.94
451.766	207.94
451.986	226.94
452.207	191.94
452.428	182.94
452.648	222.94
452.869	226.94
453.089	209.94
453.31	212.94
453.53	227.94
453.751	215.94
453.971	217.94
454.192	212.94
454.412	197.94
454.633	229.94
454.853	229.94
455.073	198.94
455.294	197.94
455.514	212.94
455.734	228.94
455.955	216.94
456.175	220.94
456.395	193.94
456.616	202.94
456.836	201.94
457.056	203.94
457.276	211.94
457.497	203.94
457.717	195.94
457.937	187.94
458.157	216.94
458.377	199.94
458.598	217.94
458.818	221.94
459.038	222.94
459.258	211.94
459.478	215.94
459.698	226.94
459.918	232.94
460.138	227.94
460.358	220.94
460.578	223.94
460.798	216.94
461.018	217.94
461.238	220.94
461.458	238.94
461.678	255.94
461.898	263.94
462.118	249.94
462.338	225.94
462.558	257.94
462.777	260.94
462.997	242.94
463.217	259.94
463.437	254.94
463.657	249.94
463.876	236.94
464.096	234.94
464.316	244.94
464.536	242.94
464.755	277.94
464.975	254.94
465.195	259.94
465.414	257.94
465.634	230.94
465.854	209.94
466.073	208.94
466.293	212.94
466.512	227.94
466.732	231.94
466.951	219.94
467.171	229.94
467.391	188.94
467.61	202.94
467.829	195.94
468.049	202.94
468.268	194.94
468.488	203.94
468.707	199.94
468.927	193.94
469.146	215.94
469.365	203.94
469.585	209.94
469.804	201.94
470.023	227.94
470.243	199.94
470.462	211.94
470.681	207.94
470.901	221.94
471.12	223.94
471.339	206.94
471.558	209.94
471.777	199.94
471.997	215.94
472.216	185.94
472.435	207.94
472.654	199.94
472.873	208.94
473.092	214.94
473.311	204.94
473.53	203.94
473.749	203.94
473.968	232.94
474.187	214.94
474.406	214.94
474.625	214.94
474.844	196.94
475.063	201.94
475.282	206.94
475.501	194.94
475.72	231.94
475.939	239.94
476.158	214.94
476.377	183.94
476.596	211.94
476.814	227.94
477.033	208.94
477.252	211.94
477.471	200.94
477.69	225.94
477.908	207.94
478.127	211.94
478.346	218.94
478.564	227.94
478.783	234.94
479.002	233.94
479.22	263.94
479.439	252.94
479.658	235.94
479.876	231.94
480.095	237.94
480.313	249.94
480.532	235.94
480.751	227.94
480.969	233.94
481.188	230.94
481.406	216.94
481.624	229.94
481.843	231.94
482.061	216.94
482.28	227.94
482.498	244.94
482.717	239.94
482.935	219.94
483.153	233.94
483.372	243.94
483.59	227.94
483.808	251.94
484.027	216.94
484.245	235.94
484.463	236.94
484.681	247.94
484.9	242.94
485.118	234.94
485.336	227.94
485.554	218.94
485.772	237.94
485.99	233.94
486.209	237.94
486.427	264.94
486.645	262.94
486.863	248.94
487.081	238.94
487.299	265.94
487.517	231.94
487.735	249.94
487.953	229.94
488.171	237.94
488.389	247.94
488.607	218.94
488.825	274.94
489.043	260.94
489.261	237.94
489.479	213.94
489.696	240.94
489.914	225.94
490.132	228.94
490.35	231.94
490.568	235.94
490.786	235.94
491.003	231.94
491.221	225.94
491.439	233.94
491.657	238.94
491.874	248.94
492.092	267.94
492.31	295.94
492.527	296.94
492.745	254.94
492.963	247.94
493.18	261.94
493.398	238.94
493.615	254.94
493.833	242.94
494.05	237.94
494.268	251.94
494.485	241.94
494.703	225.94
494.92	230.94
495.138	244.94
495.355	248.94
495.573	250.94
495.79	234.94
496.008	243.94
496.225	246.94
496.442	255.94
496.66	244.94
496.877	253.94
497.094	241.94
497.312	245.94
497.529	265.94
497.746	260.94
497.963	261.94
498.181	264.94
498.398	303.94
498.615	293.94
498.832	296.94
499.049	307.94
499.267	298.94
499.484	313.94
499.701	319.94
499.918	339.94
500.135	356.94
500.352	377.94
500.569	369.94
500.786	387.94
501.003	377.94
501.22	369.94
501.437	344.94
501.654	313.94
501.871	291.94
502.088	293.94
502.305	313.94
502.522	285.94
502.739	278.94
502.956	284.94
503.172	275.94
503.389	259.94
503.606	277.94
