Data from StA_HRD10591_051.txt Node
Date: Fri May 16 15:19:09 EDT 2025
User: Yrep
Spectrometer: HR+D1059
Trigger mode: 1
Integration Time (sec): 1.000000E-1
Scans to average: 1
Electric dark correction enabled: true
Nonlinearity correction enabled: false
Boxcar width: 0
XAxis mode: Wavelengths
Number of Pixels in Spectrum: 2048
>>>>>Begin Spectral Data<<<<<
223.165	-19.06
223.4	-19.06
223.635	-19.06
223.869	-26.06
224.104	-11.06
224.338	-6.06
224.573	-10.06
224.808	-22.06
225.042	-5.06
225.277	-12.06
225.511	-2.06
225.746	8.94
225.98	6.94
226.215	8.94
226.449	19.94
226.683	10.94
226.918	29.94
227.152	27.94
227.387	29.94
227.621	50.94
227.856	53.94
228.09	46.94
228.324	60.94
228.559	60.94
228.793	61.94
229.027	65.94
229.262	71.94
229.496	77.94
229.73	84.94
229.964	75.94
230.199	87.94
230.433	96.94
230.667	83.94
230.901	99.94
231.136	99.94
231.37	86.94
231.604	89.94
231.838	101.94
232.072	104.94
232.306	97.94
232.541	101.94
232.775	86.94
233.009	90.94
233.243	93.94
233.477	95.94
233.711	88.94
233.945	88.94
234.179	95.94
234.413	105.94
234.647	80.94
234.881	108.94
235.115	96.94
235.349	94.94
235.583	83.94
235.817	100.94
236.051	99.94
236.285	83.94
236.519	73.94
236.753	87.94
236.987	87.94
237.221	91.94
237.455	97.94
237.689	89.94
237.922	87.94
238.156	78.94
238.39	77.94
238.624	86.94
238.858	86.94
239.091	92.94
239.325	91.94
239.559	95.94
239.793	83.94
240.027	97.94
240.26	91.94
240.494	111.94
240.728	93.94
240.961	100.94
241.195	102.94
241.429	88.94
241.662	108.94
241.896	96.94
242.13	87.94
242.363	96.94
242.597	95.94
242.83	91.94
243.064	90.94
243.298	84.94
243.531	85.94
243.765	102.94
243.998	93.94
244.232	107.94
244.465	102.94
244.699	99.94
244.932	97.94
245.166	89.94
245.399	112.94
245.633	93.94
245.866	103.94
246.099	107.94
246.333	109.94
246.566	121.94
246.8	107.94
247.033	128.94
247.266	112.94
247.5	107.94
247.733	120.94
247.966	121.94
248.2	129.94
248.433	113.94
248.666	127.94
248.899	140.94
249.133	124.94
249.366	123.94
249.599	128.94
249.832	117.94
250.066	118.94
250.299	113.94
250.532	128.94
250.765	128.94
250.998	115.94
251.231	120.94
251.465	120.94
251.698	144.94
251.931	143.94
252.164	146.94
252.397	145.94
252.63	155.94
252.863	143.94
253.096	149.94
253.329	152.94
253.562	150.94
253.795	155.94
254.028	169.94
254.261	151.94
254.494	148.94
254.727	151.94
254.96	132.94
255.193	148.94
255.426	144.94
255.659	152.94
255.892	150.94
256.124	156.94
256.357	165.94
256.59	184.94
256.823	182.94
257.056	170.94
257.289	169.94
257.521	181.94
257.754	176.94
257.987	168.94
258.22	179.94
258.452	168.94
258.685	178.94
258.918	173.94
259.151	171.94
259.383	173.94
259.616	153.94
259.849	167.94
260.081	181.94
260.314	163.94
260.547	164.94
260.779	188.94
261.012	193.94
261.244	183.94
261.477	190.94
261.71	185.94
261.942	184.94
262.175	181.94
262.407	191.94
262.64	186.94
262.872	205.94
263.105	206.94
263.337	185.94
263.57	175.94
263.802	192.94
264.035	193.94
264.267	196.94
264.499	183.94
264.732	167.94
264.964	165.94
265.197	164.94
265.429	223.94
265.661	222.94
265.894	230.94
266.126	280.94
266.358	301.94
266.591	336.94
266.823	332.94
267.055	320.94
267.287	330.94
267.52	339.94
267.752	375.94
267.984	393.94
268.216	300.94
268.448	249.94
268.681	245.94
268.913	297.94
269.145	309.94
269.377	296.94
269.609	295.94
269.841	299.94
270.073	334.94
270.306	287.94
270.538	265.94
270.77	266.94
271.002	237.94
271.234	265.94
271.466	253.94
271.698	247.94
271.93	271.94
272.162	281.94
272.394	273.94
272.626	263.94
272.858	255.94
273.09	208.94
273.322	196.94
273.553	191.94
273.785	215.94
274.017	231.94
274.249	283.94
274.481	317.94
274.713	332.94
274.945	363.94
275.176	397.94
275.408	379.94
275.64	356.94
275.872	397.94
276.104	446.94
276.335	459.94
276.567	460.94
276.799	432.94
277.031	368.94
277.262	295.94
277.494	279.94
277.726	270.94
277.957	326.94
278.189	347.94
278.421	310.94
278.652	308.94
278.884	327.94
279.115	310.94
279.347	277.94
279.579	259.94
279.81	259.94
280.042	294.94
280.273	293.94
280.505	260.94
280.736	262.94
280.968	274.94
281.199	303.94
281.431	318.94
281.662	316.94
281.894	329.94
282.125	391.94
282.356	389.94
282.588	359.94
282.819	358.94
283.051	410.94
283.282	514.94
283.513	562.94
283.745	620.94
283.976	563.94
284.207	526.94
284.439	531.94
284.67	509.94
284.901	504.94
285.132	556.94
285.364	540.94
285.595	522.94
285.826	520.94
286.057	552.94
286.288	560.94
286.52	603.94
286.751	576.94
286.982	541.94
287.213	477.94
287.444	470.94
287.675	487.94
287.906	464.94
288.138	380.94
288.369	319.94
288.6	299.94
288.831	365.94
289.062	393.94
289.293	427.94
289.524	446.94
289.755	470.94
289.986	417.94
290.217	345.94
290.448	283.94
290.679	271.94
290.91	267.94
291.141	277.94
291.371	291.94
291.602	286.94
291.833	302.94
292.064	317.94
292.295	366.94
292.526	404.94
292.757	417.94
292.987	438.94
293.218	391.94
293.449	375.94
293.68	346.94
293.91	315.94
294.141	317.94
294.372	286.94
294.603	277.94
294.833	274.94
295.064	270.94
295.295	265.94
295.525	271.94
295.756	257.94
295.987	254.94
296.217	260.94
296.448	273.94
296.679	264.94
296.909	295.94
297.14	351.94
297.37	368.94
297.601	340.94
297.831	321.94
298.062	350.94
298.292	349.94
298.523	366.94
298.753	391.94
298.984	371.94
299.214	317.94
299.445	259.94
299.675	246.94
299.905	239.94
300.136	227.94
300.366	223.94
300.597	231.94
300.827	215.94
301.057	243.94
301.288	253.94
301.518	293.94
301.748	305.94
301.979	299.94
302.209	305.94
302.439	287.94
302.669	315.94
302.9	291.94
303.13	277.94
303.36	267.94
303.59	258.94
303.82	296.94
304.051	341.94
304.281	357.94
304.511	320.94
304.741	305.94
304.971	319.94
305.201	326.94
305.431	285.94
305.661	259.94
305.891	246.94
306.121	226.94
306.352	220.94
306.582	206.94
306.812	213.94
307.042	222.94
307.272	209.94
307.502	231.94
307.731	201.94
307.961	224.94
308.191	214.94
308.421	190.94
308.651	199.94
308.881	215.94
309.111	217.94
309.341	233.94
309.571	251.94
309.8	233.94
310.03	215.94
310.26	213.94
310.49	220.94
310.72	248.94
310.949	248.94
311.179	272.94
311.409	304.94
311.639	371.94
311.868	499.94
312.098	585.94
312.328	585.94
312.557	563.94
312.787	559.94
313.017	517.94
313.246	557.94
313.476	527.94
313.706	397.94
313.935	347.94
314.165	306.94
314.394	269.94
314.624	296.94
314.853	315.94
315.083	302.94
315.312	270.94
315.542	231.94
315.771	217.94
316.001	211.94
316.23	205.94
316.46	207.94
316.689	212.94
316.919	213.94
317.148	217.94
317.377	235.94
317.607	248.94
317.836	270.94
318.065	317.94
318.295	339.94
318.524	275.94
318.753	227.94
318.983	204.94
319.212	218.94
319.441	256.94
319.67	288.94
319.9	288.94
320.129	254.94
320.358	242.94
320.587	254.94
320.816	265.94
321.046	282.94
321.275	278.94
321.504	262.94
321.733	285.94
321.962	270.94
322.191	240.94
322.42	194.94
322.649	208.94
322.878	219.94
323.108	213.94
323.337	250.94
323.566	252.94
323.795	244.94
324.024	237.94
324.253	209.94
324.482	192.94
324.71	192.94
324.939	203.94
325.168	213.94
325.397	222.94
325.626	213.94
325.855	211.94
326.084	197.94
326.313	224.94
326.542	209.94
326.77	219.94
326.999	232.94
327.228	208.94
327.457	203.94
327.686	194.94
327.914	191.94
328.143	193.94
328.372	191.94
328.6	207.94
328.829	216.94
329.058	228.94
329.287	222.94
329.515	230.94
329.744	237.94
329.972	204.94
330.201	225.94
330.43	225.94
330.658	257.94
330.887	303.94
331.115	287.94
331.344	275.94
331.572	238.94
331.801	220.94
332.03	245.94
332.258	254.94
332.486	257.94
332.715	271.94
332.943	246.94
333.172	254.94
333.4	286.94
333.629	318.94
333.857	324.94
334.085	308.94
334.314	314.94
334.542	281.94
334.771	279.94
334.999	269.94
335.227	251.94
335.455	282.94
335.684	315.94
335.912	383.94
336.14	399.94
336.369	380.94
336.597	361.94
336.825	424.94
337.053	372.94
337.281	273.94
337.51	264.94
337.738	278.94
337.966	305.94
338.194	295.94
338.422	276.94
338.65	243.94
338.878	222.94
339.106	251.94
339.334	274.94
339.562	269.94
339.79	263.94
340.018	275.94
340.246	285.94
340.474	334.94
340.702	331.94
340.93	324.94
341.158	293.94
341.386	232.94
341.614	234.94
341.842	269.94
342.07	338.94
342.298	375.94
342.526	309.94
342.754	257.94
342.981	251.94
343.209	255.94
343.437	288.94
343.665	278.94
343.893	214.94
344.12	207.94
344.348	211.94
344.576	215.94
344.804	203.94
345.031	210.94
345.259	226.94
345.487	231.94
345.714	213.94
345.942	214.94
346.17	209.94
346.397	188.94
346.625	187.94
346.853	187.94
347.08	181.94
347.308	183.94
347.535	183.94
347.763	190.94
347.99	182.94
348.218	188.94
348.445	183.94
348.673	177.94
348.9	184.94
349.128	179.94
349.355	180.94
349.583	197.94
349.81	181.94
350.037	191.94
350.265	180.94
350.492	171.94
350.72	179.94
350.947	187.94
351.174	182.94
351.402	185.94
351.629	181.94
351.856	183.94
352.083	188.94
352.311	192.94
352.538	190.94
352.765	179.94
352.992	185.94
353.22	188.94
353.447	172.94
353.674	186.94
353.901	177.94
354.128	193.94
354.355	177.94
354.583	203.94
354.81	199.94
355.037	196.94
355.264	191.94
355.491	198.94
355.718	216.94
355.945	212.94
356.172	215.94
356.399	203.94
356.626	208.94
356.853	213.94
357.08	206.94
357.307	227.94
357.534	275.94
357.761	316.94
357.988	355.94
358.215	294.94
358.441	250.94
358.668	262.94
358.895	237.94
359.122	277.94
359.349	300.94
359.576	304.94
359.802	236.94
360.029	233.94
360.256	267.94
360.483	299.94
360.709	305.94
360.936	235.94
361.163	199.94
361.39	204.94
361.616	194.94
361.843	181.94
362.07	181.94
362.296	184.94
362.523	189.94
362.749	192.94
362.976	192.94
363.203	204.94
363.429	216.94
363.656	217.94
363.882	218.94
364.109	220.94
364.335	213.94
364.562	196.94
364.788	197.94
365.015	204.94
365.241	204.94
365.468	214.94
365.694	203.94
365.92	185.94
366.147	191.94
366.373	199.94
366.599	207.94
366.826	198.94
367.052	160.94
367.278	204.94
367.505	205.94
367.731	209.94
367.957	231.94
368.184	207.94
368.41	197.94
368.636	212.94
368.862	210.94
369.089	201.94
369.315	200.94
369.541	209.94
369.767	210.94
369.993	185.94
370.219	179.94
370.445	181.94
370.672	181.94
370.898	194.94
371.124	183.94
371.35	215.94
371.576	207.94
371.802	192.94
372.028	184.94
372.254	193.94
372.48	179.94
372.706	190.94
372.932	196.94
373.158	191.94
373.384	188.94
373.61	176.94
373.835	207.94
374.061	215.94
374.287	232.94
374.513	231.94
374.739	205.94
374.965	208.94
375.191	205.94
375.416	196.94
375.642	198.94
375.868	202.94
376.094	208.94
376.319	193.94
376.545	172.94
376.771	187.94
376.997	196.94
377.222	178.94
377.448	199.94
377.674	181.94
377.899	205.94
378.125	180.94
378.35	185.94
378.576	183.94
378.802	197.94
379.027	200.94
379.253	201.94
379.478	199.94
379.704	199.94
379.929	214.94
380.155	180.94
380.38	203.94
380.606	201.94
380.831	193.94
381.057	204.94
381.282	197.94
381.507	206.94
381.733	227.94
381.958	203.94
382.184	209.94
382.409	218.94
382.634	215.94
382.86	208.94
383.085	205.94
383.31	207.94
383.535	206.94
383.761	209.94
383.986	220.94
384.211	229.94
384.436	212.94
384.662	204.94
384.887	221.94
385.112	236.94
385.337	240.94
385.562	247.94
385.787	228.94
386.013	236.94
386.238	200.94
386.463	236.94
386.688	241.94
386.913	206.94
387.138	216.94
387.363	205.94
387.588	236.94
387.813	231.94
388.038	217.94
388.263	236.94
388.488	236.94
388.713	238.94
388.938	220.94
389.163	192.94
389.387	201.94
389.612	223.94
389.837	214.94
390.062	200.94
390.287	210.94
390.512	221.94
390.736	211.94
390.961	208.94
391.186	201.94
391.411	224.94
391.636	227.94
391.86	234.94
392.085	236.94
392.31	232.94
392.534	204.94
392.759	215.94
392.984	212.94
393.208	209.94
393.433	199.94
393.658	209.94
393.882	196.94
394.107	204.94
394.331	206.94
394.556	211.94
394.78	232.94
395.005	191.94
395.229	203.94
395.454	219.94
395.678	207.94
395.903	208.94
396.127	232.94
396.352	248.94
396.576	254.94
396.801	241.94
397.025	253.94
397.249	252.94
397.474	247.94
397.698	264.94
397.922	254.94
398.147	237.94
398.371	251.94
398.595	245.94
398.82	252.94
399.044	257.94
399.268	262.94
399.492	259.94
399.717	252.94
399.941	251.94
400.165	255.94
400.389	257.94
400.613	267.94
400.837	237.94
401.062	231.94
401.286	235.94
401.51	227.94
401.734	215.94
401.958	223.94
402.182	227.94
402.406	232.94
402.63	221.94
402.854	234.94
403.078	244.94
403.302	232.94
403.526	243.94
403.75	229.94
403.974	229.94
404.198	214.94
404.422	230.94
404.645	227.94
404.869	242.94
405.093	239.94
405.317	239.94
405.541	232.94
405.765	217.94
405.988	247.94
406.212	228.94
406.436	240.94
406.66	242.94
406.883	222.94
407.107	245.94
407.331	235.94
407.555	248.94
407.778	238.94
408.002	251.94
408.226	217.94
408.449	247.94
408.673	236.94
408.896	227.94
409.12	232.94
409.344	241.94
409.567	214.94
409.791	238.94
410.014	227.94
410.238	213.94
410.461	237.94
410.685	232.94
410.908	234.94
411.132	247.94
411.355	233.94
411.578	224.94
411.802	236.94
412.025	230.94
412.249	240.94
412.472	231.94
412.695	243.94
412.919	234.94
413.142	235.94
413.365	244.94
413.589	216.94
413.812	225.94
414.035	212.94
414.258	211.94
414.482	229.94
414.705	211.94
414.928	219.94
415.151	211.94
415.374	220.94
415.597	223.94
415.821	212.94
416.044	214.94
416.267	219.94
416.49	238.94
416.713	229.94
416.936	201.94
417.159	205.94
417.382	220.94
417.605	216.94
417.828	202.94
418.051	217.94
418.274	199.94
418.497	224.94
418.72	196.94
418.943	218.94
419.166	227.94
419.389	225.94
419.611	241.94
419.834	225.94
420.057	217.94
420.28	233.94
420.503	222.94
420.726	210.94
420.948	220.94
421.171	224.94
421.394	227.94
421.617	201.94
421.839	225.94
422.062	214.94
422.285	214.94
422.507	246.94
422.73	226.94
422.953	225.94
423.175	221.94
423.398	231.94
423.621	224.94
423.843	223.94
424.066	225.94
424.288	245.94
424.511	219.94
424.733	213.94
424.956	219.94
425.178	255.94
425.401	321.94
425.623	377.94
425.846	270.94
426.068	247.94
426.291	243.94
426.513	235.94
426.735	243.94
426.958	240.94
427.18	251.94
427.402	321.94
427.625	379.94
427.847	278.94
428.069	229.94
428.292	241.94
428.514	232.94
428.736	227.94
428.958	313.94
429.181	317.94
429.403	237.94
429.625	222.94
429.847	224.94
430.069	217.94
430.292	240.94
430.514	215.94
430.736	205.94
430.958	216.94
431.18	208.94
431.402	192.94
431.624	203.94
431.846	214.94
432.068	199.94
432.29	233.94
432.512	215.94
432.734	221.94
432.956	206.94
433.178	201.94
433.4	210.94
433.622	241.94
433.844	276.94
434.066	279.94
434.287	269.94
434.509	278.94
434.731	252.94
434.953	237.94
435.175	262.94
435.397	252.94
435.618	227.94
435.84	236.94
436.062	221.94
436.284	223.94
436.505	222.94
436.727	208.94
436.949	219.94
437.17	219.94
437.392	240.94
437.614	221.94
437.835	214.94
438.057	197.94
438.278	211.94
438.5	214.94
438.721	232.94
438.943	220.94
439.165	200.94
439.386	209.94
439.608	218.94
439.829	200.94
440.05	196.94
440.272	198.94
440.493	215.94
440.715	209.94
440.936	209.94
441.158	230.94
441.379	210.94
441.6	203.94
441.822	215.94
442.043	231.94
442.264	229.94
442.486	222.94
442.707	204.94
442.928	241.94
443.149	222.94
443.371	229.94
443.592	221.94
443.813	231.94
444.034	245.94
444.255	231.94
444.476	223.94
444.698	224.94
444.919	234.94
445.14	298.94
445.361	252.94
445.582	211.94
445.803	212.94
446.024	208.94
446.245	222.94
446.466	213.94
446.687	209.94
446.908	220.94
447.129	209.94
447.35	203.94
447.571	218.94
447.792	215.94
448.013	200.94
448.234	218.94
448.455	209.94
448.675	216.94
448.896	197.94
449.117	207.94
449.338	185.94
449.559	206.94
449.779	223.94
450	237.94
450.221	219.94
450.442	214.94
450.662	201.94
450.883	206.94
451.104	202.94
451.324	211.94
451.545	214.94
451.766	212.94
451.986	204.94
452.207	206.94
452.428	208.94
452.648	205.94
452.869	225.94
453.089	192.94
453.31	201.94
453.53	194.94
453.751	212.94
453.971	200.94
454.192	219.94
454.412	212.94
454.633	228.94
454.853	218.94
455.073	197.94
455.294	199.94
455.514	198.94
455.734	220.94
455.955	212.94
456.175	216.94
456.395	220.94
456.616	196.94
456.836	210.94
457.056	205.94
457.276	194.94
457.497	174.94
457.717	191.94
457.937	216.94
458.157	203.94
458.377	213.94
458.598	204.94
458.818	217.94
459.038	242.94
459.258	222.94
459.478	233.94
459.698	238.94
459.918	229.94
460.138	228.94
460.358	228.94
460.578	217.94
460.798	235.94
461.018	225.94
461.238	225.94
461.458	244.94
461.678	267.94
461.898	259.94
462.118	255.94
462.338	246.94
462.558	257.94
462.777	285.94
462.997	257.94
463.217	263.94
463.437	240.94
463.657	233.94
463.876	251.94
464.096	234.94
464.316	249.94
464.536	248.94
464.755	296.94
464.975	276.94
465.195	256.94
465.414	278.94
465.634	229.94
465.854	208.94
466.073	212.94
466.293	216.94
466.512	213.94
466.732	238.94
466.951	215.94
467.171	216.94
467.391	223.94
467.61	208.94
467.829	187.94
468.049	193.94
468.268	208.94
468.488	185.94
468.707	185.94
468.927	214.94
469.146	222.94
469.365	210.94
469.585	198.94
469.804	207.94
470.023	235.94
470.243	211.94
470.462	204.94
470.681	206.94
470.901	197.94
471.12	217.94
471.339	220.94
471.558	208.94
471.777	192.94
471.997	206.94
472.216	222.94
472.435	196.94
472.654	215.94
472.873	215.94
473.092	202.94
473.311	201.94
473.53	219.94
473.749	212.94
473.968	205.94
474.187	200.94
474.406	194.94
474.625	215.94
474.844	223.94
475.063	199.94
475.282	234.94
475.501	222.94
475.72	254.94
475.939	220.94
476.158	215.94
476.377	208.94
476.596	202.94
476.814	216.94
477.033	215.94
477.252	214.94
477.471	228.94
477.69	220.94
477.908	216.94
478.127	213.94
478.346	213.94
478.564	241.94
478.783	223.94
479.002	236.94
479.22	269.94
479.439	246.94
479.658	228.94
479.876	222.94
480.095	223.94
480.313	245.94
480.532	247.94
480.751	239.94
480.969	229.94
481.188	230.94
481.406	221.94
481.624	246.94
481.843	234.94
482.061	231.94
482.28	224.94
482.498	238.94
482.717	241.94
482.935	239.94
483.153	240.94
483.372	215.94
483.59	233.94
483.808	213.94
484.027	227.94
484.245	238.94
484.463	223.94
484.681	232.94
484.9	255.94
485.118	236.94
485.336	248.94
485.554	231.94
485.772	237.94
485.99	235.94
486.209	247.94
486.427	243.94
486.645	232.94
486.863	253.94
487.081	258.94
487.299	248.94
487.517	232.94
487.735	249.94
487.953	250.94
488.171	235.94
488.389	216.94
488.607	255.94
488.825	275.94
489.043	241.94
489.261	231.94
489.479	240.94
489.696	240.94
489.914	217.94
490.132	232.94
490.35	235.94
490.568	223.94
490.786	252.94
491.003	250.94
491.221	248.94
491.439	249.94
491.657	233.94
491.874	234.94
492.092	270.94
492.31	311.94
492.527	292.94
492.745	259.94
492.963	231.94
493.18	261.94
493.398	246.94
493.615	266.94
493.833	254.94
494.05	238.94
494.268	245.94
494.485	237.94
494.703	241.94
494.92	257.94
495.138	240.94
495.355	251.94
495.573	270.94
495.79	264.94
496.008	252.94
496.225	257.94
496.442	259.94
496.66	262.94
496.877	244.94
497.094	259.94
497.312	258.94
497.529	266.94
497.746	252.94
497.963	281.94
498.181	277.94
498.398	284.94
498.615	291.94
498.832	282.94
499.049	311.94
499.267	319.94
499.484	325.94
499.701	361.94
499.918	362.94
500.135	387.94
500.352	371.94
500.569	384.94
500.786	377.94
501.003	358.94
501.22	357.94
501.437	344.94
501.654	319.94
501.871	315.94
502.088	307.94
502.305	286.94
502.522	267.94
502.739	275.94
502.956	269.94
503.172	276.94
503.389	286.94
503.606	271.94
