Data from StA_HRD10591_055.txt Node
Date: Fri May 16 15:19:11 EDT 2025
User: Yrep
Spectrometer: HR+D1059
Trigger mode: 1
Integration Time (sec): 1.000000E-1
Scans to average: 1
Electric dark correction enabled: true
Nonlinearity correction enabled: false
Boxcar width: 0
XAxis mode: Wavelengths
Number of Pixels in Spectrum: 2048
>>>>>Begin Spectral Data<<<<<
223.165	-0.5
223.4	-0.5
223.635	-0.5
223.869	-18.5
224.104	-9.5
224.338	-25.5
224.573	-18.5
224.808	-16.5
225.042	-12.5
225.277	-2.5
225.511	-4.5
225.746	-9.5
225.98	8.5
226.215	14.5
226.449	10.5
226.683	14.5
226.918	26.5
227.152	43.5
227.387	42.5
227.621	47.5
227.856	58.5
228.09	44.5
228.324	58.5
228.559	61.5
228.793	78.5
229.027	63.5
229.262	78.5
229.496	81.5
229.73	83.5
229.964	74.5
230.199	82.5
230.433	64.5
230.667	99.5
230.901	90.5
231.136	95.5
231.37	101.5
231.604	107.5
231.838	104.5
232.072	109.5
232.306	81.5
232.541	111.5
232.775	93.5
233.009	102.5
233.243	90.5
233.477	105.5
233.711	94.5
233.945	91.5
234.179	98.5
234.413	91.5
234.647	94.5
234.881	107.5
235.115	86.5
235.349	78.5
235.583	102.5
235.817	84.5
236.051	114.5
236.285	95.5
236.519	79.5
236.753	94.5
236.987	102.5
237.221	97.5
237.455	94.5
237.689	93.5
237.922	89.5
238.156	84.5
238.39	99.5
238.624	97.5
238.858	93.5
239.091	92.5
239.325	91.5
239.559	100.5
239.793	99.5
240.027	104.5
240.26	96.5
240.494	97.5
240.728	101.5
240.961	91.5
241.195	88.5
241.429	82.5
241.662	93.5
241.896	96.5
242.13	106.5
242.363	98.5
242.597	96.5
242.83	97.5
243.064	103.5
243.298	98.5
243.531	92.5
243.765	100.5
243.998	119.5
244.232	106.5
244.465	94.5
244.699	93.5
244.932	114.5
245.166	109.5
245.399	102.5
245.633	115.5
245.866	102.5
246.099	110.5
246.333	117.5
246.566	112.5
246.8	118.5
247.033	114.5
247.266	113.5
247.5	111.5
247.733	120.5
247.966	104.5
248.2	117.5
248.433	128.5
248.666	129.5
248.899	131.5
249.133	137.5
249.366	134.5
249.599	133.5
249.832	139.5
250.066	132.5
250.299	120.5
250.532	127.5
250.765	119.5
250.998	117.5
251.231	122.5
251.465	136.5
251.698	139.5
251.931	159.5
252.164	158.5
252.397	162.5
252.63	145.5
252.863	150.5
253.096	151.5
253.329	155.5
253.562	158.5
253.795	156.5
254.028	161.5
254.261	156.5
254.494	144.5
254.727	139.5
254.96	159.5
255.193	138.5
255.426	150.5
255.659	145.5
255.892	143.5
256.124	144.5
256.357	155.5
256.59	187.5
256.823	158.5
257.056	166.5
257.289	168.5
257.521	176.5
257.754	160.5
257.987	155.5
258.22	168.5
258.452	152.5
258.685	170.5
258.918	176.5
259.151	162.5
259.383	161.5
259.616	164.5
259.849	173.5
260.081	169.5
260.314	155.5
260.547	161.5
260.779	180.5
261.012	167.5
261.244	192.5
261.477	192.5
261.71	177.5
261.942	181.5
262.175	200.5
262.407	202.5
262.64	196.5
262.872	171.5
263.105	182.5
263.337	179.5
263.57	173.5
263.802	185.5
264.035	166.5
264.267	170.5
264.499	168.5
264.732	160.5
264.964	175.5
265.197	173.5
265.429	205.5
265.661	232.5
265.894	229.5
266.126	260.5
266.358	297.5
266.591	328.5
266.823	322.5
267.055	304.5
267.287	325.5
267.52	331.5
267.752	358.5
267.984	392.5
268.216	305.5
268.448	243.5
268.681	257.5
268.913	290.5
269.145	313.5
269.377	290.5
269.609	289.5
269.841	310.5
270.073	313.5
270.306	267.5
270.538	268.5
270.77	248.5
271.002	247.5
271.234	256.5
271.466	260.5
271.698	232.5
271.93	227.5
272.162	272.5
272.394	289.5
272.626	271.5
272.858	227.5
273.09	213.5
273.322	190.5
273.553	197.5
273.785	205.5
274.017	226.5
274.249	298.5
274.481	298.5
274.713	334.5
274.945	364.5
275.176	376.5
275.408	371.5
275.64	361.5
275.872	403.5
276.104	427.5
276.335	440.5
276.567	470.5
276.799	449.5
277.031	367.5
277.262	277.5
277.494	270.5
277.726	282.5
277.957	301.5
278.189	326.5
278.421	308.5
278.652	304.5
278.884	301.5
279.115	321.5
279.347	291.5
279.579	268.5
279.81	262.5
280.042	277.5
280.273	287.5
280.505	252.5
280.736	231.5
280.968	250.5
281.199	290.5
281.431	318.5
281.662	316.5
281.894	352.5
282.125	376.5
282.356	388.5
282.588	372.5
282.819	334.5
283.051	381.5
283.282	484.5
283.513	560.5
283.745	576.5
283.976	531.5
284.207	550.5
284.439	520.5
284.67	507.5
284.901	494.5
285.132	528.5
285.364	539.5
285.595	528.5
285.826	521.5
286.057	526.5
286.288	532.5
286.52	574.5
286.751	598.5
286.982	541.5
287.213	438.5
287.444	456.5
287.675	474.5
287.906	451.5
288.138	372.5
288.369	334.5
288.6	304.5
288.831	344.5
289.062	414.5
289.293	418.5
289.524	423.5
289.755	418.5
289.986	404.5
290.217	350.5
290.448	288.5
290.679	250.5
290.91	263.5
291.141	284.5
291.371	295.5
291.602	298.5
291.833	285.5
292.064	328.5
292.295	387.5
292.526	392.5
292.757	395.5
292.987	419.5
293.218	378.5
293.449	349.5
293.68	352.5
293.91	298.5
294.141	289.5
294.372	268.5
294.603	286.5
294.833	278.5
295.064	289.5
295.295	273.5
295.525	253.5
295.756	233.5
295.987	241.5
296.217	249.5
296.448	253.5
296.679	276.5
296.909	295.5
297.14	338.5
297.37	382.5
297.601	320.5
297.831	331.5
298.062	381.5
298.292	359.5
298.523	367.5
298.753	397.5
298.984	356.5
299.214	303.5
299.445	260.5
299.675	248.5
299.905	242.5
300.136	239.5
300.366	240.5
300.597	227.5
300.827	230.5
301.057	244.5
301.288	254.5
301.518	290.5
301.748	308.5
301.979	312.5
302.209	286.5
302.439	298.5
302.669	312.5
302.9	319.5
303.13	273.5
303.36	268.5
303.59	266.5
303.82	269.5
304.051	313.5
304.281	350.5
304.511	324.5
304.741	306.5
304.971	324.5
305.201	313.5
305.431	287.5
305.661	241.5
305.891	242.5
306.121	233.5
306.352	215.5
306.582	204.5
306.812	188.5
307.042	202.5
307.272	199.5
307.502	221.5
307.731	202.5
307.961	210.5
308.191	195.5
308.421	220.5
308.651	215.5
308.881	222.5
309.111	226.5
309.341	239.5
309.571	259.5
309.8	237.5
310.03	221.5
310.26	207.5
310.49	244.5
310.72	266.5
310.949	244.5
311.179	285.5
311.409	308.5
311.639	387.5
311.868	496.5
312.098	586.5
312.328	564.5
312.557	554.5
312.787	556.5
313.017	512.5
313.246	559.5
313.476	499.5
313.706	434.5
313.935	331.5
314.165	293.5
314.394	270.5
314.624	279.5
314.853	322.5
315.083	268.5
315.312	260.5
315.542	244.5
315.771	206.5
316.001	214.5
316.23	196.5
316.46	203.5
316.689	210.5
316.919	221.5
317.148	223.5
317.377	216.5
317.607	239.5
317.836	256.5
318.065	297.5
318.295	314.5
318.524	284.5
318.753	218.5
318.983	214.5
319.212	211.5
319.441	239.5
319.67	275.5
319.9	303.5
320.129	267.5
320.358	246.5
320.587	253.5
320.816	278.5
321.046	288.5
321.275	274.5
321.504	259.5
321.733	256.5
321.962	272.5
322.191	225.5
322.42	204.5
322.649	208.5
322.878	189.5
323.108	211.5
323.337	240.5
323.566	243.5
323.795	234.5
324.024	244.5
324.253	216.5
324.482	189.5
324.71	190.5
324.939	195.5
325.168	199.5
325.397	204.5
325.626	196.5
325.855	202.5
326.084	223.5
326.313	208.5
326.542	201.5
326.77	215.5
326.999	216.5
327.228	220.5
327.457	196.5
327.686	191.5
327.914	167.5
328.143	199.5
328.372	194.5
328.6	193.5
328.829	198.5
329.058	223.5
329.287	217.5
329.515	234.5
329.744	232.5
329.972	219.5
330.201	188.5
330.43	229.5
330.658	246.5
330.887	261.5
331.115	282.5
331.344	277.5
331.572	245.5
331.801	255.5
332.03	240.5
332.258	258.5
332.486	262.5
332.715	252.5
332.943	239.5
333.172	257.5
333.4	274.5
333.629	306.5
333.857	327.5
334.085	324.5
334.314	311.5
334.542	275.5
334.771	273.5
334.999	254.5
335.227	258.5
335.455	269.5
335.684	323.5
335.912	394.5
336.14	380.5
336.369	371.5
336.597	377.5
336.825	401.5
337.053	395.5
337.281	280.5
337.51	272.5
337.738	278.5
337.966	285.5
338.194	289.5
338.422	263.5
338.65	220.5
338.878	237.5
339.106	240.5
339.334	267.5
339.562	278.5
339.79	257.5
340.018	263.5
340.246	297.5
340.474	332.5
340.702	339.5
340.93	327.5
341.158	294.5
341.386	230.5
341.614	242.5
341.842	272.5
342.07	323.5
342.298	357.5
342.526	299.5
342.754	249.5
342.981	238.5
343.209	253.5
343.437	274.5
343.665	255.5
343.893	218.5
344.12	207.5
344.348	201.5
344.576	225.5
344.804	212.5
345.031	204.5
345.259	208.5
345.487	199.5
345.714	211.5
345.942	209.5
346.17	195.5
346.397	182.5
346.625	194.5
346.853	191.5
347.08	186.5
347.308	201.5
347.535	197.5
347.763	207.5
347.99	198.5
348.218	195.5
348.445	198.5
348.673	190.5
348.9	187.5
349.128	202.5
349.355	186.5
349.583	199.5
349.81	190.5
350.037	178.5
350.265	183.5
350.492	187.5
350.72	191.5
350.947	191.5
351.174	199.5
351.402	186.5
351.629	185.5
351.856	196.5
352.083	196.5
352.311	166.5
352.538	192.5
352.765	196.5
352.992	184.5
353.22	192.5
353.447	184.5
353.674	186.5
353.901	209.5
354.128	192.5
354.355	193.5
354.583	192.5
354.81	195.5
355.037	207.5
355.264	193.5
355.491	202.5
355.718	199.5
355.945	211.5
356.172	204.5
356.399	199.5
356.626	192.5
356.853	220.5
357.08	210.5
357.307	214.5
357.534	259.5
357.761	330.5
357.988	320.5
358.215	313.5
358.441	240.5
358.668	251.5
358.895	263.5
359.122	271.5
359.349	320.5
359.576	298.5
359.802	249.5
360.029	221.5
360.256	248.5
360.483	284.5
360.709	297.5
360.936	246.5
361.163	224.5
361.39	203.5
361.616	184.5
361.843	177.5
362.07	196.5
362.296	206.5
362.523	181.5
362.749	187.5
362.976	189.5
363.203	215.5
363.429	206.5
363.656	217.5
363.882	211.5
364.109	223.5
364.335	208.5
364.562	211.5
364.788	195.5
365.015	198.5
365.241	206.5
365.468	203.5
365.694	200.5
365.92	214.5
366.147	183.5
366.373	201.5
366.599	202.5
366.826	194.5
367.052	169.5
367.278	183.5
367.505	200.5
367.731	220.5
367.957	226.5
368.184	217.5
368.41	207.5
368.636	193.5
368.862	197.5
369.089	194.5
369.315	202.5
369.541	198.5
369.767	192.5
369.993	196.5
370.219	179.5
370.445	189.5
370.672	182.5
370.898	191.5
371.124	195.5
371.35	194.5
371.576	209.5
371.802	200.5
372.028	178.5
372.254	182.5
372.48	196.5
372.706	196.5
372.932	193.5
373.158	194.5
373.384	190.5
373.61	193.5
373.835	200.5
374.061	201.5
374.287	215.5
374.513	218.5
374.739	218.5
374.965	217.5
375.191	191.5
375.416	188.5
375.642	200.5
375.868	209.5
376.094	206.5
376.319	191.5
376.545	192.5
376.771	194.5
376.997	199.5
377.222	183.5
377.448	191.5
377.674	186.5
377.899	191.5
378.125	176.5
378.35	184.5
378.576	175.5
378.802	171.5
379.027	192.5
379.253	196.5
379.478	216.5
379.704	217.5
379.929	197.5
380.155	185.5
380.38	188.5
380.606	214.5
380.831	202.5
381.057	202.5
381.282	196.5
381.507	192.5
381.733	197.5
381.958	216.5
382.184	216.5
382.409	201.5
382.634	202.5
382.86	204.5
383.085	211.5
383.31	197.5
383.535	200.5
383.761	200.5
383.986	224.5
384.211	219.5
384.436	219.5
384.662	214.5
384.887	231.5
385.112	250.5
385.337	230.5
385.562	230.5
385.787	236.5
386.013	223.5
386.238	220.5
386.463	210.5
386.688	231.5
386.913	231.5
387.138	230.5
387.363	215.5
387.588	211.5
387.813	207.5
388.038	226.5
388.263	210.5
388.488	234.5
388.713	235.5
388.938	222.5
389.163	186.5
389.387	204.5
389.612	210.5
389.837	214.5
390.062	223.5
390.287	199.5
390.512	208.5
390.736	215.5
390.961	242.5
391.186	220.5
391.411	211.5
391.636	227.5
391.86	234.5
392.085	249.5
392.31	231.5
392.534	223.5
392.759	225.5
392.984	211.5
393.208	200.5
393.433	200.5
393.658	210.5
393.882	189.5
394.107	210.5
394.331	207.5
394.556	204.5
394.78	206.5
395.005	204.5
395.229	215.5
395.454	211.5
395.678	203.5
395.903	204.5
396.127	224.5
396.352	253.5
396.576	263.5
396.801	232.5
397.025	263.5
397.249	246.5
397.474	236.5
397.698	239.5
397.922	243.5
398.147	243.5
398.371	244.5
398.595	240.5
398.82	250.5
399.044	266.5
399.268	270.5
399.492	254.5
399.717	263.5
399.941	257.5
400.165	254.5
400.389	251.5
400.613	232.5
400.837	241.5
401.062	238.5
401.286	227.5
401.51	232.5
401.734	237.5
401.958	230.5
402.182	230.5
402.406	213.5
402.63	230.5
402.854	230.5
403.078	237.5
403.302	236.5
403.526	226.5
403.75	232.5
403.974	232.5
404.198	255.5
404.422	227.5
404.645	223.5
404.869	230.5
405.093	240.5
405.317	217.5
405.541	234.5
405.765	236.5
405.988	223.5
406.212	210.5
406.436	224.5
406.66	238.5
406.883	261.5
407.107	230.5
407.331	224.5
407.555	247.5
407.778	236.5
408.002	241.5
408.226	224.5
408.449	240.5
408.673	230.5
408.896	236.5
409.12	248.5
409.344	219.5
409.567	219.5
409.791	233.5
410.014	223.5
410.238	202.5
410.461	240.5
410.685	216.5
410.908	225.5
411.132	230.5
411.355	225.5
411.578	241.5
411.802	207.5
412.025	226.5
412.249	245.5
412.472	242.5
412.695	237.5
412.919	236.5
413.142	222.5
413.365	226.5
413.589	214.5
413.812	235.5
414.035	236.5
414.258	204.5
414.482	210.5
414.705	210.5
414.928	216.5
415.151	216.5
415.374	219.5
415.597	225.5
415.821	227.5
416.044	210.5
416.267	215.5
416.49	234.5
416.713	216.5
416.936	218.5
417.159	236.5
417.382	221.5
417.605	220.5
417.828	226.5
418.051	219.5
418.274	231.5
418.497	214.5
418.72	214.5
418.943	217.5
419.166	229.5
419.389	225.5
419.611	227.5
419.834	238.5
420.057	227.5
420.28	208.5
420.503	217.5
420.726	213.5
420.948	205.5
421.171	239.5
421.394	210.5
421.617	222.5
421.839	225.5
422.062	218.5
422.285	220.5
422.507	236.5
422.73	219.5
422.953	222.5
423.175	219.5
423.398	234.5
423.621	227.5
423.843	240.5
424.066	223.5
424.288	225.5
424.511	223.5
424.733	214.5
424.956	239.5
425.178	260.5
425.401	316.5
425.623	360.5
425.846	262.5
426.068	244.5
426.291	253.5
426.513	235.5
426.735	261.5
426.958	242.5
427.18	267.5
427.402	297.5
427.625	361.5
427.847	285.5
428.069	242.5
428.292	230.5
428.514	219.5
428.736	243.5
428.958	291.5
429.181	308.5
429.403	240.5
429.625	222.5
429.847	219.5
430.069	230.5
430.292	228.5
430.514	209.5
430.736	213.5
430.958	214.5
431.18	223.5
431.402	193.5
431.624	215.5
431.846	190.5
432.068	204.5
432.29	209.5
432.512	223.5
432.734	216.5
432.956	210.5
433.178	220.5
433.4	219.5
433.622	231.5
433.844	256.5
434.066	275.5
434.287	251.5
434.509	239.5
434.731	246.5
434.953	216.5
435.175	258.5
435.397	263.5
435.618	222.5
435.84	201.5
436.062	225.5
436.284	207.5
436.505	208.5
436.727	206.5
436.949	199.5
437.17	222.5
437.392	243.5
437.614	219.5
437.835	203.5
438.057	210.5
438.278	206.5
438.5	230.5
438.721	220.5
438.943	202.5
439.165	217.5
439.386	199.5
439.608	206.5
439.829	213.5
440.05	204.5
440.272	210.5
440.493	196.5
440.715	200.5
440.936	202.5
441.158	207.5
441.379	201.5
441.6	207.5
441.822	218.5
442.043	213.5
442.264	212.5
442.486	238.5
442.707	221.5
442.928	205.5
443.149	235.5
443.371	232.5
443.592	221.5
443.813	209.5
444.034	217.5
444.255	217.5
444.476	214.5
444.698	216.5
444.919	209.5
445.14	296.5
445.361	246.5
445.582	235.5
445.803	222.5
446.024	218.5
446.245	227.5
446.466	223.5
446.687	218.5
446.908	206.5
447.129	186.5
447.35	201.5
447.571	190.5
447.792	202.5
448.013	220.5
448.234	199.5
448.455	195.5
448.675	208.5
448.896	220.5
449.117	209.5
449.338	208.5
449.559	215.5
449.779	229.5
450	217.5
450.221	235.5
450.442	211.5
450.662	216.5
450.883	207.5
451.104	218.5
451.324	183.5
451.545	217.5
451.766	222.5
451.986	196.5
452.207	190.5
452.428	188.5
452.648	214.5
452.869	223.5
453.089	219.5
453.31	205.5
453.53	190.5
453.751	204.5
453.971	214.5
454.192	231.5
454.412	218.5
454.633	216.5
454.853	196.5
455.073	218.5
455.294	194.5
455.514	213.5
455.734	215.5
455.955	228.5
456.175	220.5
456.395	212.5
456.616	210.5
456.836	203.5
457.056	184.5
457.276	195.5
457.497	195.5
457.717	206.5
457.937	195.5
458.157	205.5
458.377	212.5
458.598	214.5
458.818	210.5
459.038	223.5
459.258	231.5
459.478	214.5
459.698	234.5
459.918	226.5
460.138	235.5
460.358	218.5
460.578	214.5
460.798	226.5
461.018	214.5
461.238	226.5
461.458	241.5
461.678	251.5
461.898	268.5
462.118	267.5
462.338	258.5
462.558	236.5
462.777	246.5
462.997	246.5
463.217	254.5
463.437	249.5
463.657	244.5
463.876	241.5
464.096	259.5
464.316	235.5
464.536	249.5
464.755	283.5
464.975	256.5
465.195	262.5
465.414	268.5
465.634	226.5
465.854	218.5
466.073	200.5
466.293	225.5
466.512	203.5
466.732	203.5
466.951	201.5
467.171	206.5
467.391	202.5
467.61	210.5
467.829	198.5
468.049	215.5
468.268	210.5
468.488	216.5
468.707	186.5
468.927	211.5
469.146	215.5
469.365	216.5
469.585	209.5
469.804	212.5
470.023	212.5
470.243	215.5
470.462	219.5
470.681	205.5
470.901	219.5
471.12	216.5
471.339	200.5
471.558	211.5
471.777	207.5
471.997	217.5
472.216	211.5
472.435	225.5
472.654	201.5
472.873	219.5
473.092	215.5
473.311	217.5
473.53	206.5
473.749	200.5
473.968	219.5
474.187	212.5
474.406	215.5
474.625	195.5
474.844	204.5
475.063	211.5
475.282	213.5
475.501	219.5
475.72	243.5
475.939	229.5
476.158	202.5
476.377	216.5
476.596	214.5
476.814	222.5
477.033	218.5
477.252	204.5
477.471	206.5
477.69	206.5
477.908	209.5
478.127	217.5
478.346	220.5
478.564	223.5
478.783	227.5
479.002	255.5
479.22	245.5
479.439	234.5
479.658	238.5
479.876	246.5
480.095	232.5
480.313	244.5
480.532	239.5
480.751	211.5
480.969	223.5
481.188	216.5
481.406	208.5
481.624	215.5
481.843	225.5
482.061	225.5
482.28	231.5
482.498	233.5
482.717	248.5
482.935	248.5
483.153	233.5
483.372	220.5
483.59	220.5
483.808	225.5
484.027	216.5
484.245	241.5
484.463	237.5
484.681	228.5
484.9	260.5
485.118	238.5
485.336	234.5
485.554	212.5
485.772	233.5
485.99	230.5
486.209	239.5
486.427	254.5
486.645	239.5
486.863	240.5
487.081	255.5
487.299	254.5
487.517	249.5
487.735	240.5
487.953	236.5
488.171	241.5
488.389	232.5
488.607	252.5
488.825	268.5
489.043	242.5
489.261	225.5
489.479	236.5
489.696	252.5
489.914	235.5
490.132	235.5
490.35	227.5
490.568	234.5
490.786	238.5
491.003	229.5
491.221	235.5
491.439	251.5
491.657	247.5
491.874	234.5
492.092	243.5
492.31	288.5
492.527	295.5
492.745	237.5
492.963	255.5
493.18	235.5
493.398	266.5
493.615	241.5
493.833	256.5
494.05	236.5
494.268	245.5
494.485	239.5
494.703	248.5
494.92	219.5
495.138	244.5
495.355	254.5
495.573	266.5
495.79	264.5
496.008	241.5
496.225	265.5
496.442	253.5
496.66	264.5
496.877	260.5
497.094	256.5
497.312	277.5
497.529	268.5
497.746	271.5
497.963	266.5
498.181	286.5
498.398	295.5
498.615	295.5
498.832	308.5
499.049	321.5
499.267	305.5
499.484	325.5
499.701	332.5
499.918	337.5
500.135	371.5
500.352	376.5
500.569	367.5
500.786	375.5
501.003	356.5
501.22	344.5
501.437	344.5
501.654	332.5
501.871	306.5
502.088	305.5
502.305	300.5
502.522	290.5
502.739	276.5
502.956	277.5
503.172	271.5
503.389	247.5
503.606	276.5
503.823	259.5
504.04	267.5
504.256	272.5
504.473	271.5
504.69	272.5
504.907	245.5
505.123	258.5
505.34	248.5
505.557	239.5
505.773	257.5
505.99	238.5
506.207	240.5
506.423	244.5
506.64	250.5
506.856	258.5
507.073	241.5
507.289	227.5
507.506	230.5
507.722	245.5
507.939	245.5
508.155	240.5
508.372	231.5
508.588	234.5
508.805	231.5
509.021	215.5
509.238	236.5
509.454	238.5
509.67	236.5
509.887	220.5
510.103	213.5
510.319	226.5
510.536	230.5
510.752	215.5
510.968	211.5
511.184	233.5
511.401	221.5
511.617	222.5
511.833	207.5
512.049	220.5
512.265	221.5
512.481	225.5
512.698	227.5
512.914	243.5
513.13	221.5
513.346	219.5
513.562	225.5
513.778	248.5
513.994	224.5
514.21	241.5
514.426	216.5
514.642	227.5
514.858	223.5
515.074	228.5
515.29	235.5
515.506	227.5
515.721	232.5
515.937	255.5
516.153	233.5
516.369	235.5
516.585	239.5
516.801	264.5
517.016	241.5
517.232	251.5
517.448	255.5
517.664	249.5
517.879	268.5
518.095	258.5
518.311	246.5
518.527	248.5
518.742	252.5
518.958	240.5
519.173	237.5
519.389	254.5
519.605	273.5
519.82	259.5
520.036	263.5
520.251	293.5
520.467	432.5
520.682	784.5
520.898	799.5
521.113	632.5
521.329	308.5
521.544	262.5
