Data from StA_HRD10591_047.txt Node
Date: Fri May 16 15:19:07 EDT 2025
User: Yrep
Spectrometer: HR+D1059
Trigger mode: 1
Integration Time (sec): 1.000000E-1
Scans to average: 1
Electric dark correction enabled: true
Nonlinearity correction enabled: false
Boxcar width: 0
XAxis mode: Wavelengths
Number of Pixels in Spectrum: 2048
>>>>>Begin Spectral Data<<<<<
223.165	-21.62
223.4	-21.62
223.635	-21.62
223.869	-31.62
224.104	-12.62
224.338	-23.62
224.573	-16.62
224.808	-13.62
225.042	-19.62
225.277	-1.62
225.511	4.38
225.746	-1.62
225.98	17.38
226.215	15.38
226.449	14.38
226.683	23.38
226.918	35.38
227.152	32.38
227.387	39.38
227.621	42.38
227.856	49.38
228.09	59.38
228.324	53.38
228.559	56.38
228.793	63.38
229.027	66.38
229.262	67.38
229.496	71.38
229.73	92.38
229.964	87.38
230.199	83.38
230.433	84.38
230.667	82.38
230.901	85.38
231.136	89.38
231.37	81.38
231.604	95.38
231.838	99.38
232.072	99.38
232.306	90.38
232.541	120.38
232.775	110.38
233.009	99.38
233.243	95.38
233.477	89.38
233.711	90.38
233.945	107.38
234.179	88.38
234.413	83.38
234.647	97.38
234.881	86.38
235.115	76.38
235.349	86.38
235.583	91.38
235.817	89.38
236.051	78.38
236.285	92.38
236.519	93.38
236.753	99.38
236.987	93.38
237.221	93.38
237.455	93.38
237.689	88.38
237.922	86.38
238.156	86.38
238.39	89.38
238.624	86.38
238.858	95.38
239.091	73.38
239.325	100.38
239.559	99.38
239.793	74.38
240.027	86.38
240.26	94.38
240.494	84.38
240.728	80.38
240.961	91.38
241.195	97.38
241.429	105.38
241.662	97.38
241.896	115.38
242.13	95.38
242.363	111.38
242.597	93.38
242.83	96.38
243.064	91.38
243.298	97.38
243.531	96.38
243.765	90.38
243.998	101.38
244.232	97.38
244.465	91.38
244.699	101.38
244.932	94.38
245.166	105.38
245.399	106.38
245.633	103.38
245.866	104.38
246.099	106.38
246.333	96.38
246.566	104.38
246.8	99.38
247.033	117.38
247.266	106.38
247.5	113.38
247.733	97.38
247.966	113.38
248.2	117.38
248.433	120.38
248.666	121.38
248.899	132.38
249.133	127.38
249.366	144.38
249.599	134.38
249.832	134.38
250.066	147.38
250.299	124.38
250.532	121.38
250.765	119.38
250.998	132.38
251.231	122.38
251.465	128.38
251.698	116.38
251.931	125.38
252.164	142.38
252.397	138.38
252.63	159.38
252.863	158.38
253.096	140.38
253.329	148.38
253.562	156.38
253.795	149.38
254.028	174.38
254.261	169.38
254.494	140.38
254.727	148.38
254.96	139.38
255.193	152.38
255.426	137.38
255.659	136.38
255.892	143.38
256.124	149.38
256.357	147.38
256.59	176.38
256.823	152.38
257.056	168.38
257.289	164.38
257.521	153.38
257.754	163.38
257.987	165.38
258.22	176.38
258.452	153.38
258.685	152.38
258.918	164.38
259.151	159.38
259.383	187.38
259.616	174.38
259.849	167.38
260.081	189.38
260.314	161.38
260.547	164.38
260.779	163.38
261.012	181.38
261.244	173.38
261.477	181.38
261.71	172.38
261.942	177.38
262.175	188.38
262.407	184.38
262.64	175.38
262.872	187.38
263.105	180.38
263.337	199.38
263.57	177.38
263.802	183.38
264.035	170.38
264.267	170.38
264.499	169.38
264.732	155.38
264.964	164.38
265.197	188.38
265.429	201.38
265.661	217.38
265.894	240.38
266.126	266.38
266.358	282.38
266.591	329.38
266.823	298.38
267.055	309.38
267.287	314.38
267.52	333.38
267.752	337.38
267.984	368.38
268.216	298.38
268.448	225.38
268.681	253.38
268.913	284.38
269.145	295.38
269.377	285.38
269.609	267.38
269.841	302.38
270.073	307.38
270.306	297.38
270.538	237.38
270.77	247.38
271.002	251.38
271.234	263.38
271.466	238.38
271.698	232.38
271.93	240.38
272.162	264.38
272.394	272.38
272.626	263.38
272.858	231.38
273.09	207.38
273.322	197.38
273.553	202.38
273.785	208.38
274.017	225.38
274.249	263.38
274.481	300.38
274.713	309.38
274.945	328.38
275.176	369.38
275.408	376.38
275.64	364.38
275.872	385.38
276.104	425.38
276.335	441.38
276.567	413.38
276.799	409.38
277.031	345.38
277.262	281.38
277.494	254.38
277.726	279.38
277.957	313.38
278.189	309.38
278.421	306.38
278.652	302.38
278.884	324.38
279.115	297.38
279.347	267.38
279.579	243.38
279.81	247.38
280.042	273.38
280.273	296.38
280.505	261.38
280.736	233.38
280.968	256.38
281.199	265.38
281.431	309.38
281.662	310.38
281.894	341.38
282.125	367.38
282.356	371.38
282.588	345.38
282.819	337.38
283.051	401.38
283.282	481.38
283.513	540.38
283.745	557.38
283.976	548.38
284.207	499.38
284.439	523.38
284.67	473.38
284.901	473.38
285.132	531.38
285.364	508.38
285.595	479.38
285.826	537.38
286.057	517.38
286.288	519.38
286.52	549.38
286.751	536.38
286.982	483.38
287.213	435.38
287.444	433.38
287.675	464.38
287.906	443.38
288.138	359.38
288.369	308.38
288.6	297.38
288.831	343.38
289.062	407.38
289.293	416.38
289.524	400.38
289.755	434.38
289.986	424.38
290.217	338.38
290.448	288.38
290.679	245.38
290.91	243.38
291.141	270.38
291.371	277.38
291.602	286.38
291.833	285.38
292.064	303.38
292.295	347.38
292.526	393.38
292.757	407.38
292.987	412.38
293.218	365.38
293.449	366.38
293.68	346.38
293.91	295.38
294.141	278.38
294.372	282.38
294.603	261.38
294.833	268.38
295.064	272.38
295.295	261.38
295.525	267.38
295.756	251.38
295.987	244.38
296.217	255.38
296.448	247.38
296.679	244.38
296.909	287.38
297.14	333.38
297.37	361.38
297.601	327.38
297.831	327.38
298.062	333.38
298.292	344.38
298.523	343.38
298.753	373.38
298.984	322.38
299.214	305.38
299.445	238.38
299.675	239.38
299.905	228.38
300.136	221.38
300.366	202.38
300.597	228.38
300.827	231.38
301.057	220.38
301.288	250.38
301.518	279.38
301.748	307.38
301.979	285.38
302.209	268.38
302.439	284.38
302.669	288.38
302.9	301.38
303.13	271.38
303.36	255.38
303.59	255.38
303.82	272.38
304.051	305.38
304.281	347.38
304.511	303.38
304.741	295.38
304.971	307.38
305.201	332.38
305.431	275.38
305.661	234.38
305.891	231.38
306.121	220.38
306.352	213.38
306.582	201.38
306.812	196.38
307.042	203.38
307.272	211.38
307.502	203.38
307.731	208.38
307.961	213.38
308.191	183.38
308.421	196.38
308.651	211.38
308.881	215.38
309.111	217.38
309.341	225.38
309.571	259.38
309.8	213.38
310.03	216.38
310.26	208.38
310.49	223.38
310.72	240.38
310.949	247.38
311.179	254.38
311.409	275.38
311.639	367.38
311.868	479.38
312.098	558.38
312.328	552.38
312.557	544.38
312.787	535.38
313.017	496.38
313.246	567.38
313.476	504.38
313.706	397.38
313.935	317.38
314.165	260.38
314.394	274.38
314.624	296.38
314.853	288.38
315.083	294.38
315.312	283.38
315.542	224.38
315.771	213.38
316.001	217.38
316.23	213.38
316.46	205.38
316.689	193.38
316.919	192.38
317.148	197.38
317.377	239.38
317.607	219.38
317.836	248.38
318.065	280.38
318.295	308.38
318.524	275.38
318.753	208.38
318.983	204.38
319.212	229.38
319.441	241.38
319.67	257.38
319.9	293.38
320.129	255.38
320.358	233.38
320.587	247.38
320.816	258.38
321.046	281.38
321.275	274.38
321.504	252.38
321.733	272.38
321.962	255.38
322.191	225.38
322.42	213.38
322.649	206.38
322.878	201.38
323.108	215.38
323.337	210.38
323.566	242.38
323.795	225.38
324.024	230.38
324.253	195.38
324.482	186.38
324.71	205.38
324.939	190.38
325.168	193.38
325.397	200.38
325.626	195.38
325.855	202.38
326.084	204.38
326.313	205.38
326.542	182.38
326.77	206.38
326.999	210.38
327.228	222.38
327.457	193.38
327.686	200.38
327.914	202.38
328.143	196.38
328.372	183.38
328.6	185.38
328.829	192.38
329.058	199.38
329.287	233.38
329.515	233.38
329.744	211.38
329.972	201.38
330.201	204.38
330.43	213.38
330.658	253.38
330.887	265.38
331.115	263.38
331.344	265.38
331.572	246.38
331.801	233.38
332.03	246.38
332.258	230.38
332.486	241.38
332.715	252.38
332.943	234.38
333.172	257.38
333.4	269.38
333.629	304.38
333.857	311.38
334.085	291.38
334.314	314.38
334.542	271.38
334.771	262.38
334.999	256.38
335.227	259.38
335.455	291.38
335.684	306.38
335.912	355.38
336.14	384.38
336.369	372.38
336.597	351.38
336.825	375.38
337.053	356.38
337.281	276.38
337.51	255.38
337.738	292.38
337.966	281.38
338.194	285.38
338.422	249.38
338.65	222.38
338.878	224.38
339.106	237.38
339.334	264.38
339.562	243.38
339.79	251.38
340.018	268.38
340.246	283.38
340.474	317.38
340.702	291.38
340.93	301.38
341.158	273.38
341.386	235.38
341.614	231.38
341.842	279.38
342.07	313.38
342.298	349.38
342.526	305.38
342.754	239.38
342.981	243.38
343.209	245.38
343.437	295.38
343.665	251.38
343.893	231.38
344.12	201.38
344.348	204.38
344.576	200.38
344.804	200.38
345.031	188.38
345.259	196.38
345.487	213.38
345.714	216.38
345.942	215.38
346.17	197.38
346.397	186.38
346.625	185.38
346.853	181.38
347.08	179.38
347.308	169.38
347.535	193.38
347.763	192.38
347.99	183.38
348.218	172.38
348.445	174.38
348.673	171.38
348.9	181.38
349.128	196.38
349.355	182.38
349.583	187.38
349.81	189.38
350.037	177.38
350.265	167.38
350.492	161.38
350.72	176.38
350.947	189.38
351.174	187.38
351.402	211.38
351.629	175.38
351.856	170.38
352.083	177.38
352.311	194.38
352.538	183.38
352.765	177.38
352.992	180.38
353.22	183.38
353.447	175.38
353.674	165.38
353.901	174.38
354.128	159.38
354.355	181.38
354.583	185.38
354.81	191.38
355.037	193.38
355.264	195.38
355.491	195.38
355.718	197.38
355.945	211.38
356.172	182.38
356.399	192.38
356.626	215.38
356.853	213.38
357.08	216.38
357.307	220.38
357.534	252.38
357.761	301.38
357.988	337.38
358.215	288.38
358.441	248.38
358.668	233.38
358.895	241.38
359.122	252.38
359.349	296.38
359.576	294.38
359.802	221.38
360.029	243.38
360.256	256.38
360.483	278.38
360.709	294.38
360.936	236.38
361.163	198.38
361.39	192.38
361.616	187.38
361.843	199.38
362.07	174.38
362.296	165.38
362.523	179.38
362.749	191.38
362.976	187.38
363.203	219.38
363.429	213.38
363.656	211.38
363.882	204.38
364.109	214.38
364.335	209.38
364.562	187.38
364.788	193.38
365.015	203.38
365.241	192.38
365.468	199.38
365.694	191.38
365.92	201.38
366.147	185.38
366.373	200.38
366.599	205.38
366.826	198.38
367.052	189.38
367.278	192.38
367.505	192.38
367.731	229.38
367.957	206.38
368.184	189.38
368.41	185.38
368.636	188.38
368.862	208.38
369.089	192.38
369.315	191.38
369.541	187.38
369.767	172.38
369.993	186.38
370.219	167.38
370.445	186.38
370.672	178.38
370.898	185.38
371.124	210.38
371.35	201.38
371.576	200.38
371.802	191.38
372.028	181.38
372.254	197.38
372.48	197.38
372.706	193.38
372.932	203.38
373.158	194.38
373.384	204.38
373.61	189.38
373.835	185.38
374.061	178.38
374.287	213.38
374.513	234.38
374.739	222.38
374.965	213.38
375.191	199.38
375.416	194.38
375.642	184.38
375.868	190.38
376.094	173.38
376.319	189.38
376.545	194.38
376.771	176.38
376.997	203.38
377.222	187.38
377.448	183.38
377.674	187.38
377.899	167.38
378.125	173.38
378.35	188.38
378.576	194.38
378.802	176.38
379.027	195.38
379.253	207.38
379.478	217.38
379.704	203.38
379.929	215.38
380.155	190.38
380.38	196.38
380.606	200.38
380.831	218.38
381.057	194.38
381.282	214.38
381.507	205.38
381.733	209.38
381.958	210.38
382.184	205.38
382.409	194.38
382.634	201.38
382.86	197.38
383.085	192.38
383.31	203.38
383.535	203.38
383.761	189.38
383.986	215.38
384.211	208.38
384.436	207.38
384.662	212.38
384.887	235.38
385.112	243.38
385.337	239.38
385.562	237.38
385.787	232.38
386.013	221.38
386.238	225.38
386.463	241.38
386.688	217.38
386.913	222.38
387.138	214.38
387.363	207.38
387.588	205.38
387.813	220.38
388.038	203.38
388.263	215.38
388.488	227.38
388.713	213.38
388.938	202.38
389.163	207.38
389.387	214.38
389.612	213.38
389.837	202.38
390.062	199.38
390.287	214.38
390.512	212.38
390.736	212.38
390.961	232.38
391.186	208.38
391.411	219.38
391.636	214.38
391.86	235.38
392.085	248.38
392.31	223.38
392.534	212.38
392.759	195.38
392.984	206.38
393.208	207.38
393.433	207.38
393.658	205.38
393.882	212.38
394.107	206.38
394.331	194.38
394.556	210.38
394.78	207.38
395.005	223.38
395.229	208.38
395.454	211.38
395.678	215.38
395.903	227.38
396.127	230.38
396.352	253.38
396.576	266.38
396.801	229.38
397.025	246.38
397.249	251.38
397.474	232.38
397.698	247.38
397.922	244.38
398.147	242.38
398.371	240.38
398.595	243.38
398.82	227.38
399.044	265.38
399.268	259.38
399.492	274.38
399.717	251.38
399.941	251.38
400.165	252.38
400.389	247.38
400.613	235.38
400.837	236.38
401.062	217.38
401.286	227.38
401.51	218.38
401.734	230.38
401.958	236.38
402.182	234.38
402.406	212.38
402.63	208.38
402.854	217.38
403.078	216.38
403.302	234.38
403.526	215.38
403.75	217.38
403.974	236.38
404.198	229.38
404.422	221.38
404.645	224.38
404.869	210.38
405.093	244.38
405.317	223.38
405.541	214.38
405.765	221.38
405.988	223.38
406.212	220.38
406.436	219.38
406.66	235.38
406.883	223.38
407.107	227.38
407.331	231.38
407.555	239.38
407.778	235.38
408.002	232.38
408.226	221.38
408.449	229.38
408.673	245.38
408.896	240.38
409.12	217.38
409.344	211.38
409.567	223.38
409.791	196.38
410.014	217.38
410.238	229.38
410.461	216.38
410.685	231.38
410.908	201.38
411.132	228.38
411.355	230.38
411.578	225.38
411.802	237.38
412.025	228.38
412.249	222.38
412.472	239.38
412.695	242.38
412.919	255.38
413.142	220.38
413.365	228.38
413.589	227.38
413.812	211.38
414.035	221.38
414.258	218.38
414.482	215.38
414.705	220.38
414.928	218.38
415.151	202.38
415.374	218.38
415.597	203.38
415.821	205.38
416.044	227.38
416.267	227.38
416.49	215.38
416.713	230.38
416.936	217.38
417.159	200.38
417.382	217.38
417.605	215.38
417.828	229.38
418.051	215.38
418.274	226.38
418.497	221.38
418.72	214.38
418.943	204.38
419.166	199.38
419.389	242.38
419.611	246.38
419.834	223.38
420.057	219.38
420.28	213.38
420.503	193.38
420.726	219.38
420.948	223.38
421.171	207.38
421.394	219.38
421.617	218.38
421.839	210.38
422.062	214.38
422.285	218.38
422.507	218.38
422.73	210.38
422.953	206.38
423.175	217.38
423.398	229.38
423.621	212.38
423.843	216.38
424.066	239.38
424.288	224.38
424.511	214.38
424.733	214.38
424.956	235.38
425.178	257.38
425.401	310.38
425.623	356.38
425.846	256.38
426.068	237.38
426.291	238.38
426.513	245.38
426.735	240.38
426.958	241.38
427.18	265.38
427.402	306.38
427.625	353.38
427.847	273.38
428.069	237.38
428.292	243.38
428.514	207.38
428.736	240.38
428.958	300.38
429.181	329.38
429.403	232.38
429.625	212.38
429.847	227.38
430.069	229.38
430.292	228.38
430.514	218.38
430.736	206.38
430.958	211.38
431.18	197.38
431.402	214.38
431.624	195.38
431.846	198.38
432.068	206.38
432.29	205.38
432.512	211.38
432.734	192.38
432.956	214.38
433.178	200.38
433.4	208.38
433.622	225.38
433.844	262.38
434.066	272.38
434.287	243.38
434.509	251.38
434.731	238.38
434.953	238.38
435.175	250.38
435.397	278.38
435.618	220.38
435.84	220.38
436.062	234.38
436.284	232.38
436.505	199.38
436.727	210.38
436.949	214.38
437.17	220.38
437.392	218.38
437.614	227.38
437.835	219.38
438.057	195.38
438.278	201.38
438.5	206.38
438.721	199.38
438.943	204.38
439.165	203.38
439.386	188.38
439.608	213.38
439.829	192.38
440.05	194.38
440.272	203.38
440.493	211.38
440.715	198.38
440.936	207.38
441.158	194.38
441.379	218.38
441.6	207.38
441.822	199.38
442.043	207.38
442.264	223.38
442.486	225.38
442.707	205.38
442.928	207.38
443.149	213.38
443.371	228.38
443.592	192.38
443.813	213.38
444.034	205.38
444.255	214.38
444.476	203.38
444.698	185.38
444.919	230.38
445.14	287.38
445.361	256.38
445.582	228.38
445.803	219.38
446.024	211.38
446.245	205.38
446.466	213.38
446.687	205.38
446.908	216.38
447.129	211.38
447.35	196.38
447.571	213.38
447.792	185.38
448.013	218.38
448.234	197.38
448.455	199.38
448.675	194.38
448.896	202.38
449.117	195.38
449.338	212.38
449.559	210.38
449.779	223.38
450	236.38
450.221	218.38
450.442	205.38
450.662	206.38
450.883	205.38
451.104	191.38
451.324	192.38
451.545	210.38
451.766	200.38
451.986	212.38
452.207	213.38
452.428	197.38
452.648	212.38
452.869	211.38
453.089	198.38
453.31	225.38
453.53	199.38
453.751	209.38
453.971	197.38
454.192	217.38
454.412	205.38
454.633	216.38
454.853	200.38
455.073	190.38
455.294	192.38
455.514	203.38
455.734	205.38
455.955	219.38
456.175	219.38
456.395	188.38
456.616	224.38
456.836	189.38
457.056	202.38
457.276	190.38
457.497	192.38
457.717	179.38
457.937	194.38
458.157	202.38
458.377	188.38
458.598	200.38
458.818	220.38
459.038	239.38
459.258	213.38
459.478	213.38
459.698	208.38
459.918	224.38
460.138	220.38
460.358	234.38
460.578	213.38
460.798	213.38
461.018	223.38
461.238	220.38
461.458	243.38
461.678	245.38
461.898	247.38
462.118	260.38
462.338	261.38
462.558	243.38
462.777	262.38
462.997	254.38
463.217	246.38
463.437	256.38
463.657	248.38
463.876	235.38
464.096	251.38
464.316	247.38
464.536	241.38
464.755	273.38
464.975	251.38
465.195	251.38
465.414	255.38
465.634	213.38
465.854	199.38
466.073	211.38
466.293	224.38
466.512	225.38
466.732	221.38
466.951	212.38
467.171	215.38
467.391	210.38
467.61	199.38
467.829	210.38
468.049	190.38
468.268	212.38
468.488	206.38
468.707	206.38
468.927	200.38
469.146	192.38
469.365	196.38
469.585	187.38
469.804	207.38
470.023	223.38
470.243	224.38
470.462	191.38
470.681	200.38
470.901	217.38
471.12	196.38
471.339	193.38
471.558	194.38
471.777	207.38
471.997	222.38
472.216	200.38
472.435	214.38
472.654	215.38
472.873	222.38
473.092	214.38
473.311	198.38
473.53	199.38
473.749	212.38
473.968	208.38
474.187	196.38
474.406	198.38
474.625	209.38
474.844	201.38
475.063	183.38
475.282	212.38
475.501	211.38
475.72	240.38
475.939	221.38
476.158	203.38
476.377	206.38
476.596	207.38
476.814	207.38
477.033	208.38
477.252	218.38
477.471	209.38
477.69	206.38
477.908	202.38
478.127	228.38
478.346	216.38
478.564	211.38
478.783	235.38
479.002	245.38
479.22	243.38
479.439	226.38
479.658	252.38
479.876	227.38
480.095	235.38
480.313	239.38
480.532	199.38
480.751	241.38
480.969	227.38
481.188	209.38
481.406	230.38
481.624	227.38
481.843	235.38
482.061	217.38
482.28	233.38
482.498	237.38
482.717	243.38
482.935	223.38
483.153	246.38
483.372	225.38
483.59	225.38
483.808	220.38
484.027	211.38
484.245	201.38
484.463	204.38
484.681	246.38
484.9	240.38
485.118	219.38
485.336	238.38
485.554	218.38
485.772	221.38
485.99	217.38
486.209	244.38
486.427	237.38
486.645	267.38
486.863	248.38
487.081	242.38
487.299	256.38
487.517	228.38
487.735	233.38
487.953	236.38
488.171	231.38
488.389	233.38
488.607	258.38
488.825	271.38
489.043	250.38
489.261	227.38
489.479	215.38
489.696	217.38
489.914	243.38
490.132	241.38
490.35	230.38
490.568	231.38
490.786	229.38
491.003	229.38
491.221	230.38
491.439	232.38
491.657	220.38
491.874	232.38
492.092	240.38
492.31	275.38
492.527	282.38
492.745	241.38
492.963	246.38
493.18	242.38
493.398	233.38
493.615	247.38
493.833	260.38
494.05	261.38
494.268	241.38
494.485	252.38
494.703	252.38
494.92	227.38
495.138	243.38
495.355	252.38
495.573	261.38
495.79	257.38
496.008	236.38
496.225	244.38
496.442	258.38
496.66	268.38
496.877	240.38
497.094	251.38
497.312	241.38
497.529	251.38
497.746	275.38
497.963	266.38
498.181	278.38
498.398	270.38
498.615	269.38
498.832	289.38
499.049	295.38
499.267	297.38
499.484	325.38
499.701	336.38
499.918	345.38
500.135	365.38
500.352	361.38
500.569	385.38
500.786	355.38
501.003	365.38
501.22	348.38
501.437	350.38
501.654	318.38
501.871	301.38
502.088	305.38
502.305	302.38
502.522	281.38
502.739	287.38
502.956	283.38
503.172	270.38
503.389	266.38
503.606	255.38
