Data from StA_HRD10591_013.txt Node
Date: Fri May 16 15:18:51 EDT 2025
User: Yrep
Spectrometer: HR+D1059
Trigger mode: 1
Integration Time (sec): 1.000000E-1
Scans to average: 1
Electric dark correction enabled: true
Nonlinearity correction enabled: false
Boxcar width: 0
XAxis mode: Wavelengths
Number of Pixels in Spectrum: 2048
>>>>>Begin Spectral Data<<<<<
223.165	-16.19
223.4	-16.19
223.635	-16.19
223.869	-16.19
224.104	-11.19
224.338	-8.19
224.573	-21.19
224.808	-18.19
225.042	-9.19
225.277	-5.19
225.511	1.81
225.746	7.81
225.98	2.81
226.215	8.81
226.449	7.81
226.683	13.81
226.918	41.81
227.152	20.81
227.387	40.81
227.621	43.81
227.856	51.81
228.09	40.81
228.324	51.81
228.559	42.81
228.793	60.81
229.027	72.81
229.262	62.81
229.496	78.81
229.73	86.81
229.964	87.81
230.199	80.81
230.433	93.81
230.667	89.81
230.901	81.81
231.136	94.81
231.37	89.81
231.604	84.81
231.838	93.81
232.072	95.81
232.306	96.81
232.541	94.81
232.775	94.81
233.009	81.81
233.243	104.81
233.477	91.81
233.711	100.81
233.945	82.81
234.179	91.81
234.413	97.81
234.647	94.81
234.881	86.81
235.115	106.81
235.349	76.81
235.583	85.81
235.817	94.81
236.051	81.81
236.285	92.81
236.519	100.81
236.753	83.81
236.987	90.81
237.221	82.81
237.455	102.81
237.689	99.81
237.922	87.81
238.156	86.81
238.39	99.81
238.624	99.81
238.858	90.81
239.091	83.81
239.325	86.81
239.559	84.81
239.793	93.81
240.027	102.81
240.26	90.81
240.494	94.81
240.728	94.81
240.961	92.81
241.195	99.81
241.429	94.81
241.662	82.81
241.896	102.81
242.13	92.81
242.363	82.81
242.597	91.81
242.83	94.81
243.064	88.81
243.298	102.81
243.531	98.81
243.765	82.81
243.998	100.81
244.232	93.81
244.465	95.81
244.699	99.81
244.932	114.81
245.166	106.81
245.399	103.81
245.633	121.81
245.866	95.81
246.099	98.81
246.333	104.81
246.566	110.81
246.8	105.81
247.033	118.81
247.266	104.81
247.5	106.81
247.733	115.81
247.966	112.81
248.2	110.81
248.433	124.81
248.666	127.81
248.899	127.81
249.133	130.81
249.366	128.81
249.599	125.81
249.832	115.81
250.066	130.81
250.299	117.81
250.532	116.81
250.765	128.81
250.998	120.81
251.231	125.81
251.465	132.81
251.698	124.81
251.931	137.81
252.164	132.81
252.397	142.81
252.63	124.81
252.863	157.81
253.096	157.81
253.329	141.81
253.562	147.81
253.795	138.81
254.028	156.81
254.261	147.81
254.494	140.81
254.727	148.81
254.96	141.81
255.193	146.81
255.426	137.81
255.659	132.81
255.892	137.81
256.124	144.81
256.357	155.81
256.59	167.81
256.823	166.81
257.056	160.81
257.289	169.81
257.521	162.81
257.754	167.81
257.987	158.81
258.22	173.81
258.452	166.81
258.685	173.81
258.918	165.81
259.151	162.81
259.383	174.81
259.616	160.81
259.849	160.81
260.081	168.81
260.314	150.81
260.547	159.81
260.779	174.81
261.012	179.81
261.244	178.81
261.477	196.81
261.71	182.81
261.942	179.81
262.175	194.81
262.407	195.81
262.64	189.81
262.872	168.81
263.105	184.81
263.337	189.81
263.57	173.81
263.802	166.81
264.035	174.81
264.267	169.81
264.499	171.81
264.732	167.81
264.964	162.81
265.197	177.81
265.429	191.81
265.661	213.81
265.894	216.81
266.126	256.81
266.358	264.81
266.591	318.81
266.823	309.81
267.055	288.81
267.287	290.81
267.52	304.81
267.752	332.81
267.984	363.81
268.216	282.81
268.448	231.81
268.681	235.81
268.913	275.81
269.145	286.81
269.377	269.81
269.609	246.81
269.841	279.81
270.073	306.81
270.306	281.81
270.538	246.81
270.77	230.81
271.002	249.81
271.234	251.81
271.466	252.81
271.698	220.81
271.93	229.81
272.162	262.81
272.394	259.81
272.626	247.81
272.858	232.81
273.09	216.81
273.322	205.81
273.553	190.81
273.785	202.81
274.017	223.81
274.249	263.81
274.481	302.81
274.713	304.81
274.945	327.81
275.176	366.81
275.408	351.81
275.64	362.81
275.872	384.81
276.104	419.81
276.335	409.81
276.567	394.81
276.799	408.81
277.031	349.81
277.262	284.81
277.494	267.81
277.726	278.81
277.957	309.81
278.189	310.81
278.421	294.81
278.652	291.81
278.884	302.81
279.115	279.81
279.347	266.81
279.579	250.81
279.81	238.81
280.042	271.81
280.273	283.81
280.505	248.81
280.736	236.81
280.968	238.81
281.199	271.81
281.431	303.81
281.662	316.81
281.894	332.81
282.125	351.81
282.356	366.81
282.588	322.81
282.819	326.81
283.051	383.81
283.282	465.81
283.513	522.81
283.745	560.81
283.976	524.81
284.207	511.81
284.439	524.81
284.67	463.81
284.901	455.81
285.132	504.81
285.364	492.81
285.595	504.81
285.826	511.81
286.057	528.81
286.288	519.81
286.52	548.81
286.751	566.81
286.982	513.81
287.213	424.81
287.444	409.81
287.675	453.81
287.906	419.81
288.138	343.81
288.369	301.81
288.6	304.81
288.831	349.81
289.062	371.81
289.293	416.81
289.524	418.81
289.755	442.81
289.986	405.81
290.217	343.81
290.448	280.81
290.679	272.81
290.91	244.81
291.141	257.81
291.371	260.81
291.602	283.81
291.833	293.81
292.064	324.81
292.295	338.81
292.526	369.81
292.757	383.81
292.987	388.81
293.218	373.81
293.449	343.81
293.68	351.81
293.91	296.81
294.141	285.81
294.372	252.81
294.603	271.81
294.833	269.81
295.064	255.81
295.295	247.81
295.525	258.81
295.756	233.81
295.987	229.81
296.217	255.81
296.448	255.81
296.679	250.81
296.909	279.81
297.14	308.81
297.37	345.81
297.601	305.81
297.831	307.81
298.062	340.81
298.292	361.81
298.523	337.81
298.753	367.81
298.984	318.81
299.214	293.81
299.445	265.81
299.675	255.81
299.905	232.81
300.136	230.81
300.366	228.81
300.597	206.81
300.827	190.81
301.057	230.81
301.288	248.81
301.518	279.81
301.748	300.81
301.979	296.81
302.209	255.81
302.439	288.81
302.669	273.81
302.9	295.81
303.13	268.81
303.36	250.81
303.59	240.81
303.82	287.81
304.051	312.81
304.281	333.81
304.511	312.81
304.741	266.81
304.971	292.81
305.201	310.81
305.431	276.81
305.661	260.81
305.891	212.81
306.121	238.81
306.352	219.81
306.582	203.81
306.812	217.81
307.042	201.81
307.272	191.81
307.502	204.81
307.731	224.81
307.961	207.81
308.191	197.81
308.421	209.81
308.651	203.81
308.881	196.81
309.111	218.81
309.341	227.81
309.571	236.81
309.8	211.81
310.03	227.81
310.26	212.81
310.49	213.81
310.72	214.81
310.949	254.81
311.179	258.81
311.409	293.81
311.639	365.81
311.868	457.81
312.098	539.81
312.328	536.81
312.557	531.81
312.787	504.81
313.017	482.81
313.246	540.81
313.476	505.81
313.706	386.81
313.935	332.81
314.165	294.81
314.394	272.81
314.624	282.81
314.853	290.81
315.083	271.81
315.312	246.81
315.542	232.81
315.771	230.81
316.001	201.81
316.23	211.81
316.46	221.81
316.689	227.81
316.919	209.81
317.148	216.81
317.377	208.81
317.607	219.81
317.836	247.81
318.065	279.81
318.295	322.81
318.524	257.81
318.753	226.81
318.983	214.81
319.212	219.81
319.441	243.81
319.67	275.81
319.9	279.81
320.129	255.81
320.358	237.81
320.587	237.81
320.816	250.81
321.046	283.81
321.275	252.81
321.504	254.81
321.733	251.81
321.962	239.81
322.191	217.81
322.42	189.81
322.649	206.81
322.878	203.81
323.108	213.81
323.337	234.81
323.566	234.81
323.795	248.81
324.024	220.81
324.253	198.81
324.482	185.81
324.71	197.81
324.939	206.81
325.168	204.81
325.397	199.81
325.626	204.81
325.855	189.81
326.084	200.81
326.313	202.81
326.542	207.81
326.77	222.81
326.999	228.81
327.228	222.81
327.457	198.81
327.686	179.81
327.914	188.81
328.143	192.81
328.372	196.81
328.6	202.81
328.829	214.81
329.058	227.81
329.287	219.81
329.515	223.81
329.744	215.81
329.972	213.81
330.201	214.81
330.43	224.81
330.658	239.81
330.887	259.81
331.115	274.81
331.344	267.81
331.572	258.81
331.801	234.81
332.03	241.81
332.258	259.81
332.486	247.81
332.715	245.81
332.943	233.81
333.172	235.81
333.4	251.81
333.629	302.81
333.857	300.81
334.085	300.81
334.314	304.81
334.542	265.81
334.771	260.81
334.999	264.81
335.227	260.81
335.455	255.81
335.684	324.81
335.912	368.81
336.14	368.81
336.369	359.81
336.597	365.81
336.825	403.81
337.053	358.81
337.281	264.81
337.51	269.81
337.738	270.81
337.966	294.81
338.194	281.81
338.422	253.81
338.65	230.81
338.878	220.81
339.106	236.81
339.334	261.81
339.562	261.81
339.79	251.81
340.018	244.81
340.246	286.81
340.474	316.81
340.702	330.81
340.93	307.81
341.158	280.81
341.386	227.81
341.614	230.81
341.842	261.81
342.07	314.81
342.298	341.81
342.526	298.81
342.754	237.81
342.981	240.81
343.209	259.81
343.437	275.81
343.665	243.81
343.893	232.81
344.12	218.81
344.348	211.81
344.576	202.81
344.804	203.81
345.031	200.81
345.259	220.81
345.487	230.81
345.714	217.81
345.942	216.81
346.17	194.81
346.397	175.81
346.625	192.81
346.853	199.81
347.08	191.81
347.308	192.81
347.535	191.81
347.763	176.81
347.99	188.81
348.218	190.81
348.445	168.81
348.673	183.81
348.9	191.81
349.128	196.81
349.355	188.81
349.583	183.81
349.81	173.81
350.037	186.81
350.265	154.81
350.492	167.81
350.72	186.81
350.947	186.81
351.174	191.81
351.402	191.81
351.629	188.81
351.856	171.81
352.083	183.81
352.311	186.81
352.538	186.81
352.765	182.81
352.992	181.81
353.22	183.81
353.447	176.81
353.674	168.81
353.901	187.81
354.128	165.81
354.355	169.81
354.583	190.81
354.81	196.81
355.037	208.81
355.264	199.81
355.491	201.81
355.718	200.81
355.945	198.81
356.172	174.81
356.399	207.81
356.626	219.81
356.853	188.81
357.08	199.81
357.307	226.81
357.534	264.81
357.761	308.81
357.988	317.81
358.215	277.81
358.441	263.81
358.668	238.81
358.895	227.81
359.122	262.81
359.349	282.81
359.576	287.81
359.802	228.81
360.029	221.81
360.256	266.81
360.483	295.81
360.709	284.81
360.936	246.81
361.163	198.81
361.39	189.81
361.616	182.81
361.843	181.81
362.07	193.81
362.296	200.81
362.523	176.81
362.749	188.81
362.976	197.81
363.203	208.81
363.429	216.81
363.656	219.81
363.882	212.81
364.109	201.81
364.335	208.81
364.562	194.81
364.788	210.81
365.015	207.81
365.241	195.81
365.468	198.81
365.694	207.81
365.92	199.81
366.147	211.81
366.373	196.81
366.599	202.81
366.826	189.81
367.052	185.81
367.278	195.81
367.505	197.81
367.731	223.81
367.957	196.81
368.184	189.81
368.41	194.81
368.636	204.81
368.862	201.81
369.089	188.81
369.315	185.81
369.541	179.81
369.767	185.81
369.993	186.81
370.219	185.81
370.445	194.81
370.672	187.81
370.898	185.81
371.124	202.81
371.35	185.81
371.576	212.81
371.802	193.81
372.028	194.81
372.254	189.81
372.48	192.81
372.706	184.81
372.932	188.81
373.158	191.81
373.384	188.81
373.61	191.81
373.835	182.81
374.061	198.81
374.287	193.81
374.513	238.81
374.739	214.81
374.965	202.81
375.191	182.81
375.416	200.81
375.642	210.81
375.868	208.81
376.094	193.81
376.319	176.81
376.545	181.81
376.771	181.81
376.997	197.81
377.222	173.81
377.448	186.81
377.674	182.81
377.899	177.81
378.125	176.81
378.35	178.81
378.576	180.81
378.802	179.81
379.027	192.81
379.253	190.81
379.478	202.81
379.704	213.81
379.929	205.81
380.155	182.81
380.38	193.81
380.606	199.81
380.831	188.81
381.057	198.81
381.282	197.81
381.507	203.81
381.733	207.81
381.958	188.81
382.184	200.81
382.409	202.81
382.634	206.81
382.86	214.81
383.085	215.81
383.31	215.81
383.535	217.81
383.761	218.81
383.986	199.81
384.211	208.81
384.436	214.81
384.662	215.81
384.887	231.81
385.112	240.81
385.337	240.81
385.562	227.81
385.787	223.81
386.013	210.81
386.238	221.81
386.463	218.81
386.688	210.81
386.913	220.81
387.138	197.81
387.363	211.81
387.588	222.81
387.813	215.81
388.038	199.81
388.263	221.81
388.488	222.81
388.713	224.81
388.938	215.81
389.163	215.81
389.387	214.81
389.612	210.81
389.837	205.81
390.062	220.81
390.287	203.81
390.512	210.81
390.736	218.81
390.961	232.81
391.186	206.81
391.411	230.81
391.636	222.81
391.86	230.81
392.085	232.81
392.31	218.81
392.534	216.81
392.759	216.81
392.984	204.81
393.208	210.81
393.433	215.81
393.658	202.81
393.882	188.81
394.107	205.81
394.331	205.81
394.556	187.81
394.78	197.81
395.005	203.81
395.229	214.81
395.454	219.81
395.678	218.81
395.903	214.81
396.127	222.81
396.352	259.81
396.576	263.81
396.801	260.81
397.025	262.81
397.249	265.81
397.474	254.81
397.698	260.81
397.922	264.81
398.147	242.81
398.371	232.81
398.595	236.81
398.82	241.81
399.044	270.81
399.268	280.81
399.492	268.81
399.717	253.81
399.941	261.81
400.165	258.81
400.389	230.81
400.613	227.81
400.837	218.81
401.062	227.81
401.286	216.81
401.51	226.81
401.734	219.81
401.958	223.81
402.182	218.81
402.406	242.81
402.63	225.81
402.854	233.81
403.078	237.81
403.302	241.81
403.526	234.81
403.75	230.81
403.974	245.81
404.198	216.81
404.422	233.81
404.645	239.81
404.869	249.81
405.093	244.81
405.317	239.81
405.541	222.81
405.765	238.81
405.988	235.81
406.212	211.81
406.436	216.81
406.66	251.81
406.883	242.81
407.107	248.81
407.331	235.81
407.555	236.81
407.778	223.81
408.002	230.81
408.226	238.81
408.449	238.81
408.673	230.81
408.896	230.81
409.12	219.81
409.344	234.81
409.567	236.81
409.791	230.81
410.014	232.81
410.238	213.81
410.461	232.81
410.685	240.81
410.908	231.81
411.132	226.81
411.355	246.81
411.578	234.81
411.802	208.81
412.025	228.81
412.249	234.81
412.472	250.81
412.695	246.81
412.919	236.81
413.142	233.81
413.365	242.81
413.589	219.81
413.812	219.81
414.035	230.81
414.258	204.81
414.482	215.81
414.705	214.81
414.928	228.81
415.151	217.81
415.374	226.81
415.597	207.81
415.821	216.81
416.044	197.81
416.267	219.81
416.49	241.81
416.713	221.81
416.936	227.81
417.159	214.81
417.382	215.81
417.605	205.81
417.828	211.81
418.051	219.81
418.274	197.81
418.497	195.81
418.72	240.81
418.943	209.81
419.166	207.81
419.389	242.81
419.611	239.81
419.834	239.81
420.057	227.81
420.28	223.81
420.503	226.81
420.726	216.81
420.948	219.81
421.171	224.81
421.394	216.81
421.617	213.81
421.839	198.81
422.062	219.81
422.285	215.81
422.507	243.81
422.73	230.81
422.953	230.81
423.175	219.81
423.398	234.81
423.621	230.81
423.843	238.81
424.066	230.81
424.288	226.81
424.511	213.81
424.733	213.81
424.956	235.81
425.178	258.81
425.401	332.81
425.623	374.81
425.846	258.81
426.068	243.81
426.291	228.81
426.513	246.81
426.735	235.81
426.958	251.81
427.18	246.81
427.402	311.81
427.625	343.81
427.847	258.81
428.069	231.81
428.292	240.81
428.514	230.81
428.736	231.81
428.958	291.81
429.181	311.81
429.403	238.81
429.625	208.81
429.847	224.81
430.069	237.81
430.292	218.81
430.514	220.81
430.736	210.81
430.958	207.81
431.18	205.81
431.402	213.81
431.624	215.81
431.846	208.81
432.068	210.81
432.29	204.81
432.512	204.81
432.734	230.81
432.956	215.81
433.178	216.81
433.4	206.81
433.622	230.81
433.844	255.81
434.066	263.81
434.287	273.81
434.509	258.81
434.731	248.81
434.953	257.81
435.175	286.81
435.397	251.81
435.618	239.81
435.84	204.81
436.062	208.81
436.284	211.81
436.505	207.81
436.727	215.81
436.949	207.81
437.17	214.81
437.392	234.81
437.614	215.81
437.835	201.81
438.057	203.81
438.278	202.81
438.5	207.81
438.721	222.81
438.943	212.81
439.165	196.81
439.386	195.81
439.608	196.81
439.829	207.81
440.05	215.81
440.272	198.81
440.493	216.81
440.715	214.81
440.936	199.81
441.158	206.81
441.379	210.81
441.6	218.81
441.822	208.81
442.043	215.81
442.264	208.81
442.486	242.81
442.707	237.81
442.928	235.81
443.149	226.81
443.371	226.81
443.592	213.81
443.813	205.81
444.034	202.81
444.255	208.81
444.476	223.81
444.698	224.81
444.919	222.81
445.14	304.81
445.361	252.81
445.582	223.81
445.803	242.81
446.024	235.81
446.245	218.81
446.466	206.81
446.687	223.81
446.908	211.81
447.129	215.81
447.35	213.81
447.571	206.81
447.792	183.81
448.013	199.81
448.234	212.81
448.455	199.81
448.675	201.81
448.896	217.81
449.117	214.81
449.338	219.81
449.559	224.81
449.779	238.81
450	214.81
450.221	226.81
450.442	215.81
450.662	194.81
450.883	192.81
451.104	217.81
451.324	213.81
451.545	222.81
451.766	205.81
451.986	222.81
452.207	205.81
452.428	201.81
452.648	219.81
452.869	221.81
453.089	204.81
453.31	208.81
453.53	196.81
453.751	216.81
453.971	199.81
454.192	202.81
454.412	201.81
454.633	211.81
454.853	198.81
455.073	192.81
455.294	201.81
455.514	218.81
455.734	212.81
455.955	218.81
456.175	234.81
456.395	201.81
456.616	210.81
456.836	206.81
457.056	204.81
457.276	180.81
457.497	191.81
457.717	206.81
457.937	213.81
458.157	206.81
458.377	204.81
458.598	203.81
458.818	210.81
459.038	228.81
459.258	222.81
459.478	221.81
459.698	226.81
459.918	221.81
460.138	235.81
460.358	242.81
460.578	201.81
460.798	218.81
461.018	205.81
461.238	244.81
461.458	236.81
461.678	252.81
461.898	263.81
462.118	255.81
462.338	251.81
462.558	247.81
462.777	264.81
462.997	240.81
463.217	257.81
463.437	245.81
463.657	243.81
463.876	242.81
464.096	258.81
464.316	264.81
464.536	259.81
464.755	295.81
464.975	250.81
465.195	265.81
465.414	272.81
465.634	226.81
465.854	224.81
466.073	211.81
466.293	204.81
466.512	222.81
466.732	227.81
466.951	214.81
467.171	204.81
467.391	209.81
467.61	208.81
467.829	190.81
468.049	199.81
468.268	181.81
468.488	196.81
468.707	204.81
468.927	217.81
469.146	207.81
469.365	213.81
469.585	207.81
469.804	220.81
470.023	221.81
470.243	223.81
470.462	198.81
470.681	202.81
470.901	221.81
471.12	211.81
471.339	212.81
471.558	204.81
471.777	210.81
471.997	221.81
472.216	238.81
472.435	225.81
472.654	206.81
472.873	216.81
473.092	196.81
473.311	212.81
473.53	203.81
473.749	212.81
473.968	224.81
474.187	192.81
474.406	215.81
474.625	196.81
474.844	206.81
475.063	223.81
475.282	233.81
475.501	216.81
475.72	244.81
475.939	233.81
476.158	212.81
476.377	204.81
476.596	213.81
476.814	212.81
477.033	214.81
477.252	195.81
477.471	210.81
477.69	226.81
477.908	216.81
478.127	214.81
478.346	216.81
478.564	231.81
478.783	236.81
479.002	239.81
479.22	249.81
479.439	229.81
479.658	228.81
479.876	244.81
480.095	243.81
480.313	253.81
480.532	246.81
480.751	232.81
480.969	235.81
481.188	234.81
481.406	245.81
481.624	223.81
481.843	232.81
482.061	218.81
482.28	223.81
482.498	237.81
482.717	256.81
482.935	234.81
483.153	252.81
483.372	223.81
483.59	236.81
483.808	244.81
484.027	243.81
484.245	234.81
484.463	231.81
484.681	234.81
484.9	222.81
485.118	230.81
485.336	233.81
485.554	242.81
485.772	246.81
485.99	231.81
486.209	209.81
486.427	253.81
486.645	242.81
486.863	225.81
487.081	240.81
487.299	244.81
487.517	233.81
487.735	242.81
487.953	238.81
488.171	247.81
488.389	231.81
488.607	248.81
488.825	255.81
489.043	250.81
489.261	233.81
489.479	243.81
489.696	243.81
489.914	223.81
490.132	249.81
490.35	239.81
490.568	244.81
490.786	229.81
491.003	238.81
491.221	230.81
491.439	252.81
491.657	241.81
491.874	245.81
492.092	259.81
492.31	285.81
492.527	276.81
492.745	250.81
492.963	240.81
493.18	248.81
493.398	248.81
493.615	247.81
493.833	249.81
494.05	251.81
494.268	245.81
494.485	259.81
494.703	240.81
494.92	252.81
495.138	247.81
495.355	245.81
495.573	260.81
495.79	247.81
496.008	252.81
496.225	219.81
496.442	250.81
496.66	283.81
496.877	266.81
497.094	260.81
497.312	261.81
497.529	264.81
497.746	282.81
497.963	284.81
498.181	275.81
498.398	282.81
498.615	294.81
498.832	294.81
499.049	306.81
499.267	309.81
499.484	330.81
499.701	362.81
499.918	359.81
500.135	385.81
500.352	397.81
500.569	387.81
500.786	372.81
501.003	380.81
501.22	369.81
501.437	363.81
501.654	340.81
501.871	302.81
502.088	294.81
502.305	283.81
502.522	292.81
502.739	281.81
502.956	281.81
503.172	272.81
503.389	271.81
503.606	276.81
