Data from StA_HRD10591_078.txt Node
Date: Fri May 16 15:19:22 EDT 2025
User: Yrep
Spectrometer: HR+D1059
Trigger mode: 1
Integration Time (sec): 1.000000E-1
Scans to average: 1
Electric dark correction enabled: true
Nonlinearity correction enabled: false
Boxcar width: 0
XAxis mode: Wavelengths
Number of Pixels in Spectrum: 2048
>>>>>Begin Spectral Data<<<<<
223.165	-12.81
223.4	-12.81
223.635	-12.81
223.869	-16.81
224.104	-11.81
224.338	-16.81
224.573	-12.81
224.808	-15.81
225.042	-12.81
225.277	-14.81
225.511	1.19
225.746	0.19
225.98	9.19
226.215	8.19
226.449	26.19
226.683	16.19
226.918	21.19
227.152	32.19
227.387	26.19
227.621	29.19
227.856	38.19
228.09	38.19
228.324	57.19
228.559	60.19
228.793	68.19
229.027	76.19
229.262	60.19
229.496	61.19
229.73	57.19
229.964	66.19
230.199	88.19
230.433	85.19
230.667	80.19
230.901	73.19
231.136	65.19
231.37	71.19
231.604	71.19
231.838	71.19
232.072	65.19
232.306	70.19
232.541	73.19
232.775	76.19
233.009	80.19
233.243	65.19
233.477	80.19
233.711	74.19
233.945	72.19
234.179	81.19
234.413	74.19
234.647	73.19
234.881	72.19
235.115	75.19
235.349	67.19
235.583	73.19
235.817	65.19
236.051	67.19
236.285	65.19
236.519	79.19
236.753	71.19
236.987	71.19
237.221	66.19
237.455	82.19
237.689	61.19
237.922	69.19
238.156	75.19
238.39	70.19
238.624	74.19
238.858	81.19
239.091	75.19
239.325	62.19
239.559	72.19
239.793	66.19
240.027	71.19
240.26	84.19
240.494	76.19
240.728	67.19
240.961	58.19
241.195	78.19
241.429	76.19
241.662	68.19
241.896	76.19
242.13	72.19
242.363	64.19
242.597	76.19
242.83	66.19
243.064	59.19
243.298	64.19
243.531	75.19
243.765	62.19
243.998	62.19
244.232	63.19
244.465	70.19
244.699	68.19
244.932	89.19
245.166	78.19
245.399	94.19
245.633	86.19
245.866	65.19
246.099	85.19
246.333	87.19
246.566	69.19
246.8	54.19
247.033	82.19
247.266	89.19
247.5	79.19
247.733	72.19
247.966	80.19
248.2	56.19
248.433	76.19
248.666	56.19
248.899	78.19
249.133	88.19
249.366	80.19
249.599	83.19
249.832	74.19
250.066	85.19
250.299	65.19
250.532	67.19
250.765	84.19
250.998	83.19
251.231	76.19
251.465	72.19
251.698	76.19
251.931	66.19
252.164	62.19
252.397	90.19
252.63	83.19
252.863	91.19
253.096	72.19
253.329	66.19
253.562	58.19
253.795	78.19
254.028	75.19
254.261	80.19
254.494	70.19
254.727	76.19
254.96	66.19
255.193	82.19
255.426	70.19
255.659	81.19
255.892	84.19
256.124	72.19
256.357	81.19
256.59	77.19
256.823	72.19
257.056	71.19
257.289	77.19
257.521	77.19
257.754	75.19
257.987	68.19
258.22	71.19
258.452	68.19
258.685	72.19
258.918	83.19
259.151	77.19
259.383	84.19
259.616	80.19
259.849	77.19
260.081	78.19
260.314	70.19
260.547	77.19
260.779	87.19
261.012	73.19
261.244	77.19
261.477	77.19
261.71	78.19
261.942	69.19
262.175	73.19
262.407	79.19
262.64	72.19
262.872	76.19
263.105	83.19
263.337	82.19
263.57	73.19
263.802	73.19
264.035	78.19
264.267	79.19
264.499	91.19
264.732	75.19
264.964	82.19
265.197	74.19
265.429	72.19
265.661	73.19
265.894	75.19
266.126	81.19
266.358	76.19
266.591	82.19
266.823	68.19
267.055	78.19
267.287	80.19
267.52	72.19
267.752	91.19
267.984	80.19
268.216	77.19
268.448	72.19
268.681	70.19
268.913	62.19
269.145	81.19
269.377	91.19
269.609	77.19
269.841	85.19
270.073	88.19
270.306	76.19
270.538	83.19
270.77	70.19
271.002	90.19
271.234	74.19
271.466	83.19
271.698	75.19
271.93	73.19
272.162	73.19
272.394	70.19
272.626	83.19
272.858	81.19
273.09	76.19
273.322	78.19
273.553	89.19
273.785	70.19
274.017	74.19
274.249	85.19
274.481	79.19
274.713	73.19
274.945	72.19
275.176	81.19
275.408	83.19
275.64	84.19
275.872	82.19
276.104	80.19
276.335	74.19
276.567	75.19
276.799	82.19
277.031	76.19
277.262	92.19
277.494	66.19
277.726	86.19
277.957	88.19
278.189	72.19
278.421	89.19
278.652	73.19
278.884	66.19
279.115	84.19
279.347	87.19
279.579	83.19
279.81	81.19
280.042	76.19
280.273	84.19
280.505	88.19
280.736	70.19
280.968	94.19
281.199	80.19
281.431	80.19
281.662	72.19
281.894	81.19
282.125	79.19
282.356	87.19
282.588	91.19
282.819	83.19
283.051	68.19
283.282	76.19
283.513	78.19
283.745	83.19
283.976	90.19
284.207	86.19
284.439	74.19
284.67	79.19
284.901	82.19
285.132	75.19
285.364	83.19
285.595	88.19
285.826	87.19
286.057	77.19
286.288	82.19
286.52	86.19
286.751	85.19
286.982	93.19
287.213	68.19
287.444	69.19
287.675	72.19
287.906	72.19
288.138	86.19
288.369	75.19
288.6	72.19
288.831	83.19
289.062	87.19
289.293	76.19
289.524	96.19
289.755	64.19
289.986	81.19
290.217	83.19
290.448	76.19
290.679	77.19
290.91	73.19
291.141	84.19
291.371	70.19
291.602	81.19
291.833	80.19
292.064	72.19
292.295	93.19
292.526	88.19
292.757	62.19
292.987	87.19
293.218	88.19
293.449	78.19
293.68	73.19
293.91	75.19
294.141	75.19
294.372	77.19
294.603	81.19
294.833	80.19
295.064	74.19
295.295	82.19
295.525	95.19
295.756	76.19
295.987	72.19
296.217	80.19
296.448	86.19
296.679	85.19
296.909	73.19
297.14	65.19
297.37	80.19
297.601	84.19
297.831	85.19
298.062	75.19
298.292	70.19
298.523	89.19
298.753	84.19
298.984	83.19
299.214	75.19
299.445	85.19
299.675	77.19
299.905	82.19
300.136	85.19
300.366	77.19
300.597	88.19
300.827	86.19
301.057	71.19
301.288	97.19
301.518	74.19
301.748	96.19
301.979	86.19
302.209	104.19
302.439	78.19
302.669	88.19
302.9	94.19
303.13	87.19
303.36	68.19
303.59	78.19
303.82	80.19
304.051	83.19
304.281	81.19
304.511	82.19
304.741	71.19
304.971	90.19
305.201	89.19
305.431	82.19
305.661	79.19
305.891	86.19
306.121	74.19
306.352	90.19
306.582	84.19
306.812	84.19
307.042	73.19
307.272	81.19
307.502	83.19
307.731	68.19
307.961	73.19
308.191	81.19
308.421	72.19
308.651	90.19
308.881	89.19
309.111	76.19
309.341	78.19
309.571	84.19
309.8	82.19
310.03	76.19
310.26	82.19
310.49	86.19
310.72	69.19
310.949	79.19
311.179	75.19
311.409	80.19
311.639	61.19
311.868	66.19
312.098	91.19
312.328	76.19
312.557	84.19
312.787	65.19
313.017	84.19
313.246	91.19
313.476	78.19
313.706	88.19
313.935	85.19
314.165	80.19
314.394	86.19
314.624	93.19
314.853	86.19
315.083	92.19
315.312	88.19
315.542	84.19
315.771	82.19
316.001	81.19
316.23	70.19
316.46	80.19
316.689	71.19
316.919	74.19
317.148	98.19
317.377	81.19
317.607	86.19
317.836	80.19
318.065	86.19
318.295	72.19
318.524	81.19
318.753	74.19
318.983	90.19
319.212	85.19
319.441	79.19
319.67	92.19
319.9	79.19
320.129	78.19
320.358	77.19
320.587	80.19
320.816	86.19
321.046	89.19
321.275	91.19
321.504	76.19
321.733	89.19
321.962	84.19
322.191	85.19
322.42	75.19
322.649	83.19
322.878	75.19
323.108	84.19
323.337	80.19
323.566	80.19
323.795	80.19
324.024	91.19
324.253	93.19
324.482	76.19
324.71	79.19
324.939	79.19
325.168	81.19
325.397	89.19
325.626	81.19
325.855	75.19
326.084	71.19
326.313	80.19
326.542	74.19
326.77	94.19
326.999	92.19
327.228	72.19
327.457	59.19
327.686	75.19
327.914	77.19
328.143	90.19
328.372	94.19
328.6	88.19
328.829	75.19
329.058	69.19
329.287	92.19
329.515	69.19
329.744	77.19
329.972	99.19
330.201	85.19
330.43	93.19
330.658	81.19
330.887	75.19
331.115	68.19
331.344	93.19
331.572	87.19
331.801	74.19
332.03	78.19
332.258	82.19
332.486	78.19
332.715	71.19
332.943	74.19
333.172	89.19
333.4	77.19
333.629	73.19
333.857	74.19
334.085	84.19
334.314	58.19
334.542	89.19
334.771	73.19
334.999	78.19
335.227	98.19
335.455	88.19
335.684	75.19
335.912	83.19
336.14	83.19
336.369	81.19
336.597	83.19
336.825	85.19
337.053	71.19
337.281	92.19
337.51	90.19
337.738	70.19
337.966	68.19
338.194	75.19
338.422	86.19
338.65	68.19
338.878	82.19
339.106	72.19
339.334	73.19
339.562	77.19
339.79	86.19
340.018	61.19
340.246	84.19
340.474	78.19
340.702	89.19
340.93	73.19
341.158	91.19
341.386	78.19
341.614	84.19
341.842	74.19
342.07	82.19
342.298	92.19
342.526	92.19
342.754	74.19
342.981	81.19
343.209	84.19
343.437	98.19
343.665	87.19
343.893	74.19
344.12	74.19
344.348	92.19
344.576	87.19
344.804	71.19
345.031	92.19
345.259	74.19
345.487	79.19
345.714	80.19
345.942	79.19
346.17	73.19
346.397	78.19
346.625	90.19
346.853	70.19
347.08	74.19
347.308	89.19
347.535	80.19
347.763	78.19
347.99	60.19
348.218	76.19
348.445	66.19
348.673	87.19
348.9	88.19
349.128	80.19
349.355	77.19
349.583	84.19
349.81	96.19
350.037	84.19
350.265	85.19
350.492	83.19
350.72	80.19
350.947	77.19
351.174	92.19
351.402	74.19
351.629	84.19
351.856	81.19
352.083	83.19
352.311	72.19
352.538	83.19
352.765	82.19
352.992	77.19
353.22	84.19
353.447	69.19
353.674	82.19
353.901	67.19
354.128	78.19
354.355	65.19
354.583	83.19
354.81	86.19
355.037	87.19
355.264	93.19
355.491	94.19
355.718	90.19
355.945	96.19
356.172	86.19
356.399	72.19
356.626	74.19
356.853	87.19
357.08	88.19
357.307	77.19
357.534	94.19
357.761	107.19
357.988	114.19
358.215	104.19
358.441	94.19
358.668	100.19
358.895	77.19
359.122	97.19
359.349	126.19
359.576	107.19
359.802	96.19
360.029	82.19
360.256	89.19
360.483	95.19
360.709	105.19
360.936	92.19
361.163	91.19
361.39	74.19
361.616	80.19
361.843	73.19
362.07	82.19
362.296	77.19
362.523	78.19
362.749	77.19
362.976	84.19
363.203	84.19
363.429	89.19
363.656	83.19
363.882	80.19
364.109	96.19
364.335	88.19
364.562	68.19
364.788	94.19
365.015	75.19
365.241	87.19
365.468	92.19
365.694	74.19
365.92	76.19
366.147	83.19
366.373	72.19
366.599	63.19
366.826	74.19
367.052	82.19
367.278	89.19
367.505	90.19
367.731	85.19
367.957	72.19
368.184	92.19
368.41	77.19
368.636	85.19
368.862	94.19
369.089	70.19
369.315	89.19
369.541	90.19
369.767	81.19
369.993	73.19
370.219	89.19
370.445	75.19
370.672	77.19
370.898	79.19
371.124	75.19
371.35	76.19
371.576	79.19
371.802	68.19
372.028	74.19
372.254	86.19
372.48	84.19
372.706	77.19
372.932	79.19
373.158	72.19
373.384	86.19
373.61	73.19
373.835	76.19
374.061	84.19
374.287	85.19
374.513	87.19
374.739	67.19
374.965	77.19
375.191	78.19
375.416	89.19
375.642	82.19
375.868	90.19
376.094	81.19
376.319	86.19
376.545	87.19
376.771	80.19
376.997	89.19
377.222	66.19
377.448	101.19
377.674	76.19
377.899	69.19
378.125	74.19
378.35	84.19
378.576	82.19
378.802	64.19
379.027	62.19
379.253	83.19
379.478	86.19
379.704	80.19
379.929	80.19
380.155	73.19
380.38	87.19
380.606	65.19
380.831	81.19
381.057	77.19
381.282	74.19
381.507	72.19
381.733	86.19
381.958	83.19
382.184	83.19
382.409	79.19
382.634	71.19
382.86	71.19
383.085	98.19
383.31	80.19
383.535	75.19
383.761	67.19
383.986	92.19
384.211	101.19
384.436	84.19
384.662	74.19
384.887	79.19
385.112	90.19
385.337	76.19
385.562	77.19
385.787	74.19
386.013	82.19
386.238	83.19
386.463	67.19
386.688	91.19
386.913	65.19
387.138	82.19
387.363	83.19
387.588	76.19
387.813	76.19
388.038	88.19
388.263	72.19
388.488	94.19
388.713	87.19
388.938	92.19
389.163	90.19
389.387	66.19
389.612	89.19
389.837	70.19
390.062	80.19
390.287	76.19
390.512	96.19
390.736	72.19
390.961	76.19
391.186	84.19
391.411	91.19
391.636	93.19
391.86	82.19
392.085	98.19
392.31	90.19
392.534	68.19
392.759	81.19
392.984	75.19
393.208	80.19
393.433	62.19
393.658	80.19
393.882	79.19
394.107	90.19
394.331	84.19
394.556	70.19
394.78	75.19
395.005	82.19
395.229	72.19
395.454	70.19
395.678	82.19
395.903	83.19
396.127	86.19
396.352	86.19
396.576	78.19
396.801	78.19
397.025	88.19
397.249	81.19
397.474	86.19
397.698	73.19
397.922	99.19
398.147	84.19
398.371	80.19
398.595	99.19
398.82	72.19
399.044	85.19
399.268	98.19
399.492	80.19
399.717	81.19
399.941	79.19
400.165	86.19
400.389	80.19
400.613	66.19
400.837	82.19
401.062	76.19
401.286	75.19
401.51	84.19
401.734	76.19
401.958	79.19
402.182	68.19
402.406	71.19
402.63	72.19
402.854	97.19
403.078	71.19
403.302	74.19
403.526	78.19
403.75	66.19
403.974	72.19
404.198	84.19
404.422	70.19
404.645	73.19
404.869	80.19
405.093	66.19
405.317	74.19
405.541	84.19
405.765	82.19
405.988	66.19
406.212	70.19
406.436	75.19
406.66	70.19
406.883	72.19
407.107	68.19
407.331	76.19
407.555	90.19
407.778	82.19
408.002	84.19
408.226	78.19
408.449	84.19
408.673	70.19
408.896	73.19
409.12	77.19
409.344	71.19
409.567	76.19
409.791	84.19
410.014	93.19
410.238	70.19
410.461	80.19
410.685	61.19
410.908	82.19
411.132	92.19
411.355	78.19
411.578	71.19
411.802	73.19
412.025	72.19
412.249	72.19
412.472	73.19
412.695	74.19
412.919	81.19
413.142	84.19
413.365	86.19
413.589	69.19
413.812	79.19
414.035	79.19
414.258	86.19
414.482	88.19
414.705	90.19
414.928	88.19
415.151	66.19
415.374	78.19
415.597	78.19
415.821	81.19
416.044	80.19
416.267	78.19
416.49	94.19
416.713	74.19
416.936	80.19
417.159	80.19
417.382	76.19
417.605	84.19
417.828	97.19
418.051	87.19
418.274	75.19
418.497	76.19
418.72	60.19
418.943	82.19
419.166	86.19
419.389	75.19
419.611	73.19
419.834	80.19
420.057	85.19
420.28	74.19
420.503	76.19
420.726	82.19
420.948	74.19
421.171	82.19
421.394	74.19
421.617	73.19
421.839	81.19
422.062	82.19
422.285	90.19
422.507	70.19
422.73	72.19
422.953	73.19
423.175	75.19
423.398	81.19
423.621	82.19
423.843	83.19
424.066	80.19
424.288	76.19
424.511	71.19
424.733	77.19
424.956	80.19
425.178	88.19
425.401	133.19
425.623	156.19
425.846	85.19
426.068	81.19
426.291	83.19
426.513	76.19
426.735	73.19
426.958	84.19
427.18	90.19
427.402	119.19
427.625	131.19
427.847	100.19
428.069	83.19
428.292	74.19
428.514	77.19
428.736	81.19
428.958	118.19
429.181	114.19
429.403	79.19
429.625	76.19
429.847	75.19
430.069	71.19
430.292	76.19
430.514	68.19
430.736	81.19
430.958	74.19
431.18	77.19
431.402	77.19
431.624	80.19
431.846	80.19
432.068	86.19
432.29	94.19
432.512	74.19
432.734	84.19
432.956	74.19
433.178	94.19
433.4	62.19
433.622	96.19
433.844	105.19
434.066	118.19
434.287	117.19
434.509	93.19
434.731	87.19
434.953	84.19
435.175	102.19
435.397	113.19
435.618	78.19
435.84	80.19
436.062	92.19
436.284	84.19
436.505	68.19
436.727	69.19
436.949	76.19
437.17	90.19
437.392	83.19
437.614	85.19
437.835	88.19
438.057	69.19
438.278	67.19
438.5	90.19
438.721	84.19
438.943	92.19
439.165	84.19
439.386	83.19
439.608	74.19
439.829	82.19
440.05	86.19
440.272	66.19
440.493	81.19
440.715	84.19
440.936	104.19
441.158	90.19
441.379	78.19
441.6	84.19
441.822	82.19
442.043	62.19
442.264	84.19
442.486	79.19
442.707	69.19
442.928	76.19
443.149	84.19
443.371	89.19
443.592	79.19
443.813	82.19
444.034	92.19
444.255	75.19
444.476	66.19
444.698	88.19
444.919	56.19
445.14	167.19
445.361	109.19
445.582	90.19
445.803	89.19
446.024	85.19
446.245	77.19
446.466	84.19
446.687	68.19
446.908	73.19
447.129	80.19
447.35	70.19
447.571	85.19
447.792	92.19
448.013	72.19
448.234	56.19
448.455	66.19
448.675	70.19
448.896	73.19
449.117	69.19
449.338	69.19
449.559	77.19
449.779	91.19
450	84.19
450.221	86.19
450.442	85.19
450.662	71.19
450.883	83.19
451.104	83.19
451.324	92.19
451.545	98.19
451.766	77.19
451.986	65.19
452.207	66.19
452.428	89.19
452.648	79.19
452.869	102.19
453.089	80.19
453.31	70.19
453.53	78.19
453.751	84.19
453.971	84.19
454.192	78.19
454.412	85.19
454.633	85.19
454.853	92.19
455.073	73.19
455.294	85.19
455.514	77.19
455.734	71.19
455.955	79.19
456.175	77.19
456.395	70.19
456.616	81.19
456.836	85.19
457.056	85.19
457.276	80.19
457.497	84.19
457.717	80.19
457.937	73.19
458.157	80.19
458.377	86.19
458.598	86.19
458.818	74.19
459.038	71.19
459.258	77.19
459.478	93.19
459.698	89.19
459.918	68.19
460.138	77.19
460.358	89.19
460.578	82.19
460.798	88.19
461.018	72.19
461.238	74.19
461.458	90.19
461.678	93.19
461.898	83.19
462.118	76.19
462.338	92.19
462.558	97.19
462.777	105.19
462.997	84.19
463.217	84.19
463.437	79.19
463.657	80.19
463.876	74.19
464.096	84.19
464.316	80.19
464.536	77.19
464.755	112.19
464.975	93.19
465.195	106.19
465.414	104.19
465.634	78.19
465.854	67.19
466.073	74.19
466.293	74.19
466.512	69.19
466.732	82.19
466.951	70.19
467.171	83.19
467.391	80.19
467.61	77.19
467.829	71.19
468.049	76.19
468.268	73.19
468.488	69.19
468.707	100.19
468.927	84.19
469.146	74.19
469.365	77.19
469.585	104.19
469.804	80.19
470.023	88.19
470.243	77.19
470.462	81.19
470.681	77.19
470.901	78.19
471.12	72.19
471.339	80.19
471.558	92.19
471.777	86.19
471.997	98.19
472.216	88.19
472.435	76.19
472.654	81.19
472.873	81.19
473.092	86.19
473.311	70.19
473.53	72.19
473.749	83.19
473.968	76.19
474.187	65.19
474.406	85.19
474.625	72.19
474.844	66.19
475.063	69.19
475.282	74.19
475.501	90.19
475.72	102.19
475.939	85.19
476.158	70.19
476.377	76.19
476.596	75.19
476.814	82.19
477.033	68.19
477.252	74.19
477.471	92.19
477.69	72.19
477.908	83.19
478.127	76.19
478.346	68.19
478.564	79.19
478.783	68.19
479.002	91.19
479.22	94.19
479.439	82.19
479.658	82.19
479.876	78.19
480.095	78.19
480.313	80.19
480.532	64.19
480.751	77.19
480.969	86.19
481.188	84.19
481.406	61.19
481.624	68.19
481.843	72.19
482.061	87.19
482.28	83.19
482.498	90.19
482.717	80.19
482.935	89.19
483.153	96.19
483.372	92.19
483.59	77.19
483.808	89.19
484.027	73.19
484.245	86.19
484.463	78.19
484.681	94.19
484.9	84.19
485.118	74.19
485.336	64.19
485.554	72.19
485.772	73.19
485.99	75.19
486.209	83.19
486.427	85.19
486.645	77.19
486.863	88.19
487.081	84.19
487.299	97.19
487.517	89.19
487.735	75.19
487.953	88.19
488.171	87.19
488.389	86.19
488.607	107.19
488.825	89.19
489.043	81.19
489.261	81.19
489.479	73.19
489.696	83.19
489.914	66.19
490.132	82.19
490.35	84.19
490.568	78.19
490.786	80.19
491.003	76.19
491.221	82.19
491.439	92.19
491.657	88.19
491.874	77.19
492.092	84.19
492.31	80.19
492.527	76.19
492.745	70.19
492.963	85.19
493.18	68.19
493.398	81.19
493.615	91.19
493.833	86.19
494.05	80.19
494.268	93.19
494.485	86.19
494.703	81.19
494.92	93.19
495.138	89.19
495.355	86.19
495.573	105.19
495.79	89.19
496.008	82.19
496.225	76.19
496.442	86.19
496.66	81.19
496.877	75.19
497.094	68.19
497.312	87.19
497.529	79.19
497.746	85.19
497.963	77.19
498.181	86.19
498.398	72.19
498.615	78.19
498.832	77.19
499.049	77.19
499.267	73.19
499.484	86.19
499.701	99.19
499.918	85.19
500.135	80.19
500.352	94.19
500.569	76.19
500.786	84.19
501.003	71.19
501.22	77.19
501.437	72.19
501.654	73.19
501.871	72.19
502.088	72.19
502.305	90.19
502.522	70.19
502.739	78.19
502.956	92.19
503.172	65.19
503.389	80.19
503.606	88.19
503.823	89.19
504.04	74.19
504.256	75.19
504.473	66.19
504.69	84.19
504.907	84.19
505.123	92.19
505.34	76.19
505.557	90.19
505.773	72.19
505.99	80.19
506.207	89.19
506.423	87.19
506.64	73.19
506.856	88.19
507.073	80.19
507.289	90.19
507.506	88.19
507.722	76.19
507.939	77.19
508.155	82.19
508.372	70.19
508.588	85.19
508.805	73.19
509.021	71.19
509.238	85.19
509.454	79.19
509.67	86.19
509.887	84.19
510.103	75.19
510.319	84.19
510.536	83.19
510.752	77.19
510.968	74.19
511.184	70.19
511.401	75.19
511.617	82.19
511.833	68.19
512.049	74.19
512.265	80.19
512.481	75.19
512.698	84.19
512.914	88.19
513.13	73.19
513.346	83.19
513.562	93.19
513.778	82.19
513.994	81.19
514.21	57.19
514.426	74.19
514.642	81.19
514.858	84.19
515.074	85.19
515.29	90.19
515.506	70.19
515.721	73.19
515.937	90.19
516.153	74.19
516.369	86.19
516.585	82.19
516.801	89.19
517.016	85.19
517.232	84.19
517.448	84.19
517.664	88.19
517.879	74.19
518.095	91.19
518.311	76.19
518.527	71.19
518.742	70.19
518.958	105.19
519.173	83.19
519.389	74.19
519.605	88.19
519.82	85.19
