Data from StA_HRD10591_049.txt Node
Date: Fri May 16 15:19:08 EDT 2025
User: Yrep
Spectrometer: HR+D1059
Trigger mode: 1
Integration Time (sec): 1.000000E-1
Scans to average: 1
Electric dark correction enabled: true
Nonlinearity correction enabled: false
Boxcar width: 0
XAxis mode: Wavelengths
Number of Pixels in Spectrum: 2048
>>>>>Begin Spectral Data<<<<<
223.165	-9.75
223.4	-9.75
223.635	-9.75
223.869	-27.75
224.104	-9.75
224.338	-19.75
224.573	-19.75
224.808	-9.75
225.042	-12.75
225.277	-2.75
225.511	2.25
225.746	0.25
225.98	8.25
226.215	7.25
226.449	18.25
226.683	21.25
226.918	26.25
227.152	28.25
227.387	34.25
227.621	35.25
227.856	45.25
228.09	55.25
228.324	53.25
228.559	72.25
228.793	59.25
229.027	65.25
229.262	69.25
229.496	66.25
229.73	80.25
229.964	58.25
230.199	83.25
230.433	82.25
230.667	75.25
230.901	80.25
231.136	72.25
231.37	96.25
231.604	78.25
231.838	74.25
232.072	83.25
232.306	90.25
232.541	78.25
232.775	81.25
233.009	64.25
233.243	85.25
233.477	83.25
233.711	82.25
233.945	96.25
234.179	92.25
234.413	86.25
234.647	73.25
234.881	66.25
235.115	80.25
235.349	75.25
235.583	82.25
235.817	76.25
236.051	80.25
236.285	79.25
236.519	86.25
236.753	75.25
236.987	88.25
237.221	68.25
237.455	79.25
237.689	84.25
237.922	83.25
238.156	86.25
238.39	82.25
238.624	67.25
238.858	79.25
239.091	81.25
239.325	71.25
239.559	70.25
239.793	78.25
240.027	81.25
240.26	82.25
240.494	80.25
240.728	76.25
240.961	84.25
241.195	73.25
241.429	65.25
241.662	70.25
241.896	73.25
242.13	90.25
242.363	91.25
242.597	81.25
242.83	74.25
243.064	79.25
243.298	76.25
243.531	80.25
243.765	88.25
243.998	77.25
244.232	75.25
244.465	79.25
244.699	76.25
244.932	84.25
245.166	91.25
245.399	72.25
245.633	95.25
245.866	76.25
246.099	75.25
246.333	84.25
246.566	87.25
246.8	66.25
247.033	70.25
247.266	72.25
247.5	68.25
247.733	70.25
247.966	76.25
248.2	76.25
248.433	87.25
248.666	69.25
248.899	80.25
249.133	80.25
249.366	83.25
249.599	86.25
249.832	78.25
250.066	78.25
250.299	81.25
250.532	85.25
250.765	71.25
250.998	75.25
251.231	81.25
251.465	75.25
251.698	76.25
251.931	75.25
252.164	80.25
252.397	83.25
252.63	91.25
252.863	76.25
253.096	70.25
253.329	79.25
253.562	80.25
253.795	88.25
254.028	76.25
254.261	79.25
254.494	83.25
254.727	90.25
254.96	82.25
255.193	81.25
255.426	76.25
255.659	88.25
255.892	84.25
256.124	79.25
256.357	72.25
256.59	69.25
256.823	74.25
257.056	85.25
257.289	84.25
257.521	81.25
257.754	87.25
257.987	82.25
258.22	86.25
258.452	91.25
258.685	93.25
258.918	81.25
259.151	79.25
259.383	92.25
259.616	85.25
259.849	99.25
260.081	86.25
260.314	91.25
260.547	78.25
260.779	86.25
261.012	73.25
261.244	72.25
261.477	92.25
261.71	88.25
261.942	85.25
262.175	87.25
262.407	79.25
262.64	90.25
262.872	76.25
263.105	83.25
263.337	95.25
263.57	73.25
263.802	90.25
264.035	77.25
264.267	72.25
264.499	89.25
264.732	78.25
264.964	81.25
265.197	88.25
265.429	86.25
265.661	80.25
265.894	82.25
266.126	77.25
266.358	80.25
266.591	80.25
266.823	71.25
267.055	87.25
267.287	90.25
267.52	77.25
267.752	89.25
267.984	88.25
268.216	82.25
268.448	84.25
268.681	91.25
268.913	73.25
269.145	76.25
269.377	82.25
269.609	82.25
269.841	91.25
270.073	92.25
270.306	92.25
270.538	80.25
270.77	80.25
271.002	80.25
271.234	89.25
271.466	94.25
271.698	92.25
271.93	82.25
272.162	75.25
272.394	97.25
272.626	83.25
272.858	102.25
273.09	81.25
273.322	81.25
273.553	79.25
273.785	73.25
274.017	73.25
274.249	76.25
274.481	88.25
274.713	80.25
274.945	84.25
275.176	93.25
275.408	86.25
275.64	74.25
275.872	74.25
276.104	76.25
276.335	80.25
276.567	79.25
276.799	77.25
277.031	91.25
277.262	82.25
277.494	82.25
277.726	79.25
277.957	76.25
278.189	82.25
278.421	95.25
278.652	77.25
278.884	96.25
279.115	94.25
279.347	87.25
279.579	91.25
279.81	78.25
280.042	86.25
280.273	95.25
280.505	91.25
280.736	73.25
280.968	91.25
281.199	85.25
281.431	78.25
281.662	110.25
281.894	99.25
282.125	81.25
282.356	83.25
282.588	81.25
282.819	89.25
283.051	81.25
283.282	86.25
283.513	76.25
283.745	68.25
283.976	91.25
284.207	89.25
284.439	94.25
284.67	92.25
284.901	86.25
285.132	84.25
285.364	69.25
285.595	84.25
285.826	83.25
286.057	84.25
286.288	87.25
286.52	106.25
286.751	88.25
286.982	94.25
287.213	76.25
287.444	96.25
287.675	97.25
287.906	98.25
288.138	85.25
288.369	85.25
288.6	86.25
288.831	102.25
289.062	102.25
289.293	84.25
289.524	88.25
289.755	75.25
289.986	76.25
290.217	93.25
290.448	82.25
290.679	88.25
290.91	81.25
291.141	82.25
291.371	99.25
291.602	100.25
291.833	80.25
292.064	79.25
292.295	76.25
292.526	76.25
292.757	73.25
292.987	85.25
293.218	91.25
293.449	66.25
293.68	92.25
293.91	73.25
294.141	90.25
294.372	99.25
294.603	89.25
294.833	84.25
295.064	78.25
295.295	72.25
295.525	87.25
295.756	90.25
295.987	100.25
296.217	93.25
296.448	77.25
296.679	96.25
296.909	97.25
297.14	89.25
297.37	99.25
297.601	93.25
297.831	96.25
298.062	74.25
298.292	101.25
298.523	94.25
298.753	109.25
298.984	86.25
299.214	83.25
299.445	80.25
299.675	108.25
299.905	84.25
300.136	84.25
300.366	92.25
300.597	79.25
300.827	97.25
301.057	78.25
301.288	107.25
301.518	90.25
301.748	95.25
301.979	117.25
302.209	92.25
302.439	90.25
302.669	105.25
302.9	95.25
303.13	93.25
303.36	88.25
303.59	93.25
303.82	99.25
304.051	88.25
304.281	91.25
304.511	94.25
304.741	95.25
304.971	97.25
305.201	98.25
305.431	90.25
305.661	89.25
305.891	82.25
306.121	91.25
306.352	88.25
306.582	86.25
306.812	80.25
307.042	107.25
307.272	89.25
307.502	106.25
307.731	80.25
307.961	91.25
308.191	84.25
308.421	84.25
308.651	93.25
308.881	87.25
309.111	80.25
309.341	94.25
309.571	82.25
309.8	93.25
310.03	95.25
310.26	98.25
310.49	71.25
310.72	83.25
310.949	88.25
311.179	76.25
311.409	88.25
311.639	95.25
311.868	82.25
312.098	88.25
312.328	89.25
312.557	87.25
312.787	96.25
313.017	94.25
313.246	102.25
313.476	101.25
313.706	93.25
313.935	95.25
314.165	87.25
314.394	80.25
314.624	90.25
314.853	103.25
315.083	93.25
315.312	82.25
315.542	81.25
315.771	88.25
316.001	84.25
316.23	87.25
316.46	83.25
316.689	84.25
316.919	81.25
317.148	102.25
317.377	93.25
317.607	92.25
317.836	83.25
318.065	88.25
318.295	86.25
318.524	89.25
318.753	88.25
318.983	92.25
319.212	80.25
319.441	99.25
319.67	75.25
319.9	95.25
320.129	88.25
320.358	101.25
320.587	114.25
320.816	94.25
321.046	85.25
321.275	84.25
321.504	79.25
321.733	84.25
321.962	96.25
322.191	91.25
322.42	96.25
322.649	94.25
322.878	87.25
323.108	94.25
323.337	88.25
323.566	86.25
323.795	79.25
324.024	91.25
324.253	78.25
324.482	83.25
324.71	89.25
324.939	100.25
325.168	76.25
325.397	95.25
325.626	89.25
325.855	78.25
326.084	90.25
326.313	85.25
326.542	89.25
326.77	79.25
326.999	82.25
327.228	83.25
327.457	92.25
327.686	87.25
327.914	98.25
328.143	92.25
328.372	95.25
328.6	87.25
328.829	92.25
329.058	90.25
329.287	88.25
329.515	77.25
329.744	96.25
329.972	85.25
330.201	78.25
330.43	79.25
330.658	78.25
330.887	83.25
331.115	74.25
331.344	79.25
331.572	92.25
331.801	95.25
332.03	77.25
332.258	89.25
332.486	96.25
332.715	84.25
332.943	86.25
333.172	80.25
333.4	96.25
333.629	87.25
333.857	87.25
334.085	91.25
334.314	93.25
334.542	96.25
334.771	92.25
334.999	67.25
335.227	94.25
335.455	88.25
335.684	86.25
335.912	95.25
336.14	90.25
336.369	84.25
336.597	79.25
336.825	87.25
337.053	104.25
337.281	86.25
337.51	89.25
337.738	88.25
337.966	93.25
338.194	98.25
338.422	78.25
338.65	85.25
338.878	90.25
339.106	89.25
339.334	99.25
339.562	84.25
339.79	74.25
340.018	79.25
340.246	81.25
340.474	76.25
340.702	90.25
340.93	94.25
341.158	86.25
341.386	87.25
341.614	94.25
341.842	78.25
342.07	94.25
342.298	103.25
342.526	98.25
342.754	92.25
342.981	97.25
343.209	78.25
343.437	88.25
343.665	82.25
343.893	84.25
344.12	96.25
344.348	86.25
344.576	81.25
344.804	91.25
345.031	81.25
345.259	86.25
345.487	86.25
345.714	71.25
345.942	107.25
346.17	74.25
346.397	70.25
346.625	91.25
346.853	86.25
347.08	88.25
347.308	90.25
347.535	90.25
347.763	89.25
347.99	97.25
348.218	95.25
348.445	102.25
348.673	90.25
348.9	94.25
349.128	98.25
349.355	75.25
349.583	97.25
349.81	83.25
350.037	91.25
350.265	85.25
350.492	90.25
350.72	80.25
350.947	88.25
351.174	83.25
351.402	88.25
351.629	91.25
351.856	90.25
352.083	81.25
352.311	89.25
352.538	89.25
352.765	92.25
352.992	91.25
353.22	93.25
353.447	97.25
353.674	88.25
353.901	88.25
354.128	89.25
354.355	99.25
354.583	75.25
354.81	86.25
355.037	78.25
355.264	81.25
355.491	90.25
355.718	75.25
355.945	105.25
356.172	88.25
356.399	94.25
356.626	96.25
356.853	100.25
357.08	92.25
357.307	91.25
357.534	102.25
357.761	119.25
357.988	116.25
358.215	116.25
358.441	96.25
358.668	99.25
358.895	95.25
359.122	103.25
359.349	114.25
359.576	119.25
359.802	100.25
360.029	87.25
360.256	110.25
360.483	104.25
360.709	114.25
360.936	103.25
361.163	94.25
361.39	86.25
361.616	76.25
361.843	85.25
362.07	89.25
362.296	80.25
362.523	79.25
362.749	90.25
362.976	95.25
363.203	98.25
363.429	87.25
363.656	83.25
363.882	101.25
364.109	90.25
364.335	77.25
364.562	82.25
364.788	82.25
365.015	86.25
365.241	90.25
365.468	90.25
365.694	88.25
365.92	87.25
366.147	72.25
366.373	86.25
366.599	80.25
366.826	66.25
367.052	83.25
367.278	81.25
367.505	79.25
367.731	88.25
367.957	102.25
368.184	82.25
368.41	88.25
368.636	92.25
368.862	109.25
369.089	95.25
369.315	80.25
369.541	93.25
369.767	88.25
369.993	80.25
370.219	76.25
370.445	96.25
370.672	86.25
370.898	76.25
371.124	90.25
371.35	92.25
371.576	80.25
371.802	83.25
372.028	86.25
372.254	90.25
372.48	92.25
372.706	82.25
372.932	84.25
373.158	80.25
373.384	95.25
373.61	81.25
373.835	94.25
374.061	79.25
374.287	100.25
374.513	82.25
374.739	83.25
374.965	75.25
375.191	87.25
375.416	80.25
375.642	88.25
375.868	91.25
376.094	92.25
376.319	71.25
376.545	65.25
376.771	76.25
376.997	81.25
377.222	83.25
377.448	93.25
377.674	101.25
377.899	90.25
378.125	89.25
378.35	91.25
378.576	96.25
378.802	92.25
379.027	91.25
379.253	87.25
379.478	94.25
379.704	102.25
379.929	86.25
380.155	94.25
380.38	95.25
380.606	77.25
380.831	89.25
381.057	86.25
381.282	81.25
381.507	75.25
381.733	93.25
381.958	89.25
382.184	79.25
382.409	104.25
382.634	98.25
382.86	94.25
383.085	88.25
383.31	87.25
383.535	90.25
383.761	88.25
383.986	97.25
384.211	74.25
384.436	92.25
384.662	96.25
384.887	117.25
385.112	112.25
385.337	79.25
385.562	90.25
385.787	77.25
386.013	74.25
386.238	91.25
386.463	87.25
386.688	94.25
386.913	98.25
387.138	92.25
387.363	88.25
387.588	87.25
387.813	87.25
388.038	93.25
388.263	92.25
388.488	87.25
388.713	87.25
388.938	93.25
389.163	100.25
389.387	84.25
389.612	84.25
389.837	101.25
390.062	87.25
390.287	101.25
390.512	84.25
390.736	92.25
390.961	80.25
391.186	86.25
391.411	106.25
391.636	89.25
391.86	97.25
392.085	92.25
392.31	90.25
392.534	78.25
392.759	97.25
392.984	89.25
393.208	92.25
393.433	92.25
393.658	106.25
393.882	86.25
394.107	93.25
394.331	76.25
394.556	78.25
394.78	91.25
395.005	95.25
395.229	93.25
395.454	89.25
395.678	84.25
395.903	91.25
396.127	85.25
396.352	80.25
396.576	88.25
396.801	92.25
397.025	79.25
397.249	98.25
397.474	97.25
397.698	89.25
397.922	91.25
398.147	103.25
398.371	81.25
398.595	95.25
398.82	99.25
399.044	82.25
399.268	105.25
399.492	99.25
399.717	76.25
399.941	87.25
400.165	87.25
400.389	84.25
400.613	93.25
400.837	87.25
401.062	89.25
401.286	88.25
401.51	82.25
401.734	78.25
401.958	98.25
402.182	89.25
402.406	67.25
402.63	93.25
402.854	106.25
403.078	93.25
403.302	77.25
403.526	93.25
403.75	85.25
403.974	77.25
404.198	90.25
404.422	74.25
404.645	89.25
404.869	94.25
405.093	88.25
405.317	85.25
405.541	66.25
405.765	85.25
405.988	83.25
406.212	92.25
406.436	80.25
406.66	81.25
406.883	87.25
407.107	81.25
407.331	94.25
407.555	85.25
407.778	86.25
408.002	89.25
408.226	91.25
408.449	94.25
408.673	83.25
408.896	74.25
409.12	78.25
409.344	91.25
409.567	80.25
409.791	82.25
410.014	96.25
410.238	87.25
410.461	83.25
410.685	92.25
410.908	88.25
411.132	93.25
411.355	75.25
411.578	83.25
411.802	92.25
412.025	92.25
412.249	85.25
412.472	92.25
412.695	97.25
412.919	89.25
413.142	93.25
413.365	91.25
413.589	88.25
413.812	92.25
414.035	87.25
414.258	78.25
414.482	99.25
414.705	84.25
414.928	86.25
415.151	94.25
415.374	88.25
415.597	81.25
415.821	112.25
416.044	89.25
416.267	80.25
416.49	91.25
416.713	79.25
416.936	81.25
417.159	96.25
417.382	85.25
417.605	81.25
417.828	96.25
418.051	79.25
418.274	91.25
418.497	76.25
418.72	94.25
418.943	74.25
419.166	81.25
419.389	80.25
419.611	75.25
419.834	79.25
420.057	105.25
420.28	76.25
420.503	88.25
420.726	76.25
420.948	80.25
421.171	85.25
421.394	91.25
421.617	96.25
421.839	87.25
422.062	76.25
422.285	71.25
422.507	86.25
422.73	86.25
422.953	86.25
423.175	85.25
423.398	84.25
423.621	92.25
423.843	78.25
424.066	78.25
424.288	75.25
424.511	78.25
424.733	96.25
424.956	93.25
425.178	102.25
425.401	129.25
425.623	132.25
425.846	102.25
426.068	96.25
426.291	82.25
426.513	79.25
426.735	95.25
426.958	79.25
427.18	80.25
427.402	111.25
427.625	134.25
427.847	114.25
428.069	93.25
428.292	86.25
428.514	90.25
428.736	107.25
428.958	118.25
429.181	135.25
429.403	97.25
429.625	82.25
429.847	90.25
430.069	91.25
430.292	85.25
430.514	104.25
430.736	78.25
430.958	90.25
431.18	101.25
431.402	82.25
431.624	85.25
431.846	93.25
432.068	89.25
432.29	86.25
432.512	87.25
432.734	86.25
432.956	72.25
433.178	84.25
433.4	85.25
433.622	97.25
433.844	102.25
434.066	107.25
434.287	105.25
434.509	110.25
434.731	110.25
434.953	82.25
435.175	107.25
435.397	111.25
435.618	81.25
435.84	87.25
436.062	97.25
436.284	99.25
436.505	89.25
436.727	100.25
436.949	82.25
437.17	86.25
437.392	98.25
437.614	69.25
437.835	84.25
438.057	60.25
438.278	84.25
438.5	100.25
438.721	90.25
438.943	84.25
439.165	77.25
439.386	91.25
439.608	79.25
439.829	70.25
440.05	74.25
440.272	81.25
440.493	84.25
440.715	78.25
440.936	91.25
441.158	96.25
441.379	94.25
441.6	90.25
441.822	82.25
442.043	80.25
442.264	90.25
442.486	91.25
442.707	91.25
442.928	74.25
443.149	79.25
443.371	74.25
443.592	94.25
443.813	93.25
444.034	77.25
444.255	75.25
444.476	78.25
444.698	79.25
444.919	68.25
445.14	165.25
445.361	128.25
445.582	72.25
445.803	88.25
446.024	84.25
446.245	86.25
446.466	90.25
446.687	95.25
446.908	92.25
447.129	86.25
447.35	79.25
447.571	90.25
447.792	74.25
448.013	91.25
448.234	75.25
448.455	89.25
448.675	74.25
448.896	92.25
449.117	92.25
449.338	93.25
449.559	87.25
449.779	85.25
450	101.25
450.221	87.25
450.442	80.25
450.662	102.25
450.883	79.25
451.104	72.25
451.324	80.25
451.545	83.25
451.766	81.25
451.986	84.25
452.207	77.25
452.428	82.25
452.648	91.25
452.869	78.25
453.089	87.25
453.31	88.25
453.53	93.25
453.751	96.25
453.971	76.25
454.192	87.25
454.412	68.25
454.633	97.25
454.853	97.25
455.073	94.25
455.294	95.25
455.514	78.25
455.734	74.25
455.955	88.25
456.175	94.25
456.395	82.25
456.616	91.25
456.836	84.25
457.056	89.25
457.276	93.25
457.497	79.25
457.717	76.25
457.937	86.25
458.157	92.25
458.377	79.25
458.598	92.25
458.818	94.25
459.038	85.25
459.258	75.25
459.478	79.25
459.698	97.25
459.918	90.25
460.138	95.25
460.358	89.25
460.578	88.25
460.798	91.25
461.018	90.25
461.238	90.25
461.458	93.25
461.678	91.25
461.898	92.25
462.118	91.25
462.338	102.25
462.558	90.25
462.777	94.25
462.997	81.25
463.217	81.25
463.437	96.25
463.657	84.25
463.876	79.25
464.096	92.25
464.316	94.25
464.536	82.25
464.755	100.25
464.975	97.25
465.195	102.25
465.414	106.25
465.634	92.25
465.854	80.25
466.073	85.25
466.293	89.25
466.512	98.25
466.732	84.25
466.951	79.25
467.171	80.25
467.391	74.25
467.61	82.25
467.829	85.25
468.049	84.25
468.268	78.25
468.488	96.25
468.707	100.25
468.927	93.25
469.146	86.25
469.365	91.25
469.585	100.25
469.804	88.25
470.023	88.25
470.243	83.25
470.462	91.25
470.681	86.25
470.901	94.25
471.12	96.25
471.339	77.25
471.558	85.25
471.777	87.25
471.997	90.25
472.216	90.25
472.435	94.25
472.654	82.25
472.873	80.25
473.092	87.25
473.311	88.25
473.53	75.25
473.749	79.25
473.968	97.25
474.187	76.25
474.406	82.25
474.625	86.25
474.844	83.25
475.063	78.25
475.282	94.25
475.501	96.25
475.72	93.25
475.939	90.25
476.158	95.25
476.377	90.25
476.596	99.25
476.814	72.25
477.033	91.25
477.252	84.25
477.471	81.25
477.69	91.25
477.908	88.25
478.127	75.25
478.346	83.25
478.564	74.25
478.783	74.25
479.002	87.25
479.22	85.25
479.439	90.25
479.658	94.25
479.876	84.25
480.095	86.25
480.313	91.25
480.532	79.25
480.751	83.25
480.969	93.25
481.188	83.25
481.406	92.25
481.624	91.25
481.843	84.25
482.061	81.25
482.28	82.25
482.498	95.25
482.717	80.25
482.935	93.25
483.153	88.25
483.372	85.25
483.59	94.25
483.808	79.25
484.027	84.25
484.245	86.25
484.463	69.25
484.681	92.25
484.9	74.25
485.118	80.25
485.336	80.25
485.554	75.25
485.772	96.25
485.99	95.25
486.209	80.25
486.427	99.25
486.645	72.25
486.863	87.25
487.081	88.25
487.299	93.25
487.517	90.25
487.735	77.25
487.953	85.25
488.171	99.25
488.389	79.25
488.607	96.25
488.825	106.25
489.043	88.25
489.261	104.25
489.479	99.25
489.696	85.25
489.914	93.25
490.132	79.25
490.35	95.25
490.568	72.25
490.786	96.25
491.003	86.25
491.221	88.25
491.439	85.25
491.657	95.25
491.874	100.25
492.092	90.25
492.31	105.25
492.527	95.25
492.745	92.25
492.963	84.25
493.18	97.25
493.398	90.25
493.615	98.25
493.833	91.25
494.05	95.25
494.268	85.25
494.485	100.25
494.703	86.25
494.92	84.25
495.138	87.25
495.355	79.25
495.573	93.25
495.79	92.25
496.008	83.25
496.225	102.25
496.442	86.25
496.66	91.25
496.877	90.25
497.094	90.25
497.312	99.25
497.529	92.25
497.746	88.25
497.963	86.25
498.181	97.25
498.398	100.25
498.615	79.25
498.832	81.25
499.049	64.25
499.267	94.25
499.484	85.25
499.701	96.25
499.918	94.25
500.135	91.25
500.352	82.25
500.569	91.25
500.786	90.25
501.003	93.25
501.22	91.25
501.437	87.25
501.654	83.25
501.871	98.25
502.088	79.25
502.305	78.25
502.522	105.25
502.739	79.25
502.956	90.25
503.172	74.25
503.389	91.25
503.606	67.25
503.823	75.25
504.04	87.25
504.256	76.25
504.473	82.25
504.69	82.25
504.907	89.25
505.123	91.25
505.34	90.25
505.557	93.25
505.773	86.25
505.99	96.25
506.207	100.25
506.423	79.25
506.64	95.25
506.856	92.25
507.073	108.25
507.289	86.25
507.506	88.25
507.722	88.25
507.939	75.25
508.155	91.25
508.372	90.25
508.588	74.25
508.805	85.25
509.021	94.25
509.238	78.25
509.454	76.25
509.67	90.25
509.887	87.25
510.103	85.25
510.319	86.25
510.536	84.25
510.752	76.25
510.968	88.25
511.184	82.25
511.401	90.25
511.617	82.25
511.833	94.25
512.049	83.25
512.265	99.25
512.481	87.25
512.698	93.25
512.914	85.25
513.13	97.25
513.346	94.25
513.562	88.25
513.778	99.25
513.994	84.25
514.21	84.25
514.426	96.25
514.642	93.25
514.858	85.25
515.074	85.25
515.29	82.25
515.506	79.25
515.721	98.25
515.937	88.25
516.153	90.25
516.369	80.25
516.585	90.25
516.801	78.25
517.016	82.25
517.232	97.25
517.448	91.25
517.664	86.25
517.879	80.25
518.095	89.25
518.311	98.25
518.527	94.25
518.742	94.25
518.958	80.25
