Data from StA_HRD10591_092.txt Node
Date: Fri May 16 15:19:29 EDT 2025
User: Yrep
Spectrometer: HR+D1059
Trigger mode: 1
Integration Time (sec): 1.000000E-1
Scans to average: 1
Electric dark correction enabled: true
Nonlinearity correction enabled: false
Boxcar width: 0
XAxis mode: Wavelengths
Number of Pixels in Spectrum: 2048
>>>>>Begin Spectral Data<<<<<
223.165	-7.06
223.4	-7.06
223.635	-7.06
223.869	-18.06
224.104	-28.06
224.338	-18.06
224.573	-19.06
224.808	-14.06
225.042	6.94
225.277	-21.06
225.511	-5.06
225.746	5.94
225.98	0.94
226.215	7.94
226.449	24.94
226.683	30.94
226.918	24.94
227.152	27.94
227.387	34.94
227.621	34.94
227.856	45.94
228.09	51.94
228.324	49.94
228.559	70.94
228.793	53.94
229.027	62.94
229.262	57.94
229.496	60.94
229.73	78.94
229.964	72.94
230.199	86.94
230.433	85.94
230.667	84.94
230.901	69.94
231.136	77.94
231.37	73.94
231.604	81.94
231.838	89.94
232.072	85.94
232.306	89.94
232.541	80.94
232.775	81.94
233.009	93.94
233.243	99.94
233.477	78.94
233.711	87.94
233.945	67.94
234.179	81.94
234.413	88.94
234.647	87.94
234.881	81.94
235.115	81.94
235.349	77.94
235.583	81.94
235.817	88.94
236.051	84.94
236.285	74.94
236.519	75.94
236.753	80.94
236.987	68.94
237.221	69.94
237.455	68.94
237.689	71.94
237.922	80.94
238.156	73.94
238.39	67.94
238.624	81.94
238.858	62.94
239.091	73.94
239.325	85.94
239.559	75.94
239.793	85.94
240.027	66.94
240.26	78.94
240.494	86.94
240.728	70.94
240.961	64.94
241.195	72.94
241.429	76.94
241.662	76.94
241.896	72.94
242.13	84.94
242.363	75.94
242.597	77.94
242.83	84.94
243.064	77.94
243.298	82.94
243.531	78.94
243.765	87.94
243.998	79.94
244.232	72.94
244.465	90.94
244.699	85.94
244.932	92.94
245.166	71.94
245.399	81.94
245.633	72.94
245.866	79.94
246.099	69.94
246.333	81.94
246.566	93.94
246.8	64.94
247.033	89.94
247.266	79.94
247.5	81.94
247.733	79.94
247.966	64.94
248.2	63.94
248.433	84.94
248.666	80.94
248.899	90.94
249.133	83.94
249.366	83.94
249.599	89.94
249.832	81.94
250.066	91.94
250.299	73.94
250.532	85.94
250.765	84.94
250.998	78.94
251.231	79.94
251.465	77.94
251.698	76.94
251.931	77.94
252.164	62.94
252.397	72.94
252.63	81.94
252.863	87.94
253.096	84.94
253.329	74.94
253.562	83.94
253.795	96.94
254.028	83.94
254.261	84.94
254.494	86.94
254.727	88.94
254.96	73.94
255.193	86.94
255.426	86.94
255.659	78.94
255.892	70.94
256.124	82.94
256.357	89.94
256.59	74.94
256.823	83.94
257.056	81.94
257.289	79.94
257.521	94.94
257.754	80.94
257.987	81.94
258.22	82.94
258.452	88.94
258.685	95.94
258.918	77.94
259.151	86.94
259.383	82.94
259.616	78.94
259.849	75.94
260.081	94.94
260.314	87.94
260.547	93.94
260.779	88.94
261.012	74.94
261.244	74.94
261.477	79.94
261.71	94.94
261.942	96.94
262.175	75.94
262.407	81.94
262.64	90.94
262.872	76.94
263.105	101.94
263.337	61.94
263.57	93.94
263.802	85.94
264.035	82.94
264.267	92.94
264.499	89.94
264.732	86.94
264.964	98.94
265.197	87.94
265.429	77.94
265.661	81.94
265.894	67.94
266.126	84.94
266.358	87.94
266.591	80.94
266.823	87.94
267.055	79.94
267.287	91.94
267.52	88.94
267.752	88.94
267.984	85.94
268.216	81.94
268.448	82.94
268.681	95.94
268.913	96.94
269.145	81.94
269.377	71.94
269.609	87.94
269.841	94.94
270.073	87.94
270.306	94.94
270.538	103.94
270.77	84.94
271.002	89.94
271.234	88.94
271.466	86.94
271.698	106.94
271.93	87.94
272.162	81.94
272.394	91.94
272.626	85.94
272.858	85.94
273.09	87.94
273.322	98.94
273.553	86.94
273.785	76.94
274.017	76.94
274.249	92.94
274.481	92.94
274.713	88.94
274.945	93.94
275.176	84.94
275.408	75.94
275.64	92.94
275.872	85.94
276.104	89.94
276.335	84.94
276.567	75.94
276.799	88.94
277.031	86.94
277.262	88.94
277.494	97.94
277.726	85.94
277.957	78.94
278.189	100.94
278.421	83.94
278.652	80.94
278.884	97.94
279.115	83.94
279.347	74.94
279.579	85.94
279.81	82.94
280.042	85.94
280.273	85.94
280.505	65.94
280.736	75.94
280.968	83.94
281.199	77.94
281.431	83.94
281.662	91.94
281.894	79.94
282.125	85.94
282.356	78.94
282.588	81.94
282.819	82.94
283.051	72.94
283.282	80.94
283.513	90.94
283.745	93.94
283.976	89.94
284.207	90.94
284.439	89.94
284.67	78.94
284.901	85.94
285.132	86.94
285.364	105.94
285.595	97.94
285.826	104.94
286.057	91.94
286.288	105.94
286.52	89.94
286.751	93.94
286.982	91.94
287.213	91.94
287.444	93.94
287.675	80.94
287.906	98.94
288.138	83.94
288.369	81.94
288.6	96.94
288.831	82.94
289.062	91.94
289.293	95.94
289.524	91.94
289.755	87.94
289.986	100.94
290.217	76.94
290.448	75.94
290.679	95.94
290.91	89.94
291.141	85.94
291.371	80.94
291.602	89.94
291.833	90.94
292.064	93.94
292.295	87.94
292.526	96.94
292.757	84.94
292.987	70.94
293.218	82.94
293.449	93.94
293.68	107.94
293.91	95.94
294.141	77.94
294.372	95.94
294.603	94.94
294.833	98.94
295.064	90.94
295.295	82.94
295.525	80.94
295.756	90.94
295.987	80.94
296.217	88.94
296.448	81.94
296.679	90.94
296.909	70.94
297.14	95.94
297.37	89.94
297.601	89.94
297.831	95.94
298.062	112.94
298.292	82.94
298.523	86.94
298.753	98.94
298.984	89.94
299.214	90.94
299.445	94.94
299.675	95.94
299.905	92.94
300.136	84.94
300.366	81.94
300.597	94.94
300.827	91.94
301.057	91.94
301.288	97.94
301.518	92.94
301.748	114.94
301.979	113.94
302.209	105.94
302.439	91.94
302.669	97.94
302.9	96.94
303.13	98.94
303.36	84.94
303.59	95.94
303.82	82.94
304.051	93.94
304.281	83.94
304.511	93.94
304.741	97.94
304.971	87.94
305.201	81.94
305.431	96.94
305.661	89.94
305.891	79.94
306.121	89.94
306.352	71.94
306.582	71.94
306.812	64.94
307.042	92.94
307.272	82.94
307.502	97.94
307.731	97.94
307.961	104.94
308.191	98.94
308.421	82.94
308.651	79.94
308.881	84.94
309.111	90.94
309.341	94.94
309.571	86.94
309.8	82.94
310.03	99.94
310.26	85.94
310.49	85.94
310.72	82.94
310.949	94.94
311.179	89.94
311.409	81.94
311.639	81.94
311.868	98.94
312.098	88.94
312.328	94.94
312.557	94.94
312.787	95.94
313.017	94.94
313.246	97.94
313.476	93.94
313.706	77.94
313.935	91.94
314.165	79.94
314.394	78.94
314.624	78.94
314.853	104.94
315.083	86.94
315.312	91.94
315.542	77.94
315.771	86.94
316.001	78.94
316.23	81.94
316.46	88.94
316.689	77.94
316.919	87.94
317.148	73.94
317.377	81.94
317.607	88.94
317.836	82.94
318.065	86.94
318.295	86.94
318.524	98.94
318.753	94.94
318.983	80.94
319.212	92.94
319.441	70.94
319.67	74.94
319.9	86.94
320.129	93.94
320.358	85.94
320.587	79.94
320.816	81.94
321.046	102.94
321.275	82.94
321.504	79.94
321.733	87.94
321.962	89.94
322.191	95.94
322.42	78.94
322.649	88.94
322.878	93.94
323.108	74.94
323.337	84.94
323.566	68.94
323.795	77.94
324.024	79.94
324.253	83.94
324.482	86.94
324.71	73.94
324.939	85.94
325.168	90.94
325.397	96.94
325.626	81.94
325.855	83.94
326.084	98.94
326.313	87.94
326.542	95.94
326.77	85.94
326.999	86.94
327.228	89.94
327.457	87.94
327.686	86.94
327.914	98.94
328.143	87.94
328.372	83.94
328.6	84.94
328.829	88.94
329.058	92.94
329.287	81.94
329.515	85.94
329.744	83.94
329.972	87.94
330.201	91.94
330.43	89.94
330.658	86.94
330.887	93.94
331.115	90.94
331.344	87.94
331.572	94.94
331.801	88.94
332.03	81.94
332.258	92.94
332.486	82.94
332.715	83.94
332.943	88.94
333.172	77.94
333.4	90.94
333.629	91.94
333.857	87.94
334.085	94.94
334.314	93.94
334.542	88.94
334.771	78.94
334.999	87.94
335.227	96.94
335.455	82.94
335.684	88.94
335.912	89.94
336.14	91.94
336.369	96.94
336.597	82.94
336.825	90.94
337.053	88.94
337.281	86.94
337.51	71.94
337.738	90.94
337.966	79.94
338.194	80.94
338.422	101.94
338.65	94.94
338.878	67.94
339.106	87.94
339.334	91.94
339.562	84.94
339.79	90.94
340.018	86.94
340.246	91.94
340.474	89.94
340.702	85.94
340.93	98.94
341.158	88.94
341.386	91.94
341.614	78.94
341.842	93.94
342.07	83.94
342.298	90.94
342.526	77.94
342.754	89.94
342.981	88.94
343.209	87.94
343.437	103.94
343.665	84.94
343.893	91.94
344.12	97.94
344.348	92.94
344.576	90.94
344.804	90.94
345.031	78.94
345.259	90.94
345.487	86.94
345.714	78.94
345.942	93.94
346.17	68.94
346.397	77.94
346.625	84.94
346.853	99.94
347.08	89.94
347.308	93.94
347.535	88.94
347.763	73.94
347.99	88.94
348.218	94.94
348.445	91.94
348.673	90.94
348.9	77.94
349.128	83.94
349.355	90.94
349.583	77.94
349.81	66.94
350.037	91.94
350.265	80.94
350.492	77.94
350.72	92.94
350.947	87.94
351.174	69.94
351.402	91.94
351.629	90.94
351.856	85.94
352.083	85.94
352.311	85.94
352.538	91.94
352.765	86.94
352.992	103.94
353.22	93.94
353.447	77.94
353.674	85.94
353.901	79.94
354.128	73.94
354.355	86.94
354.583	105.94
354.81	82.94
355.037	98.94
355.264	99.94
355.491	81.94
355.718	90.94
355.945	85.94
356.172	91.94
356.399	105.94
356.626	98.94
356.853	79.94
357.08	97.94
357.307	102.94
357.534	113.94
357.761	129.94
357.988	127.94
358.215	105.94
358.441	105.94
358.668	95.94
358.895	108.94
359.122	103.94
359.349	119.94
359.576	115.94
359.802	81.94
360.029	74.94
360.256	105.94
360.483	125.94
360.709	111.94
360.936	105.94
361.163	92.94
361.39	105.94
361.616	98.94
361.843	75.94
362.07	78.94
362.296	79.94
362.523	94.94
362.749	88.94
362.976	88.94
363.203	82.94
363.429	92.94
363.656	90.94
363.882	92.94
364.109	90.94
364.335	85.94
364.562	90.94
364.788	75.94
365.015	94.94
365.241	88.94
365.468	91.94
365.694	70.94
365.92	76.94
366.147	83.94
366.373	86.94
366.599	95.94
366.826	93.94
367.052	83.94
367.278	86.94
367.505	96.94
367.731	96.94
367.957	84.94
368.184	73.94
368.41	77.94
368.636	97.94
368.862	86.94
369.089	93.94
369.315	83.94
369.541	80.94
369.767	77.94
369.993	80.94
370.219	81.94
370.445	88.94
370.672	87.94
370.898	68.94
371.124	79.94
371.35	91.94
371.576	89.94
371.802	90.94
372.028	78.94
372.254	83.94
372.48	77.94
372.706	77.94
372.932	85.94
373.158	73.94
373.384	87.94
373.61	101.94
373.835	97.94
374.061	99.94
374.287	90.94
374.513	111.94
374.739	91.94
374.965	97.94
375.191	95.94
375.416	90.94
375.642	80.94
375.868	88.94
376.094	77.94
376.319	85.94
376.545	83.94
376.771	90.94
376.997	79.94
377.222	94.94
377.448	102.94
377.674	91.94
377.899	88.94
378.125	88.94
378.35	77.94
378.576	95.94
378.802	69.94
379.027	89.94
379.253	94.94
379.478	85.94
379.704	109.94
379.929	87.94
380.155	109.94
380.38	83.94
380.606	84.94
380.831	91.94
381.057	93.94
381.282	92.94
381.507	90.94
381.733	95.94
381.958	90.94
382.184	95.94
382.409	94.94
382.634	97.94
382.86	90.94
383.085	92.94
383.31	87.94
383.535	103.94
383.761	87.94
383.986	83.94
384.211	101.94
384.436	82.94
384.662	82.94
384.887	98.94
385.112	108.94
385.337	89.94
385.562	97.94
385.787	84.94
386.013	90.94
386.238	89.94
386.463	87.94
386.688	102.94
386.913	102.94
387.138	91.94
387.363	89.94
387.588	84.94
387.813	82.94
388.038	92.94
388.263	104.94
388.488	87.94
388.713	93.94
388.938	93.94
389.163	87.94
389.387	85.94
389.612	95.94
389.837	83.94
390.062	80.94
390.287	79.94
390.512	90.94
390.736	90.94
390.961	88.94
391.186	80.94
391.411	87.94
391.636	88.94
391.86	98.94
392.085	116.94
392.31	89.94
392.534	100.94
392.759	87.94
392.984	85.94
393.208	93.94
393.433	96.94
393.658	85.94
393.882	84.94
394.107	83.94
394.331	93.94
394.556	103.94
394.78	85.94
395.005	83.94
395.229	80.94
395.454	91.94
395.678	77.94
395.903	81.94
396.127	90.94
396.352	99.94
396.576	97.94
396.801	90.94
397.025	111.94
397.249	96.94
397.474	88.94
397.698	89.94
397.922	96.94
398.147	96.94
398.371	94.94
398.595	88.94
398.82	79.94
399.044	106.94
399.268	86.94
399.492	85.94
399.717	92.94
399.941	85.94
400.165	92.94
400.389	85.94
400.613	73.94
400.837	84.94
401.062	71.94
401.286	86.94
401.51	87.94
401.734	81.94
401.958	70.94
402.182	79.94
402.406	85.94
402.63	103.94
402.854	101.94
403.078	85.94
403.302	92.94
403.526	84.94
403.75	81.94
403.974	83.94
404.198	77.94
404.422	75.94
404.645	65.94
404.869	75.94
405.093	79.94
405.317	78.94
405.541	88.94
405.765	101.94
405.988	85.94
406.212	88.94
406.436	77.94
406.66	93.94
406.883	85.94
407.107	101.94
407.331	96.94
407.555	83.94
407.778	80.94
408.002	83.94
408.226	72.94
408.449	76.94
408.673	89.94
408.896	86.94
409.12	87.94
409.344	91.94
409.567	81.94
409.791	92.94
410.014	81.94
410.238	71.94
410.461	103.94
410.685	78.94
410.908	89.94
411.132	101.94
411.355	78.94
411.578	79.94
411.802	89.94
412.025	80.94
412.249	91.94
412.472	81.94
412.695	82.94
412.919	89.94
413.142	91.94
413.365	93.94
413.589	85.94
413.812	90.94
414.035	85.94
414.258	76.94
414.482	86.94
414.705	98.94
414.928	78.94
415.151	77.94
415.374	79.94
415.597	83.94
415.821	83.94
416.044	79.94
416.267	89.94
416.49	85.94
416.713	86.94
416.936	86.94
417.159	86.94
417.382	97.94
417.605	93.94
417.828	88.94
418.051	90.94
418.274	79.94
418.497	92.94
418.72	93.94
418.943	93.94
419.166	83.94
419.389	87.94
419.611	85.94
419.834	81.94
420.057	89.94
420.28	86.94
420.503	90.94
420.726	101.94
420.948	90.94
421.171	90.94
421.394	79.94
421.617	81.94
421.839	88.94
422.062	100.94
422.285	82.94
422.507	107.94
422.73	94.94
422.953	83.94
423.175	96.94
423.398	97.94
423.621	93.94
423.843	81.94
424.066	95.94
424.288	77.94
424.511	96.94
424.733	94.94
424.956	89.94
425.178	92.94
425.401	125.94
425.623	146.94
425.846	95.94
426.068	88.94
426.291	84.94
426.513	90.94
426.735	95.94
426.958	94.94
427.18	92.94
427.402	118.94
427.625	142.94
427.847	107.94
428.069	97.94
428.292	85.94
428.514	97.94
428.736	96.94
428.958	102.94
429.181	133.94
429.403	83.94
429.625	85.94
429.847	85.94
430.069	83.94
430.292	94.94
430.514	97.94
430.736	88.94
430.958	89.94
431.18	75.94
431.402	98.94
431.624	79.94
431.846	95.94
432.068	90.94
432.29	83.94
432.512	88.94
432.734	98.94
432.956	86.94
433.178	82.94
433.4	92.94
433.622	87.94
433.844	105.94
434.066	119.94
434.287	95.94
434.509	104.94
434.731	112.94
434.953	100.94
435.175	112.94
435.397	107.94
435.618	87.94
435.84	78.94
436.062	99.94
436.284	95.94
436.505	89.94
436.727	90.94
436.949	96.94
437.17	96.94
437.392	98.94
437.614	89.94
437.835	82.94
438.057	79.94
438.278	96.94
438.5	91.94
438.721	101.94
438.943	87.94
439.165	88.94
439.386	92.94
439.608	89.94
439.829	77.94
440.05	92.94
440.272	91.94
440.493	76.94
440.715	93.94
440.936	79.94
441.158	79.94
441.379	80.94
441.6	74.94
441.822	65.94
442.043	84.94
442.264	77.94
442.486	101.94
442.707	90.94
442.928	89.94
443.149	98.94
443.371	78.94
443.592	91.94
443.813	93.94
444.034	91.94
444.255	86.94
444.476	85.94
444.698	82.94
444.919	90.94
445.14	163.94
445.361	121.94
445.582	96.94
445.803	64.94
446.024	73.94
446.245	85.94
446.466	86.94
446.687	89.94
446.908	74.94
447.129	86.94
447.35	81.94
447.571	89.94
447.792	81.94
448.013	91.94
448.234	81.94
448.455	81.94
448.675	85.94
448.896	97.94
449.117	93.94
449.338	82.94
449.559	92.94
449.779	107.94
450	89.94
450.221	94.94
450.442	91.94
450.662	82.94
450.883	91.94
451.104	81.94
451.324	89.94
451.545	79.94
451.766	85.94
451.986	88.94
452.207	77.94
452.428	88.94
452.648	84.94
452.869	99.94
453.089	98.94
453.31	95.94
453.53	94.94
453.751	90.94
453.971	96.94
454.192	94.94
454.412	85.94
454.633	96.94
454.853	104.94
455.073	97.94
455.294	77.94
455.514	83.94
455.734	95.94
455.955	94.94
456.175	88.94
456.395	79.94
456.616	97.94
456.836	81.94
457.056	85.94
457.276	95.94
457.497	93.94
457.717	89.94
457.937	88.94
458.157	107.94
458.377	91.94
458.598	90.94
458.818	83.94
459.038	102.94
459.258	84.94
459.478	95.94
459.698	81.94
459.918	88.94
460.138	106.94
460.358	88.94
460.578	91.94
460.798	80.94
461.018	87.94
461.238	92.94
461.458	103.94
461.678	103.94
461.898	95.94
462.118	95.94
462.338	93.94
462.558	95.94
462.777	94.94
462.997	78.94
463.217	95.94
463.437	75.94
463.657	96.94
463.876	102.94
464.096	101.94
464.316	91.94
464.536	90.94
464.755	113.94
464.975	109.94
465.195	108.94
465.414	111.94
465.634	81.94
465.854	92.94
466.073	84.94
466.293	89.94
466.512	80.94
466.732	99.94
466.951	91.94
467.171	74.94
467.391	97.94
467.61	87.94
467.829	97.94
468.049	101.94
468.268	81.94
468.488	93.94
468.707	92.94
468.927	85.94
469.146	91.94
469.365	88.94
469.585	79.94
469.804	91.94
470.023	97.94
470.243	92.94
470.462	91.94
470.681	98.94
470.901	102.94
471.12	83.94
471.339	87.94
471.558	73.94
471.777	95.94
471.997	84.94
472.216	75.94
472.435	77.94
472.654	96.94
472.873	90.94
473.092	78.94
473.311	98.94
473.53	83.94
473.749	84.94
473.968	89.94
474.187	93.94
474.406	84.94
474.625	80.94
474.844	102.94
475.063	89.94
475.282	91.94
475.501	89.94
475.72	99.94
475.939	86.94
476.158	80.94
476.377	86.94
476.596	86.94
476.814	82.94
477.033	83.94
477.252	89.94
477.471	91.94
477.69	95.94
477.908	98.94
478.127	88.94
478.346	90.94
478.564	95.94
478.783	93.94
479.002	103.94
479.22	95.94
479.439	99.94
479.658	86.94
479.876	84.94
480.095	93.94
480.313	94.94
480.532	88.94
480.751	80.94
480.969	94.94
481.188	83.94
481.406	94.94
481.624	73.94
481.843	91.94
482.061	87.94
482.28	78.94
482.498	73.94
482.717	89.94
482.935	88.94
483.153	90.94
483.372	97.94
483.59	81.94
483.808	87.94
484.027	95.94
484.245	83.94
484.463	74.94
484.681	83.94
484.9	85.94
485.118	80.94
485.336	80.94
485.554	78.94
485.772	82.94
485.99	75.94
486.209	89.94
486.427	88.94
486.645	102.94
486.863	82.94
487.081	86.94
487.299	93.94
487.517	97.94
487.735	91.94
487.953	94.94
488.171	78.94
488.389	78.94
488.607	83.94
488.825	104.94
489.043	88.94
489.261	97.94
489.479	89.94
489.696	101.94
489.914	91.94
490.132	89.94
490.35	87.94
490.568	93.94
490.786	96.94
491.003	71.94
491.221	85.94
491.439	87.94
491.657	93.94
491.874	79.94
492.092	102.94
492.31	92.94
492.527	110.94
492.745	85.94
492.963	85.94
493.18	73.94
493.398	93.94
493.615	87.94
493.833	95.94
494.05	106.94
494.268	94.94
494.485	94.94
494.703	92.94
494.92	87.94
495.138	89.94
495.355	81.94
495.573	89.94
495.79	102.94
496.008	93.94
496.225	73.94
496.442	87.94
496.66	97.94
496.877	93.94
497.094	97.94
497.312	101.94
497.529	93.94
497.746	103.94
497.963	85.94
498.181	74.94
498.398	87.94
498.615	89.94
498.832	81.94
499.049	76.94
499.267	78.94
499.484	89.94
499.701	86.94
499.918	82.94
500.135	88.94
500.352	83.94
500.569	96.94
500.786	93.94
501.003	91.94
501.22	83.94
501.437	97.94
501.654	91.94
501.871	89.94
502.088	100.94
502.305	78.94
502.522	98.94
502.739	88.94
502.956	78.94
503.172	91.94
503.389	84.94
503.606	84.94
503.823	87.94
504.04	94.94
504.256	87.94
504.473	87.94
504.69	105.94
504.907	82.94
505.123	79.94
505.34	81.94
505.557	84.94
505.773	99.94
505.99	79.94
506.207	101.94
506.423	77.94
506.64	97.94
506.856	93.94
507.073	94.94
507.289	107.94
507.506	97.94
507.722	78.94
507.939	84.94
508.155	71.94
508.372	91.94
508.588	77.94
508.805	104.94
509.021	98.94
509.238	78.94
509.454	81.94
509.67	78.94
509.887	60.94
510.103	95.94
510.319	87.94
510.536	73.94
510.752	83.94
510.968	102.94
511.184	92.94
511.401	96.94
511.617	96.94
511.833	78.94
512.049	86.94
512.265	74.94
512.481	99.94
512.698	91.94
512.914	78.94
513.13	85.94
513.346	99.94
513.562	85.94
513.778	86.94
513.994	90.94
514.21	94.94
514.426	80.94
514.642	96.94
514.858	105.94
515.074	77.94
515.29	102.94
515.506	103.94
515.721	70.94
515.937	101.94
516.153	77.94
516.369	79.94
516.585	95.94
516.801	85.94
517.016	77.94
517.232	90.94
517.448	82.94
517.664	85.94
517.879	73.94
518.095	87.94
518.311	81.94
518.527	74.94
518.742	71.94
