Data from StA_HRD10591_030.txt Node
Date: Fri May 16 15:18:59 EDT 2025
User: Yrep
Spectrometer: HR+D1059
Trigger mode: 1
Integration Time (sec): 1.000000E-1
Scans to average: 1
Electric dark correction enabled: true
Nonlinearity correction enabled: false
Boxcar width: 0
XAxis mode: Wavelengths
Number of Pixels in Spectrum: 2048
>>>>>Begin Spectral Data<<<<<
223.165	-27.19
223.4	-27.19
223.635	-27.19
223.869	-13.19
224.104	-17.19
224.338	-22.19
224.573	-15.19
224.808	-12.19
225.042	-1.19
225.277	-5.19
225.511	7.81
225.746	6.81
225.98	2.81
226.215	21.81
226.449	29.81
226.683	13.81
226.918	3.81
227.152	26.81
227.387	28.81
227.621	41.81
227.856	43.81
228.09	49.81
228.324	50.81
228.559	48.81
228.793	57.81
229.027	60.81
229.262	53.81
229.496	72.81
229.73	81.81
229.964	88.81
230.199	86.81
230.433	82.81
230.667	82.81
230.901	85.81
231.136	88.81
231.37	76.81
231.604	88.81
231.838	82.81
232.072	100.81
232.306	98.81
232.541	86.81
232.775	104.81
233.009	104.81
233.243	82.81
233.477	92.81
233.711	108.81
233.945	88.81
234.179	75.81
234.413	93.81
234.647	84.81
234.881	83.81
235.115	76.81
235.349	81.81
235.583	68.81
235.817	78.81
236.051	86.81
236.285	81.81
236.519	93.81
236.753	85.81
236.987	103.81
237.221	90.81
237.455	81.81
237.689	100.81
237.922	84.81
238.156	81.81
238.39	88.81
238.624	70.81
238.858	90.81
239.091	86.81
239.325	88.81
239.559	91.81
239.793	89.81
240.027	92.81
240.26	80.81
240.494	81.81
240.728	94.81
240.961	86.81
241.195	90.81
241.429	75.81
241.662	81.81
241.896	94.81
242.13	90.81
242.363	88.81
242.597	87.81
242.83	88.81
243.064	83.81
243.298	100.81
243.531	87.81
243.765	91.81
243.998	93.81
244.232	99.81
244.465	97.81
244.699	92.81
244.932	93.81
245.166	99.81
245.399	106.81
245.633	113.81
245.866	111.81
246.099	97.81
246.333	93.81
246.566	99.81
246.8	117.81
247.033	94.81
247.266	125.81
247.5	100.81
247.733	111.81
247.966	114.81
248.2	131.81
248.433	120.81
248.666	132.81
248.899	121.81
249.133	123.81
249.366	124.81
249.599	124.81
249.832	118.81
250.066	117.81
250.299	108.81
250.532	112.81
250.765	123.81
250.998	105.81
251.231	125.81
251.465	125.81
251.698	135.81
251.931	132.81
252.164	147.81
252.397	130.81
252.63	153.81
252.863	131.81
253.096	148.81
253.329	149.81
253.562	149.81
253.795	144.81
254.028	164.81
254.261	155.81
254.494	147.81
254.727	134.81
254.96	132.81
255.193	155.81
255.426	139.81
255.659	134.81
255.892	145.81
256.124	147.81
256.357	160.81
256.59	149.81
256.823	169.81
257.056	141.81
257.289	165.81
257.521	164.81
257.754	148.81
257.987	156.81
258.22	157.81
258.452	157.81
258.685	149.81
258.918	174.81
259.151	162.81
259.383	171.81
259.616	164.81
259.849	160.81
260.081	147.81
260.314	150.81
260.547	173.81
260.779	189.81
261.012	183.81
261.244	168.81
261.477	182.81
261.71	188.81
261.942	173.81
262.175	178.81
262.407	170.81
262.64	178.81
262.872	178.81
263.105	176.81
263.337	171.81
263.57	165.81
263.802	186.81
264.035	160.81
264.267	166.81
264.499	160.81
264.732	157.81
264.964	164.81
265.197	183.81
265.429	187.81
265.661	211.81
265.894	242.81
266.126	244.81
266.358	296.81
266.591	317.81
266.823	324.81
267.055	315.81
267.287	324.81
267.52	332.81
267.752	338.81
267.984	363.81
268.216	297.81
268.448	234.81
268.681	238.81
268.913	278.81
269.145	282.81
269.377	285.81
269.609	282.81
269.841	282.81
270.073	317.81
270.306	294.81
270.538	262.81
270.77	252.81
271.002	238.81
271.234	263.81
271.466	241.81
271.698	215.81
271.93	238.81
272.162	253.81
272.394	293.81
272.626	262.81
272.858	235.81
273.09	210.81
273.322	198.81
273.553	194.81
273.785	201.81
274.017	220.81
274.249	278.81
274.481	312.81
274.713	326.81
274.945	340.81
275.176	365.81
275.408	374.81
275.64	348.81
275.872	401.81
276.104	448.81
276.335	432.81
276.567	441.81
276.799	408.81
277.031	348.81
277.262	290.81
277.494	257.81
277.726	268.81
277.957	300.81
278.189	333.81
278.421	317.81
278.652	305.81
278.884	300.81
279.115	277.81
279.347	285.81
279.579	264.81
279.81	241.81
280.042	246.81
280.273	265.81
280.505	258.81
280.736	252.81
280.968	252.81
281.199	308.81
281.431	302.81
281.662	292.81
281.894	340.81
282.125	381.81
282.356	399.81
282.588	344.81
282.819	353.81
283.051	412.81
283.282	482.81
283.513	555.81
283.745	586.81
283.976	530.81
284.207	516.81
284.439	540.81
284.67	484.81
284.901	491.81
285.132	528.81
285.364	546.81
285.595	536.81
285.826	523.81
286.057	516.81
286.288	540.81
286.52	545.81
286.751	564.81
286.982	531.81
287.213	473.81
287.444	454.81
287.675	498.81
287.906	434.81
288.138	349.81
288.369	322.81
288.6	299.81
288.831	344.81
289.062	392.81
289.293	420.81
289.524	402.81
289.755	438.81
289.986	408.81
290.217	332.81
290.448	276.81
290.679	272.81
290.91	259.81
291.141	269.81
291.371	279.81
291.602	281.81
291.833	299.81
292.064	318.81
292.295	371.81
292.526	386.81
292.757	406.81
292.987	384.81
293.218	383.81
293.449	367.81
293.68	357.81
293.91	300.81
294.141	277.81
294.372	260.81
294.603	269.81
294.833	270.81
295.064	275.81
295.295	262.81
295.525	280.81
295.756	250.81
295.987	243.81
296.217	260.81
296.448	271.81
296.679	262.81
296.909	285.81
297.14	299.81
297.37	355.81
297.601	317.81
297.831	300.81
298.062	350.81
298.292	353.81
298.523	364.81
298.753	396.81
298.984	362.81
299.214	292.81
299.445	257.81
299.675	263.81
299.905	218.81
300.136	209.81
300.366	226.81
300.597	224.81
300.827	229.81
301.057	224.81
301.288	256.81
301.518	288.81
301.748	293.81
301.979	295.81
302.209	284.81
302.439	291.81
302.669	293.81
302.9	308.81
303.13	267.81
303.36	273.81
303.59	265.81
303.82	283.81
304.051	331.81
304.281	354.81
304.511	320.81
304.741	291.81
304.971	316.81
305.201	326.81
305.431	274.81
305.661	242.81
305.891	233.81
306.121	228.81
306.352	212.81
306.582	211.81
306.812	190.81
307.042	198.81
307.272	211.81
307.502	216.81
307.731	210.81
307.961	209.81
308.191	200.81
308.421	190.81
308.651	220.81
308.881	217.81
309.111	213.81
309.341	213.81
309.571	241.81
309.8	226.81
310.03	213.81
310.26	203.81
310.49	218.81
310.72	237.81
310.949	234.81
311.179	257.81
311.409	295.81
311.639	386.81
311.868	498.81
312.098	573.81
312.328	562.81
312.557	550.81
312.787	514.81
313.017	500.81
313.246	556.81
313.476	516.81
313.706	416.81
313.935	324.81
314.165	267.81
314.394	274.81
314.624	276.81
314.853	302.81
315.083	280.81
315.312	265.81
315.542	230.81
315.771	225.81
316.001	209.81
316.23	222.81
316.46	205.81
316.689	187.81
316.919	201.81
317.148	210.81
317.377	222.81
317.607	233.81
317.836	261.81
318.065	293.81
318.295	297.81
318.524	261.81
318.753	243.81
318.983	217.81
319.212	214.81
319.441	246.81
319.67	285.81
319.9	288.81
320.129	248.81
320.358	229.81
320.587	240.81
320.816	261.81
321.046	263.81
321.275	261.81
321.504	264.81
321.733	251.81
321.962	247.81
322.191	206.81
322.42	200.81
322.649	184.81
322.878	196.81
323.108	216.81
323.337	229.81
323.566	247.81
323.795	233.81
324.024	241.81
324.253	206.81
324.482	199.81
324.71	186.81
324.939	194.81
325.168	202.81
325.397	201.81
325.626	201.81
325.855	200.81
326.084	207.81
326.313	196.81
326.542	209.81
326.77	211.81
326.999	217.81
327.228	226.81
327.457	205.81
327.686	196.81
327.914	180.81
328.143	180.81
328.372	197.81
328.6	204.81
328.829	193.81
329.058	205.81
329.287	222.81
329.515	218.81
329.744	236.81
329.972	204.81
330.201	196.81
330.43	207.81
330.658	248.81
330.887	264.81
331.115	275.81
331.344	263.81
331.572	242.81
331.801	228.81
332.03	234.81
332.258	233.81
332.486	274.81
332.715	255.81
332.943	248.81
333.172	237.81
333.4	272.81
333.629	288.81
333.857	302.81
334.085	316.81
334.314	313.81
334.542	282.81
334.771	277.81
334.999	257.81
335.227	252.81
335.455	282.81
335.684	324.81
335.912	342.81
336.14	377.81
336.369	374.81
336.597	362.81
336.825	382.81
337.053	391.81
337.281	266.81
337.51	258.81
337.738	264.81
337.966	307.81
338.194	292.81
338.422	277.81
338.65	250.81
338.878	222.81
339.106	233.81
339.334	259.81
339.562	270.81
339.79	240.81
340.018	244.81
340.246	299.81
340.474	326.81
340.702	316.81
340.93	316.81
341.158	277.81
341.386	242.81
341.614	240.81
341.842	261.81
342.07	324.81
342.298	345.81
342.526	294.81
342.754	241.81
342.981	245.81
343.209	263.81
343.437	291.81
343.665	234.81
343.893	234.81
344.12	226.81
344.348	218.81
344.576	208.81
344.804	179.81
345.031	194.81
345.259	215.81
345.487	208.81
345.714	225.81
345.942	201.81
346.17	201.81
346.397	186.81
346.625	172.81
346.853	172.81
347.08	189.81
347.308	202.81
347.535	180.81
347.763	189.81
347.99	184.81
348.218	193.81
348.445	166.81
348.673	179.81
348.9	173.81
349.128	181.81
349.355	178.81
349.583	190.81
349.81	186.81
350.037	181.81
350.265	170.81
350.492	181.81
350.72	172.81
350.947	157.81
351.174	180.81
351.402	179.81
351.629	180.81
351.856	164.81
352.083	191.81
352.311	186.81
352.538	170.81
352.765	162.81
352.992	193.81
353.22	203.81
353.447	172.81
353.674	170.81
353.901	170.81
354.128	182.81
354.355	166.81
354.583	185.81
354.81	187.81
355.037	187.81
355.264	198.81
355.491	197.81
355.718	186.81
355.945	214.81
356.172	212.81
356.399	212.81
356.626	223.81
356.853	206.81
357.08	210.81
357.307	217.81
357.534	266.81
357.761	331.81
357.988	341.81
358.215	300.81
358.441	240.81
358.668	242.81
358.895	258.81
359.122	267.81
359.349	292.81
359.576	296.81
359.802	220.81
360.029	232.81
360.256	233.81
360.483	276.81
360.709	286.81
360.936	247.81
361.163	186.81
361.39	185.81
361.616	199.81
361.843	210.81
362.07	196.81
362.296	184.81
362.523	176.81
362.749	184.81
362.976	181.81
363.203	202.81
363.429	196.81
363.656	201.81
363.882	224.81
364.109	225.81
364.335	209.81
364.562	202.81
364.788	202.81
365.015	200.81
365.241	200.81
365.468	218.81
365.694	207.81
365.92	202.81
366.147	189.81
366.373	197.81
366.599	208.81
366.826	198.81
367.052	182.81
367.278	185.81
367.505	205.81
367.731	213.81
367.957	222.81
368.184	196.81
368.41	210.81
368.636	213.81
368.862	210.81
369.089	177.81
369.315	162.81
369.541	173.81
369.767	182.81
369.993	189.81
370.219	176.81
370.445	193.81
370.672	175.81
370.898	176.81
371.124	188.81
371.35	209.81
371.576	205.81
371.802	182.81
372.028	184.81
372.254	190.81
372.48	190.81
372.706	184.81
372.932	186.81
373.158	186.81
373.384	185.81
373.61	184.81
373.835	195.81
374.061	202.81
374.287	233.81
374.513	236.81
374.739	217.81
374.965	201.81
375.191	195.81
375.416	198.81
375.642	197.81
375.868	195.81
376.094	196.81
376.319	191.81
376.545	163.81
376.771	187.81
376.997	200.81
377.222	187.81
377.448	172.81
377.674	185.81
377.899	182.81
378.125	179.81
378.35	189.81
378.576	170.81
378.802	186.81
379.027	198.81
379.253	196.81
379.478	207.81
379.704	197.81
379.929	198.81
380.155	213.81
380.38	201.81
380.606	210.81
380.831	209.81
381.057	196.81
381.282	188.81
381.507	219.81
381.733	199.81
381.958	222.81
382.184	209.81
382.409	206.81
382.634	210.81
382.86	195.81
383.085	199.81
383.31	209.81
383.535	208.81
383.761	198.81
383.986	218.81
384.211	226.81
384.436	224.81
384.662	220.81
384.887	224.81
385.112	234.81
385.337	224.81
385.562	226.81
385.787	237.81
386.013	234.81
386.238	214.81
386.463	219.81
386.688	227.81
386.913	217.81
387.138	219.81
387.363	222.81
387.588	213.81
387.813	224.81
388.038	210.81
388.263	230.81
388.488	233.81
388.713	226.81
388.938	203.81
389.163	208.81
389.387	217.81
389.612	197.81
389.837	206.81
390.062	210.81
390.287	210.81
390.512	210.81
390.736	198.81
390.961	224.81
391.186	203.81
391.411	224.81
391.636	211.81
391.86	224.81
392.085	238.81
392.31	216.81
392.534	208.81
392.759	203.81
392.984	204.81
393.208	206.81
393.433	196.81
393.658	197.81
393.882	210.81
394.107	208.81
394.331	206.81
394.556	202.81
394.78	214.81
395.005	198.81
395.229	183.81
395.454	199.81
395.678	200.81
395.903	216.81
396.127	227.81
396.352	252.81
396.576	238.81
396.801	240.81
397.025	261.81
397.249	237.81
397.474	247.81
397.698	242.81
397.922	245.81
398.147	241.81
398.371	245.81
398.595	234.81
398.82	228.81
399.044	255.81
399.268	268.81
399.492	265.81
399.717	266.81
399.941	237.81
400.165	252.81
400.389	243.81
400.613	227.81
400.837	226.81
401.062	213.81
401.286	212.81
401.51	224.81
401.734	219.81
401.958	224.81
402.182	210.81
402.406	228.81
402.63	221.81
402.854	215.81
403.078	236.81
403.302	211.81
403.526	226.81
403.75	220.81
403.974	240.81
404.198	232.81
404.422	225.81
404.645	228.81
404.869	244.81
405.093	239.81
405.317	220.81
405.541	210.81
405.765	235.81
405.988	218.81
406.212	224.81
406.436	220.81
406.66	227.81
406.883	211.81
407.107	243.81
407.331	230.81
407.555	227.81
407.778	246.81
408.002	236.81
408.226	225.81
408.449	234.81
408.673	222.81
408.896	205.81
409.12	227.81
409.344	227.81
409.567	224.81
409.791	216.81
410.014	222.81
410.238	215.81
410.461	226.81
410.685	220.81
410.908	215.81
411.132	232.81
411.355	231.81
411.578	227.81
411.802	209.81
412.025	218.81
412.249	218.81
412.472	226.81
412.695	226.81
412.919	230.81
413.142	218.81
413.365	232.81
413.589	235.81
413.812	224.81
414.035	217.81
414.258	210.81
414.482	209.81
414.705	202.81
414.928	198.81
415.151	212.81
415.374	218.81
415.597	210.81
415.821	210.81
416.044	227.81
416.267	221.81
416.49	207.81
416.713	227.81
416.936	209.81
417.159	219.81
417.382	230.81
417.605	216.81
417.828	232.81
418.051	225.81
418.274	212.81
418.497	218.81
418.72	220.81
418.943	213.81
419.166	234.81
419.389	220.81
419.611	232.81
419.834	210.81
420.057	230.81
420.28	213.81
420.503	213.81
420.726	203.81
420.948	215.81
421.171	210.81
421.394	220.81
421.617	225.81
421.839	201.81
422.062	193.81
422.285	220.81
422.507	214.81
422.73	216.81
422.953	195.81
423.175	203.81
423.398	203.81
423.621	209.81
423.843	230.81
424.066	196.81
424.288	229.81
424.511	229.81
424.733	215.81
424.956	230.81
425.178	249.81
425.401	337.81
425.623	354.81
425.846	274.81
426.068	242.81
426.291	225.81
426.513	231.81
426.735	214.81
426.958	250.81
427.18	269.81
427.402	330.81
427.625	351.81
427.847	278.81
428.069	227.81
428.292	212.81
428.514	213.81
428.736	231.81
428.958	304.81
429.181	298.81
429.403	222.81
429.625	205.81
429.847	215.81
430.069	214.81
430.292	212.81
430.514	212.81
430.736	209.81
430.958	213.81
431.18	199.81
431.402	204.81
431.624	193.81
431.846	192.81
432.068	199.81
432.29	213.81
432.512	198.81
432.734	204.81
432.956	203.81
433.178	210.81
433.4	200.81
433.622	206.81
433.844	272.81
434.066	269.81
434.287	260.81
434.509	257.81
434.731	252.81
434.953	234.81
435.175	273.81
435.397	265.81
435.618	232.81
435.84	219.81
436.062	219.81
436.284	220.81
436.505	193.81
436.727	214.81
436.949	199.81
437.17	233.81
437.392	217.81
437.614	215.81
437.835	211.81
438.057	191.81
438.278	206.81
438.5	203.81
438.721	205.81
438.943	197.81
439.165	197.81
439.386	212.81
439.608	214.81
439.829	211.81
440.05	216.81
440.272	205.81
440.493	191.81
440.715	206.81
440.936	199.81
441.158	209.81
441.379	207.81
441.6	217.81
441.822	208.81
442.043	212.81
442.264	229.81
442.486	226.81
442.707	210.81
442.928	220.81
443.149	204.81
443.371	240.81
443.592	218.81
443.813	211.81
444.034	205.81
444.255	242.81
444.476	209.81
444.698	206.81
444.919	215.81
445.14	317.81
445.361	241.81
445.582	217.81
445.803	216.81
446.024	210.81
446.245	209.81
446.466	203.81
446.687	201.81
446.908	205.81
447.129	207.81
447.35	198.81
447.571	197.81
447.792	211.81
448.013	194.81
448.234	184.81
448.455	191.81
448.675	200.81
448.896	215.81
449.117	209.81
449.338	193.81
449.559	215.81
449.779	226.81
450	203.81
450.221	225.81
450.442	197.81
450.662	181.81
450.883	211.81
451.104	185.81
451.324	182.81
451.545	206.81
451.766	201.81
451.986	209.81
452.207	202.81
452.428	183.81
452.648	208.81
452.869	217.81
453.089	196.81
453.31	194.81
453.53	183.81
453.751	215.81
453.971	210.81
454.192	208.81
454.412	218.81
454.633	221.81
454.853	210.81
455.073	189.81
455.294	200.81
455.514	211.81
455.734	206.81
455.955	210.81
456.175	220.81
456.395	212.81
456.616	207.81
456.836	190.81
457.056	195.81
457.276	194.81
457.497	190.81
457.717	178.81
457.937	195.81
458.157	190.81
458.377	209.81
458.598	206.81
458.818	210.81
459.038	233.81
459.258	236.81
459.478	224.81
459.698	230.81
459.918	208.81
460.138	242.81
460.358	220.81
460.578	226.81
460.798	205.81
461.018	220.81
461.238	205.81
461.458	242.81
461.678	252.81
461.898	266.81
462.118	250.81
462.338	253.81
462.558	251.81
462.777	261.81
462.997	234.81
463.217	249.81
463.437	244.81
463.657	238.81
463.876	237.81
464.096	246.81
464.316	252.81
464.536	249.81
464.755	260.81
464.975	259.81
465.195	245.81
465.414	257.81
465.634	218.81
465.854	194.81
466.073	194.81
466.293	207.81
466.512	204.81
466.732	211.81
466.951	210.81
467.171	214.81
467.391	190.81
467.61	200.81
467.829	193.81
468.049	197.81
468.268	192.81
468.488	191.81
468.707	214.81
468.927	203.81
469.146	190.81
469.365	201.81
469.585	216.81
469.804	210.81
470.023	223.81
470.243	214.81
470.462	202.81
470.681	201.81
470.901	194.81
471.12	202.81
471.339	200.81
471.558	195.81
471.777	212.81
471.997	225.81
472.216	213.81
472.435	194.81
472.654	220.81
472.873	220.81
473.092	213.81
473.311	217.81
473.53	196.81
473.749	202.81
473.968	203.81
474.187	200.81
474.406	196.81
474.625	204.81
474.844	186.81
475.063	184.81
475.282	199.81
475.501	210.81
475.72	234.81
475.939	230.81
476.158	211.81
476.377	208.81
476.596	200.81
476.814	204.81
477.033	216.81
477.252	217.81
477.471	191.81
477.69	198.81
477.908	224.81
478.127	213.81
478.346	201.81
478.564	217.81
478.783	227.81
479.002	234.81
479.22	242.81
479.439	234.81
479.658	235.81
479.876	217.81
480.095	229.81
480.313	263.81
480.532	236.81
480.751	230.81
480.969	225.81
481.188	237.81
481.406	217.81
481.624	206.81
481.843	212.81
482.061	210.81
482.28	232.81
482.498	226.81
482.717	224.81
482.935	228.81
483.153	234.81
483.372	226.81
483.59	227.81
483.808	218.81
484.027	229.81
484.245	212.81
484.463	216.81
484.681	237.81
484.9	234.81
485.118	224.81
485.336	239.81
485.554	212.81
485.772	225.81
485.99	233.81
486.209	234.81
486.427	243.81
486.645	227.81
486.863	237.81
487.081	243.81
487.299	261.81
487.517	236.81
487.735	248.81
487.953	238.81
488.171	239.81
488.389	225.81
488.607	263.81
488.825	269.81
489.043	237.81
489.261	222.81
489.479	239.81
489.696	228.81
489.914	229.81
490.132	238.81
490.35	248.81
490.568	244.81
490.786	220.81
491.003	222.81
491.221	231.81
491.439	220.81
491.657	219.81
491.874	234.81
492.092	242.81
492.31	309.81
492.527	276.81
492.745	227.81
492.963	240.81
493.18	230.81
493.398	228.81
493.615	241.81
493.833	246.81
494.05	248.81
494.268	255.81
494.485	243.81
494.703	246.81
494.92	234.81
495.138	244.81
495.355	244.81
495.573	262.81
495.79	251.81
496.008	231.81
496.225	237.81
496.442	246.81
496.66	269.81
496.877	235.81
497.094	269.81
497.312	251.81
497.529	244.81
497.746	250.81
497.963	257.81
498.181	262.81
498.398	270.81
498.615	297.81
498.832	295.81
499.049	292.81
499.267	326.81
499.484	317.81
499.701	323.81
499.918	336.81
500.135	354.81
500.352	372.81
500.569	366.81
500.786	378.81
501.003	340.81
501.22	328.81
501.437	330.81
501.654	311.81
501.871	301.81
502.088	311.81
502.305	300.81
502.522	275.81
502.739	273.81
502.956	262.81
503.172	264.81
503.389	256.81
503.606	252.81
