Data from StA_HRD10591_005.txt Node
Date: Fri May 16 15:18:47 EDT 2025
User: Yrep
Spectrometer: HR+D1059
Trigger mode: 1
Integration Time (sec): 1.000000E-1
Scans to average: 1
Electric dark correction enabled: true
Nonlinearity correction enabled: false
Boxcar width: 0
XAxis mode: Wavelengths
Number of Pixels in Spectrum: 2048
>>>>>Begin Spectral Data<<<<<
223.165	-22.5
223.4	-22.5
223.635	-22.5
223.869	-22.5
224.104	-21.5
224.338	-11.5
224.573	-12.5
224.808	-6.5
225.042	-12.5
225.277	-3.5
225.511	-13.5
225.746	5.5
225.98	-0.5
226.215	8.5
226.449	24.5
226.683	23.5
226.918	36.5
227.152	28.5
227.387	21.5
227.621	34.5
227.856	47.5
228.09	40.5
228.324	43.5
228.559	49.5
228.793	59.5
229.027	68.5
229.262	67.5
229.496	73.5
229.73	77.5
229.964	76.5
230.199	72.5
230.433	75.5
230.667	75.5
230.901	88.5
231.136	90.5
231.37	87.5
231.604	79.5
231.838	99.5
232.072	89.5
232.306	107.5
232.541	97.5
232.775	94.5
233.009	80.5
233.243	85.5
233.477	85.5
233.711	99.5
233.945	71.5
234.179	88.5
234.413	90.5
234.647	80.5
234.881	76.5
235.115	73.5
235.349	86.5
235.583	79.5
235.817	81.5
236.051	75.5
236.285	76.5
236.519	88.5
236.753	99.5
236.987	82.5
237.221	92.5
237.455	78.5
237.689	81.5
237.922	88.5
238.156	93.5
238.39	85.5
238.624	87.5
238.858	77.5
239.091	80.5
239.325	93.5
239.559	105.5
239.793	83.5
240.027	80.5
240.26	74.5
240.494	96.5
240.728	87.5
240.961	88.5
241.195	90.5
241.429	89.5
241.662	86.5
241.896	88.5
242.13	82.5
242.363	99.5
242.597	83.5
242.83	90.5
243.064	93.5
243.298	89.5
243.531	91.5
243.765	97.5
243.998	93.5
244.232	87.5
244.465	87.5
244.699	92.5
244.932	99.5
245.166	103.5
245.399	111.5
245.633	109.5
245.866	106.5
246.099	85.5
246.333	98.5
246.566	94.5
246.8	116.5
247.033	105.5
247.266	97.5
247.5	115.5
247.733	105.5
247.966	111.5
248.2	106.5
248.433	116.5
248.666	106.5
248.899	111.5
249.133	109.5
249.366	114.5
249.599	115.5
249.832	132.5
250.066	114.5
250.299	120.5
250.532	110.5
250.765	119.5
250.998	113.5
251.231	116.5
251.465	118.5
251.698	127.5
251.931	132.5
252.164	146.5
252.397	143.5
252.63	154.5
252.863	137.5
253.096	140.5
253.329	147.5
253.562	120.5
253.795	140.5
254.028	147.5
254.261	147.5
254.494	137.5
254.727	125.5
254.96	139.5
255.193	148.5
255.426	131.5
255.659	129.5
255.892	125.5
256.124	152.5
256.357	130.5
256.59	140.5
256.823	161.5
257.056	156.5
257.289	155.5
257.521	152.5
257.754	171.5
257.987	159.5
258.22	163.5
258.452	156.5
258.685	149.5
258.918	157.5
259.151	151.5
259.383	176.5
259.616	166.5
259.849	135.5
260.081	156.5
260.314	175.5
260.547	156.5
260.779	161.5
261.012	176.5
261.244	164.5
261.477	164.5
261.71	167.5
261.942	170.5
262.175	177.5
262.407	186.5
262.64	178.5
262.872	173.5
263.105	182.5
263.337	177.5
263.57	179.5
263.802	173.5
264.035	179.5
264.267	164.5
264.499	177.5
264.732	163.5
264.964	161.5
265.197	183.5
265.429	178.5
265.661	197.5
265.894	205.5
266.126	247.5
266.358	239.5
266.591	272.5
266.823	277.5
267.055	265.5
267.287	284.5
267.52	287.5
267.752	319.5
267.984	342.5
268.216	278.5
268.448	223.5
268.681	232.5
268.913	262.5
269.145	254.5
269.377	260.5
269.609	255.5
269.841	235.5
270.073	277.5
270.306	260.5
270.538	251.5
270.77	212.5
271.002	215.5
271.234	238.5
271.466	205.5
271.698	194.5
271.93	223.5
272.162	247.5
272.394	234.5
272.626	249.5
272.858	195.5
273.09	198.5
273.322	197.5
273.553	183.5
273.785	197.5
274.017	211.5
274.249	238.5
274.481	272.5
274.713	289.5
274.945	299.5
275.176	330.5
275.408	333.5
275.64	332.5
275.872	345.5
276.104	395.5
276.335	370.5
276.567	377.5
276.799	374.5
277.031	330.5
277.262	240.5
277.494	249.5
277.726	268.5
277.957	275.5
278.189	311.5
278.421	276.5
278.652	282.5
278.884	263.5
279.115	272.5
279.347	251.5
279.579	242.5
279.81	229.5
280.042	257.5
280.273	257.5
280.505	215.5
280.736	233.5
280.968	234.5
281.199	255.5
281.431	299.5
281.662	268.5
281.894	298.5
282.125	339.5
282.356	355.5
282.588	335.5
282.819	313.5
283.051	355.5
283.282	418.5
283.513	487.5
283.745	516.5
283.976	452.5
284.207	437.5
284.439	464.5
284.67	434.5
284.901	416.5
285.132	484.5
285.364	455.5
285.595	447.5
285.826	463.5
286.057	467.5
286.288	466.5
286.52	484.5
286.751	492.5
286.982	460.5
287.213	397.5
287.444	407.5
287.675	443.5
287.906	411.5
288.138	322.5
288.369	285.5
288.6	274.5
288.831	317.5
289.062	362.5
289.293	379.5
289.524	381.5
289.755	388.5
289.986	365.5
290.217	303.5
290.448	272.5
290.679	231.5
290.91	223.5
291.141	272.5
291.371	256.5
291.602	251.5
291.833	267.5
292.064	273.5
292.295	332.5
292.526	344.5
292.757	343.5
292.987	370.5
293.218	324.5
293.449	313.5
293.68	311.5
293.91	271.5
294.141	265.5
294.372	257.5
294.603	237.5
294.833	248.5
295.064	268.5
295.295	249.5
295.525	249.5
295.756	231.5
295.987	196.5
296.217	218.5
296.448	247.5
296.679	252.5
296.909	262.5
297.14	295.5
297.37	336.5
297.601	293.5
297.831	301.5
298.062	315.5
298.292	313.5
298.523	332.5
298.753	347.5
298.984	319.5
299.214	271.5
299.445	241.5
299.675	226.5
299.905	217.5
300.136	219.5
300.366	218.5
300.597	208.5
300.827	205.5
301.057	221.5
301.288	246.5
301.518	250.5
301.748	260.5
301.979	268.5
302.209	268.5
302.439	266.5
302.669	279.5
302.9	276.5
303.13	244.5
303.36	216.5
303.59	232.5
303.82	265.5
304.051	293.5
304.281	335.5
304.511	285.5
304.741	267.5
304.971	275.5
305.201	297.5
305.431	252.5
305.661	223.5
305.891	201.5
306.121	220.5
306.352	204.5
306.582	196.5
306.812	188.5
307.042	184.5
307.272	192.5
307.502	195.5
307.731	197.5
307.961	196.5
308.191	189.5
308.421	186.5
308.651	200.5
308.881	212.5
309.111	205.5
309.341	220.5
309.571	216.5
309.8	213.5
310.03	172.5
310.26	193.5
310.49	212.5
310.72	214.5
310.949	222.5
311.179	246.5
311.409	274.5
311.639	323.5
311.868	411.5
312.098	534.5
312.328	481.5
312.557	471.5
312.787	466.5
313.017	436.5
313.246	484.5
313.476	466.5
313.706	374.5
313.935	298.5
314.165	242.5
314.394	267.5
314.624	243.5
314.853	260.5
315.083	253.5
315.312	247.5
315.542	225.5
315.771	228.5
316.001	197.5
316.23	201.5
316.46	218.5
316.689	197.5
316.919	208.5
317.148	198.5
317.377	203.5
317.607	209.5
317.836	241.5
318.065	258.5
318.295	277.5
318.524	228.5
318.753	208.5
318.983	195.5
319.212	199.5
319.441	244.5
319.67	260.5
319.9	281.5
320.129	232.5
320.358	231.5
320.587	211.5
320.816	267.5
321.046	267.5
321.275	251.5
321.504	240.5
321.733	239.5
321.962	243.5
322.191	217.5
322.42	199.5
322.649	204.5
322.878	195.5
323.108	203.5
323.337	213.5
323.566	226.5
323.795	215.5
324.024	219.5
324.253	200.5
324.482	176.5
324.71	168.5
324.939	194.5
325.168	210.5
325.397	195.5
325.626	197.5
325.855	179.5
326.084	199.5
326.313	205.5
326.542	190.5
326.77	199.5
326.999	227.5
327.228	215.5
327.457	195.5
327.686	189.5
327.914	189.5
328.143	175.5
328.372	188.5
328.6	195.5
328.829	203.5
329.058	198.5
329.287	220.5
329.515	203.5
329.744	218.5
329.972	196.5
330.201	184.5
330.43	219.5
330.658	228.5
330.887	250.5
331.115	232.5
331.344	234.5
331.572	228.5
331.801	215.5
332.03	225.5
332.258	229.5
332.486	253.5
332.715	241.5
332.943	237.5
333.172	228.5
333.4	243.5
333.629	291.5
333.857	296.5
334.085	292.5
334.314	270.5
334.542	261.5
334.771	240.5
334.999	247.5
335.227	249.5
335.455	266.5
335.684	309.5
335.912	363.5
336.14	339.5
336.369	330.5
336.597	335.5
336.825	367.5
337.053	337.5
337.281	271.5
337.51	239.5
337.738	245.5
337.966	269.5
338.194	265.5
338.422	257.5
338.65	215.5
338.878	218.5
339.106	213.5
339.334	248.5
339.562	243.5
339.79	243.5
340.018	240.5
340.246	275.5
340.474	279.5
340.702	293.5
340.93	285.5
341.158	271.5
341.386	234.5
341.614	211.5
341.842	236.5
342.07	293.5
342.298	311.5
342.526	264.5
342.754	225.5
342.981	227.5
343.209	230.5
343.437	249.5
343.665	241.5
343.893	205.5
344.12	212.5
344.348	207.5
344.576	186.5
344.804	197.5
345.031	199.5
345.259	198.5
345.487	205.5
345.714	209.5
345.942	177.5
346.17	193.5
346.397	172.5
346.625	190.5
346.853	188.5
347.08	197.5
347.308	190.5
347.535	207.5
347.763	191.5
347.99	180.5
348.218	195.5
348.445	171.5
348.673	179.5
348.9	185.5
349.128	175.5
349.355	180.5
349.583	175.5
349.81	171.5
350.037	173.5
350.265	183.5
350.492	156.5
350.72	181.5
350.947	195.5
351.174	181.5
351.402	158.5
351.629	160.5
351.856	179.5
352.083	171.5
352.311	178.5
352.538	159.5
352.765	157.5
352.992	154.5
353.22	169.5
353.447	189.5
353.674	166.5
353.901	165.5
354.128	185.5
354.355	190.5
354.583	175.5
354.81	182.5
355.037	184.5
355.264	186.5
355.491	183.5
355.718	189.5
355.945	198.5
356.172	193.5
356.399	194.5
356.626	215.5
356.853	202.5
357.08	214.5
357.307	210.5
357.534	239.5
357.761	287.5
357.988	293.5
358.215	280.5
358.441	237.5
358.668	246.5
358.895	227.5
359.122	227.5
359.349	273.5
359.576	266.5
359.802	207.5
360.029	211.5
360.256	234.5
360.483	262.5
360.709	278.5
360.936	214.5
361.163	196.5
361.39	175.5
361.616	189.5
361.843	182.5
362.07	173.5
362.296	167.5
362.523	175.5
362.749	180.5
362.976	179.5
363.203	197.5
363.429	198.5
363.656	179.5
363.882	203.5
364.109	214.5
364.335	200.5
364.562	193.5
364.788	189.5
365.015	197.5
365.241	203.5
365.468	204.5
365.694	185.5
365.92	173.5
366.147	194.5
366.373	169.5
366.599	189.5
366.826	186.5
367.052	183.5
367.278	181.5
367.505	185.5
367.731	196.5
367.957	187.5
368.184	174.5
368.41	185.5
368.636	180.5
368.862	196.5
369.089	202.5
369.315	188.5
369.541	187.5
369.767	164.5
369.993	178.5
370.219	189.5
370.445	167.5
370.672	179.5
370.898	188.5
371.124	177.5
371.35	186.5
371.576	190.5
371.802	188.5
372.028	177.5
372.254	185.5
372.48	185.5
372.706	183.5
372.932	194.5
373.158	182.5
373.384	180.5
373.61	193.5
373.835	183.5
374.061	180.5
374.287	219.5
374.513	223.5
374.739	200.5
374.965	193.5
375.191	172.5
375.416	178.5
375.642	197.5
375.868	196.5
376.094	177.5
376.319	171.5
376.545	185.5
376.771	183.5
376.997	184.5
377.222	178.5
377.448	180.5
377.674	176.5
377.899	185.5
378.125	183.5
378.35	176.5
378.576	179.5
378.802	186.5
379.027	199.5
379.253	205.5
379.478	201.5
379.704	206.5
379.929	192.5
380.155	194.5
380.38	199.5
380.606	211.5
380.831	181.5
381.057	197.5
381.282	186.5
381.507	180.5
381.733	193.5
381.958	189.5
382.184	194.5
382.409	203.5
382.634	195.5
382.86	180.5
383.085	194.5
383.31	187.5
383.535	201.5
383.761	207.5
383.986	195.5
384.211	203.5
384.436	211.5
384.662	207.5
384.887	217.5
385.112	222.5
385.337	211.5
385.562	211.5
385.787	209.5
386.013	205.5
386.238	215.5
386.463	223.5
386.688	229.5
386.913	202.5
387.138	204.5
387.363	229.5
387.588	208.5
387.813	213.5
388.038	216.5
388.263	213.5
388.488	226.5
388.713	219.5
388.938	199.5
389.163	190.5
389.387	196.5
389.612	193.5
389.837	183.5
390.062	197.5
390.287	202.5
390.512	192.5
390.736	209.5
390.961	207.5
391.186	201.5
391.411	216.5
391.636	204.5
391.86	223.5
392.085	223.5
392.31	198.5
392.534	191.5
392.759	186.5
392.984	214.5
393.208	199.5
393.433	188.5
393.658	211.5
393.882	193.5
394.107	199.5
394.331	203.5
394.556	197.5
394.78	202.5
395.005	182.5
395.229	188.5
395.454	209.5
395.678	199.5
395.903	191.5
396.127	204.5
396.352	248.5
396.576	243.5
396.801	227.5
397.025	256.5
397.249	234.5
397.474	243.5
397.698	257.5
397.922	242.5
398.147	225.5
398.371	235.5
398.595	234.5
398.82	240.5
399.044	240.5
399.268	278.5
399.492	251.5
399.717	261.5
399.941	252.5
400.165	249.5
400.389	244.5
400.613	226.5
400.837	222.5
401.062	225.5
401.286	235.5
401.51	202.5
401.734	209.5
401.958	199.5
402.182	211.5
402.406	218.5
402.63	218.5
402.854	229.5
403.078	211.5
403.302	212.5
403.526	216.5
403.75	220.5
403.974	225.5
404.198	236.5
404.422	210.5
404.645	224.5
404.869	223.5
405.093	217.5
405.317	227.5
405.541	227.5
405.765	229.5
405.988	232.5
406.212	230.5
406.436	228.5
406.66	225.5
406.883	220.5
407.107	209.5
407.331	236.5
407.555	236.5
407.778	242.5
408.002	224.5
408.226	214.5
408.449	243.5
408.673	211.5
408.896	228.5
409.12	228.5
409.344	228.5
409.567	205.5
409.791	209.5
410.014	203.5
410.238	213.5
410.461	221.5
410.685	211.5
410.908	215.5
411.132	234.5
411.355	223.5
411.578	222.5
411.802	212.5
412.025	231.5
412.249	217.5
412.472	227.5
412.695	215.5
412.919	227.5
413.142	221.5
413.365	217.5
413.589	212.5
413.812	209.5
414.035	215.5
414.258	219.5
414.482	211.5
414.705	221.5
414.928	239.5
415.151	214.5
415.374	190.5
415.597	213.5
415.821	197.5
416.044	215.5
416.267	224.5
416.49	211.5
416.713	216.5
416.936	210.5
417.159	198.5
417.382	219.5
417.605	205.5
417.828	208.5
418.051	208.5
418.274	219.5
418.497	197.5
418.72	201.5
418.943	200.5
419.166	221.5
419.389	209.5
419.611	233.5
419.834	232.5
420.057	208.5
420.28	216.5
420.503	213.5
420.726	203.5
420.948	223.5
421.171	199.5
421.394	215.5
421.617	202.5
421.839	215.5
422.062	212.5
422.285	211.5
422.507	231.5
422.73	212.5
422.953	221.5
423.175	206.5
423.398	216.5
423.621	192.5
423.843	192.5
424.066	227.5
424.288	229.5
424.511	217.5
424.733	225.5
424.956	219.5
425.178	253.5
425.401	294.5
425.623	342.5
425.846	257.5
426.068	220.5
426.291	239.5
426.513	223.5
426.735	228.5
426.958	234.5
427.18	246.5
427.402	280.5
427.625	325.5
427.847	268.5
428.069	221.5
428.292	237.5
428.514	208.5
428.736	218.5
428.958	278.5
429.181	320.5
429.403	237.5
429.625	208.5
429.847	223.5
430.069	211.5
430.292	207.5
430.514	207.5
430.736	195.5
430.958	200.5
431.18	190.5
431.402	199.5
431.624	204.5
431.846	197.5
432.068	206.5
432.29	207.5
432.512	180.5
432.734	193.5
432.956	202.5
433.178	204.5
433.4	198.5
433.622	221.5
433.844	267.5
434.066	267.5
434.287	237.5
434.509	250.5
434.731	248.5
434.953	230.5
435.175	259.5
435.397	233.5
435.618	205.5
435.84	203.5
436.062	203.5
436.284	178.5
436.505	190.5
436.727	194.5
436.949	207.5
437.17	219.5
437.392	221.5
437.614	210.5
437.835	211.5
438.057	181.5
438.278	201.5
438.5	213.5
438.721	198.5
438.943	198.5
439.165	191.5
439.386	193.5
439.608	195.5
439.829	189.5
440.05	197.5
440.272	184.5
440.493	204.5
440.715	206.5
440.936	200.5
441.158	212.5
441.379	193.5
441.6	204.5
441.822	189.5
442.043	200.5
442.264	213.5
442.486	218.5
442.707	215.5
442.928	203.5
443.149	207.5
443.371	213.5
443.592	198.5
443.813	223.5
444.034	197.5
444.255	204.5
444.476	220.5
444.698	212.5
444.919	221.5
445.14	290.5
445.361	249.5
445.582	227.5
445.803	221.5
446.024	214.5
446.245	229.5
446.466	187.5
446.687	198.5
446.908	204.5
447.129	207.5
447.35	195.5
447.571	194.5
447.792	215.5
448.013	202.5
448.234	193.5
448.455	196.5
448.675	197.5
448.896	198.5
449.117	205.5
449.338	202.5
449.559	205.5
449.779	231.5
450	213.5
450.221	211.5
450.442	200.5
450.662	197.5
450.883	192.5
451.104	207.5
451.324	191.5
451.545	210.5
451.766	227.5
451.986	195.5
452.207	204.5
452.428	188.5
452.648	200.5
452.869	212.5
453.089	201.5
453.31	216.5
453.53	221.5
453.751	227.5
453.971	200.5
454.192	207.5
454.412	187.5
454.633	216.5
454.853	207.5
455.073	170.5
455.294	180.5
455.514	186.5
455.734	219.5
455.955	216.5
456.175	206.5
456.395	208.5
456.616	204.5
456.836	203.5
457.056	198.5
457.276	189.5
457.497	197.5
457.717	198.5
457.937	191.5
458.157	172.5
458.377	192.5
458.598	197.5
458.818	208.5
459.038	220.5
459.258	203.5
459.478	204.5
459.698	217.5
459.918	225.5
460.138	204.5
460.358	227.5
460.578	207.5
460.798	210.5
461.018	207.5
461.238	223.5
461.458	227.5
461.678	255.5
461.898	257.5
462.118	218.5
462.338	235.5
462.558	262.5
462.777	247.5
462.997	250.5
463.217	239.5
463.437	243.5
463.657	227.5
463.876	216.5
464.096	242.5
464.316	239.5
464.536	250.5
464.755	261.5
464.975	248.5
465.195	239.5
465.414	245.5
465.634	218.5
465.854	205.5
466.073	188.5
466.293	196.5
466.512	206.5
466.732	209.5
466.951	201.5
467.171	218.5
467.391	201.5
467.61	203.5
467.829	190.5
468.049	195.5
468.268	185.5
468.488	203.5
468.707	195.5
468.927	200.5
469.146	195.5
469.365	202.5
469.585	192.5
469.804	211.5
470.023	214.5
470.243	209.5
470.462	174.5
470.681	197.5
470.901	207.5
471.12	202.5
471.339	199.5
471.558	191.5
471.777	209.5
471.997	219.5
472.216	203.5
472.435	195.5
472.654	183.5
472.873	211.5
473.092	201.5
473.311	202.5
473.53	191.5
473.749	195.5
473.968	205.5
474.187	194.5
474.406	207.5
474.625	195.5
474.844	204.5
475.063	196.5
475.282	213.5
475.501	200.5
475.72	216.5
475.939	220.5
476.158	198.5
476.377	202.5
476.596	211.5
476.814	208.5
477.033	218.5
477.252	214.5
477.471	208.5
477.69	202.5
477.908	204.5
478.127	204.5
478.346	205.5
478.564	237.5
478.783	231.5
479.002	223.5
479.22	246.5
479.439	238.5
479.658	201.5
479.876	206.5
480.095	216.5
480.313	235.5
480.532	230.5
480.751	207.5
480.969	211.5
481.188	227.5
481.406	213.5
481.624	230.5
481.843	223.5
482.061	212.5
482.28	207.5
482.498	223.5
482.717	213.5
482.935	228.5
483.153	225.5
483.372	232.5
483.59	229.5
483.808	203.5
484.027	222.5
484.245	213.5
484.463	215.5
484.681	239.5
484.9	234.5
485.118	228.5
485.336	241.5
485.554	233.5
485.772	225.5
485.99	210.5
486.209	219.5
486.427	235.5
486.645	232.5
486.863	221.5
487.081	238.5
487.299	253.5
487.517	253.5
487.735	227.5
487.953	223.5
488.171	229.5
488.389	226.5
488.607	244.5
488.825	263.5
489.043	240.5
489.261	216.5
489.479	234.5
489.696	234.5
489.914	235.5
490.132	224.5
490.35	238.5
490.568	245.5
490.786	238.5
491.003	231.5
491.221	221.5
491.439	232.5
491.657	230.5
491.874	240.5
492.092	231.5
492.31	291.5
492.527	268.5
492.745	244.5
492.963	243.5
493.18	228.5
493.398	243.5
493.615	249.5
493.833	253.5
494.05	254.5
494.268	226.5
494.485	235.5
494.703	245.5
494.92	209.5
495.138	245.5
495.355	248.5
495.573	251.5
495.79	244.5
496.008	247.5
496.225	240.5
496.442	228.5
496.66	247.5
496.877	239.5
497.094	259.5
497.312	266.5
497.529	225.5
497.746	264.5
497.963	265.5
498.181	259.5
498.398	279.5
498.615	275.5
498.832	294.5
499.049	309.5
499.267	310.5
499.484	309.5
499.701	335.5
499.918	355.5
500.135	351.5
500.352	372.5
500.569	367.5
500.786	385.5
501.003	352.5
501.22	345.5
501.437	334.5
501.654	313.5
501.871	307.5
502.088	300.5
502.305	279.5
502.522	274.5
502.739	284.5
502.956	249.5
503.172	242.5
503.389	270.5
503.606	266.5
503.823	248.5
504.04	264.5
504.256	273.5
504.473	253.5
504.69	252.5
504.907	268.5
505.123	243.5
505.34	245.5
505.557	236.5
505.773	227.5
505.99	226.5
506.207	231.5
506.423	216.5
506.64	240.5
506.856	223.5
507.073	229.5
507.289	214.5
507.506	241.5
507.722	230.5
507.939	235.5
508.155	224.5
508.372	211.5
508.588	225.5
508.805	219.5
509.021	213.5
509.238	208.5
509.454	213.5
509.67	214.5
509.887	230.5
510.103	201.5
510.319	217.5
510.536	223.5
510.752	207.5
510.968	223.5
511.184	209.5
511.401	204.5
511.617	188.5
511.833	210.5
512.049	211.5
512.265	212.5
512.481	202.5
512.698	216.5
512.914	220.5
513.13	217.5
513.346	207.5
513.562	199.5
513.778	219.5
513.994	238.5
514.21	225.5
514.426	228.5
514.642	213.5
514.858	214.5
515.074	213.5
515.29	241.5
515.506	217.5
515.721	209.5
515.937	218.5
516.153	229.5
516.369	227.5
516.585	215.5
516.801	246.5
517.016	226.5
517.232	230.5
517.448	227.5
517.664	246.5
517.879	239.5
518.095	239.5
518.311	238.5
518.527	244.5
518.742	251.5
518.958	219.5
519.173	216.5
519.389	246.5
519.605	226.5
519.82	261.5
520.036	248.5
520.251	265.5
520.467	396.5
520.682	705.5
520.898	714.5
521.113	574.5
521.329	285.5
521.544	241.5
521.76	248.5
