Data from StA_HRD10591_076.txt Node
Date: Fri May 16 15:19:21 EDT 2025
User: Yrep
Spectrometer: HR+D1059
Trigger mode: 1
Integration Time (sec): 1.000000E-1
Scans to average: 1
Electric dark correction enabled: true
Nonlinearity correction enabled: false
Boxcar width: 0
XAxis mode: Wavelengths
Number of Pixels in Spectrum: 2048
>>>>>Begin Spectral Data<<<<<
223.165	-16.12
223.4	-16.12
223.635	-16.12
223.869	-3.12
224.104	-21.12
224.338	-10.12
224.573	-21.12
224.808	-10.12
225.042	2.88
225.277	-1.12
225.511	-12.12
225.746	-3.12
225.98	9.88
226.215	14.88
226.449	1.88
226.683	14.88
226.918	22.88
227.152	30.88
227.387	28.88
227.621	44.88
227.856	47.88
228.09	48.88
228.324	44.88
228.559	55.88
228.793	68.88
229.027	58.88
229.262	53.88
229.496	50.88
229.73	61.88
229.964	70.88
230.199	74.88
230.433	71.88
230.667	77.88
230.901	77.88
231.136	77.88
231.37	64.88
231.604	85.88
231.838	77.88
232.072	80.88
232.306	88.88
232.541	80.88
232.775	71.88
233.009	75.88
233.243	78.88
233.477	79.88
233.711	63.88
233.945	89.88
234.179	85.88
234.413	75.88
234.647	78.88
234.881	69.88
235.115	75.88
235.349	61.88
235.583	77.88
235.817	68.88
236.051	67.88
236.285	77.88
236.519	67.88
236.753	74.88
236.987	63.88
237.221	86.88
237.455	69.88
237.689	80.88
237.922	74.88
238.156	83.88
238.39	83.88
238.624	71.88
238.858	77.88
239.091	68.88
239.325	78.88
239.559	56.88
239.793	76.88
240.027	80.88
240.26	61.88
240.494	85.88
240.728	76.88
240.961	87.88
241.195	77.88
241.429	76.88
241.662	75.88
241.896	80.88
242.13	79.88
242.363	78.88
242.597	61.88
242.83	83.88
243.064	77.88
243.298	77.88
243.531	81.88
243.765	74.88
243.998	72.88
244.232	79.88
244.465	63.88
244.699	78.88
244.932	68.88
245.166	83.88
245.399	72.88
245.633	72.88
245.866	76.88
246.099	75.88
246.333	61.88
246.566	71.88
246.8	71.88
247.033	73.88
247.266	59.88
247.5	72.88
247.733	67.88
247.966	79.88
248.2	63.88
248.433	69.88
248.666	73.88
248.899	81.88
249.133	83.88
249.366	74.88
249.599	61.88
249.832	85.88
250.066	73.88
250.299	74.88
250.532	77.88
250.765	72.88
250.998	56.88
251.231	69.88
251.465	84.88
251.698	77.88
251.931	79.88
252.164	80.88
252.397	69.88
252.63	67.88
252.863	84.88
253.096	73.88
253.329	73.88
253.562	65.88
253.795	69.88
254.028	104.88
254.261	88.88
254.494	72.88
254.727	74.88
254.96	73.88
255.193	60.88
255.426	79.88
255.659	94.88
255.892	89.88
256.124	75.88
256.357	72.88
256.59	54.88
256.823	80.88
257.056	79.88
257.289	89.88
257.521	99.88
257.754	69.88
257.987	75.88
258.22	67.88
258.452	74.88
258.685	75.88
258.918	81.88
259.151	83.88
259.383	92.88
259.616	71.88
259.849	70.88
260.081	90.88
260.314	76.88
260.547	80.88
260.779	94.88
261.012	71.88
261.244	71.88
261.477	81.88
261.71	82.88
261.942	94.88
262.175	66.88
262.407	88.88
262.64	65.88
262.872	70.88
263.105	83.88
263.337	85.88
263.57	89.88
263.802	71.88
264.035	81.88
264.267	73.88
264.499	76.88
264.732	84.88
264.964	71.88
265.197	69.88
265.429	68.88
265.661	71.88
265.894	81.88
266.126	76.88
266.358	81.88
266.591	77.88
266.823	89.88
267.055	74.88
267.287	90.88
267.52	76.88
267.752	74.88
267.984	76.88
268.216	76.88
268.448	79.88
268.681	89.88
268.913	88.88
269.145	83.88
269.377	79.88
269.609	79.88
269.841	78.88
270.073	83.88
270.306	80.88
270.538	79.88
270.77	74.88
271.002	81.88
271.234	78.88
271.466	80.88
271.698	75.88
271.93	85.88
272.162	96.88
272.394	92.88
272.626	84.88
272.858	68.88
273.09	79.88
273.322	75.88
273.553	84.88
273.785	80.88
274.017	91.88
274.249	74.88
274.481	83.88
274.713	82.88
274.945	81.88
275.176	91.88
275.408	80.88
275.64	79.88
275.872	71.88
276.104	95.88
276.335	79.88
276.567	73.88
276.799	91.88
277.031	82.88
277.262	96.88
277.494	84.88
277.726	71.88
277.957	81.88
278.189	78.88
278.421	78.88
278.652	91.88
278.884	80.88
279.115	74.88
279.347	69.88
279.579	79.88
279.81	94.88
280.042	68.88
280.273	79.88
280.505	81.88
280.736	85.88
280.968	80.88
281.199	87.88
281.431	88.88
281.662	89.88
281.894	82.88
282.125	105.88
282.356	74.88
282.588	77.88
282.819	88.88
283.051	82.88
283.282	75.88
283.513	85.88
283.745	91.88
283.976	85.88
284.207	86.88
284.439	87.88
284.67	88.88
284.901	81.88
285.132	92.88
285.364	81.88
285.595	85.88
285.826	83.88
286.057	91.88
286.288	85.88
286.52	88.88
286.751	82.88
286.982	95.88
287.213	83.88
287.444	85.88
287.675	77.88
287.906	95.88
288.138	77.88
288.369	76.88
288.6	91.88
288.831	76.88
289.062	78.88
289.293	81.88
289.524	76.88
289.755	87.88
289.986	83.88
290.217	77.88
290.448	79.88
290.679	79.88
290.91	75.88
291.141	86.88
291.371	81.88
291.602	76.88
291.833	93.88
292.064	78.88
292.295	92.88
292.526	86.88
292.757	89.88
292.987	88.88
293.218	81.88
293.449	92.88
293.68	86.88
293.91	93.88
294.141	96.88
294.372	70.88
294.603	76.88
294.833	87.88
295.064	76.88
295.295	85.88
295.525	70.88
295.756	79.88
295.987	75.88
296.217	72.88
296.448	77.88
296.679	72.88
296.909	90.88
297.14	89.88
297.37	76.88
297.601	91.88
297.831	74.88
298.062	77.88
298.292	95.88
298.523	90.88
298.753	82.88
298.984	85.88
299.214	84.88
299.445	81.88
299.675	92.88
299.905	93.88
300.136	91.88
300.366	87.88
300.597	89.88
300.827	95.88
301.057	85.88
301.288	78.88
301.518	99.88
301.748	91.88
301.979	105.88
302.209	93.88
302.439	94.88
302.669	95.88
302.9	80.88
303.13	90.88
303.36	96.88
303.59	88.88
303.82	83.88
304.051	87.88
304.281	92.88
304.511	78.88
304.741	79.88
304.971	81.88
305.201	96.88
305.431	89.88
305.661	83.88
305.891	87.88
306.121	90.88
306.352	88.88
306.582	86.88
306.812	75.88
307.042	70.88
307.272	72.88
307.502	71.88
307.731	93.88
307.961	79.88
308.191	78.88
308.421	82.88
308.651	66.88
308.881	93.88
309.111	86.88
309.341	86.88
309.571	87.88
309.8	79.88
310.03	81.88
310.26	80.88
310.49	90.88
310.72	78.88
310.949	84.88
311.179	76.88
311.409	82.88
311.639	90.88
311.868	87.88
312.098	80.88
312.328	81.88
312.557	89.88
312.787	97.88
313.017	91.88
313.246	90.88
313.476	89.88
313.706	89.88
313.935	77.88
314.165	96.88
314.394	82.88
314.624	76.88
314.853	84.88
315.083	79.88
315.312	72.88
315.542	90.88
315.771	84.88
316.001	96.88
316.23	86.88
316.46	70.88
316.689	81.88
316.919	87.88
317.148	83.88
317.377	86.88
317.607	83.88
317.836	84.88
318.065	84.88
318.295	94.88
318.524	92.88
318.753	88.88
318.983	77.88
319.212	68.88
319.441	81.88
319.67	84.88
319.9	85.88
320.129	71.88
320.358	87.88
320.587	85.88
320.816	81.88
321.046	82.88
321.275	90.88
321.504	87.88
321.733	97.88
321.962	85.88
322.191	91.88
322.42	77.88
322.649	87.88
322.878	84.88
323.108	89.88
323.337	90.88
323.566	75.88
323.795	79.88
324.024	73.88
324.253	88.88
324.482	92.88
324.71	81.88
324.939	75.88
325.168	85.88
325.397	89.88
325.626	86.88
325.855	91.88
326.084	93.88
326.313	83.88
326.542	73.88
326.77	88.88
326.999	88.88
327.228	77.88
327.457	95.88
327.686	81.88
327.914	90.88
328.143	89.88
328.372	80.88
328.6	82.88
328.829	74.88
329.058	76.88
329.287	80.88
329.515	91.88
329.744	89.88
329.972	70.88
330.201	95.88
330.43	69.88
330.658	81.88
330.887	85.88
331.115	82.88
331.344	85.88
331.572	96.88
331.801	81.88
332.03	81.88
332.258	84.88
332.486	84.88
332.715	91.88
332.943	74.88
333.172	83.88
333.4	94.88
333.629	84.88
333.857	96.88
334.085	81.88
334.314	85.88
334.542	83.88
334.771	86.88
334.999	78.88
335.227	69.88
335.455	76.88
335.684	88.88
335.912	86.88
336.14	88.88
336.369	92.88
336.597	93.88
336.825	88.88
337.053	82.88
337.281	81.88
337.51	100.88
337.738	85.88
337.966	92.88
338.194	95.88
338.422	90.88
338.65	77.88
338.878	89.88
339.106	71.88
339.334	80.88
339.562	89.88
339.79	83.88
340.018	81.88
340.246	75.88
340.474	100.88
340.702	75.88
340.93	87.88
341.158	79.88
341.386	73.88
341.614	79.88
341.842	93.88
342.07	79.88
342.298	93.88
342.526	95.88
342.754	90.88
342.981	74.88
343.209	85.88
343.437	98.88
343.665	90.88
343.893	86.88
344.12	64.88
344.348	99.88
344.576	73.88
344.804	91.88
345.031	96.88
345.259	76.88
345.487	83.88
345.714	80.88
345.942	76.88
346.17	92.88
346.397	89.88
346.625	76.88
346.853	75.88
347.08	95.88
347.308	72.88
347.535	98.88
347.763	79.88
347.99	99.88
348.218	98.88
348.445	83.88
348.673	73.88
348.9	77.88
349.128	81.88
349.355	79.88
349.583	78.88
349.81	104.88
350.037	83.88
350.265	73.88
350.492	80.88
350.72	86.88
350.947	79.88
351.174	77.88
351.402	90.88
351.629	79.88
351.856	84.88
352.083	81.88
352.311	94.88
352.538	69.88
352.765	92.88
352.992	89.88
353.22	81.88
353.447	97.88
353.674	79.88
353.901	84.88
354.128	82.88
354.355	73.88
354.583	72.88
354.81	86.88
355.037	85.88
355.264	94.88
355.491	90.88
355.718	83.88
355.945	91.88
356.172	74.88
356.399	82.88
356.626	84.88
356.853	79.88
357.08	80.88
357.307	106.88
357.534	104.88
357.761	116.88
357.988	132.88
358.215	94.88
358.441	80.88
358.668	82.88
358.895	84.88
359.122	85.88
359.349	117.88
359.576	106.88
359.802	93.88
360.029	101.88
360.256	106.88
360.483	120.88
360.709	108.88
360.936	91.88
361.163	86.88
361.39	74.88
361.616	84.88
361.843	100.88
362.07	84.88
362.296	88.88
362.523	68.88
362.749	80.88
362.976	87.88
363.203	82.88
363.429	73.88
363.656	92.88
363.882	94.88
364.109	95.88
364.335	104.88
364.562	83.88
364.788	70.88
365.015	80.88
365.241	75.88
365.468	83.88
365.694	87.88
365.92	92.88
366.147	85.88
366.373	76.88
366.599	91.88
366.826	86.88
367.052	92.88
367.278	93.88
367.505	76.88
367.731	96.88
367.957	92.88
368.184	80.88
368.41	85.88
368.636	88.88
368.862	96.88
369.089	85.88
369.315	83.88
369.541	89.88
369.767	90.88
369.993	77.88
370.219	82.88
370.445	79.88
370.672	89.88
370.898	87.88
371.124	77.88
371.35	87.88
371.576	74.88
371.802	95.88
372.028	77.88
372.254	86.88
372.48	86.88
372.706	78.88
372.932	87.88
373.158	71.88
373.384	92.88
373.61	87.88
373.835	89.88
374.061	94.88
374.287	83.88
374.513	92.88
374.739	96.88
374.965	80.88
375.191	89.88
375.416	88.88
375.642	84.88
375.868	76.88
376.094	89.88
376.319	80.88
376.545	85.88
376.771	89.88
376.997	84.88
377.222	88.88
377.448	89.88
377.674	95.88
377.899	83.88
378.125	69.88
378.35	79.88
378.576	79.88
378.802	79.88
379.027	87.88
379.253	78.88
379.478	92.88
379.704	90.88
379.929	81.88
380.155	86.88
380.38	82.88
380.606	90.88
380.831	76.88
381.057	82.88
381.282	76.88
381.507	84.88
381.733	80.88
381.958	85.88
382.184	80.88
382.409	77.88
382.634	79.88
382.86	81.88
383.085	99.88
383.31	101.88
383.535	84.88
383.761	94.88
383.986	72.88
384.211	91.88
384.436	88.88
384.662	79.88
384.887	94.88
385.112	81.88
385.337	75.88
385.562	92.88
385.787	94.88
386.013	85.88
386.238	74.88
386.463	77.88
386.688	92.88
386.913	92.88
387.138	89.88
387.363	76.88
387.588	88.88
387.813	87.88
388.038	95.88
388.263	84.88
388.488	92.88
388.713	84.88
388.938	94.88
389.163	89.88
389.387	79.88
389.612	87.88
389.837	78.88
390.062	81.88
390.287	77.88
390.512	80.88
390.736	75.88
390.961	85.88
391.186	79.88
391.411	78.88
391.636	96.88
391.86	92.88
392.085	98.88
392.31	88.88
392.534	85.88
392.759	83.88
392.984	81.88
393.208	96.88
393.433	99.88
393.658	94.88
393.882	75.88
394.107	91.88
394.331	92.88
394.556	88.88
394.78	96.88
395.005	87.88
395.229	71.88
395.454	84.88
395.678	79.88
395.903	91.88
396.127	87.88
396.352	86.88
396.576	97.88
396.801	87.88
397.025	88.88
397.249	91.88
397.474	88.88
397.698	96.88
397.922	99.88
398.147	89.88
398.371	94.88
398.595	99.88
398.82	75.88
399.044	87.88
399.268	88.88
399.492	92.88
399.717	92.88
399.941	105.88
400.165	77.88
400.389	87.88
400.613	83.88
400.837	81.88
401.062	99.88
401.286	89.88
401.51	83.88
401.734	71.88
401.958	84.88
402.182	88.88
402.406	86.88
402.63	89.88
402.854	84.88
403.078	76.88
403.302	82.88
403.526	91.88
403.75	86.88
403.974	78.88
404.198	75.88
404.422	80.88
404.645	69.88
404.869	94.88
405.093	83.88
405.317	79.88
405.541	90.88
405.765	81.88
405.988	97.88
406.212	90.88
406.436	77.88
406.66	95.88
406.883	77.88
407.107	88.88
407.331	79.88
407.555	77.88
407.778	91.88
408.002	97.88
408.226	86.88
408.449	76.88
408.673	67.88
408.896	79.88
409.12	79.88
409.344	84.88
409.567	83.88
409.791	88.88
410.014	92.88
410.238	80.88
410.461	80.88
410.685	90.88
410.908	84.88
411.132	97.88
411.355	90.88
411.578	83.88
411.802	89.88
412.025	80.88
412.249	86.88
412.472	68.88
412.695	79.88
412.919	87.88
413.142	72.88
413.365	77.88
413.589	79.88
413.812	71.88
414.035	77.88
414.258	80.88
414.482	85.88
414.705	78.88
414.928	78.88
415.151	85.88
415.374	75.88
415.597	91.88
415.821	86.88
416.044	89.88
416.267	81.88
416.49	85.88
416.713	83.88
416.936	76.88
417.159	77.88
417.382	81.88
417.605	76.88
417.828	79.88
418.051	83.88
418.274	84.88
418.497	75.88
418.72	84.88
418.943	73.88
419.166	91.88
419.389	81.88
419.611	81.88
419.834	66.88
420.057	86.88
420.28	86.88
420.503	88.88
420.726	87.88
420.948	100.88
421.171	75.88
421.394	90.88
421.617	83.88
421.839	85.88
422.062	80.88
422.285	76.88
422.507	77.88
422.73	78.88
422.953	75.88
423.175	77.88
423.398	82.88
423.621	79.88
423.843	87.88
424.066	79.88
424.288	76.88
424.511	93.88
424.733	79.88
424.956	88.88
425.178	100.88
425.401	121.88
425.623	130.88
425.846	104.88
426.068	81.88
426.291	94.88
426.513	84.88
426.735	79.88
426.958	88.88
427.18	104.88
427.402	104.88
427.625	145.88
427.847	94.88
428.069	94.88
428.292	85.88
428.514	93.88
428.736	95.88
428.958	100.88
429.181	113.88
429.403	89.88
429.625	76.88
429.847	91.88
430.069	86.88
430.292	100.88
430.514	92.88
430.736	73.88
430.958	76.88
431.18	83.88
431.402	92.88
431.624	74.88
431.846	79.88
432.068	89.88
432.29	77.88
432.512	82.88
432.734	85.88
432.956	83.88
433.178	89.88
433.4	94.88
433.622	76.88
433.844	99.88
434.066	107.88
434.287	106.88
434.509	103.88
434.731	92.88
434.953	82.88
435.175	102.88
435.397	115.88
435.618	91.88
435.84	86.88
436.062	91.88
436.284	90.88
436.505	95.88
436.727	79.88
436.949	100.88
437.17	85.88
437.392	85.88
437.614	87.88
437.835	81.88
438.057	81.88
438.278	74.88
438.5	77.88
438.721	88.88
438.943	73.88
439.165	72.88
439.386	83.88
439.608	78.88
439.829	85.88
440.05	73.88
440.272	88.88
440.493	63.88
440.715	77.88
440.936	71.88
441.158	94.88
441.379	72.88
441.6	73.88
441.822	83.88
442.043	74.88
442.264	81.88
442.486	82.88
442.707	79.88
442.928	95.88
443.149	90.88
443.371	80.88
443.592	90.88
443.813	93.88
444.034	91.88
444.255	87.88
444.476	80.88
444.698	78.88
444.919	75.88
445.14	160.88
445.361	142.88
445.582	83.88
445.803	80.88
446.024	93.88
446.245	84.88
446.466	81.88
446.687	81.88
446.908	81.88
447.129	83.88
447.35	87.88
447.571	67.88
447.792	81.88
448.013	66.88
448.234	84.88
448.455	73.88
448.675	85.88
448.896	86.88
449.117	83.88
449.338	75.88
449.559	86.88
449.779	89.88
450	92.88
450.221	104.88
450.442	84.88
450.662	76.88
450.883	93.88
451.104	93.88
451.324	88.88
451.545	74.88
451.766	76.88
451.986	87.88
452.207	75.88
452.428	83.88
452.648	101.88
452.869	103.88
453.089	92.88
453.31	88.88
453.53	100.88
453.751	94.88
453.971	82.88
454.192	97.88
454.412	80.88
454.633	96.88
454.853	88.88
455.073	85.88
455.294	82.88
455.514	81.88
455.734	80.88
455.955	81.88
456.175	87.88
456.395	77.88
456.616	63.88
456.836	82.88
457.056	69.88
457.276	90.88
457.497	85.88
457.717	83.88
457.937	92.88
458.157	81.88
458.377	85.88
458.598	69.88
458.818	86.88
459.038	97.88
459.258	77.88
459.478	78.88
459.698	87.88
459.918	82.88
460.138	99.88
460.358	105.88
460.578	75.88
460.798	87.88
461.018	87.88
461.238	81.88
461.458	78.88
461.678	93.88
461.898	89.88
462.118	80.88
462.338	93.88
462.558	93.88
462.777	91.88
462.997	102.88
463.217	83.88
463.437	89.88
463.657	92.88
463.876	71.88
464.096	67.88
464.316	87.88
464.536	92.88
464.755	112.88
464.975	83.88
465.195	113.88
465.414	109.88
465.634	82.88
465.854	87.88
466.073	72.88
466.293	67.88
466.512	84.88
466.732	97.88
466.951	81.88
467.171	83.88
467.391	88.88
467.61	80.88
467.829	84.88
468.049	91.88
468.268	88.88
468.488	78.88
468.707	89.88
468.927	73.88
469.146	100.88
469.365	80.88
469.585	80.88
469.804	81.88
470.023	79.88
470.243	91.88
470.462	84.88
470.681	71.88
470.901	72.88
471.12	80.88
471.339	82.88
471.558	88.88
471.777	92.88
471.997	88.88
472.216	73.88
472.435	89.88
472.654	85.88
472.873	76.88
473.092	72.88
473.311	93.88
473.53	82.88
473.749	84.88
473.968	93.88
474.187	76.88
474.406	73.88
474.625	88.88
474.844	81.88
475.063	85.88
475.282	97.88
475.501	99.88
475.72	105.88
475.939	90.88
476.158	69.88
476.377	84.88
476.596	77.88
476.814	74.88
477.033	76.88
477.252	96.88
477.471	84.88
477.69	83.88
477.908	76.88
478.127	81.88
478.346	77.88
478.564	75.88
478.783	91.88
479.002	79.88
479.22	107.88
479.439	83.88
479.658	83.88
479.876	87.88
480.095	73.88
480.313	86.88
480.532	94.88
480.751	83.88
480.969	83.88
481.188	81.88
481.406	72.88
481.624	66.88
481.843	87.88
482.061	85.88
482.28	81.88
482.498	80.88
482.717	91.88
482.935	78.88
483.153	89.88
483.372	83.88
483.59	89.88
483.808	80.88
484.027	78.88
484.245	84.88
484.463	81.88
484.681	87.88
484.9	76.88
485.118	84.88
485.336	80.88
485.554	83.88
485.772	74.88
485.99	70.88
486.209	75.88
486.427	80.88
486.645	81.88
486.863	81.88
487.081	92.88
487.299	85.88
487.517	73.88
487.735	78.88
487.953	87.88
488.171	87.88
488.389	71.88
488.607	86.88
488.825	99.88
489.043	84.88
489.261	96.88
489.479	80.88
489.696	81.88
489.914	84.88
490.132	97.88
490.35	86.88
490.568	84.88
490.786	62.88
491.003	76.88
491.221	87.88
491.439	81.88
491.657	79.88
491.874	79.88
492.092	84.88
492.31	85.88
492.527	81.88
492.745	81.88
492.963	82.88
493.18	87.88
493.398	86.88
493.615	99.88
493.833	89.88
494.05	82.88
494.268	74.88
494.485	79.88
494.703	100.88
494.92	87.88
495.138	88.88
495.355	89.88
495.573	81.88
495.79	89.88
496.008	85.88
496.225	83.88
496.442	83.88
496.66	91.88
496.877	81.88
497.094	80.88
497.312	93.88
497.529	76.88
497.746	81.88
497.963	89.88
498.181	95.88
498.398	78.88
498.615	73.88
498.832	89.88
499.049	81.88
499.267	84.88
499.484	78.88
499.701	78.88
499.918	81.88
500.135	81.88
500.352	86.88
500.569	84.88
500.786	84.88
501.003	89.88
501.22	80.88
501.437	101.88
501.654	86.88
501.871	93.88
502.088	74.88
502.305	76.88
502.522	77.88
502.739	91.88
502.956	80.88
503.172	91.88
503.389	81.88
503.606	87.88
503.823	89.88
504.04	96.88
504.256	85.88
504.473	75.88
504.69	89.88
504.907	79.88
505.123	89.88
505.34	99.88
505.557	75.88
505.773	78.88
505.99	89.88
506.207	84.88
506.423	74.88
506.64	73.88
506.856	76.88
507.073	76.88
507.289	78.88
507.506	77.88
507.722	83.88
507.939	79.88
508.155	79.88
508.372	88.88
508.588	84.88
508.805	93.88
509.021	81.88
509.238	88.88
509.454	78.88
509.67	83.88
509.887	70.88
510.103	81.88
510.319	89.88
510.536	86.88
510.752	68.88
510.968	81.88
511.184	70.88
511.401	99.88
511.617	78.88
511.833	84.88
512.049	87.88
512.265	77.88
512.481	88.88
512.698	72.88
512.914	87.88
513.13	83.88
513.346	87.88
513.562	83.88
513.778	81.88
513.994	85.88
514.21	83.88
514.426	87.88
514.642	83.88
514.858	86.88
515.074	85.88
515.29	76.88
515.506	77.88
515.721	77.88
515.937	86.88
516.153	100.88
516.369	90.88
516.585	72.88
516.801	81.88
517.016	78.88
517.232	95.88
517.448	88.88
517.664	87.88
517.879	79.88
518.095	78.88
518.311	88.88
518.527	79.88
518.742	84.88
518.958	92.88
519.173	79.88
519.389	91.88
519.605	93.88
