Data from StA_HRD10591_040.txt Node
Date: Fri May 16 15:19:04 EDT 2025
User: Yrep
Spectrometer: HR+D1059
Trigger mode: 1
Integration Time (sec): 1.000000E-1
Scans to average: 1
Electric dark correction enabled: true
Nonlinearity correction enabled: false
Boxcar width: 0
XAxis mode: Wavelengths
Number of Pixels in Spectrum: 2048
>>>>>Begin Spectral Data<<<<<
223.165	-13.81
223.4	-13.81
223.635	-13.81
223.869	-22.81
224.104	-31.81
224.338	-20.81
224.573	-9.81
224.808	-19.81
225.042	-11.81
225.277	-2.81
225.511	7.19
225.746	0.19
225.98	0.19
226.215	4.19
226.449	24.19
226.683	20.19
226.918	39.19
227.152	38.19
227.387	39.19
227.621	35.19
227.856	38.19
228.09	60.19
228.324	53.19
228.559	55.19
228.793	61.19
229.027	56.19
229.262	55.19
229.496	60.19
229.73	55.19
229.964	67.19
230.199	70.19
230.433	74.19
230.667	78.19
230.901	76.19
231.136	65.19
231.37	53.19
231.604	83.19
231.838	89.19
232.072	83.19
232.306	72.19
232.541	94.19
232.775	66.19
233.009	72.19
233.243	84.19
233.477	74.19
233.711	66.19
233.945	86.19
234.179	87.19
234.413	88.19
234.647	73.19
234.881	90.19
235.115	76.19
235.349	73.19
235.583	71.19
235.817	94.19
236.051	85.19
236.285	73.19
236.519	80.19
236.753	88.19
236.987	74.19
237.221	79.19
237.455	79.19
237.689	72.19
237.922	91.19
238.156	77.19
238.39	76.19
238.624	71.19
238.858	86.19
239.091	80.19
239.325	71.19
239.559	76.19
239.793	81.19
240.027	80.19
240.26	79.19
240.494	60.19
240.728	73.19
240.961	81.19
241.195	63.19
241.429	77.19
241.662	67.19
241.896	70.19
242.13	76.19
242.363	78.19
242.597	62.19
242.83	74.19
243.064	86.19
243.298	65.19
243.531	65.19
243.765	80.19
243.998	61.19
244.232	85.19
244.465	75.19
244.699	89.19
244.932	94.19
245.166	77.19
245.399	68.19
245.633	78.19
245.866	83.19
246.099	87.19
246.333	76.19
246.566	82.19
246.8	71.19
247.033	73.19
247.266	74.19
247.5	72.19
247.733	72.19
247.966	86.19
248.2	76.19
248.433	71.19
248.666	66.19
248.899	83.19
249.133	92.19
249.366	83.19
249.599	68.19
249.832	89.19
250.066	89.19
250.299	66.19
250.532	73.19
250.765	83.19
250.998	83.19
251.231	78.19
251.465	65.19
251.698	89.19
251.931	70.19
252.164	85.19
252.397	77.19
252.63	89.19
252.863	78.19
253.096	79.19
253.329	80.19
253.562	79.19
253.795	80.19
254.028	76.19
254.261	80.19
254.494	72.19
254.727	69.19
254.96	81.19
255.193	83.19
255.426	83.19
255.659	74.19
255.892	93.19
256.124	98.19
256.357	75.19
256.59	86.19
256.823	77.19
257.056	77.19
257.289	72.19
257.521	87.19
257.754	93.19
257.987	80.19
258.22	88.19
258.452	78.19
258.685	71.19
258.918	81.19
259.151	87.19
259.383	96.19
259.616	72.19
259.849	87.19
260.081	69.19
260.314	70.19
260.547	81.19
260.779	86.19
261.012	99.19
261.244	86.19
261.477	94.19
261.71	78.19
261.942	90.19
262.175	75.19
262.407	77.19
262.64	78.19
262.872	80.19
263.105	78.19
263.337	84.19
263.57	85.19
263.802	85.19
264.035	85.19
264.267	78.19
264.499	79.19
264.732	94.19
264.964	82.19
265.197	78.19
265.429	81.19
265.661	74.19
265.894	89.19
266.126	85.19
266.358	74.19
266.591	67.19
266.823	77.19
267.055	89.19
267.287	75.19
267.52	68.19
267.752	72.19
267.984	79.19
268.216	93.19
268.448	89.19
268.681	77.19
268.913	83.19
269.145	92.19
269.377	68.19
269.609	80.19
269.841	83.19
270.073	75.19
270.306	93.19
270.538	82.19
270.77	86.19
271.002	75.19
271.234	73.19
271.466	81.19
271.698	90.19
271.93	67.19
272.162	73.19
272.394	84.19
272.626	89.19
272.858	77.19
273.09	87.19
273.322	77.19
273.553	86.19
273.785	74.19
274.017	79.19
274.249	81.19
274.481	88.19
274.713	98.19
274.945	56.19
275.176	84.19
275.408	85.19
275.64	76.19
275.872	78.19
276.104	94.19
276.335	82.19
276.567	87.19
276.799	81.19
277.031	75.19
277.262	78.19
277.494	77.19
277.726	99.19
277.957	92.19
278.189	78.19
278.421	83.19
278.652	83.19
278.884	88.19
279.115	80.19
279.347	87.19
279.579	75.19
279.81	68.19
280.042	78.19
280.273	72.19
280.505	73.19
280.736	87.19
280.968	87.19
281.199	85.19
281.431	92.19
281.662	85.19
281.894	90.19
282.125	81.19
282.356	85.19
282.588	81.19
282.819	83.19
283.051	87.19
283.282	78.19
283.513	94.19
283.745	85.19
283.976	84.19
284.207	88.19
284.439	91.19
284.67	80.19
284.901	71.19
285.132	90.19
285.364	93.19
285.595	96.19
285.826	78.19
286.057	99.19
286.288	75.19
286.52	96.19
286.751	89.19
286.982	88.19
287.213	89.19
287.444	93.19
287.675	70.19
287.906	90.19
288.138	77.19
288.369	65.19
288.6	90.19
288.831	87.19
289.062	87.19
289.293	88.19
289.524	82.19
289.755	90.19
289.986	88.19
290.217	80.19
290.448	94.19
290.679	70.19
290.91	76.19
291.141	87.19
291.371	79.19
291.602	89.19
291.833	81.19
292.064	82.19
292.295	85.19
292.526	90.19
292.757	93.19
292.987	92.19
293.218	97.19
293.449	95.19
293.68	87.19
293.91	95.19
294.141	101.19
294.372	72.19
294.603	83.19
294.833	94.19
295.064	100.19
295.295	73.19
295.525	77.19
295.756	85.19
295.987	90.19
296.217	73.19
296.448	83.19
296.679	82.19
296.909	75.19
297.14	80.19
297.37	79.19
297.601	70.19
297.831	80.19
298.062	76.19
298.292	83.19
298.523	74.19
298.753	80.19
298.984	86.19
299.214	88.19
299.445	75.19
299.675	93.19
299.905	86.19
300.136	77.19
300.366	91.19
300.597	82.19
300.827	68.19
301.057	80.19
301.288	75.19
301.518	86.19
301.748	86.19
301.979	95.19
302.209	75.19
302.439	90.19
302.669	86.19
302.9	78.19
303.13	81.19
303.36	65.19
303.59	87.19
303.82	75.19
304.051	91.19
304.281	73.19
304.511	83.19
304.741	89.19
304.971	80.19
305.201	81.19
305.431	91.19
305.661	67.19
305.891	89.19
306.121	87.19
306.352	81.19
306.582	88.19
306.812	77.19
307.042	69.19
307.272	77.19
307.502	74.19
307.731	76.19
307.961	87.19
308.191	76.19
308.421	88.19
308.651	87.19
308.881	93.19
309.111	68.19
309.341	87.19
309.571	75.19
309.8	70.19
310.03	80.19
310.26	74.19
310.49	87.19
310.72	88.19
310.949	81.19
311.179	83.19
311.409	89.19
311.639	81.19
311.868	81.19
312.098	93.19
312.328	100.19
312.557	91.19
312.787	79.19
313.017	80.19
313.246	94.19
313.476	77.19
313.706	83.19
313.935	81.19
314.165	80.19
314.394	89.19
314.624	84.19
314.853	87.19
315.083	102.19
315.312	76.19
315.542	83.19
315.771	89.19
316.001	78.19
316.23	79.19
316.46	84.19
316.689	87.19
316.919	78.19
317.148	89.19
317.377	84.19
317.607	99.19
317.836	87.19
318.065	84.19
318.295	88.19
318.524	82.19
318.753	76.19
318.983	83.19
319.212	85.19
319.441	83.19
319.67	84.19
319.9	85.19
320.129	92.19
320.358	85.19
320.587	77.19
320.816	78.19
321.046	80.19
321.275	80.19
321.504	73.19
321.733	95.19
321.962	91.19
322.191	75.19
322.42	85.19
322.649	90.19
322.878	78.19
323.108	74.19
323.337	81.19
323.566	86.19
323.795	80.19
324.024	84.19
324.253	72.19
324.482	79.19
324.71	84.19
324.939	84.19
325.168	72.19
325.397	95.19
325.626	68.19
325.855	69.19
326.084	72.19
326.313	76.19
326.542	87.19
326.77	86.19
326.999	88.19
327.228	87.19
327.457	81.19
327.686	77.19
327.914	67.19
328.143	80.19
328.372	83.19
328.6	88.19
328.829	88.19
329.058	77.19
329.287	86.19
329.515	92.19
329.744	99.19
329.972	88.19
330.201	79.19
330.43	87.19
330.658	84.19
330.887	69.19
331.115	71.19
331.344	83.19
331.572	93.19
331.801	78.19
332.03	93.19
332.258	91.19
332.486	91.19
332.715	88.19
332.943	80.19
333.172	75.19
333.4	86.19
333.629	77.19
333.857	91.19
334.085	84.19
334.314	81.19
334.542	79.19
334.771	67.19
334.999	71.19
335.227	71.19
335.455	82.19
335.684	86.19
335.912	75.19
336.14	75.19
336.369	77.19
336.597	88.19
336.825	87.19
337.053	86.19
337.281	81.19
337.51	80.19
337.738	75.19
337.966	71.19
338.194	83.19
338.422	68.19
338.65	80.19
338.878	90.19
339.106	93.19
339.334	77.19
339.562	79.19
339.79	85.19
340.018	66.19
340.246	68.19
340.474	86.19
340.702	93.19
340.93	80.19
341.158	87.19
341.386	77.19
341.614	71.19
341.842	99.19
342.07	91.19
342.298	87.19
342.526	83.19
342.754	79.19
342.981	81.19
343.209	79.19
343.437	91.19
343.665	79.19
343.893	77.19
344.12	83.19
344.348	83.19
344.576	83.19
344.804	71.19
345.031	80.19
345.259	78.19
345.487	82.19
345.714	88.19
345.942	78.19
346.17	86.19
346.397	62.19
346.625	82.19
346.853	82.19
347.08	68.19
347.308	81.19
347.535	80.19
347.763	81.19
347.99	93.19
348.218	69.19
348.445	89.19
348.673	101.19
348.9	71.19
349.128	85.19
349.355	86.19
349.583	83.19
349.81	95.19
350.037	96.19
350.265	89.19
350.492	73.19
350.72	80.19
350.947	86.19
351.174	86.19
351.402	91.19
351.629	79.19
351.856	73.19
352.083	77.19
352.311	92.19
352.538	73.19
352.765	84.19
352.992	75.19
353.22	89.19
353.447	82.19
353.674	94.19
353.901	101.19
354.128	80.19
354.355	77.19
354.583	78.19
354.81	83.19
355.037	90.19
355.264	86.19
355.491	85.19
355.718	93.19
355.945	81.19
356.172	83.19
356.399	84.19
356.626	77.19
356.853	86.19
357.08	86.19
357.307	79.19
357.534	77.19
357.761	72.19
357.988	79.19
358.215	95.19
358.441	89.19
358.668	81.19
358.895	88.19
359.122	94.19
359.349	78.19
359.576	68.19
359.802	88.19
360.029	84.19
360.256	94.19
360.483	84.19
360.709	90.19
360.936	95.19
361.163	74.19
361.39	78.19
361.616	77.19
361.843	84.19
362.07	63.19
362.296	77.19
362.523	83.19
362.749	86.19
362.976	75.19
363.203	75.19
363.429	83.19
363.656	78.19
363.882	89.19
364.109	80.19
364.335	75.19
364.562	74.19
364.788	73.19
365.015	85.19
365.241	81.19
365.468	80.19
365.694	77.19
365.92	82.19
366.147	92.19
366.373	89.19
366.599	84.19
366.826	80.19
367.052	74.19
367.278	91.19
367.505	74.19
367.731	77.19
367.957	64.19
368.184	66.19
368.41	71.19
368.636	78.19
368.862	84.19
369.089	79.19
369.315	81.19
369.541	95.19
369.767	83.19
369.993	75.19
370.219	77.19
370.445	82.19
370.672	75.19
370.898	64.19
371.124	75.19
371.35	75.19
371.576	93.19
371.802	75.19
372.028	78.19
372.254	75.19
372.48	84.19
372.706	79.19
372.932	83.19
373.158	84.19
373.384	81.19
373.61	79.19
373.835	90.19
374.061	83.19
374.287	88.19
374.513	72.19
374.739	84.19
374.965	91.19
375.191	84.19
375.416	79.19
375.642	81.19
375.868	69.19
376.094	91.19
376.319	80.19
376.545	69.19
376.771	83.19
376.997	72.19
377.222	83.19
377.448	83.19
377.674	87.19
377.899	77.19
378.125	75.19
378.35	63.19
378.576	66.19
378.802	69.19
379.027	91.19
379.253	91.19
379.478	99.19
379.704	79.19
379.929	83.19
380.155	80.19
380.38	71.19
380.606	87.19
380.831	62.19
381.057	96.19
381.282	88.19
381.507	89.19
381.733	67.19
381.958	84.19
382.184	84.19
382.409	75.19
382.634	79.19
382.86	92.19
383.085	82.19
383.31	86.19
383.535	88.19
383.761	94.19
383.986	80.19
384.211	85.19
384.436	74.19
384.662	77.19
384.887	73.19
385.112	80.19
385.337	81.19
385.562	78.19
385.787	79.19
386.013	90.19
386.238	83.19
386.463	86.19
386.688	94.19
386.913	84.19
387.138	72.19
387.363	83.19
387.588	87.19
387.813	88.19
388.038	81.19
388.263	61.19
388.488	85.19
388.713	84.19
388.938	89.19
389.163	92.19
389.387	72.19
389.612	89.19
389.837	80.19
390.062	87.19
390.287	81.19
390.512	86.19
390.736	80.19
390.961	74.19
391.186	93.19
391.411	72.19
391.636	92.19
391.86	86.19
392.085	68.19
392.31	77.19
392.534	78.19
392.759	89.19
392.984	94.19
393.208	77.19
393.433	72.19
393.658	77.19
393.882	76.19
394.107	83.19
394.331	80.19
394.556	91.19
394.78	80.19
395.005	75.19
395.229	79.19
395.454	90.19
395.678	71.19
395.903	85.19
396.127	88.19
396.352	60.19
396.576	85.19
396.801	79.19
397.025	79.19
397.249	73.19
397.474	79.19
397.698	80.19
397.922	79.19
398.147	71.19
398.371	90.19
398.595	87.19
398.82	82.19
399.044	81.19
399.268	76.19
399.492	82.19
399.717	85.19
399.941	79.19
400.165	94.19
400.389	67.19
400.613	73.19
400.837	80.19
401.062	83.19
401.286	75.19
401.51	76.19
401.734	72.19
401.958	85.19
402.182	84.19
402.406	81.19
402.63	78.19
402.854	71.19
403.078	88.19
403.302	84.19
403.526	85.19
403.75	80.19
403.974	83.19
404.198	90.19
404.422	85.19
404.645	70.19
404.869	72.19
405.093	80.19
405.317	69.19
405.541	75.19
405.765	73.19
405.988	87.19
406.212	75.19
406.436	95.19
406.66	84.19
406.883	75.19
407.107	71.19
407.331	83.19
407.555	77.19
407.778	84.19
408.002	77.19
408.226	84.19
408.449	74.19
408.673	83.19
408.896	81.19
409.12	75.19
409.344	75.19
409.567	70.19
409.791	90.19
410.014	71.19
410.238	74.19
410.461	60.19
410.685	86.19
410.908	79.19
411.132	83.19
411.355	78.19
411.578	82.19
411.802	86.19
412.025	77.19
412.249	86.19
412.472	83.19
412.695	79.19
412.919	71.19
413.142	64.19
413.365	83.19
413.589	89.19
413.812	92.19
414.035	87.19
414.258	94.19
414.482	90.19
414.705	78.19
414.928	80.19
415.151	81.19
415.374	94.19
415.597	86.19
415.821	100.19
416.044	76.19
416.267	72.19
416.49	87.19
416.713	86.19
416.936	88.19
417.159	95.19
417.382	83.19
417.605	84.19
417.828	78.19
418.051	85.19
418.274	79.19
418.497	93.19
418.72	77.19
418.943	80.19
419.166	78.19
419.389	87.19
419.611	80.19
419.834	81.19
420.057	79.19
420.28	72.19
420.503	85.19
420.726	85.19
420.948	71.19
421.171	76.19
421.394	97.19
421.617	84.19
421.839	87.19
422.062	91.19
422.285	77.19
422.507	81.19
422.73	79.19
422.953	84.19
423.175	79.19
423.398	84.19
423.621	71.19
423.843	86.19
424.066	92.19
424.288	82.19
424.511	88.19
424.733	86.19
424.956	88.19
425.178	73.19
425.401	63.19
425.623	56.19
425.846	74.19
426.068	78.19
426.291	83.19
426.513	82.19
426.735	94.19
426.958	85.19
427.18	80.19
427.402	77.19
427.625	89.19
427.847	88.19
428.069	79.19
428.292	89.19
428.514	73.19
428.736	61.19
428.958	86.19
429.181	94.19
429.403	77.19
429.625	74.19
429.847	68.19
430.069	86.19
430.292	55.19
430.514	86.19
430.736	83.19
430.958	86.19
431.18	74.19
431.402	90.19
431.624	71.19
431.846	66.19
432.068	85.19
432.29	77.19
432.512	78.19
432.734	87.19
432.956	94.19
433.178	90.19
433.4	70.19
433.622	82.19
433.844	78.19
434.066	85.19
434.287	92.19
434.509	70.19
434.731	81.19
434.953	106.19
435.175	79.19
435.397	79.19
435.618	77.19
435.84	82.19
436.062	74.19
436.284	93.19
436.505	87.19
436.727	90.19
436.949	87.19
437.17	73.19
437.392	75.19
437.614	77.19
437.835	66.19
438.057	76.19
438.278	65.19
438.5	83.19
438.721	77.19
438.943	78.19
439.165	83.19
439.386	80.19
439.608	75.19
439.829	77.19
440.05	79.19
440.272	74.19
440.493	79.19
440.715	91.19
440.936	92.19
441.158	85.19
441.379	94.19
441.6	85.19
441.822	79.19
442.043	78.19
442.264	77.19
442.486	75.19
442.707	84.19
442.928	89.19
443.149	99.19
443.371	69.19
443.592	74.19
443.813	91.19
444.034	73.19
444.255	80.19
444.476	78.19
444.698	75.19
444.919	89.19
445.14	163.19
445.361	124.19
445.582	93.19
445.803	82.19
446.024	65.19
446.245	80.19
446.466	83.19
446.687	67.19
446.908	64.19
447.129	79.19
447.35	89.19
447.571	80.19
447.792	80.19
448.013	76.19
448.234	83.19
448.455	65.19
448.675	93.19
448.896	90.19
449.117	80.19
449.338	84.19
449.559	87.19
449.779	78.19
450	75.19
450.221	78.19
450.442	82.19
450.662	82.19
450.883	80.19
451.104	75.19
451.324	87.19
451.545	87.19
451.766	81.19
451.986	73.19
452.207	72.19
452.428	74.19
452.648	75.19
452.869	76.19
453.089	86.19
453.31	87.19
453.53	82.19
453.751	84.19
453.971	86.19
454.192	74.19
454.412	72.19
454.633	85.19
454.853	83.19
455.073	76.19
455.294	68.19
455.514	79.19
455.734	85.19
455.955	76.19
456.175	80.19
456.395	68.19
456.616	82.19
456.836	87.19
457.056	72.19
457.276	83.19
457.497	77.19
457.717	77.19
457.937	83.19
458.157	90.19
458.377	74.19
458.598	79.19
458.818	76.19
459.038	67.19
459.258	95.19
459.478	73.19
459.698	71.19
459.918	83.19
460.138	89.19
460.358	73.19
460.578	76.19
460.798	99.19
461.018	89.19
461.238	86.19
461.458	83.19
461.678	75.19
461.898	75.19
462.118	80.19
462.338	73.19
462.558	80.19
462.777	62.19
462.997	65.19
463.217	68.19
463.437	78.19
463.657	80.19
463.876	85.19
464.096	81.19
464.316	81.19
464.536	87.19
464.755	83.19
464.975	88.19
465.195	99.19
465.414	85.19
465.634	92.19
465.854	76.19
466.073	90.19
466.293	82.19
466.512	89.19
466.732	77.19
466.951	89.19
467.171	73.19
467.391	63.19
467.61	65.19
467.829	72.19
468.049	82.19
468.268	77.19
468.488	71.19
468.707	83.19
468.927	74.19
469.146	83.19
469.365	77.19
469.585	79.19
469.804	80.19
470.023	80.19
470.243	85.19
470.462	83.19
470.681	85.19
470.901	79.19
471.12	71.19
471.339	73.19
471.558	79.19
471.777	90.19
471.997	85.19
472.216	84.19
472.435	86.19
472.654	74.19
472.873	79.19
473.092	84.19
473.311	75.19
473.53	77.19
473.749	64.19
473.968	82.19
474.187	87.19
474.406	78.19
474.625	83.19
474.844	90.19
475.063	75.19
475.282	78.19
475.501	81.19
475.72	94.19
475.939	81.19
476.158	81.19
476.377	85.19
476.596	81.19
476.814	87.19
477.033	80.19
477.252	74.19
477.471	79.19
477.69	80.19
477.908	88.19
478.127	80.19
478.346	77.19
478.564	74.19
478.783	64.19
479.002	85.19
479.22	91.19
479.439	85.19
479.658	81.19
479.876	90.19
480.095	87.19
480.313	75.19
480.532	71.19
480.751	81.19
480.969	73.19
481.188	78.19
481.406	76.19
481.624	75.19
481.843	82.19
482.061	89.19
482.28	80.19
482.498	80.19
482.717	90.19
482.935	92.19
483.153	78.19
483.372	90.19
483.59	84.19
483.808	100.19
484.027	87.19
484.245	80.19
484.463	93.19
484.681	103.19
484.9	87.19
485.118	92.19
485.336	81.19
485.554	80.19
485.772	72.19
485.99	75.19
486.209	70.19
486.427	76.19
486.645	79.19
486.863	83.19
487.081	88.19
487.299	89.19
487.517	78.19
487.735	75.19
487.953	85.19
488.171	87.19
488.389	74.19
488.607	76.19
488.825	73.19
489.043	88.19
489.261	81.19
489.479	86.19
489.696	80.19
489.914	82.19
490.132	83.19
490.35	79.19
490.568	83.19
490.786	76.19
491.003	85.19
491.221	74.19
491.439	85.19
491.657	79.19
491.874	79.19
492.092	80.19
492.31	65.19
492.527	97.19
492.745	87.19
492.963	81.19
493.18	86.19
493.398	79.19
493.615	83.19
493.833	75.19
494.05	79.19
494.268	73.19
494.485	89.19
494.703	84.19
494.92	82.19
495.138	95.19
495.355	79.19
495.573	91.19
495.79	77.19
496.008	80.19
496.225	79.19
496.442	90.19
496.66	87.19
496.877	81.19
497.094	79.19
497.312	74.19
497.529	72.19
497.746	96.19
497.963	86.19
498.181	87.19
498.398	89.19
498.615	83.19
498.832	77.19
499.049	73.19
499.267	71.19
499.484	81.19
499.701	85.19
499.918	89.19
500.135	70.19
500.352	73.19
500.569	93.19
500.786	87.19
501.003	73.19
501.22	72.19
501.437	86.19
501.654	67.19
501.871	91.19
502.088	99.19
502.305	79.19
502.522	83.19
502.739	87.19
502.956	75.19
503.172	87.19
503.389	93.19
503.606	75.19
503.823	76.19
504.04	76.19
504.256	85.19
504.473	95.19
504.69	87.19
504.907	82.19
505.123	90.19
505.34	84.19
505.557	81.19
505.773	88.19
505.99	91.19
506.207	75.19
506.423	75.19
506.64	67.19
506.856	86.19
507.073	72.19
507.289	97.19
507.506	75.19
507.722	90.19
507.939	84.19
508.155	86.19
508.372	88.19
508.588	76.19
508.805	89.19
509.021	84.19
509.238	83.19
509.454	84.19
509.67	89.19
509.887	72.19
510.103	83.19
510.319	84.19
510.536	78.19
510.752	91.19
510.968	89.19
511.184	82.19
511.401	87.19
511.617	83.19
511.833	76.19
512.049	78.19
512.265	84.19
512.481	85.19
512.698	92.19
512.914	87.19
513.13	88.19
513.346	72.19
513.562	88.19
513.778	94.19
513.994	97.19
514.21	80.19
514.426	105.19
514.642	74.19
514.858	93.19
515.074	97.19
515.29	84.19
515.506	81.19
515.721	79.19
515.937	78.19
516.153	79.19
516.369	81.19
516.585	85.19
516.801	77.19
517.016	70.19
517.232	109.19
517.448	94.19
517.664	81.19
517.879	89.19
518.095	84.19
518.311	81.19
518.527	79.19
518.742	83.19
518.958	87.19
519.173	81.19
519.389	77.19
519.605	79.19
519.82	79.19
520.036	91.19
520.251	78.19
