Data from StA_HRD10591_044.txt Node
Date: Fri May 16 15:19:05 EDT 2025
User: Yrep
Spectrometer: HR+D1059
Trigger mode: 1
Integration Time (sec): 1.000000E-1
Scans to average: 1
Electric dark correction enabled: true
Nonlinearity correction enabled: false
Boxcar width: 0
XAxis mode: Wavelengths
Number of Pixels in Spectrum: 2048
>>>>>Begin Spectral Data<<<<<
223.165	-21.88
223.4	-21.88
223.635	-21.88
223.869	-23.88
224.104	-26.88
224.338	-16.88
224.573	-5.88
224.808	-0.88
225.042	-4.88
225.277	1.12
225.511	-8.88
225.746	0.12
225.98	6.12
226.215	12.12
226.449	24.12
226.683	12.12
226.918	23.12
227.152	31.12
227.387	24.12
227.621	42.12
227.856	34.12
228.09	41.12
228.324	58.12
228.559	61.12
228.793	47.12
229.027	86.12
229.262	76.12
229.496	58.12
229.73	72.12
229.964	70.12
230.199	79.12
230.433	92.12
230.667	66.12
230.901	100.12
231.136	81.12
231.37	94.12
231.604	93.12
231.838	99.12
232.072	99.12
232.306	96.12
232.541	93.12
232.775	91.12
233.009	102.12
233.243	87.12
233.477	91.12
233.711	95.12
233.945	98.12
234.179	94.12
234.413	87.12
234.647	86.12
234.881	98.12
235.115	103.12
235.349	86.12
235.583	90.12
235.817	84.12
236.051	88.12
236.285	83.12
236.519	90.12
236.753	107.12
236.987	110.12
237.221	93.12
237.455	94.12
237.689	86.12
237.922	89.12
238.156	84.12
238.39	85.12
238.624	91.12
238.858	93.12
239.091	88.12
239.325	79.12
239.559	88.12
239.793	100.12
240.027	112.12
240.26	91.12
240.494	100.12
240.728	83.12
240.961	102.12
241.195	96.12
241.429	99.12
241.662	98.12
241.896	95.12
242.13	74.12
242.363	89.12
242.597	82.12
242.83	89.12
243.064	100.12
243.298	100.12
243.531	90.12
243.765	93.12
243.998	94.12
244.232	80.12
244.465	91.12
244.699	92.12
244.932	87.12
245.166	94.12
245.399	94.12
245.633	116.12
245.866	98.12
246.099	101.12
246.333	95.12
246.566	123.12
246.8	112.12
247.033	113.12
247.266	113.12
247.5	111.12
247.733	105.12
247.966	109.12
248.2	96.12
248.433	120.12
248.666	133.12
248.899	143.12
249.133	129.12
249.366	149.12
249.599	123.12
249.832	128.12
250.066	128.12
250.299	131.12
250.532	107.12
250.765	127.12
250.998	118.12
251.231	107.12
251.465	131.12
251.698	148.12
251.931	144.12
252.164	143.12
252.397	145.12
252.63	142.12
252.863	157.12
253.096	148.12
253.329	126.12
253.562	126.12
253.795	141.12
254.028	166.12
254.261	157.12
254.494	155.12
254.727	148.12
254.96	142.12
255.193	146.12
255.426	138.12
255.659	147.12
255.892	150.12
256.124	154.12
256.357	160.12
256.59	157.12
256.823	177.12
257.056	168.12
257.289	153.12
257.521	175.12
257.754	166.12
257.987	167.12
258.22	175.12
258.452	162.12
258.685	176.12
258.918	164.12
259.151	166.12
259.383	170.12
259.616	172.12
259.849	163.12
260.081	160.12
260.314	162.12
260.547	168.12
260.779	180.12
261.012	201.12
261.244	160.12
261.477	185.12
261.71	180.12
261.942	202.12
262.175	176.12
262.407	196.12
262.64	180.12
262.872	180.12
263.105	191.12
263.337	191.12
263.57	194.12
263.802	190.12
264.035	197.12
264.267	173.12
264.499	194.12
264.732	178.12
264.964	163.12
265.197	186.12
265.429	204.12
265.661	207.12
265.894	236.12
266.126	251.12
266.358	295.12
266.591	304.12
266.823	330.12
267.055	315.12
267.287	303.12
267.52	348.12
267.752	348.12
267.984	372.12
268.216	296.12
268.448	244.12
268.681	247.12
268.913	288.12
269.145	302.12
269.377	265.12
269.609	261.12
269.841	292.12
270.073	312.12
270.306	293.12
270.538	261.12
270.77	245.12
271.002	253.12
271.234	267.12
271.466	251.12
271.698	230.12
271.93	244.12
272.162	271.12
272.394	260.12
272.626	276.12
272.858	239.12
273.09	197.12
273.322	196.12
273.553	191.12
273.785	216.12
274.017	228.12
274.249	282.12
274.481	305.12
274.713	302.12
274.945	368.12
275.176	384.12
275.408	386.12
275.64	352.12
275.872	376.12
276.104	449.12
276.335	452.12
276.567	479.12
276.799	451.12
277.031	369.12
277.262	291.12
277.494	272.12
277.726	281.12
277.957	324.12
278.189	330.12
278.421	315.12
278.652	293.12
278.884	298.12
279.115	286.12
279.347	272.12
279.579	257.12
279.81	256.12
280.042	274.12
280.273	282.12
280.505	249.12
280.736	246.12
280.968	264.12
281.199	291.12
281.431	316.12
281.662	326.12
281.894	349.12
282.125	373.12
282.356	395.12
282.588	364.12
282.819	335.12
283.051	405.12
283.282	495.12
283.513	533.12
283.745	597.12
283.976	537.12
284.207	555.12
284.439	532.12
284.67	498.12
284.901	499.12
285.132	552.12
285.364	543.12
285.595	526.12
285.826	540.12
286.057	543.12
286.288	548.12
286.52	587.12
286.751	562.12
286.982	526.12
287.213	449.12
287.444	464.12
287.675	462.12
287.906	446.12
288.138	359.12
288.369	306.12
288.6	322.12
288.831	367.12
289.062	403.12
289.293	437.12
289.524	415.12
289.755	439.12
289.986	424.12
290.217	335.12
290.448	286.12
290.679	279.12
290.91	269.12
291.141	281.12
291.371	282.12
291.602	284.12
291.833	304.12
292.064	316.12
292.295	377.12
292.526	386.12
292.757	389.12
292.987	407.12
293.218	372.12
293.449	356.12
293.68	357.12
293.91	306.12
294.141	284.12
294.372	275.12
294.603	279.12
294.833	277.12
295.064	255.12
295.295	278.12
295.525	276.12
295.756	247.12
295.987	235.12
296.217	247.12
296.448	265.12
296.679	260.12
296.909	295.12
297.14	347.12
297.37	347.12
297.601	325.12
297.831	318.12
298.062	343.12
298.292	351.12
298.523	370.12
298.753	399.12
298.984	351.12
299.214	310.12
299.445	258.12
299.675	244.12
299.905	230.12
300.136	229.12
300.366	218.12
300.597	219.12
300.827	221.12
301.057	238.12
301.288	260.12
301.518	290.12
301.748	308.12
301.979	303.12
302.209	285.12
302.439	287.12
302.669	302.12
302.9	312.12
303.13	278.12
303.36	263.12
303.59	266.12
303.82	292.12
304.051	336.12
304.281	359.12
304.511	317.12
304.741	296.12
304.971	313.12
305.201	318.12
305.431	281.12
305.661	250.12
305.891	246.12
306.121	230.12
306.352	215.12
306.582	191.12
306.812	203.12
307.042	211.12
307.272	196.12
307.502	198.12
307.731	195.12
307.961	220.12
308.191	207.12
308.421	211.12
308.651	205.12
308.881	208.12
309.111	224.12
309.341	226.12
309.571	252.12
309.8	218.12
310.03	217.12
310.26	227.12
310.49	225.12
310.72	229.12
310.949	249.12
311.179	268.12
311.409	307.12
311.639	386.12
311.868	500.12
312.098	576.12
312.328	555.12
312.557	584.12
312.787	543.12
313.017	527.12
313.246	563.12
313.476	508.12
313.706	424.12
313.935	346.12
314.165	299.12
314.394	286.12
314.624	275.12
314.853	295.12
315.083	290.12
315.312	252.12
315.542	222.12
315.771	218.12
316.001	201.12
316.23	229.12
316.46	210.12
316.689	187.12
316.919	214.12
317.148	225.12
317.377	226.12
317.607	226.12
317.836	252.12
318.065	291.12
318.295	330.12
318.524	266.12
318.753	231.12
318.983	214.12
319.212	223.12
319.441	236.12
319.67	268.12
319.9	303.12
320.129	271.12
320.358	228.12
320.587	247.12
320.816	266.12
321.046	285.12
321.275	269.12
321.504	258.12
321.733	274.12
321.962	256.12
322.191	232.12
322.42	199.12
322.649	200.12
322.878	201.12
323.108	203.12
323.337	217.12
323.566	227.12
323.795	241.12
324.024	241.12
324.253	189.12
324.482	203.12
324.71	199.12
324.939	200.12
325.168	190.12
325.397	203.12
325.626	206.12
325.855	202.12
326.084	190.12
326.313	209.12
326.542	214.12
326.77	219.12
326.999	234.12
327.228	216.12
327.457	235.12
327.686	192.12
327.914	188.12
328.143	190.12
328.372	205.12
328.6	201.12
328.829	211.12
329.058	210.12
329.287	248.12
329.515	238.12
329.744	240.12
329.972	213.12
330.201	213.12
330.43	242.12
330.658	250.12
330.887	263.12
331.115	270.12
331.344	290.12
331.572	240.12
331.801	221.12
332.03	244.12
332.258	250.12
332.486	261.12
332.715	244.12
332.943	229.12
333.172	254.12
333.4	270.12
333.629	314.12
333.857	316.12
334.085	317.12
334.314	294.12
334.542	290.12
334.771	260.12
334.999	267.12
335.227	271.12
335.455	261.12
335.684	327.12
335.912	383.12
336.14	394.12
336.369	364.12
336.597	365.12
336.825	407.12
337.053	383.12
337.281	279.12
337.51	272.12
337.738	278.12
337.966	298.12
338.194	294.12
338.422	264.12
338.65	236.12
338.878	232.12
339.106	259.12
339.334	265.12
339.562	259.12
339.79	241.12
340.018	276.12
340.246	294.12
340.474	343.12
340.702	329.12
340.93	317.12
341.158	292.12
341.386	233.12
341.614	246.12
341.842	248.12
342.07	326.12
342.298	366.12
342.526	309.12
342.754	235.12
342.981	241.12
343.209	246.12
343.437	282.12
343.665	230.12
343.893	234.12
344.12	212.12
344.348	217.12
344.576	211.12
344.804	211.12
345.031	201.12
345.259	212.12
345.487	203.12
345.714	230.12
345.942	206.12
346.17	205.12
346.397	193.12
346.625	191.12
346.853	200.12
347.08	188.12
347.308	182.12
347.535	199.12
347.763	192.12
347.99	197.12
348.218	186.12
348.445	182.12
348.673	184.12
348.9	189.12
349.128	180.12
349.355	175.12
349.583	182.12
349.81	183.12
350.037	164.12
350.265	184.12
350.492	180.12
350.72	183.12
350.947	172.12
351.174	188.12
351.402	196.12
351.629	184.12
351.856	184.12
352.083	182.12
352.311	179.12
352.538	179.12
352.765	176.12
352.992	193.12
353.22	185.12
353.447	195.12
353.674	179.12
353.901	182.12
354.128	162.12
354.355	167.12
354.583	171.12
354.81	205.12
355.037	196.12
355.264	203.12
355.491	207.12
355.718	198.12
355.945	198.12
356.172	206.12
356.399	206.12
356.626	213.12
356.853	196.12
357.08	206.12
357.307	215.12
357.534	254.12
357.761	302.12
357.988	324.12
358.215	290.12
358.441	249.12
358.668	262.12
358.895	227.12
359.122	245.12
359.349	282.12
359.576	317.12
359.802	212.12
360.029	230.12
360.256	263.12
360.483	290.12
360.709	296.12
360.936	242.12
361.163	207.12
361.39	189.12
361.616	199.12
361.843	188.12
362.07	189.12
362.296	182.12
362.523	190.12
362.749	172.12
362.976	200.12
363.203	209.12
363.429	213.12
363.656	216.12
363.882	218.12
364.109	220.12
364.335	212.12
364.562	204.12
364.788	186.12
365.015	200.12
365.241	213.12
365.468	202.12
365.694	190.12
365.92	198.12
366.147	194.12
366.373	208.12
366.599	210.12
366.826	198.12
367.052	178.12
367.278	201.12
367.505	191.12
367.731	214.12
367.957	213.12
368.184	203.12
368.41	199.12
368.636	198.12
368.862	183.12
369.089	191.12
369.315	185.12
369.541	187.12
369.767	185.12
369.993	198.12
370.219	194.12
370.445	197.12
370.672	191.12
370.898	194.12
371.124	191.12
371.35	215.12
371.576	202.12
371.802	213.12
372.028	186.12
372.254	188.12
372.48	189.12
372.706	179.12
372.932	194.12
373.158	191.12
373.384	194.12
373.61	186.12
373.835	189.12
374.061	209.12
374.287	212.12
374.513	250.12
374.739	211.12
374.965	204.12
375.191	196.12
375.416	203.12
375.642	191.12
375.868	200.12
376.094	182.12
376.319	178.12
376.545	187.12
376.771	204.12
376.997	204.12
377.222	191.12
377.448	188.12
377.674	191.12
377.899	193.12
378.125	187.12
378.35	180.12
378.576	183.12
378.802	200.12
379.027	194.12
379.253	216.12
379.478	200.12
379.704	203.12
379.929	199.12
380.155	193.12
380.38	214.12
380.606	230.12
380.831	202.12
381.057	215.12
381.282	202.12
381.507	220.12
381.733	200.12
381.958	206.12
382.184	182.12
382.409	188.12
382.634	218.12
382.86	200.12
383.085	194.12
383.31	196.12
383.535	227.12
383.761	220.12
383.986	220.12
384.211	234.12
384.436	223.12
384.662	215.12
384.887	229.12
385.112	217.12
385.337	247.12
385.562	242.12
385.787	220.12
386.013	219.12
386.238	217.12
386.463	230.12
386.688	238.12
386.913	226.12
387.138	211.12
387.363	207.12
387.588	207.12
387.813	222.12
388.038	218.12
388.263	233.12
388.488	230.12
388.713	224.12
388.938	212.12
389.163	203.12
389.387	207.12
389.612	206.12
389.837	211.12
390.062	232.12
390.287	230.12
390.512	222.12
390.736	223.12
390.961	220.12
391.186	220.12
391.411	200.12
391.636	230.12
391.86	233.12
392.085	232.12
392.31	229.12
392.534	204.12
392.759	215.12
392.984	234.12
393.208	200.12
393.433	219.12
393.658	213.12
393.882	213.12
394.107	222.12
394.331	211.12
394.556	211.12
394.78	219.12
395.005	205.12
395.229	207.12
395.454	219.12
395.678	208.12
395.903	198.12
396.127	226.12
396.352	238.12
396.576	262.12
396.801	248.12
397.025	252.12
397.249	246.12
397.474	228.12
397.698	254.12
397.922	268.12
398.147	228.12
398.371	246.12
398.595	270.12
398.82	230.12
399.044	267.12
399.268	282.12
399.492	263.12
399.717	260.12
399.941	255.12
400.165	240.12
400.389	260.12
400.613	228.12
400.837	215.12
401.062	218.12
401.286	246.12
401.51	225.12
401.734	236.12
401.958	212.12
402.182	215.12
402.406	214.12
402.63	239.12
402.854	230.12
403.078	215.12
403.302	218.12
403.526	230.12
403.75	226.12
403.974	231.12
404.198	227.12
404.422	223.12
404.645	232.12
404.869	234.12
405.093	228.12
405.317	221.12
405.541	214.12
405.765	234.12
405.988	244.12
406.212	247.12
406.436	223.12
406.66	234.12
406.883	230.12
407.107	238.12
407.331	235.12
407.555	228.12
407.778	256.12
408.002	226.12
408.226	235.12
408.449	258.12
408.673	222.12
408.896	232.12
409.12	222.12
409.344	230.12
409.567	221.12
409.791	235.12
410.014	218.12
410.238	236.12
410.461	221.12
410.685	226.12
410.908	234.12
411.132	256.12
411.355	237.12
411.578	247.12
411.802	244.12
412.025	214.12
412.249	237.12
412.472	233.12
412.695	238.12
412.919	241.12
413.142	236.12
413.365	236.12
413.589	238.12
413.812	223.12
414.035	238.12
414.258	217.12
414.482	200.12
414.705	218.12
414.928	221.12
415.151	200.12
415.374	236.12
415.597	217.12
415.821	230.12
416.044	224.12
416.267	247.12
416.49	216.12
416.713	217.12
416.936	228.12
417.159	215.12
417.382	238.12
417.605	231.12
417.828	221.12
418.051	228.12
418.274	216.12
418.497	202.12
418.72	217.12
418.943	216.12
419.166	234.12
419.389	240.12
419.611	256.12
419.834	254.12
420.057	239.12
420.28	225.12
420.503	230.12
420.726	234.12
420.948	237.12
421.171	215.12
421.394	227.12
421.617	209.12
421.839	206.12
422.062	232.12
422.285	221.12
422.507	203.12
422.73	212.12
422.953	212.12
423.175	215.12
423.398	201.12
423.621	244.12
423.843	224.12
424.066	222.12
424.288	236.12
424.511	224.12
424.733	202.12
424.956	224.12
425.178	252.12
425.401	334.12
425.623	382.12
425.846	268.12
426.068	237.12
426.291	253.12
426.513	277.12
426.735	235.12
426.958	250.12
427.18	263.12
427.402	320.12
427.625	372.12
427.847	276.12
428.069	231.12
428.292	234.12
428.514	226.12
428.736	244.12
428.958	300.12
429.181	324.12
429.403	246.12
429.625	207.12
429.847	226.12
430.069	230.12
430.292	230.12
430.514	222.12
430.736	210.12
430.958	223.12
431.18	221.12
431.402	225.12
431.624	205.12
431.846	213.12
432.068	214.12
432.29	214.12
432.512	212.12
432.734	209.12
432.956	202.12
433.178	211.12
433.4	219.12
433.622	228.12
433.844	261.12
434.066	271.12
434.287	260.12
434.509	264.12
434.731	251.12
434.953	215.12
435.175	255.12
435.397	268.12
435.618	199.12
435.84	202.12
436.062	223.12
436.284	216.12
436.505	204.12
436.727	186.12
436.949	221.12
437.17	241.12
437.392	226.12
437.614	219.12
437.835	194.12
438.057	202.12
438.278	221.12
438.5	216.12
438.721	223.12
438.943	209.12
439.165	206.12
439.386	200.12
439.608	206.12
439.829	194.12
440.05	201.12
440.272	195.12
440.493	199.12
440.715	178.12
440.936	204.12
441.158	201.12
441.379	212.12
441.6	219.12
441.822	208.12
442.043	214.12
442.264	223.12
442.486	218.12
442.707	221.12
442.928	210.12
443.149	219.12
443.371	234.12
443.592	209.12
443.813	210.12
444.034	214.12
444.255	214.12
444.476	227.12
444.698	230.12
444.919	218.12
445.14	312.12
445.361	249.12
445.582	221.12
445.803	219.12
446.024	214.12
446.245	221.12
446.466	211.12
446.687	196.12
446.908	208.12
447.129	217.12
447.35	192.12
447.571	208.12
447.792	201.12
448.013	204.12
448.234	210.12
448.455	200.12
448.675	210.12
448.896	211.12
449.117	221.12
449.338	202.12
449.559	203.12
449.779	213.12
450	226.12
450.221	229.12
450.442	223.12
450.662	198.12
450.883	221.12
451.104	224.12
451.324	216.12
451.545	207.12
451.766	219.12
451.986	203.12
452.207	218.12
452.428	208.12
452.648	206.12
452.869	220.12
453.089	210.12
453.31	195.12
453.53	192.12
453.751	210.12
453.971	203.12
454.192	222.12
454.412	231.12
454.633	206.12
454.853	210.12
455.073	191.12
455.294	189.12
455.514	208.12
455.734	220.12
455.955	232.12
456.175	219.12
456.395	203.12
456.616	215.12
456.836	210.12
457.056	198.12
457.276	207.12
457.497	201.12
457.717	198.12
457.937	202.12
458.157	209.12
458.377	205.12
458.598	208.12
458.818	214.12
459.038	216.12
459.258	229.12
459.478	242.12
459.698	218.12
459.918	216.12
460.138	236.12
460.358	222.12
460.578	207.12
460.798	212.12
461.018	208.12
461.238	223.12
461.458	235.12
461.678	259.12
461.898	268.12
462.118	238.12
462.338	269.12
462.558	263.12
462.777	269.12
462.997	260.12
463.217	275.12
463.437	250.12
463.657	244.12
463.876	240.12
464.096	248.12
464.316	243.12
464.536	246.12
464.755	302.12
464.975	255.12
465.195	268.12
465.414	277.12
465.634	232.12
465.854	216.12
466.073	206.12
466.293	192.12
466.512	230.12
466.732	214.12
466.951	222.12
467.171	203.12
467.391	210.12
467.61	210.12
467.829	193.12
468.049	205.12
468.268	207.12
468.488	200.12
468.707	188.12
468.927	206.12
469.146	192.12
469.365	207.12
469.585	218.12
469.804	218.12
470.023	215.12
470.243	215.12
470.462	192.12
470.681	200.12
470.901	194.12
471.12	228.12
471.339	192.12
471.558	213.12
471.777	202.12
471.997	236.12
472.216	210.12
472.435	214.12
472.654	206.12
472.873	199.12
473.092	218.12
473.311	220.12
473.53	215.12
473.749	217.12
473.968	226.12
474.187	196.12
474.406	189.12
474.625	201.12
474.844	202.12
475.063	211.12
475.282	200.12
475.501	232.12
475.72	250.12
475.939	241.12
476.158	199.12
476.377	201.12
476.596	217.12
476.814	207.12
477.033	218.12
477.252	226.12
477.471	215.12
477.69	219.12
477.908	218.12
478.127	240.12
478.346	223.12
478.564	213.12
478.783	213.12
479.002	254.12
479.22	239.12
479.439	231.12
479.658	236.12
479.876	223.12
480.095	235.12
480.313	265.12
480.532	236.12
480.751	242.12
480.969	245.12
481.188	230.12
481.406	233.12
481.624	228.12
481.843	196.12
482.061	233.12
482.28	214.12
482.498	239.12
482.717	256.12
482.935	239.12
483.153	248.12
483.372	232.12
483.59	219.12
483.808	232.12
484.027	236.12
484.245	215.12
484.463	216.12
484.681	233.12
484.9	256.12
485.118	224.12
485.336	215.12
485.554	228.12
485.772	233.12
485.99	235.12
486.209	248.12
486.427	249.12
486.645	260.12
486.863	222.12
487.081	249.12
487.299	257.12
487.517	248.12
487.735	249.12
487.953	265.12
488.171	237.12
488.389	238.12
488.607	239.12
488.825	258.12
489.043	259.12
489.261	237.12
489.479	232.12
489.696	237.12
489.914	238.12
490.132	247.12
490.35	245.12
490.568	248.12
490.786	230.12
491.003	217.12
491.221	230.12
491.439	236.12
491.657	246.12
491.874	237.12
492.092	250.12
492.31	300.12
492.527	278.12
492.745	239.12
492.963	242.12
493.18	251.12
493.398	263.12
493.615	245.12
493.833	267.12
494.05	228.12
494.268	251.12
494.485	246.12
494.703	239.12
494.92	238.12
495.138	240.12
495.355	238.12
495.573	242.12
495.79	274.12
496.008	233.12
496.225	242.12
496.442	251.12
496.66	258.12
496.877	263.12
497.094	282.12
497.312	259.12
497.529	270.12
497.746	265.12
497.963	285.12
498.181	280.12
498.398	265.12
498.615	296.12
498.832	282.12
499.049	288.12
499.267	307.12
499.484	316.12
499.701	328.12
499.918	346.12
500.135	358.12
500.352	391.12
500.569	389.12
500.786	379.12
501.003	360.12
501.22	363.12
501.437	363.12
501.654	328.12
501.871	310.12
502.088	303.12
502.305	287.12
502.522	311.12
502.739	260.12
502.956	290.12
503.172	279.12
503.389	282.12
503.606	267.12
