Data from StA_HRD10591_058.txt Node
Date: Fri May 16 15:19:12 EDT 2025
User: Yrep
Spectrometer: HR+D1059
Trigger mode: 1
Integration Time (sec): 1.000000E-1
Scans to average: 1
Electric dark correction enabled: true
Nonlinearity correction enabled: false
Boxcar width: 0
XAxis mode: Wavelengths
Number of Pixels in Spectrum: 2048
>>>>>Begin Spectral Data<<<<<
223.165	-15.69
223.4	-15.69
223.635	-15.69
223.869	-18.69
224.104	-11.69
224.338	-19.69
224.573	-16.69
224.808	-10.69
225.042	-1.69
225.277	-6.69
225.511	9.31
225.746	-4.69
225.98	-2.69
226.215	12.31
226.449	20.31
226.683	23.31
226.918	19.31
227.152	24.31
227.387	44.31
227.621	30.31
227.856	47.31
228.09	41.31
228.324	42.31
228.559	64.31
228.793	56.31
229.027	60.31
229.262	49.31
229.496	63.31
229.73	74.31
229.964	73.31
230.199	60.31
230.433	65.31
230.667	69.31
230.901	76.31
231.136	63.31
231.37	73.31
231.604	80.31
231.838	79.31
232.072	70.31
232.306	78.31
232.541	82.31
232.775	74.31
233.009	76.31
233.243	79.31
233.477	79.31
233.711	84.31
233.945	74.31
234.179	72.31
234.413	92.31
234.647	79.31
234.881	77.31
235.115	93.31
235.349	76.31
235.583	73.31
235.817	77.31
236.051	90.31
236.285	76.31
236.519	79.31
236.753	79.31
236.987	66.31
237.221	73.31
237.455	69.31
237.689	81.31
237.922	58.31
238.156	77.31
238.39	73.31
238.624	80.31
238.858	85.31
239.091	77.31
239.325	69.31
239.559	73.31
239.793	68.31
240.027	89.31
240.26	79.31
240.494	78.31
240.728	63.31
240.961	85.31
241.195	84.31
241.429	78.31
241.662	71.31
241.896	66.31
242.13	89.31
242.363	70.31
242.597	66.31
242.83	84.31
243.064	62.31
243.298	71.31
243.531	89.31
243.765	73.31
243.998	79.31
244.232	80.31
244.465	74.31
244.699	79.31
244.932	75.31
245.166	84.31
245.399	77.31
245.633	74.31
245.866	83.31
246.099	79.31
246.333	65.31
246.566	75.31
246.8	59.31
247.033	81.31
247.266	84.31
247.5	70.31
247.733	86.31
247.966	71.31
248.2	78.31
248.433	87.31
248.666	69.31
248.899	78.31
249.133	75.31
249.366	75.31
249.599	73.31
249.832	78.31
250.066	71.31
250.299	73.31
250.532	91.31
250.765	83.31
250.998	78.31
251.231	76.31
251.465	75.31
251.698	93.31
251.931	76.31
252.164	72.31
252.397	77.31
252.63	86.31
252.863	80.31
253.096	78.31
253.329	95.31
253.562	88.31
253.795	85.31
254.028	81.31
254.261	76.31
254.494	81.31
254.727	83.31
254.96	87.31
255.193	75.31
255.426	80.31
255.659	77.31
255.892	87.31
256.124	79.31
256.357	78.31
256.59	87.31
256.823	82.31
257.056	74.31
257.289	56.31
257.521	70.31
257.754	72.31
257.987	70.31
258.22	79.31
258.452	79.31
258.685	78.31
258.918	85.31
259.151	76.31
259.383	76.31
259.616	84.31
259.849	68.31
260.081	89.31
260.314	87.31
260.547	94.31
260.779	93.31
261.012	73.31
261.244	79.31
261.477	66.31
261.71	92.31
261.942	83.31
262.175	80.31
262.407	87.31
262.64	81.31
262.872	60.31
263.105	79.31
263.337	82.31
263.57	98.31
263.802	88.31
264.035	79.31
264.267	68.31
264.499	79.31
264.732	76.31
264.964	85.31
265.197	86.31
265.429	75.31
265.661	79.31
265.894	72.31
266.126	82.31
266.358	92.31
266.591	75.31
266.823	88.31
267.055	83.31
267.287	78.31
267.52	71.31
267.752	90.31
267.984	89.31
268.216	89.31
268.448	81.31
268.681	83.31
268.913	86.31
269.145	89.31
269.377	83.31
269.609	77.31
269.841	89.31
270.073	72.31
270.306	97.31
270.538	95.31
270.77	86.31
271.002	80.31
271.234	95.31
271.466	78.31
271.698	79.31
271.93	81.31
272.162	73.31
272.394	87.31
272.626	80.31
272.858	94.31
273.09	85.31
273.322	85.31
273.553	73.31
273.785	74.31
274.017	85.31
274.249	95.31
274.481	80.31
274.713	83.31
274.945	89.31
275.176	92.31
275.408	88.31
275.64	100.31
275.872	74.31
276.104	83.31
276.335	80.31
276.567	79.31
276.799	83.31
277.031	84.31
277.262	92.31
277.494	82.31
277.726	85.31
277.957	76.31
278.189	85.31
278.421	82.31
278.652	89.31
278.884	72.31
279.115	80.31
279.347	84.31
279.579	91.31
279.81	77.31
280.042	79.31
280.273	77.31
280.505	77.31
280.736	89.31
280.968	81.31
281.199	89.31
281.431	91.31
281.662	87.31
281.894	71.31
282.125	83.31
282.356	79.31
282.588	69.31
282.819	91.31
283.051	87.31
283.282	90.31
283.513	89.31
283.745	86.31
283.976	79.31
284.207	90.31
284.439	84.31
284.67	94.31
284.901	79.31
285.132	101.31
285.364	85.31
285.595	82.31
285.826	86.31
286.057	101.31
286.288	85.31
286.52	94.31
286.751	89.31
286.982	91.31
287.213	81.31
287.444	82.31
287.675	101.31
287.906	93.31
288.138	85.31
288.369	85.31
288.6	89.31
288.831	89.31
289.062	84.31
289.293	91.31
289.524	67.31
289.755	87.31
289.986	90.31
290.217	91.31
290.448	83.31
290.679	89.31
290.91	71.31
291.141	94.31
291.371	74.31
291.602	96.31
291.833	99.31
292.064	72.31
292.295	92.31
292.526	88.31
292.757	78.31
292.987	84.31
293.218	87.31
293.449	89.31
293.68	88.31
293.91	83.31
294.141	79.31
294.372	86.31
294.603	101.31
294.833	80.31
295.064	95.31
295.295	96.31
295.525	86.31
295.756	88.31
295.987	87.31
296.217	93.31
296.448	78.31
296.679	75.31
296.909	87.31
297.14	87.31
297.37	90.31
297.601	81.31
297.831	84.31
298.062	90.31
298.292	88.31
298.523	104.31
298.753	77.31
298.984	83.31
299.214	88.31
299.445	89.31
299.675	95.31
299.905	92.31
300.136	93.31
300.366	94.31
300.597	83.31
300.827	92.31
301.057	83.31
301.288	93.31
301.518	84.31
301.748	98.31
301.979	103.31
302.209	99.31
302.439	96.31
302.669	94.31
302.9	94.31
303.13	85.31
303.36	80.31
303.59	79.31
303.82	89.31
304.051	100.31
304.281	93.31
304.511	77.31
304.741	89.31
304.971	69.31
305.201	84.31
305.431	87.31
305.661	91.31
305.891	66.31
306.121	83.31
306.352	87.31
306.582	88.31
306.812	83.31
307.042	87.31
307.272	114.31
307.502	69.31
307.731	78.31
307.961	69.31
308.191	86.31
308.421	68.31
308.651	93.31
308.881	95.31
309.111	84.31
309.341	91.31
309.571	79.31
309.8	91.31
310.03	95.31
310.26	83.31
310.49	86.31
310.72	77.31
310.949	82.31
311.179	103.31
311.409	72.31
311.639	87.31
311.868	100.31
312.098	85.31
312.328	92.31
312.557	87.31
312.787	86.31
313.017	89.31
313.246	83.31
313.476	84.31
313.706	84.31
313.935	99.31
314.165	92.31
314.394	86.31
314.624	79.31
314.853	77.31
315.083	97.31
315.312	87.31
315.542	82.31
315.771	83.31
316.001	87.31
316.23	87.31
316.46	77.31
316.689	90.31
316.919	85.31
317.148	87.31
317.377	79.31
317.607	84.31
317.836	81.31
318.065	97.31
318.295	92.31
318.524	97.31
318.753	93.31
318.983	92.31
319.212	89.31
319.441	89.31
319.67	88.31
319.9	89.31
320.129	95.31
320.358	105.31
320.587	91.31
320.816	95.31
321.046	75.31
321.275	83.31
321.504	90.31
321.733	88.31
321.962	81.31
322.191	98.31
322.42	93.31
322.649	79.31
322.878	86.31
323.108	91.31
323.337	79.31
323.566	101.31
323.795	79.31
324.024	80.31
324.253	85.31
324.482	89.31
324.71	91.31
324.939	87.31
325.168	96.31
325.397	98.31
325.626	97.31
325.855	91.31
326.084	85.31
326.313	90.31
326.542	93.31
326.77	86.31
326.999	71.31
327.228	78.31
327.457	78.31
327.686	92.31
327.914	88.31
328.143	88.31
328.372	95.31
328.6	81.31
328.829	85.31
329.058	85.31
329.287	73.31
329.515	84.31
329.744	79.31
329.972	63.31
330.201	83.31
330.43	73.31
330.658	96.31
330.887	86.31
331.115	78.31
331.344	79.31
331.572	86.31
331.801	81.31
332.03	77.31
332.258	97.31
332.486	88.31
332.715	86.31
332.943	77.31
333.172	76.31
333.4	73.31
333.629	88.31
333.857	84.31
334.085	96.31
334.314	92.31
334.542	87.31
334.771	82.31
334.999	89.31
335.227	86.31
335.455	83.31
335.684	83.31
335.912	92.31
336.14	101.31
336.369	92.31
336.597	81.31
336.825	80.31
337.053	89.31
337.281	72.31
337.51	94.31
337.738	92.31
337.966	86.31
338.194	96.31
338.422	95.31
338.65	93.31
338.878	89.31
339.106	80.31
339.334	89.31
339.562	86.31
339.79	81.31
340.018	96.31
340.246	86.31
340.474	92.31
340.702	96.31
340.93	87.31
341.158	78.31
341.386	74.31
341.614	79.31
341.842	79.31
342.07	89.31
342.298	79.31
342.526	81.31
342.754	100.31
342.981	103.31
343.209	97.31
343.437	105.31
343.665	91.31
343.893	83.31
344.12	87.31
344.348	94.31
344.576	82.31
344.804	78.31
345.031	87.31
345.259	75.31
345.487	84.31
345.714	76.31
345.942	76.31
346.17	71.31
346.397	89.31
346.625	95.31
346.853	91.31
347.08	84.31
347.308	83.31
347.535	86.31
347.763	87.31
347.99	84.31
348.218	75.31
348.445	77.31
348.673	82.31
348.9	83.31
349.128	70.31
349.355	82.31
349.583	86.31
349.81	81.31
350.037	87.31
350.265	83.31
350.492	84.31
350.72	91.31
350.947	99.31
351.174	96.31
351.402	86.31
351.629	82.31
351.856	81.31
352.083	101.31
352.311	95.31
352.538	85.31
352.765	99.31
352.992	93.31
353.22	83.31
353.447	66.31
353.674	90.31
353.901	79.31
354.128	89.31
354.355	67.31
354.583	77.31
354.81	92.31
355.037	93.31
355.264	77.31
355.491	83.31
355.718	86.31
355.945	91.31
356.172	95.31
356.399	84.31
356.626	96.31
356.853	91.31
357.08	92.31
357.307	92.31
357.534	94.31
357.761	111.31
357.988	122.31
358.215	105.31
358.441	90.31
358.668	87.31
358.895	85.31
359.122	97.31
359.349	116.31
359.576	103.31
359.802	105.31
360.029	91.31
360.256	85.31
360.483	120.31
360.709	102.31
360.936	87.31
361.163	83.31
361.39	89.31
361.616	86.31
361.843	103.31
362.07	100.31
362.296	76.31
362.523	93.31
362.749	76.31
362.976	75.31
363.203	76.31
363.429	74.31
363.656	85.31
363.882	91.31
364.109	98.31
364.335	82.31
364.562	83.31
364.788	92.31
365.015	81.31
365.241	88.31
365.468	80.31
365.694	99.31
365.92	77.31
366.147	80.31
366.373	87.31
366.599	92.31
366.826	86.31
367.052	79.31
367.278	69.31
367.505	64.31
367.731	93.31
367.957	93.31
368.184	72.31
368.41	99.31
368.636	71.31
368.862	91.31
369.089	85.31
369.315	71.31
369.541	81.31
369.767	82.31
369.993	73.31
370.219	75.31
370.445	75.31
370.672	74.31
370.898	86.31
371.124	84.31
371.35	87.31
371.576	75.31
371.802	80.31
372.028	90.31
372.254	90.31
372.48	91.31
372.706	92.31
372.932	97.31
373.158	80.31
373.384	93.31
373.61	76.31
373.835	83.31
374.061	97.31
374.287	88.31
374.513	102.31
374.739	87.31
374.965	92.31
375.191	94.31
375.416	83.31
375.642	87.31
375.868	82.31
376.094	77.31
376.319	70.31
376.545	97.31
376.771	91.31
376.997	88.31
377.222	67.31
377.448	87.31
377.674	59.31
377.899	88.31
378.125	77.31
378.35	88.31
378.576	84.31
378.802	93.31
379.027	74.31
379.253	92.31
379.478	83.31
379.704	77.31
379.929	92.31
380.155	80.31
380.38	92.31
380.606	93.31
380.831	93.31
381.057	94.31
381.282	101.31
381.507	87.31
381.733	101.31
381.958	88.31
382.184	84.31
382.409	82.31
382.634	92.31
382.86	91.31
383.085	77.31
383.31	86.31
383.535	103.31
383.761	92.31
383.986	77.31
384.211	83.31
384.436	72.31
384.662	74.31
384.887	84.31
385.112	78.31
385.337	89.31
385.562	95.31
385.787	97.31
386.013	83.31
386.238	79.31
386.463	91.31
386.688	87.31
386.913	75.31
387.138	91.31
387.363	88.31
387.588	93.31
387.813	95.31
388.038	80.31
388.263	94.31
388.488	97.31
388.713	96.31
388.938	85.31
389.163	81.31
389.387	81.31
389.612	74.31
389.837	72.31
390.062	89.31
390.287	105.31
390.512	95.31
390.736	77.31
390.961	104.31
391.186	70.31
391.411	83.31
391.636	91.31
391.86	90.31
392.085	99.31
392.31	85.31
392.534	90.31
392.759	96.31
392.984	73.31
393.208	84.31
393.433	76.31
393.658	95.31
393.882	79.31
394.107	85.31
394.331	92.31
394.556	91.31
394.78	69.31
395.005	72.31
395.229	74.31
395.454	87.31
395.678	90.31
395.903	79.31
396.127	85.31
396.352	112.31
396.576	88.31
396.801	79.31
397.025	80.31
397.249	95.31
397.474	81.31
397.698	94.31
397.922	92.31
398.147	79.31
398.371	93.31
398.595	91.31
398.82	85.31
399.044	90.31
399.268	94.31
399.492	95.31
399.717	88.31
399.941	73.31
400.165	79.31
400.389	86.31
400.613	71.31
400.837	80.31
401.062	86.31
401.286	81.31
401.51	71.31
401.734	78.31
401.958	87.31
402.182	82.31
402.406	83.31
402.63	87.31
402.854	76.31
403.078	72.31
403.302	77.31
403.526	94.31
403.75	80.31
403.974	85.31
404.198	84.31
404.422	73.31
404.645	69.31
404.869	93.31
405.093	83.31
405.317	71.31
405.541	66.31
405.765	75.31
405.988	80.31
406.212	73.31
406.436	77.31
406.66	86.31
406.883	93.31
407.107	85.31
407.331	82.31
407.555	92.31
407.778	87.31
408.002	83.31
408.226	83.31
408.449	92.31
408.673	76.31
408.896	79.31
409.12	74.31
409.344	100.31
409.567	75.31
409.791	83.31
410.014	87.31
410.238	76.31
410.461	75.31
410.685	80.31
410.908	90.31
411.132	99.31
411.355	81.31
411.578	77.31
411.802	90.31
412.025	80.31
412.249	84.31
412.472	83.31
412.695	79.31
412.919	85.31
413.142	75.31
413.365	71.31
413.589	87.31
413.812	75.31
414.035	78.31
414.258	79.31
414.482	93.31
414.705	80.31
414.928	92.31
415.151	88.31
415.374	88.31
415.597	79.31
415.821	75.31
416.044	76.31
416.267	76.31
416.49	79.31
416.713	80.31
416.936	80.31
417.159	84.31
417.382	80.31
417.605	77.31
417.828	75.31
418.051	85.31
418.274	86.31
418.497	88.31
418.72	98.31
418.943	83.31
419.166	91.31
419.389	91.31
419.611	64.31
419.834	79.31
420.057	87.31
420.28	89.31
420.503	85.31
420.726	84.31
420.948	74.31
421.171	83.31
421.394	82.31
421.617	87.31
421.839	88.31
422.062	84.31
422.285	79.31
422.507	83.31
422.73	77.31
422.953	91.31
423.175	78.31
423.398	88.31
423.621	84.31
423.843	86.31
424.066	77.31
424.288	88.31
424.511	96.31
424.733	86.31
424.956	88.31
425.178	95.31
425.401	116.31
425.623	142.31
425.846	101.31
426.068	90.31
426.291	77.31
426.513	85.31
426.735	85.31
426.958	92.31
427.18	83.31
427.402	119.31
427.625	131.31
427.847	97.31
428.069	85.31
428.292	89.31
428.514	78.31
428.736	97.31
428.958	137.31
429.181	115.31
429.403	81.31
429.625	83.31
429.847	77.31
430.069	88.31
430.292	76.31
430.514	83.31
430.736	89.31
430.958	90.31
431.18	83.31
431.402	80.31
431.624	91.31
431.846	89.31
432.068	79.31
432.29	77.31
432.512	83.31
432.734	85.31
432.956	97.31
433.178	83.31
433.4	88.31
433.622	79.31
433.844	111.31
434.066	122.31
434.287	81.31
434.509	103.31
434.731	101.31
434.953	73.31
435.175	105.31
435.397	115.31
435.618	77.31
435.84	88.31
436.062	91.31
436.284	79.31
436.505	100.31
436.727	85.31
436.949	89.31
437.17	105.31
437.392	86.31
437.614	80.31
437.835	86.31
438.057	75.31
438.278	85.31
438.5	84.31
438.721	85.31
438.943	97.31
439.165	74.31
439.386	103.31
439.608	82.31
439.829	93.31
440.05	70.31
440.272	63.31
440.493	80.31
440.715	90.31
440.936	86.31
441.158	107.31
441.379	96.31
441.6	72.31
441.822	85.31
442.043	69.31
442.264	81.31
442.486	77.31
442.707	84.31
442.928	103.31
443.149	93.31
443.371	73.31
443.592	73.31
443.813	85.31
444.034	79.31
444.255	89.31
444.476	88.31
444.698	91.31
444.919	78.31
445.14	175.31
445.361	124.31
445.582	91.31
445.803	75.31
446.024	71.31
446.245	102.31
446.466	93.31
446.687	78.31
446.908	80.31
447.129	76.31
447.35	81.31
447.571	79.31
447.792	101.31
448.013	87.31
448.234	90.31
448.455	75.31
448.675	77.31
448.896	78.31
449.117	70.31
449.338	78.31
449.559	101.31
449.779	95.31
450	105.31
450.221	83.31
450.442	92.31
450.662	79.31
450.883	86.31
451.104	80.31
451.324	73.31
451.545	86.31
451.766	94.31
451.986	88.31
452.207	84.31
452.428	73.31
452.648	90.31
452.869	105.31
453.089	79.31
453.31	101.31
453.53	78.31
453.751	92.31
453.971	94.31
454.192	77.31
454.412	91.31
454.633	102.31
454.853	85.31
455.073	81.31
455.294	94.31
455.514	80.31
455.734	75.31
455.955	80.31
456.175	77.31
456.395	91.31
456.616	91.31
456.836	77.31
457.056	85.31
457.276	77.31
457.497	75.31
457.717	88.31
457.937	77.31
458.157	79.31
458.377	87.31
458.598	80.31
458.818	95.31
459.038	78.31
459.258	96.31
459.478	79.31
459.698	79.31
459.918	89.31
460.138	101.31
460.358	86.31
460.578	81.31
460.798	93.31
461.018	83.31
461.238	80.31
461.458	95.31
461.678	91.31
461.898	85.31
462.118	84.31
462.338	83.31
462.558	92.31
462.777	87.31
462.997	80.31
463.217	83.31
463.437	87.31
463.657	80.31
463.876	80.31
464.096	89.31
464.316	89.31
464.536	85.31
464.755	104.31
464.975	92.31
465.195	104.31
465.414	117.31
465.634	84.31
465.854	97.31
466.073	84.31
466.293	78.31
466.512	82.31
466.732	93.31
466.951	78.31
467.171	55.31
467.391	70.31
467.61	85.31
467.829	81.31
468.049	83.31
468.268	75.31
468.488	81.31
468.707	89.31
468.927	61.31
469.146	73.31
469.365	69.31
469.585	83.31
469.804	78.31
470.023	97.31
470.243	95.31
470.462	91.31
470.681	87.31
470.901	86.31
471.12	87.31
471.339	85.31
471.558	79.31
471.777	79.31
471.997	103.31
472.216	89.31
472.435	78.31
472.654	85.31
472.873	79.31
473.092	80.31
473.311	75.31
473.53	72.31
473.749	77.31
473.968	97.31
474.187	85.31
474.406	64.31
474.625	75.31
474.844	85.31
475.063	91.31
475.282	93.31
475.501	83.31
475.72	94.31
475.939	96.31
476.158	86.31
476.377	86.31
476.596	92.31
476.814	79.31
477.033	86.31
477.252	77.31
477.471	88.31
477.69	91.31
477.908	94.31
478.127	85.31
478.346	79.31
478.564	80.31
478.783	83.31
479.002	88.31
479.22	96.31
479.439	68.31
479.658	84.31
479.876	80.31
480.095	104.31
480.313	95.31
480.532	99.31
480.751	88.31
480.969	75.31
481.188	85.31
481.406	88.31
481.624	91.31
481.843	85.31
482.061	86.31
482.28	80.31
482.498	85.31
482.717	73.31
482.935	79.31
483.153	93.31
483.372	78.31
483.59	77.31
483.808	90.31
484.027	80.31
484.245	77.31
484.463	89.31
484.681	87.31
484.9	74.31
485.118	93.31
485.336	79.31
485.554	89.31
485.772	79.31
485.99	92.31
486.209	83.31
486.427	95.31
486.645	85.31
486.863	85.31
487.081	92.31
487.299	86.31
487.517	83.31
487.735	87.31
487.953	74.31
488.171	83.31
488.389	77.31
488.607	81.31
488.825	94.31
489.043	89.31
489.261	84.31
489.479	80.31
489.696	83.31
489.914	87.31
490.132	75.31
490.35	83.31
490.568	80.31
490.786	78.31
491.003	85.31
491.221	86.31
491.439	73.31
491.657	90.31
491.874	99.31
492.092	84.31
492.31	108.31
492.527	104.31
492.745	94.31
492.963	92.31
493.18	88.31
493.398	89.31
493.615	87.31
493.833	85.31
494.05	92.31
494.268	93.31
494.485	85.31
494.703	87.31
494.92	97.31
495.138	66.31
495.355	64.31
495.573	92.31
495.79	83.31
496.008	80.31
496.225	71.31
496.442	86.31
496.66	87.31
496.877	79.31
497.094	94.31
497.312	80.31
497.529	86.31
497.746	76.31
497.963	77.31
498.181	68.31
498.398	63.31
498.615	101.31
498.832	76.31
499.049	85.31
499.267	76.31
499.484	100.31
499.701	79.31
499.918	101.31
500.135	89.31
500.352	87.31
500.569	87.31
500.786	92.31
501.003	79.31
501.22	82.31
501.437	95.31
501.654	94.31
501.871	80.31
502.088	88.31
502.305	78.31
502.522	92.31
502.739	101.31
502.956	90.31
503.172	89.31
503.389	75.31
503.606	89.31
503.823	89.31
504.04	91.31
504.256	74.31
504.473	86.31
504.69	81.31
504.907	87.31
505.123	73.31
505.34	70.31
505.557	87.31
505.773	79.31
505.99	81.31
506.207	78.31
506.423	95.31
506.64	88.31
506.856	101.31
507.073	73.31
507.289	92.31
507.506	87.31
507.722	74.31
507.939	79.31
508.155	86.31
508.372	94.31
508.588	89.31
508.805	83.31
509.021	93.31
509.238	85.31
509.454	85.31
509.67	72.31
509.887	86.31
510.103	96.31
510.319	90.31
510.536	91.31
510.752	95.31
510.968	88.31
511.184	77.31
511.401	86.31
511.617	89.31
511.833	97.31
512.049	70.31
512.265	84.31
512.481	96.31
512.698	89.31
512.914	83.31
513.13	85.31
513.346	85.31
513.562	74.31
513.778	90.31
513.994	74.31
514.21	89.31
514.426	87.31
514.642	94.31
514.858	83.31
515.074	76.31
515.29	86.31
515.506	91.31
515.721	81.31
515.937	72.31
516.153	92.31
516.369	84.31
516.585	93.31
516.801	105.31
517.016	77.31
517.232	91.31
517.448	82.31
517.664	85.31
517.879	83.31
518.095	71.31
518.311	70.31
518.527	85.31
518.742	79.31
518.958	83.31
519.173	98.31
