Data from StA_HRD10591_015.txt Node
Date: Fri May 16 15:18:52 EDT 2025
User: Yrep
Spectrometer: HR+D1059
Trigger mode: 1
Integration Time (sec): 1.000000E-1
Scans to average: 1
Electric dark correction enabled: true
Nonlinearity correction enabled: false
Boxcar width: 0
XAxis mode: Wavelengths
Number of Pixels in Spectrum: 2048
>>>>>Begin Spectral Data<<<<<
223.165	-24.56
223.4	-24.56
223.635	-24.56
223.869	-22.56
224.104	-25.56
224.338	-9.56
224.573	-7.56
224.808	-10.56
225.042	-6.56
225.277	6.44
225.511	6.44
225.746	-7.56
225.98	14.44
226.215	7.44
226.449	8.44
226.683	22.44
226.918	19.44
227.152	29.44
227.387	45.44
227.621	43.44
227.856	50.44
228.09	42.44
228.324	52.44
228.559	57.44
228.793	63.44
229.027	61.44
229.262	71.44
229.496	84.44
229.73	89.44
229.964	76.44
230.199	80.44
230.433	80.44
230.667	76.44
230.901	83.44
231.136	94.44
231.37	90.44
231.604	91.44
231.838	89.44
232.072	96.44
232.306	94.44
232.541	93.44
232.775	102.44
233.009	95.44
233.243	86.44
233.477	91.44
233.711	94.44
233.945	111.44
234.179	89.44
234.413	75.44
234.647	86.44
234.881	95.44
235.115	95.44
235.349	72.44
235.583	95.44
235.817	90.44
236.051	81.44
236.285	101.44
236.519	89.44
236.753	81.44
236.987	83.44
237.221	83.44
237.455	95.44
237.689	94.44
237.922	88.44
238.156	93.44
238.39	93.44
238.624	101.44
238.858	86.44
239.091	91.44
239.325	89.44
239.559	81.44
239.793	96.44
240.027	82.44
240.26	96.44
240.494	89.44
240.728	97.44
240.961	86.44
241.195	98.44
241.429	94.44
241.662	99.44
241.896	94.44
242.13	87.44
242.363	99.44
242.597	101.44
242.83	94.44
243.064	96.44
243.298	96.44
243.531	97.44
243.765	101.44
243.998	99.44
244.232	100.44
244.465	111.44
244.699	86.44
244.932	109.44
245.166	98.44
245.399	101.44
245.633	113.44
245.866	109.44
246.099	104.44
246.333	124.44
246.566	110.44
246.8	96.44
247.033	104.44
247.266	108.44
247.5	113.44
247.733	114.44
247.966	118.44
248.2	130.44
248.433	128.44
248.666	112.44
248.899	124.44
249.133	129.44
249.366	143.44
249.599	115.44
249.832	142.44
250.066	123.44
250.299	137.44
250.532	129.44
250.765	117.44
250.998	123.44
251.231	129.44
251.465	139.44
251.698	133.44
251.931	141.44
252.164	157.44
252.397	149.44
252.63	150.44
252.863	144.44
253.096	133.44
253.329	151.44
253.562	154.44
253.795	150.44
254.028	149.44
254.261	152.44
254.494	154.44
254.727	154.44
254.96	136.44
255.193	139.44
255.426	152.44
255.659	131.44
255.892	160.44
256.124	151.44
256.357	164.44
256.59	160.44
256.823	165.44
257.056	141.44
257.289	152.44
257.521	159.44
257.754	161.44
257.987	176.44
258.22	179.44
258.452	172.44
258.685	163.44
258.918	161.44
259.151	154.44
259.383	182.44
259.616	166.44
259.849	162.44
260.081	152.44
260.314	167.44
260.547	163.44
260.779	170.44
261.012	193.44
261.244	175.44
261.477	175.44
261.71	175.44
261.942	174.44
262.175	162.44
262.407	185.44
262.64	179.44
262.872	194.44
263.105	187.44
263.337	184.44
263.57	162.44
263.802	177.44
264.035	176.44
264.267	161.44
264.499	171.44
264.732	177.44
264.964	162.44
265.197	175.44
265.429	195.44
265.661	209.44
265.894	230.44
266.126	255.44
266.358	270.44
266.591	297.44
266.823	296.44
267.055	296.44
267.287	301.44
267.52	297.44
267.752	309.44
267.984	345.44
268.216	297.44
268.448	247.44
268.681	249.44
268.913	277.44
269.145	290.44
269.377	275.44
269.609	263.44
269.841	270.44
270.073	308.44
270.306	270.44
270.538	244.44
270.77	221.44
271.002	232.44
271.234	258.44
271.466	231.44
271.698	242.44
271.93	254.44
272.162	256.44
272.394	250.44
272.626	255.44
272.858	223.44
273.09	199.44
273.322	199.44
273.553	197.44
273.785	201.44
274.017	217.44
274.249	263.44
274.481	297.44
274.713	306.44
274.945	323.44
275.176	355.44
275.408	359.44
275.64	323.44
275.872	374.44
276.104	402.44
276.335	405.44
276.567	395.44
276.799	398.44
277.031	339.44
277.262	270.44
277.494	257.44
277.726	274.44
277.957	302.44
278.189	298.44
278.421	279.44
278.652	293.44
278.884	299.44
279.115	291.44
279.347	254.44
279.579	229.44
279.81	234.44
280.042	264.44
280.273	269.44
280.505	242.44
280.736	240.44
280.968	257.44
281.199	277.44
281.431	301.44
281.662	280.44
281.894	333.44
282.125	358.44
282.356	375.44
282.588	340.44
282.819	329.44
283.051	386.44
283.282	435.44
283.513	518.44
283.745	544.44
283.976	494.44
284.207	501.44
284.439	493.44
284.67	458.44
284.901	457.44
285.132	514.44
285.364	501.44
285.595	505.44
285.826	509.44
286.057	495.44
286.288	520.44
286.52	530.44
286.751	542.44
286.982	480.44
287.213	411.44
287.444	416.44
287.675	451.44
287.906	419.44
288.138	342.44
288.369	301.44
288.6	291.44
288.831	321.44
289.062	367.44
289.293	389.44
289.524	399.44
289.755	411.44
289.986	386.44
290.217	315.44
290.448	261.44
290.679	246.44
290.91	257.44
291.141	259.44
291.371	290.44
291.602	265.44
291.833	285.44
292.064	305.44
292.295	353.44
292.526	376.44
292.757	385.44
292.987	380.44
293.218	369.44
293.449	343.44
293.68	323.44
293.91	287.44
294.141	282.44
294.372	265.44
294.603	257.44
294.833	267.44
295.064	279.44
295.295	286.44
295.525	259.44
295.756	255.44
295.987	239.44
296.217	241.44
296.448	270.44
296.679	266.44
296.909	289.44
297.14	327.44
297.37	341.44
297.601	320.44
297.831	327.44
298.062	329.44
298.292	347.44
298.523	320.44
298.753	366.44
298.984	330.44
299.214	272.44
299.445	233.44
299.675	244.44
299.905	217.44
300.136	237.44
300.366	242.44
300.597	219.44
300.827	218.44
301.057	224.44
301.288	256.44
301.518	291.44
301.748	321.44
301.979	294.44
302.209	267.44
302.439	275.44
302.669	277.44
302.9	283.44
303.13	254.44
303.36	249.44
303.59	249.44
303.82	275.44
304.051	309.44
304.281	325.44
304.511	293.44
304.741	273.44
304.971	291.44
305.201	294.44
305.431	279.44
305.661	245.44
305.891	216.44
306.121	212.44
306.352	200.44
306.582	206.44
306.812	198.44
307.042	192.44
307.272	199.44
307.502	196.44
307.731	209.44
307.961	203.44
308.191	215.44
308.421	205.44
308.651	205.44
308.881	210.44
309.111	232.44
309.341	235.44
309.571	230.44
309.8	220.44
310.03	233.44
310.26	207.44
310.49	231.44
310.72	223.44
310.949	238.44
311.179	259.44
311.409	286.44
311.639	353.44
311.868	423.44
312.098	533.44
312.328	537.44
312.557	518.44
312.787	496.44
313.017	465.44
313.246	519.44
313.476	493.44
313.706	386.44
313.935	333.44
314.165	290.44
314.394	269.44
314.624	293.44
314.853	270.44
315.083	261.44
315.312	252.44
315.542	240.44
315.771	208.44
316.001	200.44
316.23	210.44
316.46	198.44
316.689	197.44
316.919	224.44
317.148	215.44
317.377	216.44
317.607	221.44
317.836	259.44
318.065	266.44
318.295	277.44
318.524	271.44
318.753	226.44
318.983	224.44
319.212	214.44
319.441	241.44
319.67	271.44
319.9	283.44
320.129	248.44
320.358	247.44
320.587	224.44
320.816	262.44
321.046	268.44
321.275	258.44
321.504	249.44
321.733	255.44
321.962	248.44
322.191	224.44
322.42	205.44
322.649	196.44
322.878	204.44
323.108	203.44
323.337	226.44
323.566	239.44
323.795	234.44
324.024	223.44
324.253	190.44
324.482	208.44
324.71	187.44
324.939	190.44
325.168	194.44
325.397	210.44
325.626	201.44
325.855	202.44
326.084	207.44
326.313	191.44
326.542	217.44
326.77	221.44
326.999	201.44
327.228	215.44
327.457	220.44
327.686	193.44
327.914	188.44
328.143	202.44
328.372	198.44
328.6	189.44
328.829	205.44
329.058	195.44
329.287	218.44
329.515	223.44
329.744	216.44
329.972	207.44
330.201	233.44
330.43	226.44
330.658	239.44
330.887	263.44
331.115	250.44
331.344	274.44
331.572	231.44
331.801	233.44
332.03	222.44
332.258	241.44
332.486	245.44
332.715	241.44
332.943	237.44
333.172	243.44
333.4	263.44
333.629	319.44
333.857	311.44
334.085	288.44
334.314	292.44
334.542	289.44
334.771	265.44
334.999	255.44
335.227	247.44
335.455	275.44
335.684	309.44
335.912	369.44
336.14	358.44
336.369	345.44
336.597	345.44
336.825	379.44
337.053	354.44
337.281	275.44
337.51	264.44
337.738	267.44
337.966	280.44
338.194	274.44
338.422	238.44
338.65	219.44
338.878	236.44
339.106	235.44
339.334	250.44
339.562	258.44
339.79	240.44
340.018	249.44
340.246	273.44
340.474	302.44
340.702	323.44
340.93	331.44
341.158	266.44
341.386	210.44
341.614	226.44
341.842	257.44
342.07	297.44
342.298	333.44
342.526	299.44
342.754	231.44
342.981	235.44
343.209	246.44
343.437	261.44
343.665	242.44
343.893	216.44
344.12	203.44
344.348	213.44
344.576	189.44
344.804	207.44
345.031	194.44
345.259	207.44
345.487	214.44
345.714	206.44
345.942	194.44
346.17	191.44
346.397	187.44
346.625	184.44
346.853	188.44
347.08	188.44
347.308	200.44
347.535	197.44
347.763	191.44
347.99	195.44
348.218	197.44
348.445	205.44
348.673	168.44
348.9	182.44
349.128	176.44
349.355	178.44
349.583	179.44
349.81	187.44
350.037	181.44
350.265	182.44
350.492	173.44
350.72	189.44
350.947	188.44
351.174	181.44
351.402	201.44
351.629	190.44
351.856	179.44
352.083	189.44
352.311	168.44
352.538	172.44
352.765	168.44
352.992	184.44
353.22	184.44
353.447	178.44
353.674	181.44
353.901	193.44
354.128	178.44
354.355	182.44
354.583	177.44
354.81	202.44
355.037	195.44
355.264	195.44
355.491	193.44
355.718	195.44
355.945	182.44
356.172	212.44
356.399	178.44
356.626	199.44
356.853	203.44
357.08	232.44
357.307	221.44
357.534	263.44
357.761	301.44
357.988	344.44
358.215	297.44
358.441	262.44
358.668	244.44
358.895	248.44
359.122	244.44
359.349	298.44
359.576	300.44
359.802	226.44
360.029	221.44
360.256	237.44
360.483	270.44
360.709	281.44
360.936	226.44
361.163	214.44
361.39	182.44
361.616	193.44
361.843	181.44
362.07	189.44
362.296	183.44
362.523	195.44
362.749	180.44
362.976	193.44
363.203	226.44
363.429	197.44
363.656	193.44
363.882	221.44
364.109	226.44
364.335	216.44
364.562	193.44
364.788	201.44
365.015	204.44
365.241	199.44
365.468	189.44
365.694	193.44
365.92	188.44
366.147	198.44
366.373	205.44
366.599	208.44
366.826	210.44
367.052	188.44
367.278	187.44
367.505	209.44
367.731	210.44
367.957	231.44
368.184	195.44
368.41	197.44
368.636	208.44
368.862	199.44
369.089	173.44
369.315	202.44
369.541	193.44
369.767	184.44
369.993	195.44
370.219	194.44
370.445	175.44
370.672	183.44
370.898	185.44
371.124	212.44
371.35	219.44
371.576	199.44
371.802	172.44
372.028	195.44
372.254	173.44
372.48	180.44
372.706	185.44
372.932	189.44
373.158	180.44
373.384	191.44
373.61	187.44
373.835	195.44
374.061	202.44
374.287	213.44
374.513	225.44
374.739	208.44
374.965	210.44
375.191	202.44
375.416	189.44
375.642	193.44
375.868	221.44
376.094	184.44
376.319	181.44
376.545	205.44
376.771	192.44
376.997	174.44
377.222	185.44
377.448	193.44
377.674	183.44
377.899	178.44
378.125	181.44
378.35	178.44
378.576	197.44
378.802	192.44
379.027	194.44
379.253	202.44
379.478	195.44
379.704	207.44
379.929	195.44
380.155	198.44
380.38	179.44
380.606	194.44
380.831	198.44
381.057	203.44
381.282	188.44
381.507	211.44
381.733	215.44
381.958	209.44
382.184	203.44
382.409	206.44
382.634	213.44
382.86	207.44
383.085	211.44
383.31	223.44
383.535	197.44
383.761	198.44
383.986	217.44
384.211	209.44
384.436	209.44
384.662	208.44
384.887	224.44
385.112	215.44
385.337	224.44
385.562	213.44
385.787	234.44
386.013	226.44
386.238	223.44
386.463	220.44
386.688	236.44
386.913	202.44
387.138	212.44
387.363	211.44
387.588	208.44
387.813	203.44
388.038	215.44
388.263	205.44
388.488	226.44
388.713	214.44
388.938	205.44
389.163	201.44
389.387	203.44
389.612	208.44
389.837	199.44
390.062	206.44
390.287	207.44
390.512	220.44
390.736	215.44
390.961	216.44
391.186	208.44
391.411	216.44
391.636	218.44
391.86	224.44
392.085	229.44
392.31	217.44
392.534	216.44
392.759	203.44
392.984	210.44
393.208	204.44
393.433	231.44
393.658	199.44
393.882	203.44
394.107	205.44
394.331	219.44
394.556	200.44
394.78	196.44
395.005	203.44
395.229	229.44
395.454	202.44
395.678	228.44
395.903	200.44
396.127	223.44
396.352	233.44
396.576	253.44
396.801	239.44
397.025	249.44
397.249	236.44
397.474	242.44
397.698	241.44
397.922	242.44
398.147	234.44
398.371	269.44
398.595	251.44
398.82	249.44
399.044	261.44
399.268	282.44
399.492	257.44
399.717	255.44
399.941	257.44
400.165	234.44
400.389	250.44
400.613	221.44
400.837	219.44
401.062	223.44
401.286	234.44
401.51	235.44
401.734	222.44
401.958	209.44
402.182	222.44
402.406	232.44
402.63	231.44
402.854	222.44
403.078	240.44
403.302	231.44
403.526	219.44
403.75	203.44
403.974	229.44
404.198	210.44
404.422	230.44
404.645	235.44
404.869	233.44
405.093	241.44
405.317	219.44
405.541	239.44
405.765	242.44
405.988	225.44
406.212	208.44
406.436	215.44
406.66	226.44
406.883	221.44
407.107	233.44
407.331	216.44
407.555	247.44
407.778	239.44
408.002	233.44
408.226	237.44
408.449	257.44
408.673	239.44
408.896	221.44
409.12	210.44
409.344	221.44
409.567	229.44
409.791	217.44
410.014	221.44
410.238	229.44
410.461	220.44
410.685	220.44
410.908	213.44
411.132	239.44
411.355	239.44
411.578	221.44
411.802	224.44
412.025	225.44
412.249	235.44
412.472	231.44
412.695	229.44
412.919	228.44
413.142	223.44
413.365	217.44
413.589	218.44
413.812	229.44
414.035	215.44
414.258	237.44
414.482	226.44
414.705	215.44
414.928	203.44
415.151	226.44
415.374	207.44
415.597	219.44
415.821	222.44
416.044	210.44
416.267	211.44
416.49	226.44
416.713	209.44
416.936	225.44
417.159	224.44
417.382	217.44
417.605	205.44
417.828	202.44
418.051	227.44
418.274	225.44
418.497	218.44
418.72	208.44
418.943	219.44
419.166	235.44
419.389	237.44
419.611	239.44
419.834	236.44
420.057	233.44
420.28	201.44
420.503	227.44
420.726	218.44
420.948	216.44
421.171	205.44
421.394	239.44
421.617	209.44
421.839	213.44
422.062	226.44
422.285	225.44
422.507	213.44
422.73	229.44
422.953	214.44
423.175	222.44
423.398	239.44
423.621	210.44
423.843	220.44
424.066	231.44
424.288	218.44
424.511	226.44
424.733	211.44
424.956	226.44
425.178	257.44
425.401	319.44
425.623	375.44
425.846	273.44
426.068	245.44
426.291	232.44
426.513	238.44
426.735	231.44
426.958	250.44
427.18	251.44
427.402	314.44
427.625	335.44
427.847	284.44
428.069	235.44
428.292	224.44
428.514	238.44
428.736	263.44
428.958	296.44
429.181	307.44
429.403	222.44
429.625	221.44
429.847	208.44
430.069	234.44
430.292	211.44
430.514	218.44
430.736	218.44
430.958	205.44
431.18	214.44
431.402	209.44
431.624	203.44
431.846	212.44
432.068	187.44
432.29	208.44
432.512	203.44
432.734	222.44
432.956	215.44
433.178	214.44
433.4	215.44
433.622	216.44
433.844	266.44
434.066	265.44
434.287	262.44
434.509	265.44
434.731	249.44
434.953	222.44
435.175	265.44
435.397	264.44
435.618	226.44
435.84	220.44
436.062	215.44
436.284	227.44
436.505	205.44
436.727	220.44
436.949	213.44
437.17	213.44
437.392	219.44
437.614	211.44
437.835	205.44
438.057	196.44
438.278	209.44
438.5	224.44
438.721	203.44
438.943	204.44
439.165	196.44
439.386	187.44
439.608	217.44
439.829	204.44
440.05	202.44
440.272	183.44
440.493	207.44
440.715	212.44
440.936	204.44
441.158	196.44
441.379	205.44
441.6	214.44
441.822	205.44
442.043	203.44
442.264	195.44
442.486	216.44
442.707	241.44
442.928	201.44
443.149	217.44
443.371	224.44
443.592	202.44
443.813	227.44
444.034	206.44
444.255	218.44
444.476	210.44
444.698	238.44
444.919	227.44
445.14	304.44
445.361	243.44
445.582	216.44
445.803	200.44
446.024	218.44
446.245	229.44
446.466	209.44
446.687	202.44
446.908	210.44
447.129	200.44
447.35	192.44
447.571	207.44
447.792	201.44
448.013	186.44
448.234	199.44
448.455	205.44
448.675	207.44
448.896	216.44
449.117	215.44
449.338	212.44
449.559	213.44
449.779	225.44
450	222.44
450.221	215.44
450.442	201.44
450.662	207.44
450.883	193.44
451.104	204.44
451.324	225.44
451.545	216.44
451.766	215.44
451.986	197.44
452.207	200.44
452.428	197.44
452.648	220.44
452.869	213.44
453.089	205.44
453.31	221.44
453.53	200.44
453.751	195.44
453.971	222.44
454.192	225.44
454.412	210.44
454.633	221.44
454.853	218.44
455.073	191.44
455.294	205.44
455.514	187.44
455.734	201.44
455.955	225.44
456.175	215.44
456.395	189.44
456.616	206.44
456.836	202.44
457.056	193.44
457.276	185.44
457.497	193.44
457.717	202.44
457.937	196.44
458.157	184.44
458.377	198.44
458.598	204.44
458.818	209.44
459.038	229.44
459.258	208.44
459.478	210.44
459.698	205.44
459.918	234.44
460.138	231.44
460.358	216.44
460.578	205.44
460.798	227.44
461.018	219.44
461.238	220.44
461.458	241.44
461.678	258.44
461.898	273.44
462.118	248.44
462.338	251.44
462.558	252.44
462.777	239.44
462.997	243.44
463.217	256.44
463.437	238.44
463.657	241.44
463.876	234.44
464.096	223.44
464.316	247.44
464.536	274.44
464.755	275.44
464.975	272.44
465.195	250.44
465.414	257.44
465.634	224.44
465.854	223.44
466.073	209.44
466.293	217.44
466.512	222.44
466.732	229.44
466.951	218.44
467.171	223.44
467.391	203.44
467.61	196.44
467.829	201.44
468.049	209.44
468.268	190.44
468.488	186.44
468.707	194.44
468.927	200.44
469.146	216.44
469.365	216.44
469.585	210.44
469.804	198.44
470.023	205.44
470.243	210.44
470.462	217.44
470.681	189.44
470.901	203.44
471.12	208.44
471.339	196.44
471.558	201.44
471.777	209.44
471.997	234.44
472.216	192.44
472.435	197.44
472.654	191.44
472.873	213.44
473.092	206.44
473.311	209.44
473.53	197.44
473.749	210.44
473.968	218.44
474.187	179.44
474.406	196.44
474.625	191.44
474.844	192.44
475.063	201.44
475.282	218.44
475.501	216.44
475.72	242.44
475.939	226.44
476.158	217.44
476.377	214.44
476.596	215.44
476.814	215.44
477.033	205.44
477.252	200.44
477.471	209.44
477.69	221.44
477.908	203.44
478.127	221.44
478.346	233.44
478.564	219.44
478.783	233.44
479.002	227.44
479.22	240.44
479.439	239.44
479.658	232.44
479.876	242.44
480.095	229.44
480.313	246.44
480.532	223.44
480.751	230.44
480.969	224.44
481.188	223.44
481.406	226.44
481.624	233.44
481.843	232.44
482.061	214.44
482.28	233.44
482.498	237.44
482.717	253.44
482.935	234.44
483.153	217.44
483.372	231.44
483.59	238.44
483.808	226.44
484.027	219.44
484.245	199.44
484.463	229.44
484.681	241.44
484.9	240.44
485.118	237.44
485.336	224.44
485.554	219.44
485.772	230.44
485.99	214.44
486.209	235.44
486.427	253.44
486.645	235.44
486.863	247.44
487.081	246.44
487.299	253.44
487.517	256.44
487.735	269.44
487.953	241.44
488.171	238.44
488.389	249.44
488.607	239.44
488.825	253.44
489.043	247.44
489.261	247.44
489.479	227.44
489.696	235.44
489.914	241.44
490.132	238.44
490.35	237.44
490.568	245.44
490.786	232.44
491.003	224.44
491.221	239.44
491.439	241.44
491.657	253.44
491.874	223.44
492.092	245.44
492.31	272.44
492.527	270.44
492.745	251.44
492.963	243.44
493.18	232.44
493.398	230.44
493.615	257.44
493.833	246.44
494.05	237.44
494.268	241.44
494.485	248.44
494.703	242.44
494.92	243.44
495.138	252.44
495.355	246.44
495.573	257.44
495.79	264.44
496.008	248.44
496.225	254.44
496.442	257.44
496.66	257.44
496.877	259.44
497.094	248.44
497.312	263.44
497.529	280.44
497.746	260.44
497.963	271.44
498.181	278.44
498.398	287.44
498.615	288.44
498.832	287.44
499.049	294.44
499.267	311.44
499.484	328.44
499.701	345.44
499.918	342.44
500.135	361.44
500.352	361.44
500.569	369.44
500.786	391.44
501.003	361.44
501.22	352.44
501.437	333.44
501.654	339.44
501.871	309.44
502.088	299.44
502.305	306.44
502.522	301.44
502.739	278.44
502.956	293.44
503.172	288.44
503.389	279.44
503.606	260.44
