Data from StA_HRD10591_080.txt Node
Date: Fri May 16 15:19:23 EDT 2025
User: Yrep
Spectrometer: HR+D1059
Trigger mode: 1
Integration Time (sec): 1.000000E-1
Scans to average: 1
Electric dark correction enabled: true
Nonlinearity correction enabled: false
Boxcar width: 0
XAxis mode: Wavelengths
Number of Pixels in Spectrum: 2048
>>>>>Begin Spectral Data<<<<<
223.165	-27.5
223.4	-27.5
223.635	-27.5
223.869	-15.5
224.104	-13.5
224.338	-21.5
224.573	-30.5
224.808	-6.5
225.042	-12.5
225.277	-9.5
225.511	-11.5
225.746	5.5
225.98	11.5
226.215	19.5
226.449	17.5
226.683	25.5
226.918	34.5
227.152	34.5
227.387	34.5
227.621	32.5
227.856	41.5
228.09	36.5
228.324	41.5
228.559	49.5
228.793	32.5
229.027	42.5
229.262	67.5
229.496	67.5
229.73	75.5
229.964	71.5
230.199	64.5
230.433	68.5
230.667	75.5
230.901	69.5
231.136	72.5
231.37	84.5
231.604	81.5
231.838	79.5
232.072	77.5
232.306	82.5
232.541	75.5
232.775	74.5
233.009	81.5
233.243	77.5
233.477	61.5
233.711	70.5
233.945	68.5
234.179	67.5
234.413	82.5
234.647	78.5
234.881	72.5
235.115	79.5
235.349	77.5
235.583	60.5
235.817	66.5
236.051	83.5
236.285	70.5
236.519	78.5
236.753	74.5
236.987	74.5
237.221	79.5
237.455	61.5
237.689	74.5
237.922	64.5
238.156	81.5
238.39	71.5
238.624	53.5
238.858	81.5
239.091	78.5
239.325	73.5
239.559	64.5
239.793	79.5
240.027	70.5
240.26	79.5
240.494	66.5
240.728	62.5
240.961	77.5
241.195	78.5
241.429	69.5
241.662	64.5
241.896	65.5
242.13	68.5
242.363	77.5
242.597	52.5
242.83	76.5
243.064	82.5
243.298	72.5
243.531	71.5
243.765	54.5
243.998	65.5
244.232	74.5
244.465	87.5
244.699	74.5
244.932	70.5
245.166	70.5
245.399	87.5
245.633	64.5
245.866	72.5
246.099	71.5
246.333	74.5
246.566	95.5
246.8	84.5
247.033	91.5
247.266	70.5
247.5	89.5
247.733	59.5
247.966	76.5
248.2	76.5
248.433	68.5
248.666	72.5
248.899	68.5
249.133	74.5
249.366	75.5
249.599	69.5
249.832	80.5
250.066	81.5
250.299	67.5
250.532	74.5
250.765	76.5
250.998	67.5
251.231	78.5
251.465	65.5
251.698	78.5
251.931	68.5
252.164	71.5
252.397	75.5
252.63	75.5
252.863	73.5
253.096	69.5
253.329	87.5
253.562	60.5
253.795	75.5
254.028	82.5
254.261	75.5
254.494	72.5
254.727	68.5
254.96	80.5
255.193	84.5
255.426	65.5
255.659	77.5
255.892	81.5
256.124	49.5
256.357	76.5
256.59	80.5
256.823	85.5
257.056	56.5
257.289	85.5
257.521	65.5
257.754	75.5
257.987	71.5
258.22	62.5
258.452	86.5
258.685	66.5
258.918	64.5
259.151	84.5
259.383	69.5
259.616	62.5
259.849	70.5
260.081	73.5
260.314	74.5
260.547	84.5
260.779	70.5
261.012	80.5
261.244	66.5
261.477	71.5
261.71	66.5
261.942	77.5
262.175	73.5
262.407	72.5
262.64	71.5
262.872	78.5
263.105	75.5
263.337	74.5
263.57	97.5
263.802	69.5
264.035	86.5
264.267	74.5
264.499	74.5
264.732	66.5
264.964	72.5
265.197	76.5
265.429	86.5
265.661	85.5
265.894	73.5
266.126	72.5
266.358	84.5
266.591	68.5
266.823	87.5
267.055	74.5
267.287	75.5
267.52	76.5
267.752	83.5
267.984	77.5
268.216	73.5
268.448	85.5
268.681	80.5
268.913	79.5
269.145	74.5
269.377	78.5
269.609	63.5
269.841	83.5
270.073	70.5
270.306	79.5
270.538	74.5
270.77	73.5
271.002	76.5
271.234	64.5
271.466	80.5
271.698	75.5
271.93	90.5
272.162	88.5
272.394	74.5
272.626	78.5
272.858	81.5
273.09	84.5
273.322	86.5
273.553	73.5
273.785	90.5
274.017	67.5
274.249	82.5
274.481	79.5
274.713	69.5
274.945	60.5
275.176	82.5
275.408	86.5
275.64	96.5
275.872	66.5
276.104	98.5
276.335	84.5
276.567	82.5
276.799	75.5
277.031	80.5
277.262	96.5
277.494	87.5
277.726	79.5
277.957	86.5
278.189	84.5
278.421	88.5
278.652	71.5
278.884	69.5
279.115	57.5
279.347	90.5
279.579	70.5
279.81	79.5
280.042	73.5
280.273	76.5
280.505	90.5
280.736	94.5
280.968	88.5
281.199	91.5
281.431	83.5
281.662	88.5
281.894	75.5
282.125	73.5
282.356	81.5
282.588	74.5
282.819	83.5
283.051	79.5
283.282	82.5
283.513	82.5
283.745	78.5
283.976	68.5
284.207	88.5
284.439	81.5
284.67	89.5
284.901	79.5
285.132	83.5
285.364	77.5
285.595	80.5
285.826	73.5
286.057	80.5
286.288	91.5
286.52	76.5
286.751	94.5
286.982	90.5
287.213	79.5
287.444	80.5
287.675	87.5
287.906	95.5
288.138	78.5
288.369	90.5
288.6	80.5
288.831	82.5
289.062	75.5
289.293	82.5
289.524	75.5
289.755	76.5
289.986	82.5
290.217	71.5
290.448	88.5
290.679	89.5
290.91	88.5
291.141	88.5
291.371	82.5
291.602	73.5
291.833	78.5
292.064	90.5
292.295	73.5
292.526	78.5
292.757	99.5
292.987	82.5
293.218	78.5
293.449	69.5
293.68	74.5
293.91	85.5
294.141	82.5
294.372	82.5
294.603	95.5
294.833	75.5
295.064	70.5
295.295	68.5
295.525	75.5
295.756	85.5
295.987	73.5
296.217	74.5
296.448	69.5
296.679	64.5
296.909	85.5
297.14	70.5
297.37	72.5
297.601	87.5
297.831	82.5
298.062	86.5
298.292	81.5
298.523	99.5
298.753	79.5
298.984	91.5
299.214	103.5
299.445	81.5
299.675	76.5
299.905	82.5
300.136	85.5
300.366	87.5
300.597	85.5
300.827	80.5
301.057	75.5
301.288	87.5
301.518	75.5
301.748	104.5
301.979	110.5
302.209	90.5
302.439	80.5
302.669	84.5
302.9	84.5
303.13	71.5
303.36	81.5
303.59	74.5
303.82	81.5
304.051	79.5
304.281	89.5
304.511	83.5
304.741	71.5
304.971	78.5
305.201	82.5
305.431	91.5
305.661	76.5
305.891	62.5
306.121	80.5
306.352	79.5
306.582	85.5
306.812	84.5
307.042	81.5
307.272	71.5
307.502	79.5
307.731	67.5
307.961	82.5
308.191	86.5
308.421	79.5
308.651	88.5
308.881	78.5
309.111	77.5
309.341	82.5
309.571	75.5
309.8	75.5
310.03	69.5
310.26	87.5
310.49	80.5
310.72	75.5
310.949	79.5
311.179	66.5
311.409	76.5
311.639	76.5
311.868	80.5
312.098	76.5
312.328	85.5
312.557	94.5
312.787	89.5
313.017	82.5
313.246	102.5
313.476	84.5
313.706	72.5
313.935	74.5
314.165	78.5
314.394	76.5
314.624	80.5
314.853	79.5
315.083	83.5
315.312	76.5
315.542	70.5
315.771	77.5
316.001	82.5
316.23	79.5
316.46	87.5
316.689	84.5
316.919	73.5
317.148	84.5
317.377	89.5
317.607	63.5
317.836	78.5
318.065	70.5
318.295	72.5
318.524	71.5
318.753	79.5
318.983	82.5
319.212	85.5
319.441	72.5
319.67	80.5
319.9	72.5
320.129	80.5
320.358	83.5
320.587	75.5
320.816	79.5
321.046	81.5
321.275	95.5
321.504	76.5
321.733	71.5
321.962	66.5
322.191	70.5
322.42	90.5
322.649	74.5
322.878	64.5
323.108	74.5
323.337	90.5
323.566	88.5
323.795	86.5
324.024	84.5
324.253	91.5
324.482	72.5
324.71	81.5
324.939	74.5
325.168	83.5
325.397	79.5
325.626	78.5
325.855	75.5
326.084	89.5
326.313	91.5
326.542	78.5
326.77	80.5
326.999	92.5
327.228	66.5
327.457	78.5
327.686	85.5
327.914	71.5
328.143	78.5
328.372	76.5
328.6	62.5
328.829	77.5
329.058	85.5
329.287	77.5
329.515	78.5
329.744	75.5
329.972	75.5
330.201	82.5
330.43	78.5
330.658	83.5
330.887	87.5
331.115	82.5
331.344	82.5
331.572	81.5
331.801	89.5
332.03	82.5
332.258	78.5
332.486	70.5
332.715	90.5
332.943	83.5
333.172	82.5
333.4	74.5
333.629	75.5
333.857	79.5
334.085	73.5
334.314	76.5
334.542	86.5
334.771	86.5
334.999	86.5
335.227	93.5
335.455	74.5
335.684	72.5
335.912	78.5
336.14	74.5
336.369	70.5
336.597	87.5
336.825	78.5
337.053	77.5
337.281	76.5
337.51	71.5
337.738	98.5
337.966	81.5
338.194	56.5
338.422	72.5
338.65	82.5
338.878	93.5
339.106	85.5
339.334	90.5
339.562	90.5
339.79	82.5
340.018	83.5
340.246	71.5
340.474	87.5
340.702	87.5
340.93	89.5
341.158	79.5
341.386	76.5
341.614	71.5
341.842	96.5
342.07	73.5
342.298	86.5
342.526	75.5
342.754	70.5
342.981	78.5
343.209	91.5
343.437	85.5
343.665	70.5
343.893	64.5
344.12	77.5
344.348	76.5
344.576	80.5
344.804	88.5
345.031	71.5
345.259	75.5
345.487	86.5
345.714	89.5
345.942	84.5
346.17	75.5
346.397	69.5
346.625	90.5
346.853	87.5
347.08	81.5
347.308	91.5
347.535	78.5
347.763	82.5
347.99	70.5
348.218	85.5
348.445	69.5
348.673	84.5
348.9	90.5
349.128	67.5
349.355	88.5
349.583	83.5
349.81	86.5
350.037	73.5
350.265	75.5
350.492	93.5
350.72	74.5
350.947	83.5
351.174	71.5
351.402	68.5
351.629	88.5
351.856	81.5
352.083	62.5
352.311	74.5
352.538	72.5
352.765	71.5
352.992	81.5
353.22	85.5
353.447	87.5
353.674	77.5
353.901	87.5
354.128	84.5
354.355	84.5
354.583	88.5
354.81	86.5
355.037	87.5
355.264	88.5
355.491	82.5
355.718	82.5
355.945	74.5
356.172	77.5
356.399	96.5
356.626	79.5
356.853	75.5
357.08	83.5
357.307	85.5
357.534	95.5
357.761	120.5
357.988	116.5
358.215	97.5
358.441	80.5
358.668	77.5
358.895	83.5
359.122	80.5
359.349	97.5
359.576	91.5
359.802	91.5
360.029	90.5
360.256	102.5
360.483	104.5
360.709	110.5
360.936	92.5
361.163	88.5
361.39	94.5
361.616	74.5
361.843	86.5
362.07	81.5
362.296	80.5
362.523	74.5
362.749	80.5
362.976	65.5
363.203	86.5
363.429	90.5
363.656	98.5
363.882	98.5
364.109	91.5
364.335	90.5
364.562	78.5
364.788	71.5
365.015	82.5
365.241	88.5
365.468	98.5
365.694	89.5
365.92	94.5
366.147	78.5
366.373	81.5
366.599	69.5
366.826	77.5
367.052	74.5
367.278	80.5
367.505	88.5
367.731	89.5
367.957	95.5
368.184	72.5
368.41	72.5
368.636	83.5
368.862	76.5
369.089	81.5
369.315	71.5
369.541	100.5
369.767	86.5
369.993	74.5
370.219	70.5
370.445	74.5
370.672	79.5
370.898	72.5
371.124	89.5
371.35	83.5
371.576	91.5
371.802	66.5
372.028	79.5
372.254	85.5
372.48	81.5
372.706	83.5
372.932	79.5
373.158	77.5
373.384	93.5
373.61	91.5
373.835	53.5
374.061	87.5
374.287	81.5
374.513	86.5
374.739	78.5
374.965	82.5
375.191	75.5
375.416	75.5
375.642	86.5
375.868	84.5
376.094	86.5
376.319	76.5
376.545	78.5
376.771	73.5
376.997	67.5
377.222	86.5
377.448	72.5
377.674	89.5
377.899	88.5
378.125	84.5
378.35	70.5
378.576	71.5
378.802	82.5
379.027	82.5
379.253	75.5
379.478	79.5
379.704	77.5
379.929	82.5
380.155	79.5
380.38	86.5
380.606	68.5
380.831	81.5
381.057	83.5
381.282	84.5
381.507	89.5
381.733	74.5
381.958	87.5
382.184	94.5
382.409	88.5
382.634	87.5
382.86	61.5
383.085	88.5
383.31	80.5
383.535	79.5
383.761	98.5
383.986	78.5
384.211	75.5
384.436	83.5
384.662	83.5
384.887	83.5
385.112	88.5
385.337	81.5
385.562	83.5
385.787	95.5
386.013	79.5
386.238	66.5
386.463	74.5
386.688	96.5
386.913	68.5
387.138	97.5
387.363	96.5
387.588	79.5
387.813	87.5
388.038	81.5
388.263	78.5
388.488	91.5
388.713	84.5
388.938	85.5
389.163	78.5
389.387	81.5
389.612	78.5
389.837	78.5
390.062	60.5
390.287	68.5
390.512	94.5
390.736	82.5
390.961	82.5
391.186	84.5
391.411	76.5
391.636	88.5
391.86	76.5
392.085	86.5
392.31	91.5
392.534	70.5
392.759	78.5
392.984	88.5
393.208	72.5
393.433	72.5
393.658	75.5
393.882	71.5
394.107	83.5
394.331	70.5
394.556	88.5
394.78	73.5
395.005	74.5
395.229	76.5
395.454	77.5
395.678	73.5
395.903	84.5
396.127	80.5
396.352	89.5
396.576	82.5
396.801	95.5
397.025	80.5
397.249	95.5
397.474	83.5
397.698	89.5
397.922	87.5
398.147	83.5
398.371	76.5
398.595	80.5
398.82	73.5
399.044	83.5
399.268	89.5
399.492	86.5
399.717	69.5
399.941	78.5
400.165	67.5
400.389	83.5
400.613	79.5
400.837	73.5
401.062	78.5
401.286	89.5
401.51	88.5
401.734	81.5
401.958	86.5
402.182	69.5
402.406	73.5
402.63	84.5
402.854	62.5
403.078	85.5
403.302	89.5
403.526	79.5
403.75	71.5
403.974	66.5
404.198	73.5
404.422	65.5
404.645	68.5
404.869	71.5
405.093	73.5
405.317	66.5
405.541	81.5
405.765	85.5
405.988	80.5
406.212	62.5
406.436	73.5
406.66	75.5
406.883	86.5
407.107	73.5
407.331	86.5
407.555	72.5
407.778	68.5
408.002	75.5
408.226	70.5
408.449	77.5
408.673	74.5
408.896	89.5
409.12	75.5
409.344	81.5
409.567	78.5
409.791	70.5
410.014	80.5
410.238	71.5
410.461	61.5
410.685	68.5
410.908	66.5
411.132	73.5
411.355	76.5
411.578	84.5
411.802	85.5
412.025	66.5
412.249	72.5
412.472	78.5
412.695	86.5
412.919	79.5
413.142	94.5
413.365	83.5
413.589	84.5
413.812	75.5
414.035	73.5
414.258	74.5
414.482	61.5
414.705	73.5
414.928	74.5
415.151	73.5
415.374	83.5
415.597	68.5
415.821	87.5
416.044	76.5
416.267	80.5
416.49	89.5
416.713	81.5
416.936	75.5
417.159	78.5
417.382	70.5
417.605	77.5
417.828	95.5
418.051	72.5
418.274	81.5
418.497	59.5
418.72	71.5
418.943	75.5
419.166	74.5
419.389	80.5
419.611	90.5
419.834	68.5
420.057	82.5
420.28	83.5
420.503	81.5
420.726	90.5
420.948	80.5
421.171	78.5
421.394	84.5
421.617	78.5
421.839	80.5
422.062	74.5
422.285	75.5
422.507	58.5
422.73	74.5
422.953	77.5
423.175	91.5
423.398	74.5
423.621	89.5
423.843	75.5
424.066	81.5
424.288	81.5
424.511	88.5
424.733	74.5
424.956	78.5
425.178	82.5
425.401	123.5
425.623	143.5
425.846	94.5
426.068	74.5
426.291	77.5
426.513	82.5
426.735	90.5
426.958	82.5
427.18	90.5
427.402	119.5
427.625	134.5
427.847	81.5
428.069	79.5
428.292	78.5
428.514	58.5
428.736	92.5
428.958	117.5
429.181	120.5
429.403	81.5
429.625	79.5
429.847	87.5
430.069	79.5
430.292	95.5
430.514	77.5
430.736	72.5
430.958	89.5
431.18	86.5
431.402	80.5
431.624	74.5
431.846	83.5
432.068	67.5
432.29	67.5
432.512	69.5
432.734	66.5
432.956	77.5
433.178	71.5
433.4	78.5
433.622	89.5
433.844	108.5
434.066	100.5
434.287	91.5
434.509	96.5
434.731	90.5
434.953	90.5
435.175	99.5
435.397	109.5
435.618	87.5
435.84	81.5
436.062	80.5
436.284	90.5
436.505	70.5
436.727	80.5
436.949	75.5
437.17	72.5
437.392	83.5
437.614	78.5
437.835	75.5
438.057	74.5
438.278	78.5
438.5	91.5
438.721	82.5
438.943	84.5
439.165	80.5
439.386	84.5
439.608	81.5
439.829	81.5
440.05	71.5
440.272	80.5
440.493	84.5
440.715	94.5
440.936	72.5
441.158	84.5
441.379	82.5
441.6	74.5
441.822	77.5
442.043	77.5
442.264	82.5
442.486	75.5
442.707	84.5
442.928	75.5
443.149	64.5
443.371	78.5
443.592	79.5
443.813	87.5
444.034	65.5
444.255	78.5
444.476	73.5
444.698	82.5
444.919	76.5
445.14	176.5
445.361	111.5
445.582	76.5
445.803	72.5
446.024	90.5
446.245	75.5
446.466	76.5
446.687	77.5
446.908	87.5
447.129	90.5
447.35	78.5
447.571	78.5
447.792	91.5
448.013	68.5
448.234	67.5
448.455	78.5
448.675	83.5
448.896	64.5
449.117	74.5
449.338	73.5
449.559	71.5
449.779	96.5
450	85.5
450.221	80.5
450.442	72.5
450.662	64.5
450.883	59.5
451.104	78.5
451.324	90.5
451.545	77.5
451.766	75.5
451.986	68.5
452.207	70.5
452.428	88.5
452.648	95.5
452.869	88.5
453.089	86.5
453.31	81.5
453.53	80.5
453.751	94.5
453.971	72.5
454.192	83.5
454.412	91.5
454.633	98.5
454.853	94.5
455.073	77.5
455.294	88.5
455.514	72.5
455.734	70.5
455.955	85.5
456.175	80.5
456.395	87.5
456.616	78.5
456.836	88.5
457.056	87.5
457.276	81.5
457.497	92.5
457.717	86.5
457.937	80.5
458.157	79.5
458.377	68.5
458.598	82.5
458.818	81.5
459.038	74.5
459.258	81.5
459.478	66.5
459.698	71.5
459.918	64.5
460.138	81.5
460.358	88.5
460.578	78.5
460.798	81.5
461.018	86.5
461.238	77.5
461.458	96.5
461.678	98.5
461.898	90.5
462.118	95.5
462.338	85.5
462.558	82.5
462.777	86.5
462.997	99.5
463.217	84.5
463.437	78.5
463.657	85.5
463.876	80.5
464.096	72.5
464.316	74.5
464.536	69.5
464.755	108.5
464.975	96.5
465.195	80.5
465.414	112.5
465.634	76.5
465.854	78.5
466.073	81.5
466.293	80.5
466.512	92.5
466.732	78.5
466.951	93.5
467.171	62.5
467.391	77.5
467.61	78.5
467.829	82.5
468.049	70.5
468.268	81.5
468.488	84.5
468.707	78.5
468.927	71.5
469.146	77.5
469.365	70.5
469.585	77.5
469.804	94.5
470.023	83.5
470.243	87.5
470.462	82.5
470.681	86.5
470.901	82.5
471.12	75.5
471.339	82.5
471.558	89.5
471.777	71.5
471.997	68.5
472.216	81.5
472.435	76.5
472.654	74.5
472.873	85.5
473.092	76.5
473.311	88.5
473.53	84.5
473.749	87.5
473.968	77.5
474.187	78.5
474.406	74.5
474.625	70.5
474.844	86.5
475.063	71.5
475.282	91.5
475.501	79.5
475.72	88.5
475.939	68.5
476.158	89.5
476.377	82.5
476.596	72.5
476.814	81.5
477.033	68.5
477.252	74.5
477.471	81.5
477.69	75.5
477.908	83.5
478.127	87.5
478.346	77.5
478.564	66.5
478.783	71.5
479.002	83.5
479.22	88.5
479.439	88.5
479.658	83.5
479.876	77.5
480.095	82.5
480.313	97.5
480.532	81.5
480.751	84.5
480.969	69.5
481.188	91.5
481.406	85.5
481.624	67.5
481.843	78.5
482.061	74.5
482.28	82.5
482.498	78.5
482.717	70.5
482.935	84.5
483.153	84.5
483.372	72.5
483.59	91.5
483.808	74.5
484.027	80.5
484.245	75.5
484.463	76.5
484.681	83.5
484.9	71.5
485.118	71.5
485.336	80.5
485.554	72.5
485.772	60.5
485.99	80.5
486.209	75.5
486.427	65.5
486.645	82.5
486.863	76.5
487.081	82.5
487.299	84.5
487.517	81.5
487.735	74.5
487.953	81.5
488.171	81.5
488.389	77.5
488.607	82.5
488.825	94.5
489.043	83.5
489.261	78.5
489.479	87.5
489.696	73.5
489.914	73.5
490.132	70.5
490.35	85.5
490.568	80.5
490.786	74.5
491.003	70.5
491.221	81.5
491.439	79.5
491.657	89.5
491.874	70.5
492.092	98.5
492.31	102.5
492.527	92.5
492.745	74.5
492.963	62.5
493.18	83.5
493.398	80.5
493.615	86.5
493.833	88.5
494.05	95.5
494.268	75.5
494.485	78.5
494.703	86.5
494.92	89.5
495.138	80.5
495.355	71.5
495.573	83.5
495.79	96.5
496.008	87.5
496.225	71.5
496.442	72.5
496.66	97.5
496.877	66.5
497.094	81.5
497.312	94.5
497.529	79.5
497.746	86.5
497.963	84.5
498.181	75.5
498.398	83.5
498.615	68.5
498.832	75.5
499.049	82.5
499.267	74.5
499.484	82.5
499.701	77.5
499.918	79.5
500.135	86.5
500.352	72.5
500.569	57.5
500.786	76.5
501.003	89.5
501.22	91.5
501.437	79.5
501.654	77.5
501.871	82.5
502.088	68.5
502.305	74.5
502.522	79.5
502.739	70.5
502.956	70.5
503.172	92.5
503.389	71.5
503.606	75.5
503.823	78.5
504.04	76.5
504.256	78.5
504.473	77.5
504.69	75.5
504.907	71.5
505.123	81.5
505.34	90.5
505.557	82.5
505.773	79.5
505.99	69.5
506.207	87.5
506.423	80.5
506.64	65.5
506.856	64.5
507.073	87.5
507.289	75.5
507.506	75.5
507.722	71.5
507.939	81.5
508.155	83.5
508.372	86.5
508.588	86.5
508.805	77.5
509.021	76.5
509.238	75.5
509.454	79.5
509.67	81.5
509.887	78.5
510.103	80.5
510.319	76.5
510.536	71.5
510.752	73.5
510.968	66.5
511.184	66.5
511.401	86.5
511.617	75.5
511.833	81.5
512.049	75.5
512.265	74.5
512.481	78.5
512.698	95.5
512.914	91.5
513.13	82.5
513.346	79.5
513.562	80.5
513.778	60.5
513.994	84.5
514.21	87.5
514.426	80.5
514.642	89.5
514.858	74.5
515.074	70.5
515.29	86.5
515.506	70.5
515.721	77.5
515.937	78.5
516.153	75.5
516.369	71.5
516.585	79.5
516.801	73.5
517.016	82.5
517.232	77.5
517.448	87.5
517.664	87.5
517.879	84.5
518.095	80.5
518.311	80.5
518.527	68.5
518.742	89.5
518.958	83.5
519.173	80.5
519.389	96.5
519.605	83.5
519.82	84.5
520.036	94.5
520.251	108.5
520.467	182.5
520.682	355.5
520.898	351.5
521.113	271.5
521.329	106.5
521.544	96.5
521.76	86.5
521.975	83.5
522.19	72.5
522.406	79.5
522.621	81.5
522.836	78.5
523.052	67.5
523.267	79.5
523.482	75.5
523.698	84.5
523.913	71.5
524.128	74.5
524.343	74.5
524.559	81.5
524.774	100.5
524.989	98.5
525.204	80.5
525.419	82.5
525.634	76.5
525.849	88.5
526.064	74.5
526.28	95.5
526.495	110.5
526.71	131.5
526.925	97.5
527.14	97.5
527.355	101.5
527.57	101.5
527.785	120.5
527.999	102.5
528.214	81.5
528.429	68.5
528.644	87.5
528.859	90.5
529.074	85.5
529.289	86.5
529.503	74.5
529.718	117.5
529.933	182.5
530.148	131.5
530.363	91.5
530.577	84.5
530.792	82.5
531.007	80.5
531.221	72.5
531.436	82.5
531.651	81.5
531.865	83.5
532.08	78.5
532.295	82.5
532.509	80.5
532.724	82.5
532.938	120.5
533.153	112.5
533.367	83.5
533.582	67.5
533.796	88.5
534.011	74.5
534.225	79.5
534.44	79.5
534.654	131.5
534.868	143.5
535.083	124.5
535.297	70.5
535.511	66.5
535.726	88.5
535.94	78.5
536.154	78.5
536.369	78.5
536.583	74.5
536.797	80.5
537.011	79.5
537.225	77.5
537.44	74.5
537.654	85.5
537.868	87.5
538.082	98.5
538.296	85.5
538.51	88.5
538.724	72.5
538.938	70.5
539.153	83.5
539.367	84.5
539.581	76.5
539.795	77.5
540.009	73.5
