Data from StA_HRD10591_018.txt Node
Date: Fri May 16 15:18:53 EDT 2025
User: Yrep
Spectrometer: HR+D1059
Trigger mode: 1
Integration Time (sec): 1.000000E-1
Scans to average: 1
Electric dark correction enabled: true
Nonlinearity correction enabled: false
Boxcar width: 0
XAxis mode: Wavelengths
Number of Pixels in Spectrum: 2048
>>>>>Begin Spectral Data<<<<<
223.165	-25.88
223.4	-25.88
223.635	-25.88
223.869	-22.88
224.104	-21.88
224.338	-17.88
224.573	-15.88
224.808	-0.88
225.042	8.12
225.277	-5.88
225.511	-2.88
225.746	4.12
225.98	-3.88
226.215	10.12
226.449	4.12
226.683	20.12
226.918	29.12
227.152	42.12
227.387	27.12
227.621	23.12
227.856	31.12
228.09	46.12
228.324	57.12
228.559	49.12
228.793	53.12
229.027	50.12
229.262	76.12
229.496	70.12
229.73	76.12
229.964	80.12
230.199	80.12
230.433	75.12
230.667	73.12
230.901	86.12
231.136	83.12
231.37	86.12
231.604	75.12
231.838	92.12
232.072	101.12
232.306	98.12
232.541	98.12
232.775	90.12
233.009	85.12
233.243	84.12
233.477	96.12
233.711	90.12
233.945	72.12
234.179	84.12
234.413	85.12
234.647	83.12
234.881	88.12
235.115	81.12
235.349	76.12
235.583	81.12
235.817	61.12
236.051	76.12
236.285	80.12
236.519	94.12
236.753	83.12
236.987	85.12
237.221	75.12
237.455	81.12
237.689	86.12
237.922	78.12
238.156	87.12
238.39	76.12
238.624	94.12
238.858	77.12
239.091	82.12
239.325	100.12
239.559	94.12
239.793	86.12
240.027	88.12
240.26	90.12
240.494	73.12
240.728	87.12
240.961	84.12
241.195	92.12
241.429	95.12
241.662	90.12
241.896	84.12
242.13	84.12
242.363	100.12
242.597	74.12
242.83	98.12
243.064	85.12
243.298	100.12
243.531	98.12
243.765	104.12
243.998	90.12
244.232	104.12
244.465	103.12
244.699	100.12
244.932	102.12
245.166	100.12
245.399	92.12
245.633	101.12
245.866	94.12
246.099	91.12
246.333	92.12
246.566	99.12
246.8	87.12
247.033	98.12
247.266	110.12
247.5	106.12
247.733	112.12
247.966	101.12
248.2	118.12
248.433	102.12
248.666	116.12
248.899	127.12
249.133	110.12
249.366	123.12
249.599	114.12
249.832	106.12
250.066	129.12
250.299	114.12
250.532	122.12
250.765	119.12
250.998	118.12
251.231	119.12
251.465	119.12
251.698	130.12
251.931	149.12
252.164	130.12
252.397	146.12
252.63	152.12
252.863	135.12
253.096	132.12
253.329	126.12
253.562	130.12
253.795	132.12
254.028	139.12
254.261	142.12
254.494	122.12
254.727	120.12
254.96	129.12
255.193	130.12
255.426	141.12
255.659	131.12
255.892	144.12
256.124	130.12
256.357	148.12
256.59	162.12
256.823	152.12
257.056	156.12
257.289	150.12
257.521	159.12
257.754	154.12
257.987	143.12
258.22	150.12
258.452	141.12
258.685	147.12
258.918	159.12
259.151	145.12
259.383	156.12
259.616	154.12
259.849	151.12
260.081	149.12
260.314	153.12
260.547	155.12
260.779	161.12
261.012	174.12
261.244	169.12
261.477	160.12
261.71	162.12
261.942	164.12
262.175	163.12
262.407	163.12
262.64	164.12
262.872	166.12
263.105	165.12
263.337	164.12
263.57	164.12
263.802	164.12
264.035	162.12
264.267	163.12
264.499	151.12
264.732	136.12
264.964	143.12
265.197	172.12
265.429	189.12
265.661	212.12
265.894	201.12
266.126	241.12
266.358	262.12
266.591	292.12
266.823	291.12
267.055	268.12
267.287	298.12
267.52	312.12
267.752	311.12
267.984	335.12
268.216	256.12
268.448	210.12
268.681	222.12
268.913	266.12
269.145	283.12
269.377	262.12
269.609	259.12
269.841	284.12
270.073	308.12
270.306	249.12
270.538	239.12
270.77	228.12
271.002	231.12
271.234	234.12
271.466	222.12
271.698	217.12
271.93	229.12
272.162	248.12
272.394	249.12
272.626	242.12
272.858	210.12
273.09	203.12
273.322	168.12
273.553	183.12
273.785	184.12
274.017	212.12
274.249	253.12
274.481	278.12
274.713	307.12
274.945	330.12
275.176	354.12
275.408	358.12
275.64	328.12
275.872	355.12
276.104	400.12
276.335	399.12
276.567	411.12
276.799	390.12
277.031	326.12
277.262	258.12
277.494	249.12
277.726	259.12
277.957	265.12
278.189	303.12
278.421	304.12
278.652	269.12
278.884	280.12
279.115	267.12
279.347	240.12
279.579	244.12
279.81	237.12
280.042	269.12
280.273	259.12
280.505	244.12
280.736	213.12
280.968	243.12
281.199	274.12
281.431	308.12
281.662	283.12
281.894	322.12
282.125	348.12
282.356	368.12
282.588	346.12
282.819	314.12
283.051	388.12
283.282	450.12
283.513	502.12
283.745	544.12
283.976	486.12
284.207	474.12
284.439	475.12
284.67	472.12
284.901	438.12
285.132	498.12
285.364	476.12
285.595	474.12
285.826	475.12
286.057	492.12
286.288	484.12
286.52	502.12
286.751	515.12
286.982	462.12
287.213	414.12
287.444	420.12
287.675	446.12
287.906	409.12
288.138	330.12
288.369	296.12
288.6	292.12
288.831	310.12
289.062	382.12
289.293	408.12
289.524	391.12
289.755	425.12
289.986	388.12
290.217	316.12
290.448	246.12
290.679	254.12
290.91	237.12
291.141	265.12
291.371	267.12
291.602	288.12
291.833	262.12
292.064	286.12
292.295	334.12
292.526	356.12
292.757	358.12
292.987	391.12
293.218	335.12
293.449	333.12
293.68	316.12
293.91	265.12
294.141	286.12
294.372	264.12
294.603	251.12
294.833	249.12
295.064	258.12
295.295	259.12
295.525	239.12
295.756	230.12
295.987	226.12
296.217	217.12
296.448	237.12
296.679	248.12
296.909	278.12
297.14	309.12
297.37	315.12
297.601	307.12
297.831	309.12
298.062	308.12
298.292	339.12
298.523	307.12
298.753	359.12
298.984	328.12
299.214	288.12
299.445	263.12
299.675	233.12
299.905	217.12
300.136	226.12
300.366	211.12
300.597	215.12
300.827	213.12
301.057	206.12
301.288	239.12
301.518	265.12
301.748	280.12
301.979	277.12
302.209	275.12
302.439	268.12
302.669	283.12
302.9	291.12
303.13	264.12
303.36	255.12
303.59	234.12
303.82	272.12
304.051	315.12
304.281	332.12
304.511	290.12
304.741	273.12
304.971	298.12
305.201	299.12
305.431	256.12
305.661	237.12
305.891	207.12
306.121	225.12
306.352	214.12
306.582	188.12
306.812	171.12
307.042	163.12
307.272	185.12
307.502	200.12
307.731	199.12
307.961	195.12
308.191	178.12
308.421	197.12
308.651	176.12
308.881	221.12
309.111	191.12
309.341	238.12
309.571	242.12
309.8	222.12
310.03	183.12
310.26	188.12
310.49	200.12
310.72	214.12
310.949	235.12
311.179	246.12
311.409	289.12
311.639	358.12
311.868	451.12
312.098	522.12
312.328	494.12
312.557	505.12
312.787	474.12
313.017	485.12
313.246	484.12
313.476	487.12
313.706	390.12
313.935	308.12
314.165	245.12
314.394	253.12
314.624	263.12
314.853	287.12
315.083	271.12
315.312	238.12
315.542	216.12
315.771	207.12
316.001	191.12
316.23	202.12
316.46	201.12
316.689	179.12
316.919	198.12
317.148	213.12
317.377	204.12
317.607	216.12
317.836	247.12
318.065	265.12
318.295	276.12
318.524	256.12
318.753	226.12
318.983	202.12
319.212	222.12
319.441	232.12
319.67	260.12
319.9	279.12
320.129	240.12
320.358	230.12
320.587	208.12
320.816	249.12
321.046	253.12
321.275	255.12
321.504	234.12
321.733	232.12
321.962	256.12
322.191	213.12
322.42	194.12
322.649	189.12
322.878	205.12
323.108	198.12
323.337	214.12
323.566	231.12
323.795	214.12
324.024	217.12
324.253	202.12
324.482	180.12
324.71	200.12
324.939	196.12
325.168	191.12
325.397	207.12
325.626	207.12
325.855	193.12
326.084	206.12
326.313	176.12
326.542	185.12
326.77	197.12
326.999	202.12
327.228	207.12
327.457	195.12
327.686	189.12
327.914	196.12
328.143	193.12
328.372	194.12
328.6	187.12
328.829	196.12
329.058	198.12
329.287	228.12
329.515	206.12
329.744	212.12
329.972	202.12
330.201	214.12
330.43	215.12
330.658	228.12
330.887	248.12
331.115	258.12
331.344	256.12
331.572	235.12
331.801	212.12
332.03	214.12
332.258	222.12
332.486	259.12
332.715	226.12
332.943	230.12
333.172	226.12
333.4	240.12
333.629	292.12
333.857	292.12
334.085	290.12
334.314	295.12
334.542	256.12
334.771	265.12
334.999	251.12
335.227	249.12
335.455	257.12
335.684	305.12
335.912	340.12
336.14	317.12
336.369	323.12
336.597	336.12
336.825	363.12
337.053	366.12
337.281	262.12
337.51	241.12
337.738	255.12
337.966	270.12
338.194	275.12
338.422	260.12
338.65	233.12
338.878	215.12
339.106	238.12
339.334	251.12
339.562	268.12
339.79	249.12
340.018	245.12
340.246	256.12
340.474	289.12
340.702	288.12
340.93	310.12
341.158	273.12
341.386	235.12
341.614	215.12
341.842	238.12
342.07	294.12
342.298	326.12
342.526	289.12
342.754	217.12
342.981	235.12
343.209	248.12
343.437	281.12
343.665	253.12
343.893	219.12
344.12	203.12
344.348	185.12
344.576	214.12
344.804	208.12
345.031	194.12
345.259	193.12
345.487	209.12
345.714	204.12
345.942	184.12
346.17	186.12
346.397	184.12
346.625	181.12
346.853	181.12
347.08	197.12
347.308	188.12
347.535	199.12
347.763	195.12
347.99	174.12
348.218	188.12
348.445	183.12
348.673	165.12
348.9	169.12
349.128	168.12
349.355	184.12
349.583	170.12
349.81	161.12
350.037	182.12
350.265	180.12
350.492	174.12
350.72	184.12
350.947	177.12
351.174	174.12
351.402	195.12
351.629	186.12
351.856	166.12
352.083	162.12
352.311	178.12
352.538	133.12
352.765	162.12
352.992	173.12
353.22	179.12
353.447	171.12
353.674	165.12
353.901	165.12
354.128	165.12
354.355	181.12
354.583	177.12
354.81	189.12
355.037	198.12
355.264	186.12
355.491	182.12
355.718	170.12
355.945	194.12
356.172	188.12
356.399	184.12
356.626	190.12
356.853	197.12
357.08	209.12
357.307	218.12
357.534	249.12
357.761	307.12
357.988	320.12
358.215	261.12
358.441	252.12
358.668	226.12
358.895	230.12
359.122	242.12
359.349	295.12
359.576	275.12
359.802	214.12
360.029	204.12
360.256	251.12
360.483	280.12
360.709	290.12
360.936	219.12
361.163	196.12
361.39	183.12
361.616	182.12
361.843	173.12
362.07	178.12
362.296	165.12
362.523	174.12
362.749	175.12
362.976	183.12
363.203	198.12
363.429	204.12
363.656	188.12
363.882	209.12
364.109	212.12
364.335	205.12
364.562	176.12
364.788	202.12
365.015	198.12
365.241	196.12
365.468	203.12
365.694	183.12
365.92	180.12
366.147	180.12
366.373	184.12
366.599	189.12
366.826	177.12
367.052	167.12
367.278	188.12
367.505	175.12
367.731	194.12
367.957	194.12
368.184	204.12
368.41	204.12
368.636	209.12
368.862	184.12
369.089	175.12
369.315	146.12
369.541	182.12
369.767	186.12
369.993	173.12
370.219	164.12
370.445	180.12
370.672	189.12
370.898	172.12
371.124	186.12
371.35	194.12
371.576	195.12
371.802	177.12
372.028	186.12
372.254	179.12
372.48	183.12
372.706	181.12
372.932	186.12
373.158	185.12
373.384	185.12
373.61	182.12
373.835	185.12
374.061	177.12
374.287	195.12
374.513	214.12
374.739	196.12
374.965	197.12
375.191	187.12
375.416	197.12
375.642	183.12
375.868	199.12
376.094	199.12
376.319	175.12
376.545	169.12
376.771	180.12
376.997	180.12
377.222	170.12
377.448	162.12
377.674	159.12
377.899	185.12
378.125	161.12
378.35	179.12
378.576	184.12
378.802	183.12
379.027	186.12
379.253	184.12
379.478	199.12
379.704	202.12
379.929	184.12
380.155	186.12
380.38	194.12
380.606	219.12
380.831	184.12
381.057	188.12
381.282	203.12
381.507	169.12
381.733	194.12
381.958	211.12
382.184	208.12
382.409	198.12
382.634	195.12
382.86	202.12
383.085	206.12
383.31	213.12
383.535	201.12
383.761	195.12
383.986	194.12
384.211	208.12
384.436	216.12
384.662	215.12
384.887	206.12
385.112	241.12
385.337	218.12
385.562	215.12
385.787	235.12
386.013	218.12
386.238	205.12
386.463	209.12
386.688	239.12
386.913	214.12
387.138	198.12
387.363	199.12
387.588	205.12
387.813	211.12
388.038	222.12
388.263	213.12
388.488	229.12
388.713	206.12
388.938	186.12
389.163	197.12
389.387	198.12
389.612	216.12
389.837	210.12
390.062	196.12
390.287	203.12
390.512	219.12
390.736	205.12
390.961	208.12
391.186	208.12
391.411	202.12
391.636	222.12
391.86	217.12
392.085	222.12
392.31	172.12
392.534	202.12
392.759	217.12
392.984	195.12
393.208	191.12
393.433	217.12
393.658	190.12
393.882	204.12
394.107	177.12
394.331	195.12
394.556	201.12
394.78	198.12
395.005	201.12
395.229	209.12
395.454	208.12
395.678	194.12
395.903	198.12
396.127	206.12
396.352	234.12
396.576	235.12
396.801	232.12
397.025	262.12
397.249	244.12
397.474	230.12
397.698	235.12
397.922	246.12
398.147	239.12
398.371	214.12
398.595	234.12
398.82	245.12
399.044	243.12
399.268	270.12
399.492	252.12
399.717	237.12
399.941	247.12
400.165	249.12
400.389	222.12
400.613	226.12
400.837	211.12
401.062	210.12
401.286	211.12
401.51	210.12
401.734	199.12
401.958	207.12
402.182	193.12
402.406	216.12
402.63	211.12
402.854	195.12
403.078	204.12
403.302	217.12
403.526	215.12
403.75	227.12
403.974	218.12
404.198	215.12
404.422	195.12
404.645	211.12
404.869	217.12
405.093	218.12
405.317	223.12
405.541	224.12
405.765	223.12
405.988	227.12
406.212	241.12
406.436	200.12
406.66	222.12
406.883	236.12
407.107	232.12
407.331	203.12
407.555	248.12
407.778	228.12
408.002	221.12
408.226	217.12
408.449	217.12
408.673	232.12
408.896	209.12
409.12	211.12
409.344	213.12
409.567	215.12
409.791	224.12
410.014	202.12
410.238	202.12
410.461	223.12
410.685	206.12
410.908	218.12
411.132	214.12
411.355	224.12
411.578	222.12
411.802	230.12
412.025	227.12
412.249	209.12
412.472	228.12
412.695	241.12
412.919	236.12
413.142	205.12
413.365	215.12
413.589	213.12
413.812	222.12
414.035	218.12
414.258	210.12
414.482	204.12
414.705	210.12
414.928	210.12
415.151	198.12
415.374	228.12
415.597	200.12
415.821	200.12
416.044	201.12
416.267	223.12
416.49	210.12
416.713	208.12
416.936	198.12
417.159	222.12
417.382	209.12
417.605	214.12
417.828	211.12
418.051	205.12
418.274	206.12
418.497	210.12
418.72	215.12
418.943	213.12
419.166	225.12
419.389	230.12
419.611	223.12
419.834	214.12
420.057	215.12
420.28	210.12
420.503	212.12
420.726	202.12
420.948	210.12
421.171	202.12
421.394	207.12
421.617	208.12
421.839	215.12
422.062	208.12
422.285	211.12
422.507	216.12
422.73	205.12
422.953	214.12
423.175	197.12
423.398	196.12
423.621	207.12
423.843	218.12
424.066	219.12
424.288	214.12
424.511	221.12
424.733	192.12
424.956	206.12
425.178	222.12
425.401	315.12
425.623	356.12
425.846	260.12
426.068	230.12
426.291	238.12
426.513	233.12
426.735	224.12
426.958	238.12
427.18	242.12
427.402	286.12
427.625	340.12
427.847	256.12
428.069	226.12
428.292	206.12
428.514	216.12
428.736	241.12
428.958	276.12
429.181	305.12
429.403	224.12
429.625	226.12
429.847	206.12
430.069	199.12
430.292	202.12
430.514	182.12
430.736	201.12
430.958	198.12
431.18	199.12
431.402	182.12
431.624	192.12
431.846	195.12
432.068	192.12
432.29	199.12
432.512	202.12
432.734	193.12
432.956	206.12
433.178	201.12
433.4	198.12
433.622	197.12
433.844	248.12
434.066	257.12
434.287	254.12
434.509	261.12
434.731	231.12
434.953	217.12
435.175	245.12
435.397	246.12
435.618	202.12
435.84	224.12
436.062	229.12
436.284	191.12
436.505	192.12
436.727	196.12
436.949	201.12
437.17	233.12
437.392	205.12
437.614	214.12
437.835	192.12
438.057	185.12
438.278	198.12
438.5	203.12
438.721	189.12
438.943	209.12
439.165	207.12
439.386	178.12
439.608	195.12
439.829	205.12
440.05	200.12
440.272	187.12
440.493	192.12
440.715	183.12
440.936	188.12
441.158	204.12
441.379	208.12
441.6	203.12
441.822	212.12
442.043	206.12
442.264	216.12
442.486	201.12
442.707	213.12
442.928	224.12
443.149	219.12
443.371	208.12
443.592	196.12
443.813	207.12
444.034	195.12
444.255	207.12
444.476	203.12
444.698	208.12
444.919	210.12
445.14	283.12
445.361	240.12
445.582	216.12
445.803	223.12
446.024	220.12
446.245	202.12
446.466	210.12
446.687	204.12
446.908	199.12
447.129	196.12
447.35	195.12
447.571	182.12
447.792	182.12
448.013	175.12
448.234	199.12
448.455	186.12
448.675	194.12
448.896	187.12
449.117	195.12
449.338	208.12
449.559	199.12
449.779	247.12
450	206.12
450.221	206.12
450.442	197.12
450.662	195.12
450.883	206.12
451.104	194.12
451.324	184.12
451.545	184.12
451.766	207.12
451.986	196.12
452.207	189.12
452.428	198.12
452.648	219.12
452.869	211.12
453.089	196.12
453.31	199.12
453.53	184.12
453.751	202.12
453.971	202.12
454.192	217.12
454.412	204.12
454.633	214.12
454.853	207.12
455.073	187.12
455.294	184.12
455.514	207.12
455.734	203.12
455.955	210.12
456.175	226.12
456.395	184.12
456.616	183.12
456.836	193.12
457.056	183.12
457.276	179.12
457.497	198.12
457.717	190.12
457.937	192.12
458.157	182.12
458.377	194.12
458.598	176.12
458.818	219.12
459.038	212.12
459.258	211.12
459.478	221.12
459.698	204.12
459.918	219.12
460.138	201.12
460.358	231.12
460.578	200.12
460.798	196.12
461.018	209.12
461.238	224.12
461.458	238.12
461.678	246.12
461.898	251.12
462.118	251.12
462.338	257.12
462.558	243.12
462.777	243.12
462.997	235.12
463.217	249.12
463.437	232.12
463.657	238.12
463.876	229.12
464.096	232.12
464.316	231.12
464.536	246.12
464.755	265.12
464.975	255.12
465.195	249.12
465.414	254.12
465.634	204.12
465.854	195.12
466.073	198.12
466.293	195.12
466.512	214.12
466.732	229.12
466.951	202.12
467.171	192.12
467.391	219.12
467.61	184.12
467.829	200.12
468.049	185.12
468.268	181.12
468.488	182.12
468.707	191.12
468.927	200.12
469.146	190.12
469.365	196.12
469.585	206.12
469.804	188.12
470.023	202.12
470.243	202.12
470.462	188.12
470.681	190.12
470.901	203.12
471.12	210.12
471.339	178.12
471.558	201.12
471.777	192.12
471.997	213.12
472.216	194.12
472.435	219.12
472.654	198.12
472.873	185.12
473.092	193.12
473.311	211.12
473.53	195.12
473.749	188.12
473.968	197.12
474.187	185.12
474.406	189.12
474.625	208.12
474.844	198.12
475.063	194.12
475.282	225.12
475.501	226.12
475.72	242.12
475.939	234.12
476.158	212.12
476.377	192.12
476.596	203.12
476.814	206.12
477.033	198.12
477.252	209.12
477.471	204.12
477.69	185.12
477.908	203.12
478.127	208.12
478.346	217.12
478.564	213.12
478.783	214.12
479.002	237.12
479.22	244.12
479.439	212.12
479.658	222.12
479.876	224.12
480.095	238.12
480.313	255.12
480.532	217.12
480.751	236.12
480.969	215.12
481.188	220.12
481.406	199.12
481.624	220.12
481.843	198.12
482.061	213.12
482.28	228.12
482.498	222.12
482.717	219.12
482.935	224.12
483.153	230.12
483.372	219.12
483.59	218.12
483.808	220.12
484.027	203.12
484.245	203.12
484.463	209.12
484.681	211.12
484.9	235.12
485.118	226.12
485.336	216.12
485.554	233.12
485.772	219.12
485.99	219.12
486.209	248.12
486.427	244.12
486.645	236.12
486.863	227.12
487.081	222.12
487.299	239.12
487.517	233.12
487.735	226.12
487.953	234.12
488.171	225.12
488.389	212.12
488.607	232.12
488.825	246.12
489.043	219.12
489.261	223.12
489.479	228.12
489.696	229.12
489.914	212.12
490.132	213.12
490.35	240.12
490.568	225.12
490.786	234.12
491.003	210.12
491.221	215.12
491.439	224.12
491.657	224.12
491.874	227.12
492.092	240.12
492.31	281.12
492.527	262.12
492.745	232.12
492.963	228.12
493.18	233.12
493.398	235.12
493.615	228.12
493.833	261.12
494.05	240.12
494.268	238.12
494.485	240.12
494.703	232.12
494.92	238.12
495.138	239.12
495.355	239.12
495.573	270.12
495.79	257.12
496.008	247.12
496.225	241.12
496.442	234.12
496.66	266.12
496.877	242.12
497.094	263.12
497.312	251.12
497.529	251.12
497.746	252.12
497.963	257.12
498.181	265.12
498.398	259.12
498.615	280.12
498.832	274.12
499.049	265.12
499.267	295.12
499.484	308.12
499.701	335.12
499.918	323.12
500.135	346.12
500.352	366.12
500.569	382.12
500.786	376.12
501.003	337.12
501.22	330.12
501.437	332.12
501.654	300.12
501.871	292.12
502.088	296.12
502.305	297.12
502.522	268.12
502.739	275.12
502.956	262.12
503.172	262.12
503.389	267.12
503.606	279.12
