Data from StA_HRD10591_052.txt Node
Date: Fri May 16 15:19:09 EDT 2025
User: Yrep
Spectrometer: HR+D1059
Trigger mode: 1
Integration Time (sec): 1.000000E-1
Scans to average: 1
Electric dark correction enabled: true
Nonlinearity correction enabled: false
Boxcar width: 0
XAxis mode: Wavelengths
Number of Pixels in Spectrum: 2048
>>>>>Begin Spectral Data<<<<<
223.165	-10.5
223.4	-10.5
223.635	-10.5
223.869	-19.5
224.104	-16.5
224.338	-24.5
224.573	-16.5
224.808	-17.5
225.042	-2.5
225.277	-10.5
225.511	2.5
225.746	1.5
225.98	15.5
226.215	2.5
226.449	3.5
226.683	23.5
226.918	28.5
227.152	40.5
227.387	36.5
227.621	51.5
227.856	39.5
228.09	40.5
228.324	48.5
228.559	56.5
228.793	66.5
229.027	70.5
229.262	85.5
229.496	76.5
229.73	85.5
229.964	90.5
230.199	92.5
230.433	80.5
230.667	72.5
230.901	97.5
231.136	85.5
231.37	87.5
231.604	93.5
231.838	101.5
232.072	107.5
232.306	81.5
232.541	101.5
232.775	81.5
233.009	83.5
233.243	91.5
233.477	86.5
233.711	96.5
233.945	98.5
234.179	81.5
234.413	101.5
234.647	99.5
234.881	73.5
235.115	95.5
235.349	89.5
235.583	95.5
235.817	94.5
236.051	102.5
236.285	87.5
236.519	92.5
236.753	79.5
236.987	108.5
237.221	79.5
237.455	80.5
237.689	89.5
237.922	84.5
238.156	92.5
238.39	83.5
238.624	92.5
238.858	78.5
239.091	85.5
239.325	90.5
239.559	96.5
239.793	93.5
240.027	109.5
240.26	87.5
240.494	95.5
240.728	89.5
240.961	98.5
241.195	94.5
241.429	96.5
241.662	81.5
241.896	96.5
242.13	93.5
242.363	89.5
242.597	86.5
242.83	86.5
243.064	103.5
243.298	92.5
243.531	90.5
243.765	105.5
243.998	106.5
244.232	103.5
244.465	105.5
244.699	89.5
244.932	97.5
245.166	98.5
245.399	106.5
245.633	101.5
245.866	111.5
246.099	104.5
246.333	100.5
246.566	93.5
246.8	104.5
247.033	106.5
247.266	118.5
247.5	96.5
247.733	100.5
247.966	109.5
248.2	134.5
248.433	125.5
248.666	135.5
248.899	129.5
249.133	142.5
249.366	135.5
249.599	133.5
249.832	136.5
250.066	134.5
250.299	122.5
250.532	115.5
250.765	123.5
250.998	119.5
251.231	125.5
251.465	135.5
251.698	135.5
251.931	142.5
252.164	153.5
252.397	154.5
252.63	168.5
252.863	141.5
253.096	160.5
253.329	139.5
253.562	156.5
253.795	161.5
254.028	164.5
254.261	170.5
254.494	153.5
254.727	136.5
254.96	159.5
255.193	164.5
255.426	141.5
255.659	154.5
255.892	146.5
256.124	165.5
256.357	169.5
256.59	180.5
256.823	154.5
257.056	149.5
257.289	167.5
257.521	159.5
257.754	186.5
257.987	166.5
258.22	161.5
258.452	169.5
258.685	176.5
258.918	175.5
259.151	170.5
259.383	187.5
259.616	172.5
259.849	161.5
260.081	177.5
260.314	158.5
260.547	170.5
260.779	186.5
261.012	188.5
261.244	191.5
261.477	188.5
261.71	178.5
261.942	191.5
262.175	200.5
262.407	210.5
262.64	186.5
262.872	167.5
263.105	197.5
263.337	200.5
263.57	184.5
263.802	191.5
264.035	174.5
264.267	187.5
264.499	173.5
264.732	184.5
264.964	184.5
265.197	204.5
265.429	202.5
265.661	237.5
265.894	237.5
266.126	277.5
266.358	300.5
266.591	346.5
266.823	348.5
267.055	336.5
267.287	344.5
267.52	340.5
267.752	369.5
267.984	377.5
268.216	324.5
268.448	256.5
268.681	259.5
268.913	296.5
269.145	317.5
269.377	297.5
269.609	288.5
269.841	328.5
270.073	322.5
270.306	303.5
270.538	257.5
270.77	268.5
271.002	253.5
271.234	272.5
271.466	250.5
271.698	223.5
271.93	250.5
272.162	279.5
272.394	273.5
272.626	278.5
272.858	247.5
273.09	216.5
273.322	213.5
273.553	208.5
273.785	214.5
274.017	241.5
274.249	295.5
274.481	306.5
274.713	344.5
274.945	353.5
275.176	407.5
275.408	388.5
275.64	371.5
275.872	412.5
276.104	464.5
276.335	479.5
276.567	456.5
276.799	447.5
277.031	386.5
277.262	281.5
277.494	277.5
277.726	293.5
277.957	332.5
278.189	352.5
278.421	319.5
278.652	328.5
278.884	338.5
279.115	310.5
279.347	270.5
279.579	262.5
279.81	257.5
280.042	289.5
280.273	297.5
280.505	272.5
280.736	256.5
280.968	267.5
281.199	317.5
281.431	336.5
281.662	316.5
281.894	368.5
282.125	373.5
282.356	413.5
282.588	379.5
282.819	362.5
283.051	448.5
283.282	510.5
283.513	568.5
283.745	632.5
283.976	558.5
284.207	559.5
284.439	558.5
284.67	517.5
284.901	507.5
285.132	570.5
285.364	567.5
285.595	544.5
285.826	577.5
286.057	554.5
286.288	581.5
286.52	613.5
286.751	614.5
286.982	551.5
287.213	485.5
287.444	493.5
287.675	515.5
287.906	490.5
288.138	396.5
288.369	337.5
288.6	342.5
288.831	356.5
289.062	424.5
289.293	458.5
289.524	456.5
289.755	463.5
289.986	429.5
290.217	371.5
290.448	294.5
290.679	252.5
290.91	270.5
291.141	268.5
291.371	287.5
291.602	290.5
291.833	305.5
292.064	324.5
292.295	391.5
292.526	407.5
292.757	409.5
292.987	432.5
293.218	396.5
293.449	380.5
293.68	388.5
293.91	348.5
294.141	296.5
294.372	298.5
294.603	296.5
294.833	273.5
295.064	294.5
295.295	280.5
295.525	294.5
295.756	258.5
295.987	241.5
296.217	265.5
296.448	269.5
296.679	272.5
296.909	294.5
297.14	358.5
297.37	377.5
297.601	351.5
297.831	333.5
298.062	374.5
298.292	379.5
298.523	376.5
298.753	397.5
298.984	381.5
299.214	307.5
299.445	275.5
299.675	261.5
299.905	242.5
300.136	243.5
300.366	230.5
300.597	216.5
300.827	212.5
301.057	217.5
301.288	255.5
301.518	296.5
301.748	322.5
301.979	321.5
302.209	286.5
302.439	309.5
302.669	316.5
302.9	308.5
303.13	283.5
303.36	279.5
303.59	254.5
303.82	293.5
304.051	348.5
304.281	374.5
304.511	312.5
304.741	288.5
304.971	312.5
305.201	348.5
305.431	292.5
305.661	257.5
305.891	236.5
306.121	222.5
306.352	206.5
306.582	213.5
306.812	212.5
307.042	191.5
307.272	202.5
307.502	206.5
307.731	199.5
307.961	221.5
308.191	209.5
308.421	186.5
308.651	208.5
308.881	199.5
309.111	220.5
309.341	236.5
309.571	254.5
309.8	235.5
310.03	228.5
310.26	233.5
310.49	222.5
310.72	236.5
310.949	261.5
311.179	278.5
311.409	334.5
311.639	405.5
311.868	513.5
312.098	621.5
312.328	616.5
312.557	581.5
312.787	544.5
313.017	512.5
313.246	573.5
313.476	541.5
313.706	420.5
313.935	357.5
314.165	300.5
314.394	276.5
314.624	300.5
314.853	319.5
315.083	297.5
315.312	277.5
315.542	235.5
315.771	236.5
316.001	222.5
316.23	207.5
316.46	228.5
316.689	215.5
316.919	212.5
317.148	237.5
317.377	240.5
317.607	232.5
317.836	262.5
318.065	311.5
318.295	316.5
318.524	280.5
318.753	228.5
318.983	209.5
319.212	232.5
319.441	250.5
319.67	280.5
319.9	309.5
320.129	247.5
320.358	257.5
320.587	246.5
320.816	269.5
321.046	282.5
321.275	285.5
321.504	276.5
321.733	299.5
321.962	268.5
322.191	232.5
322.42	212.5
322.649	222.5
322.878	211.5
323.108	218.5
323.337	242.5
323.566	258.5
323.795	234.5
324.024	255.5
324.253	216.5
324.482	196.5
324.71	218.5
324.939	200.5
325.168	198.5
325.397	206.5
325.626	206.5
325.855	199.5
326.084	212.5
326.313	208.5
326.542	210.5
326.77	216.5
326.999	228.5
327.228	221.5
327.457	187.5
327.686	200.5
327.914	178.5
328.143	184.5
328.372	191.5
328.6	198.5
328.829	199.5
329.058	210.5
329.287	249.5
329.515	235.5
329.744	234.5
329.972	210.5
330.201	216.5
330.43	237.5
330.658	252.5
330.887	285.5
331.115	284.5
331.344	276.5
331.572	242.5
331.801	228.5
332.03	240.5
332.258	261.5
332.486	276.5
332.715	237.5
332.943	257.5
333.172	257.5
333.4	275.5
333.629	327.5
333.857	340.5
334.085	338.5
334.314	313.5
334.542	306.5
334.771	286.5
334.999	280.5
335.227	279.5
335.455	274.5
335.684	351.5
335.912	390.5
336.14	411.5
336.369	372.5
336.597	372.5
336.825	421.5
337.053	400.5
337.281	278.5
337.51	252.5
337.738	293.5
337.966	307.5
338.194	327.5
338.422	269.5
338.65	232.5
338.878	235.5
339.106	256.5
339.334	269.5
339.562	256.5
339.79	273.5
340.018	277.5
340.246	303.5
340.474	340.5
340.702	331.5
340.93	350.5
341.158	289.5
341.386	240.5
341.614	251.5
341.842	266.5
342.07	322.5
342.298	369.5
342.526	304.5
342.754	257.5
342.981	228.5
343.209	266.5
343.437	274.5
343.665	253.5
343.893	241.5
344.12	209.5
344.348	213.5
344.576	223.5
344.804	220.5
345.031	215.5
345.259	213.5
345.487	222.5
345.714	212.5
345.942	208.5
346.17	200.5
346.397	185.5
346.625	204.5
346.853	198.5
347.08	205.5
347.308	202.5
347.535	188.5
347.763	182.5
347.99	195.5
348.218	205.5
348.445	180.5
348.673	187.5
348.9	198.5
349.128	175.5
349.355	181.5
349.583	184.5
349.81	188.5
350.037	174.5
350.265	181.5
350.492	177.5
350.72	170.5
350.947	192.5
351.174	197.5
351.402	174.5
351.629	183.5
351.856	170.5
352.083	189.5
352.311	197.5
352.538	188.5
352.765	194.5
352.992	188.5
353.22	174.5
353.447	179.5
353.674	164.5
353.901	189.5
354.128	178.5
354.355	176.5
354.583	183.5
354.81	192.5
355.037	204.5
355.264	215.5
355.491	215.5
355.718	192.5
355.945	196.5
356.172	207.5
356.399	207.5
356.626	193.5
356.853	209.5
357.08	222.5
357.307	234.5
357.534	273.5
357.761	320.5
357.988	364.5
358.215	306.5
358.441	282.5
358.668	257.5
358.895	247.5
359.122	272.5
359.349	320.5
359.576	306.5
359.802	252.5
360.029	218.5
360.256	266.5
360.483	304.5
360.709	312.5
360.936	254.5
361.163	212.5
361.39	197.5
361.616	211.5
361.843	182.5
362.07	193.5
362.296	188.5
362.523	182.5
362.749	202.5
362.976	209.5
363.203	246.5
363.429	216.5
363.656	202.5
363.882	233.5
364.109	230.5
364.335	235.5
364.562	191.5
364.788	213.5
365.015	212.5
365.241	214.5
365.468	208.5
365.694	217.5
365.92	198.5
366.147	181.5
366.373	190.5
366.599	210.5
366.826	180.5
367.052	184.5
367.278	198.5
367.505	206.5
367.731	202.5
367.957	225.5
368.184	202.5
368.41	205.5
368.636	203.5
368.862	212.5
369.089	192.5
369.315	195.5
369.541	198.5
369.767	186.5
369.993	192.5
370.219	179.5
370.445	185.5
370.672	187.5
370.898	177.5
371.124	207.5
371.35	215.5
371.576	228.5
371.802	225.5
372.028	184.5
372.254	191.5
372.48	188.5
372.706	181.5
372.932	188.5
373.158	195.5
373.384	215.5
373.61	207.5
373.835	212.5
374.061	208.5
374.287	209.5
374.513	244.5
374.739	231.5
374.965	216.5
375.191	178.5
375.416	215.5
375.642	209.5
375.868	183.5
376.094	201.5
376.319	182.5
376.545	193.5
376.771	210.5
376.997	197.5
377.222	175.5
377.448	193.5
377.674	176.5
377.899	180.5
378.125	172.5
378.35	183.5
378.576	184.5
378.802	195.5
379.027	208.5
379.253	207.5
379.478	212.5
379.704	205.5
379.929	194.5
380.155	209.5
380.38	188.5
380.606	206.5
380.831	224.5
381.057	206.5
381.282	206.5
381.507	220.5
381.733	230.5
381.958	211.5
382.184	214.5
382.409	204.5
382.634	205.5
382.86	215.5
383.085	227.5
383.31	205.5
383.535	196.5
383.761	192.5
383.986	220.5
384.211	233.5
384.436	228.5
384.662	214.5
384.887	233.5
385.112	258.5
385.337	243.5
385.562	247.5
385.787	226.5
386.013	238.5
386.238	214.5
386.463	225.5
386.688	245.5
386.913	232.5
387.138	230.5
387.363	198.5
387.588	223.5
387.813	209.5
388.038	219.5
388.263	228.5
388.488	223.5
388.713	234.5
388.938	238.5
389.163	205.5
389.387	212.5
389.612	202.5
389.837	222.5
390.062	207.5
390.287	214.5
390.512	216.5
390.736	225.5
390.961	221.5
391.186	224.5
391.411	221.5
391.636	234.5
391.86	233.5
392.085	240.5
392.31	222.5
392.534	217.5
392.759	218.5
392.984	214.5
393.208	212.5
393.433	212.5
393.658	204.5
393.882	200.5
394.107	209.5
394.331	222.5
394.556	209.5
394.78	207.5
395.005	219.5
395.229	193.5
395.454	204.5
395.678	212.5
395.903	197.5
396.127	221.5
396.352	257.5
396.576	248.5
396.801	244.5
397.025	240.5
397.249	261.5
397.474	246.5
397.698	263.5
397.922	252.5
398.147	260.5
398.371	246.5
398.595	271.5
398.82	264.5
399.044	275.5
399.268	273.5
399.492	273.5
399.717	258.5
399.941	258.5
400.165	242.5
400.389	235.5
400.613	236.5
400.837	230.5
401.062	226.5
401.286	231.5
401.51	231.5
401.734	219.5
401.958	218.5
402.182	233.5
402.406	234.5
402.63	222.5
402.854	222.5
403.078	239.5
403.302	246.5
403.526	198.5
403.75	226.5
403.974	253.5
404.198	228.5
404.422	228.5
404.645	223.5
404.869	214.5
405.093	250.5
405.317	226.5
405.541	242.5
405.765	239.5
405.988	223.5
406.212	242.5
406.436	220.5
406.66	233.5
406.883	240.5
407.107	225.5
407.331	240.5
407.555	242.5
407.778	250.5
408.002	232.5
408.226	237.5
408.449	245.5
408.673	219.5
408.896	230.5
409.12	229.5
409.344	235.5
409.567	220.5
409.791	215.5
410.014	233.5
410.238	228.5
410.461	230.5
410.685	225.5
410.908	231.5
411.132	236.5
411.355	217.5
411.578	220.5
411.802	231.5
412.025	226.5
412.249	234.5
412.472	221.5
412.695	238.5
412.919	222.5
413.142	232.5
413.365	241.5
413.589	223.5
413.812	219.5
414.035	226.5
414.258	208.5
414.482	210.5
414.705	241.5
414.928	223.5
415.151	209.5
415.374	218.5
415.597	229.5
415.821	188.5
416.044	203.5
416.267	225.5
416.49	210.5
416.713	219.5
416.936	221.5
417.159	226.5
417.382	225.5
417.605	217.5
417.828	232.5
418.051	217.5
418.274	208.5
418.497	220.5
418.72	214.5
418.943	203.5
419.166	216.5
419.389	232.5
419.611	232.5
419.834	217.5
420.057	228.5
420.28	225.5
420.503	228.5
420.726	214.5
420.948	212.5
421.171	223.5
421.394	232.5
421.617	219.5
421.839	233.5
422.062	235.5
422.285	226.5
422.507	217.5
422.73	225.5
422.953	228.5
423.175	224.5
423.398	216.5
423.621	224.5
423.843	220.5
424.066	228.5
424.288	240.5
424.511	231.5
424.733	220.5
424.956	233.5
425.178	261.5
425.401	354.5
425.623	384.5
425.846	262.5
426.068	242.5
426.291	250.5
426.513	239.5
426.735	237.5
426.958	250.5
427.18	260.5
427.402	320.5
427.625	381.5
427.847	273.5
428.069	254.5
428.292	235.5
428.514	228.5
428.736	236.5
428.958	297.5
429.181	325.5
429.403	241.5
429.625	214.5
429.847	225.5
430.069	225.5
430.292	210.5
430.514	213.5
430.736	220.5
430.958	202.5
431.18	207.5
431.402	206.5
431.624	218.5
431.846	199.5
432.068	196.5
432.29	204.5
432.512	188.5
432.734	212.5
432.956	205.5
433.178	211.5
433.4	202.5
433.622	237.5
433.844	272.5
434.066	297.5
434.287	254.5
434.509	262.5
434.731	270.5
434.953	235.5
435.175	264.5
435.397	271.5
435.618	215.5
435.84	205.5
436.062	228.5
436.284	204.5
436.505	202.5
436.727	219.5
436.949	207.5
437.17	230.5
437.392	212.5
437.614	223.5
437.835	217.5
438.057	198.5
438.278	199.5
438.5	215.5
438.721	219.5
438.943	217.5
439.165	192.5
439.386	217.5
439.608	228.5
439.829	176.5
440.05	211.5
440.272	185.5
440.493	196.5
440.715	211.5
440.936	213.5
441.158	209.5
441.379	225.5
441.6	210.5
441.822	219.5
442.043	214.5
442.264	217.5
442.486	212.5
442.707	232.5
442.928	238.5
443.149	217.5
443.371	217.5
443.592	211.5
443.813	212.5
444.034	217.5
444.255	215.5
444.476	233.5
444.698	213.5
444.919	226.5
445.14	283.5
445.361	254.5
445.582	226.5
445.803	224.5
446.024	226.5
446.245	218.5
446.466	204.5
446.687	211.5
446.908	215.5
447.129	220.5
447.35	213.5
447.571	221.5
447.792	212.5
448.013	202.5
448.234	195.5
448.455	207.5
448.675	201.5
448.896	225.5
449.117	203.5
449.338	215.5
449.559	190.5
449.779	228.5
450	242.5
450.221	239.5
450.442	192.5
450.662	193.5
450.883	197.5
451.104	197.5
451.324	205.5
451.545	232.5
451.766	222.5
451.986	202.5
452.207	201.5
452.428	209.5
452.648	213.5
452.869	234.5
453.089	204.5
453.31	218.5
453.53	198.5
453.751	207.5
453.971	211.5
454.192	237.5
454.412	205.5
454.633	221.5
454.853	221.5
455.073	190.5
455.294	194.5
455.514	201.5
455.734	222.5
455.955	243.5
456.175	236.5
456.395	209.5
456.616	214.5
456.836	193.5
457.056	208.5
457.276	198.5
457.497	209.5
457.717	196.5
457.937	204.5
458.157	212.5
458.377	185.5
458.598	202.5
458.818	202.5
459.038	225.5
459.258	235.5
459.478	236.5
459.698	225.5
459.918	238.5
460.138	223.5
460.358	231.5
460.578	216.5
460.798	224.5
461.018	225.5
461.238	207.5
461.458	233.5
461.678	254.5
461.898	252.5
462.118	256.5
462.338	260.5
462.558	256.5
462.777	261.5
462.997	270.5
463.217	249.5
463.437	261.5
463.657	251.5
463.876	247.5
464.096	265.5
464.316	248.5
464.536	255.5
464.755	297.5
464.975	265.5
465.195	245.5
465.414	262.5
465.634	232.5
465.854	218.5
466.073	197.5
466.293	206.5
466.512	227.5
466.732	230.5
466.951	221.5
467.171	224.5
467.391	217.5
467.61	204.5
467.829	202.5
468.049	216.5
468.268	209.5
468.488	202.5
468.707	206.5
468.927	206.5
469.146	198.5
469.365	205.5
469.585	214.5
469.804	220.5
470.023	221.5
470.243	202.5
470.462	207.5
470.681	211.5
470.901	215.5
471.12	200.5
471.339	211.5
471.558	205.5
471.777	215.5
471.997	224.5
472.216	223.5
472.435	237.5
472.654	212.5
472.873	205.5
473.092	209.5
473.311	217.5
473.53	227.5
473.749	212.5
473.968	219.5
474.187	199.5
474.406	201.5
474.625	214.5
474.844	198.5
475.063	213.5
475.282	207.5
475.501	225.5
475.72	267.5
475.939	244.5
476.158	220.5
476.377	224.5
476.596	204.5
476.814	221.5
477.033	216.5
477.252	204.5
477.471	208.5
477.69	205.5
477.908	222.5
478.127	221.5
478.346	221.5
478.564	218.5
478.783	221.5
479.002	234.5
479.22	256.5
479.439	248.5
479.658	234.5
479.876	218.5
480.095	241.5
480.313	249.5
480.532	229.5
480.751	246.5
480.969	224.5
481.188	223.5
481.406	235.5
481.624	245.5
481.843	212.5
482.061	221.5
482.28	247.5
482.498	260.5
482.717	245.5
482.935	249.5
483.153	238.5
483.372	236.5
483.59	222.5
483.808	236.5
484.027	228.5
484.245	232.5
484.463	220.5
484.681	240.5
484.9	249.5
485.118	228.5
485.336	230.5
485.554	226.5
485.772	250.5
485.99	241.5
486.209	228.5
486.427	260.5
486.645	253.5
486.863	245.5
487.081	253.5
487.299	269.5
487.517	241.5
487.735	258.5
487.953	249.5
488.171	241.5
488.389	233.5
488.607	247.5
488.825	290.5
489.043	246.5
489.261	242.5
489.479	241.5
489.696	223.5
489.914	229.5
490.132	220.5
490.35	260.5
490.568	258.5
490.786	225.5
491.003	223.5
491.221	245.5
491.439	248.5
491.657	242.5
491.874	241.5
492.092	253.5
492.31	281.5
492.527	286.5
492.745	269.5
492.963	262.5
493.18	246.5
493.398	244.5
493.615	236.5
493.833	271.5
494.05	264.5
494.268	233.5
494.485	266.5
494.703	247.5
494.92	246.5
495.138	254.5
495.355	254.5
495.573	271.5
495.79	265.5
496.008	252.5
496.225	265.5
496.442	271.5
496.66	270.5
496.877	264.5
497.094	264.5
497.312	272.5
497.529	273.5
497.746	272.5
497.963	280.5
498.181	274.5
498.398	273.5
498.615	294.5
498.832	306.5
499.049	307.5
499.267	302.5
499.484	308.5
499.701	325.5
499.918	352.5
500.135	375.5
500.352	386.5
500.569	395.5
500.786	364.5
501.003	371.5
501.22	355.5
501.437	346.5
501.654	329.5
501.871	304.5
502.088	282.5
502.305	290.5
502.522	286.5
502.739	276.5
502.956	270.5
503.172	271.5
503.389	272.5
503.606	267.5
503.823	273.5
504.04	266.5
504.256	283.5
504.473	281.5
504.69	271.5
504.907	288.5
505.123	266.5
505.34	258.5
505.557	253.5
505.773	236.5
505.99	238.5
506.207	247.5
506.423	225.5
506.64	262.5
506.856	239.5
507.073	258.5
507.289	258.5
507.506	231.5
507.722	218.5
507.939	243.5
508.155	240.5
508.372	220.5
508.588	223.5
508.805	236.5
509.021	245.5
509.238	225.5
509.454	232.5
509.67	233.5
509.887	214.5
510.103	213.5
510.319	221.5
510.536	207.5
510.752	232.5
510.968	215.5
511.184	232.5
511.401	223.5
511.617	222.5
511.833	226.5
512.049	205.5
512.265	218.5
512.481	217.5
512.698	230.5
512.914	232.5
513.13	219.5
513.346	217.5
513.562	223.5
513.778	242.5
513.994	246.5
514.21	228.5
514.426	231.5
514.642	240.5
514.858	228.5
515.074	220.5
515.29	217.5
515.506	229.5
515.721	231.5
515.937	234.5
516.153	241.5
516.369	240.5
516.585	224.5
516.801	277.5
517.016	266.5
517.232	252.5
517.448	241.5
517.664	241.5
517.879	257.5
518.095	246.5
518.311	255.5
518.527	275.5
518.742	261.5
518.958	247.5
519.173	231.5
519.389	249.5
519.605	270.5
519.82	266.5
520.036	282.5
520.251	287.5
520.467	449.5
520.682	844.5
520.898	846.5
521.113	661.5
521.329	332.5
521.544	267.5
