Data from StA_HRD10591_100.txt Node
Date: Fri May 16 15:19:33 EDT 2025
User: Yrep
Spectrometer: HR+D1059
Trigger mode: 1
Integration Time (sec): 1.000000E-1
Scans to average: 1
Electric dark correction enabled: true
Nonlinearity correction enabled: false
Boxcar width: 0
XAxis mode: Wavelengths
Number of Pixels in Spectrum: 2048
>>>>>Begin Spectral Data<<<<<
223.165	-28.19
223.4	-28.19
223.635	-28.19
223.869	-22.19
224.104	-18.19
224.338	-5.19
224.573	-11.19
224.808	-8.19
225.042	5.81
225.277	-0.19
225.511	-5.19
225.746	-12.19
225.98	3.81
226.215	1.81
226.449	7.81
226.683	20.81
226.918	28.81
227.152	41.81
227.387	24.81
227.621	32.81
227.856	49.81
228.09	55.81
228.324	49.81
228.559	63.81
228.793	61.81
229.027	62.81
229.262	63.81
229.496	69.81
229.73	71.81
229.964	65.81
230.199	73.81
230.433	75.81
230.667	81.81
230.901	89.81
231.136	77.81
231.37	82.81
231.604	92.81
231.838	82.81
232.072	74.81
232.306	83.81
232.541	90.81
232.775	72.81
233.009	84.81
233.243	74.81
233.477	96.81
233.711	76.81
233.945	88.81
234.179	88.81
234.413	81.81
234.647	82.81
234.881	66.81
235.115	89.81
235.349	72.81
235.583	80.81
235.817	79.81
236.051	75.81
236.285	70.81
236.519	76.81
236.753	70.81
236.987	75.81
237.221	91.81
237.455	72.81
237.689	78.81
237.922	75.81
238.156	69.81
238.39	74.81
238.624	76.81
238.858	71.81
239.091	70.81
239.325	70.81
239.559	64.81
239.793	81.81
240.027	79.81
240.26	83.81
240.494	70.81
240.728	84.81
240.961	70.81
241.195	71.81
241.429	75.81
241.662	73.81
241.896	79.81
242.13	75.81
242.363	82.81
242.597	87.81
242.83	88.81
243.064	82.81
243.298	64.81
243.531	83.81
243.765	79.81
243.998	75.81
244.232	72.81
244.465	74.81
244.699	67.81
244.932	83.81
245.166	66.81
245.399	84.81
245.633	75.81
245.866	77.81
246.099	68.81
246.333	71.81
246.566	67.81
246.8	84.81
247.033	77.81
247.266	63.81
247.5	66.81
247.733	79.81
247.966	83.81
248.2	107.81
248.433	79.81
248.666	84.81
248.899	91.81
249.133	63.81
249.366	74.81
249.599	81.81
249.832	84.81
250.066	85.81
250.299	87.81
250.532	84.81
250.765	85.81
250.998	62.81
251.231	75.81
251.465	79.81
251.698	78.81
251.931	71.81
252.164	85.81
252.397	87.81
252.63	78.81
252.863	80.81
253.096	83.81
253.329	78.81
253.562	85.81
253.795	64.81
254.028	85.81
254.261	88.81
254.494	85.81
254.727	89.81
254.96	82.81
255.193	86.81
255.426	83.81
255.659	78.81
255.892	79.81
256.124	86.81
256.357	79.81
256.59	86.81
256.823	97.81
257.056	92.81
257.289	92.81
257.521	80.81
257.754	68.81
257.987	64.81
258.22	71.81
258.452	75.81
258.685	75.81
258.918	80.81
259.151	91.81
259.383	88.81
259.616	81.81
259.849	75.81
260.081	84.81
260.314	71.81
260.547	88.81
260.779	80.81
261.012	88.81
261.244	85.81
261.477	92.81
261.71	73.81
261.942	73.81
262.175	74.81
262.407	69.81
262.64	79.81
262.872	79.81
263.105	62.81
263.337	85.81
263.57	83.81
263.802	74.81
264.035	76.81
264.267	77.81
264.499	87.81
264.732	94.81
264.964	80.81
265.197	96.81
265.429	79.81
265.661	89.81
265.894	83.81
266.126	79.81
266.358	81.81
266.591	81.81
266.823	84.81
267.055	82.81
267.287	71.81
267.52	80.81
267.752	80.81
267.984	77.81
268.216	86.81
268.448	83.81
268.681	72.81
268.913	105.81
269.145	79.81
269.377	99.81
269.609	83.81
269.841	72.81
270.073	87.81
270.306	81.81
270.538	95.81
270.77	80.81
271.002	96.81
271.234	99.81
271.466	90.81
271.698	83.81
271.93	83.81
272.162	77.81
272.394	85.81
272.626	77.81
272.858	91.81
273.09	89.81
273.322	83.81
273.553	92.81
273.785	86.81
274.017	80.81
274.249	94.81
274.481	81.81
274.713	83.81
274.945	89.81
275.176	96.81
275.408	96.81
275.64	89.81
275.872	86.81
276.104	88.81
276.335	73.81
276.567	84.81
276.799	87.81
277.031	89.81
277.262	90.81
277.494	86.81
277.726	87.81
277.957	83.81
278.189	71.81
278.421	58.81
278.652	79.81
278.884	89.81
279.115	87.81
279.347	73.81
279.579	85.81
279.81	71.81
280.042	88.81
280.273	77.81
280.505	78.81
280.736	95.81
280.968	85.81
281.199	90.81
281.431	85.81
281.662	87.81
281.894	84.81
282.125	89.81
282.356	69.81
282.588	82.81
282.819	94.81
283.051	86.81
283.282	68.81
283.513	96.81
283.745	91.81
283.976	93.81
284.207	80.81
284.439	84.81
284.67	95.81
284.901	87.81
285.132	89.81
285.364	90.81
285.595	77.81
285.826	88.81
286.057	89.81
286.288	87.81
286.52	83.81
286.751	73.81
286.982	92.81
287.213	93.81
287.444	97.81
287.675	89.81
287.906	87.81
288.138	77.81
288.369	85.81
288.6	87.81
288.831	86.81
289.062	87.81
289.293	78.81
289.524	74.81
289.755	82.81
289.986	79.81
290.217	92.81
290.448	88.81
290.679	89.81
290.91	87.81
291.141	85.81
291.371	91.81
291.602	84.81
291.833	79.81
292.064	81.81
292.295	83.81
292.526	85.81
292.757	87.81
292.987	87.81
293.218	91.81
293.449	84.81
293.68	84.81
293.91	75.81
294.141	84.81
294.372	75.81
294.603	91.81
294.833	85.81
295.064	73.81
295.295	77.81
295.525	76.81
295.756	78.81
295.987	89.81
296.217	107.81
296.448	82.81
296.679	88.81
296.909	99.81
297.14	61.81
297.37	100.81
297.601	87.81
297.831	92.81
298.062	110.81
298.292	83.81
298.523	78.81
298.753	88.81
298.984	91.81
299.214	83.81
299.445	93.81
299.675	97.81
299.905	90.81
300.136	102.81
300.366	85.81
300.597	88.81
300.827	73.81
301.057	81.81
301.288	94.81
301.518	105.81
301.748	102.81
301.979	111.81
302.209	99.81
302.439	99.81
302.669	94.81
302.9	96.81
303.13	90.81
303.36	97.81
303.59	78.81
303.82	85.81
304.051	93.81
304.281	96.81
304.511	104.81
304.741	69.81
304.971	76.81
305.201	82.81
305.431	86.81
305.661	91.81
305.891	89.81
306.121	73.81
306.352	100.81
306.582	85.81
306.812	93.81
307.042	84.81
307.272	87.81
307.502	76.81
307.731	86.81
307.961	89.81
308.191	89.81
308.421	87.81
308.651	91.81
308.881	81.81
309.111	85.81
309.341	88.81
309.571	79.81
309.8	93.81
310.03	93.81
310.26	84.81
310.49	86.81
310.72	73.81
310.949	73.81
311.179	81.81
311.409	81.81
311.639	78.81
311.868	110.81
312.098	88.81
312.328	85.81
312.557	93.81
312.787	102.81
313.017	100.81
313.246	101.81
313.476	84.81
313.706	70.81
313.935	91.81
314.165	83.81
314.394	84.81
314.624	85.81
314.853	86.81
315.083	92.81
315.312	98.81
315.542	75.81
315.771	85.81
316.001	86.81
316.23	83.81
316.46	82.81
316.689	79.81
316.919	83.81
317.148	87.81
317.377	95.81
317.607	97.81
317.836	71.81
318.065	80.81
318.295	83.81
318.524	90.81
318.753	76.81
318.983	79.81
319.212	68.81
319.441	83.81
319.67	86.81
319.9	86.81
320.129	85.81
320.358	97.81
320.587	89.81
320.816	84.81
321.046	78.81
321.275	85.81
321.504	74.81
321.733	103.81
321.962	96.81
322.191	77.81
322.42	80.81
322.649	90.81
322.878	79.81
323.108	98.81
323.337	95.81
323.566	95.81
323.795	93.81
324.024	84.81
324.253	70.81
324.482	88.81
324.71	88.81
324.939	86.81
325.168	83.81
325.397	77.81
325.626	87.81
325.855	75.81
326.084	81.81
326.313	76.81
326.542	91.81
326.77	92.81
326.999	75.81
327.228	74.81
327.457	83.81
327.686	88.81
327.914	95.81
328.143	89.81
328.372	83.81
328.6	81.81
328.829	79.81
329.058	87.81
329.287	87.81
329.515	81.81
329.744	85.81
329.972	81.81
330.201	93.81
330.43	77.81
330.658	69.81
330.887	87.81
331.115	76.81
331.344	97.81
331.572	90.81
331.801	96.81
332.03	84.81
332.258	75.81
332.486	87.81
332.715	77.81
332.943	89.81
333.172	89.81
333.4	84.81
333.629	89.81
333.857	89.81
334.085	80.81
334.314	76.81
334.542	89.81
334.771	93.81
334.999	84.81
335.227	73.81
335.455	80.81
335.684	80.81
335.912	88.81
336.14	83.81
336.369	91.81
336.597	92.81
336.825	87.81
337.053	88.81
337.281	80.81
337.51	86.81
337.738	73.81
337.966	83.81
338.194	70.81
338.422	80.81
338.65	71.81
338.878	71.81
339.106	89.81
339.334	87.81
339.562	82.81
339.79	87.81
340.018	86.81
340.246	101.81
340.474	83.81
340.702	99.81
340.93	82.81
341.158	83.81
341.386	83.81
341.614	80.81
341.842	82.81
342.07	90.81
342.298	97.81
342.526	97.81
342.754	95.81
342.981	83.81
343.209	91.81
343.437	88.81
343.665	83.81
343.893	76.81
344.12	82.81
344.348	81.81
344.576	88.81
344.804	72.81
345.031	95.81
345.259	92.81
345.487	101.81
345.714	73.81
345.942	90.81
346.17	89.81
346.397	76.81
346.625	91.81
346.853	79.81
347.08	87.81
347.308	93.81
347.535	89.81
347.763	73.81
347.99	84.81
348.218	88.81
348.445	78.81
348.673	83.81
348.9	87.81
349.128	73.81
349.355	89.81
349.583	96.81
349.81	82.81
350.037	72.81
350.265	83.81
350.492	86.81
350.72	99.81
350.947	84.81
351.174	88.81
351.402	90.81
351.629	73.81
351.856	86.81
352.083	90.81
352.311	80.81
352.538	89.81
352.765	79.81
352.992	76.81
353.22	88.81
353.447	89.81
353.674	88.81
353.901	78.81
354.128	85.81
354.355	93.81
354.583	67.81
354.81	99.81
355.037	89.81
355.264	89.81
355.491	80.81
355.718	83.81
355.945	94.81
356.172	98.81
356.399	93.81
356.626	98.81
356.853	88.81
357.08	89.81
357.307	97.81
357.534	93.81
357.761	117.81
357.988	120.81
358.215	115.81
358.441	95.81
358.668	73.81
358.895	116.81
359.122	118.81
359.349	110.81
359.576	102.81
359.802	81.81
360.029	87.81
360.256	92.81
360.483	99.81
360.709	98.81
360.936	106.81
361.163	85.81
361.39	79.81
361.616	79.81
361.843	94.81
362.07	83.81
362.296	85.81
362.523	88.81
362.749	90.81
362.976	93.81
363.203	98.81
363.429	105.81
363.656	80.81
363.882	101.81
364.109	101.81
364.335	81.81
364.562	93.81
364.788	81.81
365.015	89.81
365.241	89.81
365.468	96.81
365.694	87.81
365.92	78.81
366.147	75.81
366.373	69.81
366.599	80.81
366.826	101.81
367.052	83.81
367.278	61.81
367.505	84.81
367.731	89.81
367.957	83.81
368.184	79.81
368.41	84.81
368.636	90.81
368.862	91.81
369.089	89.81
369.315	93.81
369.541	79.81
369.767	87.81
369.993	79.81
370.219	89.81
370.445	83.81
370.672	87.81
370.898	86.81
371.124	91.81
371.35	80.81
371.576	80.81
371.802	77.81
372.028	89.81
372.254	88.81
372.48	88.81
372.706	87.81
372.932	71.81
373.158	76.81
373.384	88.81
373.61	92.81
373.835	81.81
374.061	75.81
374.287	84.81
374.513	93.81
374.739	87.81
374.965	78.81
375.191	90.81
375.416	84.81
375.642	92.81
375.868	85.81
376.094	71.81
376.319	68.81
376.545	86.81
376.771	75.81
376.997	87.81
377.222	80.81
377.448	76.81
377.674	93.81
377.899	83.81
378.125	79.81
378.35	80.81
378.576	74.81
378.802	84.81
379.027	88.81
379.253	88.81
379.478	91.81
379.704	96.81
379.929	72.81
380.155	79.81
380.38	89.81
380.606	80.81
380.831	85.81
381.057	86.81
381.282	83.81
381.507	101.81
381.733	88.81
381.958	91.81
382.184	92.81
382.409	80.81
382.634	84.81
382.86	87.81
383.085	93.81
383.31	75.81
383.535	87.81
383.761	84.81
383.986	83.81
384.211	96.81
384.436	86.81
384.662	83.81
384.887	90.81
385.112	81.81
385.337	97.81
385.562	95.81
385.787	88.81
386.013	103.81
386.238	80.81
386.463	74.81
386.688	96.81
386.913	79.81
387.138	87.81
387.363	82.81
387.588	95.81
387.813	85.81
388.038	92.81
388.263	103.81
388.488	91.81
388.713	82.81
388.938	80.81
389.163	80.81
389.387	92.81
389.612	101.81
389.837	88.81
390.062	72.81
390.287	85.81
390.512	91.81
390.736	78.81
390.961	73.81
391.186	77.81
391.411	70.81
391.636	70.81
391.86	107.81
392.085	96.81
392.31	79.81
392.534	62.81
392.759	87.81
392.984	84.81
393.208	73.81
393.433	78.81
393.658	87.81
393.882	81.81
394.107	80.81
394.331	87.81
394.556	80.81
394.78	83.81
395.005	82.81
395.229	76.81
395.454	87.81
395.678	73.81
395.903	86.81
396.127	94.81
396.352	80.81
396.576	104.81
396.801	85.81
397.025	107.81
397.249	100.81
397.474	88.81
397.698	81.81
397.922	83.81
398.147	97.81
398.371	89.81
398.595	73.81
398.82	91.81
399.044	79.81
399.268	100.81
399.492	81.81
399.717	80.81
399.941	89.81
400.165	82.81
400.389	80.81
400.613	82.81
400.837	87.81
401.062	74.81
401.286	84.81
401.51	78.81
401.734	84.81
401.958	75.81
402.182	79.81
402.406	77.81
402.63	104.81
402.854	81.81
403.078	73.81
403.302	83.81
403.526	80.81
403.75	77.81
403.974	78.81
404.198	87.81
404.422	88.81
404.645	67.81
404.869	83.81
405.093	73.81
405.317	75.81
405.541	87.81
405.765	82.81
405.988	84.81
406.212	72.81
406.436	80.81
406.66	88.81
406.883	85.81
407.107	79.81
407.331	74.81
407.555	85.81
407.778	95.81
408.002	83.81
408.226	68.81
408.449	87.81
408.673	79.81
408.896	79.81
409.12	74.81
409.344	80.81
409.567	79.81
409.791	88.81
410.014	85.81
410.238	79.81
410.461	69.81
410.685	75.81
410.908	89.81
411.132	85.81
411.355	89.81
411.578	93.81
411.802	77.81
412.025	85.81
412.249	90.81
412.472	81.81
412.695	83.81
412.919	88.81
413.142	77.81
413.365	92.81
413.589	87.81
413.812	79.81
414.035	77.81
414.258	83.81
414.482	82.81
414.705	83.81
414.928	95.81
415.151	74.81
415.374	96.81
415.597	92.81
415.821	88.81
416.044	87.81
416.267	78.81
416.49	79.81
416.713	86.81
416.936	80.81
417.159	64.81
417.382	83.81
417.605	81.81
417.828	76.81
418.051	78.81
418.274	86.81
418.497	94.81
418.72	72.81
418.943	81.81
419.166	92.81
419.389	75.81
419.611	77.81
419.834	77.81
420.057	79.81
420.28	67.81
420.503	90.81
420.726	97.81
420.948	92.81
421.171	79.81
421.394	97.81
421.617	85.81
421.839	75.81
422.062	79.81
422.285	80.81
422.507	75.81
422.73	71.81
422.953	75.81
423.175	80.81
423.398	81.81
423.621	71.81
423.843	83.81
424.066	90.81
424.288	88.81
424.511	77.81
424.733	83.81
424.956	77.81
425.178	97.81
425.401	118.81
425.623	139.81
425.846	105.81
426.068	88.81
426.291	84.81
426.513	84.81
426.735	83.81
426.958	94.81
427.18	95.81
427.402	126.81
427.625	129.81
427.847	107.81
428.069	80.81
428.292	88.81
428.514	88.81
428.736	88.81
428.958	107.81
429.181	134.81
429.403	99.81
429.625	80.81
429.847	92.81
430.069	79.81
430.292	86.81
430.514	80.81
430.736	81.81
430.958	93.81
431.18	83.81
431.402	91.81
431.624	78.81
431.846	78.81
432.068	85.81
432.29	71.81
432.512	84.81
432.734	95.81
432.956	81.81
433.178	68.81
433.4	74.81
433.622	93.81
433.844	103.81
434.066	105.81
434.287	100.81
434.509	99.81
434.731	113.81
434.953	97.81
435.175	103.81
435.397	110.81
435.618	91.81
435.84	76.81
436.062	101.81
436.284	82.81
436.505	89.81
436.727	83.81
436.949	76.81
437.17	89.81
437.392	85.81
437.614	86.81
437.835	88.81
438.057	85.81
438.278	80.81
438.5	80.81
438.721	103.81
438.943	97.81
439.165	98.81
439.386	75.81
439.608	84.81
439.829	87.81
440.05	95.81
440.272	74.81
440.493	78.81
440.715	84.81
440.936	76.81
441.158	87.81
441.379	78.81
441.6	80.81
441.822	73.81
442.043	78.81
442.264	90.81
442.486	90.81
442.707	79.81
442.928	83.81
443.149	80.81
443.371	65.81
443.592	86.81
443.813	75.81
444.034	94.81
444.255	80.81
444.476	83.81
444.698	83.81
444.919	84.81
445.14	164.81
445.361	118.81
445.582	78.81
445.803	89.81
446.024	79.81
446.245	99.81
446.466	79.81
446.687	90.81
446.908	97.81
447.129	76.81
447.35	85.81
447.571	79.81
447.792	73.81
448.013	85.81
448.234	95.81
448.455	95.81
448.675	71.81
448.896	79.81
449.117	87.81
449.338	84.81
449.559	85.81
449.779	103.81
450	99.81
450.221	71.81
450.442	68.81
450.662	80.81
450.883	88.81
451.104	77.81
451.324	81.81
451.545	87.81
451.766	71.81
451.986	71.81
452.207	82.81
452.428	81.81
452.648	83.81
452.869	82.81
453.089	92.81
453.31	86.81
453.53	99.81
453.751	72.81
453.971	99.81
454.192	81.81
454.412	94.81
454.633	92.81
454.853	97.81
455.073	86.81
455.294	79.81
455.514	74.81
455.734	67.81
455.955	83.81
456.175	84.81
456.395	79.81
456.616	87.81
456.836	80.81
457.056	84.81
457.276	69.81
457.497	76.81
457.717	83.81
457.937	84.81
458.157	75.81
458.377	89.81
458.598	69.81
458.818	103.81
459.038	88.81
459.258	87.81
459.478	82.81
459.698	83.81
459.918	91.81
460.138	87.81
460.358	81.81
460.578	78.81
460.798	90.81
461.018	69.81
461.238	93.81
461.458	71.81
461.678	83.81
461.898	94.81
462.118	94.81
462.338	92.81
462.558	76.81
462.777	100.81
462.997	84.81
463.217	86.81
463.437	93.81
463.657	83.81
463.876	78.81
464.096	84.81
464.316	102.81
464.536	106.81
464.755	108.81
464.975	84.81
465.195	106.81
465.414	101.81
465.634	84.81
465.854	85.81
466.073	72.81
466.293	71.81
466.512	97.81
466.732	91.81
466.951	98.81
467.171	75.81
467.391	81.81
467.61	91.81
467.829	85.81
468.049	83.81
468.268	81.81
468.488	84.81
468.707	80.81
468.927	79.81
469.146	84.81
469.365	85.81
469.585	73.81
469.804	87.81
470.023	75.81
470.243	103.81
470.462	90.81
470.681	77.81
470.901	97.81
471.12	69.81
471.339	91.81
471.558	101.81
471.777	92.81
471.997	100.81
472.216	88.81
472.435	89.81
472.654	88.81
472.873	93.81
473.092	75.81
473.311	93.81
473.53	77.81
473.749	94.81
473.968	88.81
474.187	87.81
474.406	88.81
474.625	90.81
474.844	75.81
475.063	77.81
475.282	77.81
475.501	84.81
475.72	87.81
475.939	79.81
476.158	80.81
476.377	77.81
476.596	84.81
476.814	89.81
477.033	77.81
477.252	77.81
477.471	70.81
477.69	78.81
477.908	106.81
478.127	81.81
478.346	89.81
478.564	85.81
478.783	72.81
479.002	84.81
479.22	88.81
479.439	88.81
479.658	71.81
479.876	79.81
480.095	99.81
480.313	101.81
480.532	74.81
480.751	82.81
480.969	60.81
481.188	83.81
481.406	75.81
481.624	91.81
481.843	80.81
482.061	74.81
482.28	66.81
482.498	86.81
482.717	79.81
482.935	81.81
483.153	97.81
483.372	88.81
483.59	79.81
483.808	81.81
484.027	85.81
484.245	81.81
484.463	90.81
484.681	91.81
484.9	73.81
485.118	89.81
485.336	81.81
485.554	76.81
485.772	72.81
485.99	81.81
486.209	71.81
486.427	94.81
486.645	85.81
486.863	82.81
487.081	76.81
487.299	93.81
487.517	84.81
487.735	81.81
487.953	90.81
488.171	93.81
488.389	95.81
488.607	83.81
488.825	96.81
489.043	80.81
489.261	94.81
489.479	92.81
489.696	79.81
489.914	103.81
490.132	91.81
490.35	70.81
490.568	96.81
490.786	76.81
491.003	74.81
491.221	78.81
491.439	79.81
491.657	93.81
491.874	84.81
492.092	107.81
492.31	110.81
492.527	105.81
492.745	79.81
492.963	90.81
493.18	72.81
493.398	85.81
493.615	93.81
493.833	97.81
494.05	79.81
494.268	84.81
494.485	87.81
494.703	86.81
494.92	88.81
495.138	85.81
495.355	94.81
495.573	91.81
495.79	87.81
496.008	95.81
496.225	75.81
496.442	93.81
496.66	89.81
496.877	84.81
497.094	81.81
497.312	91.81
497.529	93.81
497.746	86.81
497.963	78.81
498.181	74.81
498.398	89.81
498.615	57.81
498.832	93.81
499.049	79.81
499.267	78.81
499.484	83.81
499.701	93.81
499.918	86.81
500.135	86.81
500.352	66.81
500.569	80.81
500.786	79.81
501.003	78.81
501.22	94.81
501.437	101.81
501.654	84.81
501.871	76.81
502.088	91.81
502.305	78.81
502.522	91.81
502.739	83.81
502.956	87.81
503.172	83.81
503.389	81.81
503.606	89.81
503.823	87.81
504.04	93.81
504.256	82.81
504.473	85.81
504.69	85.81
504.907	95.81
505.123	85.81
505.34	85.81
505.557	93.81
505.773	92.81
505.99	63.81
506.207	79.81
506.423	72.81
506.64	77.81
506.856	95.81
507.073	82.81
507.289	76.81
507.506	93.81
507.722	71.81
507.939	71.81
508.155	86.81
508.372	99.81
508.588	72.81
508.805	74.81
509.021	109.81
509.238	100.81
509.454	88.81
509.67	87.81
509.887	87.81
510.103	87.81
510.319	68.81
510.536	85.81
510.752	85.81
510.968	77.81
511.184	83.81
511.401	93.81
511.617	90.81
511.833	79.81
512.049	83.81
512.265	86.81
512.481	80.81
512.698	77.81
512.914	80.81
513.13	93.81
513.346	99.81
513.562	94.81
513.778	73.81
513.994	95.81
514.21	76.81
514.426	81.81
514.642	82.81
514.858	78.81
515.074	80.81
515.29	114.81
515.506	75.81
515.721	91.81
515.937	93.81
516.153	95.81
516.369	80.81
516.585	83.81
516.801	71.81
517.016	76.81
517.232	87.81
517.448	85.81
517.664	83.81
517.879	96.81
518.095	79.81
518.311	76.81
518.527	84.81
518.742	92.81
518.958	80.81
519.173	92.81
519.389	90.81
