Data from StA_HRD10591_001.txt Node
Date: Fri May 16 15:18:45 EDT 2025
User: Yrep
Spectrometer: HR+D1059
Trigger mode: 1
Integration Time (sec): 1.000000E-1
Scans to average: 1
Electric dark correction enabled: true
Nonlinearity correction enabled: false
Boxcar width: 0
XAxis mode: Wavelengths
Number of Pixels in Spectrum: 2048
>>>>>Begin Spectral Data<<<<<
223.165	-20.25
223.4	-20.25
223.635	-20.25
223.869	-14.25
224.104	-17.25
224.338	-9.25
224.573	-26.25
224.808	-20.25
225.042	-10.25
225.277	2.75
225.511	0.75
225.746	8.75
225.98	7.75
226.215	13.75
226.449	28.75
226.683	19.75
226.918	14.75
227.152	20.75
227.387	37.75
227.621	28.75
227.856	42.75
228.09	53.75
228.324	61.75
228.559	62.75
228.793	64.75
229.027	59.75
229.262	51.75
229.496	70.75
229.73	84.75
229.964	85.75
230.199	91.75
230.433	84.75
230.667	77.75
230.901	85.75
231.136	95.75
231.37	87.75
231.604	82.75
231.838	99.75
232.072	86.75
232.306	89.75
232.541	102.75
232.775	84.75
233.009	96.75
233.243	101.75
233.477	92.75
233.711	92.75
233.945	103.75
234.179	85.75
234.413	79.75
234.647	96.75
234.881	95.75
235.115	91.75
235.349	89.75
235.583	85.75
235.817	78.75
236.051	86.75
236.285	100.75
236.519	83.75
236.753	65.75
236.987	103.75
237.221	94.75
237.455	89.75
237.689	96.75
237.922	99.75
238.156	101.75
238.39	76.75
238.624	97.75
238.858	96.75
239.091	86.75
239.325	83.75
239.559	83.75
239.793	94.75
240.027	100.75
240.26	97.75
240.494	82.75
240.728	102.75
240.961	97.75
241.195	102.75
241.429	83.75
241.662	78.75
241.896	96.75
242.13	100.75
242.363	101.75
242.597	101.75
242.83	106.75
243.064	104.75
243.298	99.75
243.531	102.75
243.765	105.75
243.998	99.75
244.232	94.75
244.465	91.75
244.699	107.75
244.932	101.75
245.166	104.75
245.399	103.75
245.633	102.75
245.866	112.75
246.099	94.75
246.333	101.75
246.566	103.75
246.8	109.75
247.033	107.75
247.266	111.75
247.5	103.75
247.733	119.75
247.966	124.75
248.2	127.75
248.433	110.75
248.666	112.75
248.899	133.75
249.133	126.75
249.366	117.75
249.599	113.75
249.832	115.75
250.066	112.75
250.299	120.75
250.532	118.75
250.765	128.75
250.998	125.75
251.231	112.75
251.465	114.75
251.698	137.75
251.931	123.75
252.164	136.75
252.397	147.75
252.63	139.75
252.863	129.75
253.096	136.75
253.329	134.75
253.562	137.75
253.795	136.75
254.028	130.75
254.261	141.75
254.494	147.75
254.727	138.75
254.96	144.75
255.193	125.75
255.426	141.75
255.659	140.75
255.892	147.75
256.124	136.75
256.357	156.75
256.59	149.75
256.823	150.75
257.056	154.75
257.289	159.75
257.521	145.75
257.754	157.75
257.987	163.75
258.22	166.75
258.452	161.75
258.685	157.75
258.918	159.75
259.151	162.75
259.383	161.75
259.616	153.75
259.849	143.75
260.081	146.75
260.314	145.75
260.547	161.75
260.779	163.75
261.012	170.75
261.244	175.75
261.477	186.75
261.71	161.75
261.942	163.75
262.175	170.75
262.407	168.75
262.64	185.75
262.872	161.75
263.105	161.75
263.337	183.75
263.57	179.75
263.802	167.75
264.035	162.75
264.267	179.75
264.499	167.75
264.732	153.75
264.964	151.75
265.197	163.75
265.429	193.75
265.661	203.75
265.894	224.75
266.126	235.75
266.358	267.75
266.591	284.75
266.823	282.75
267.055	273.75
267.287	286.75
267.52	299.75
267.752	321.75
267.984	322.75
268.216	282.75
268.448	232.75
268.681	212.75
268.913	256.75
269.145	253.75
269.377	264.75
269.609	242.75
269.841	270.75
270.073	274.75
270.306	270.75
270.538	253.75
270.77	227.75
271.002	227.75
271.234	250.75
271.466	212.75
271.698	215.75
271.93	207.75
272.162	245.75
272.394	249.75
272.626	224.75
272.858	230.75
273.09	216.75
273.322	188.75
273.553	179.75
273.785	201.75
274.017	211.75
274.249	254.75
274.481	261.75
274.713	284.75
274.945	301.75
275.176	323.75
275.408	325.75
275.64	312.75
275.872	360.75
276.104	398.75
276.335	380.75
276.567	365.75
276.799	389.75
277.031	317.75
277.262	256.75
277.494	243.75
277.726	246.75
277.957	276.75
278.189	284.75
278.421	286.75
278.652	271.75
278.884	275.75
279.115	275.75
279.347	253.75
279.579	234.75
279.81	252.75
280.042	265.75
280.273	274.75
280.505	253.75
280.736	212.75
280.968	238.75
281.199	265.75
281.431	280.75
281.662	286.75
281.894	313.75
282.125	335.75
282.356	335.75
282.588	321.75
282.819	307.75
283.051	350.75
283.282	431.75
283.513	473.75
283.745	527.75
283.976	497.75
284.207	463.75
284.439	470.75
284.67	407.75
284.901	420.75
285.132	472.75
285.364	442.75
285.595	439.75
285.826	471.75
286.057	464.75
286.288	473.75
286.52	501.75
286.751	499.75
286.982	453.75
287.213	389.75
287.444	390.75
287.675	427.75
287.906	384.75
288.138	329.75
288.369	286.75
288.6	295.75
288.831	298.75
289.062	357.75
289.293	381.75
289.524	377.75
289.755	385.75
289.986	374.75
290.217	326.75
290.448	257.75
290.679	225.75
290.91	256.75
291.141	244.75
291.371	256.75
291.602	257.75
291.833	263.75
292.064	277.75
292.295	310.75
292.526	349.75
292.757	346.75
292.987	359.75
293.218	321.75
293.449	323.75
293.68	291.75
293.91	281.75
294.141	267.75
294.372	237.75
294.603	224.75
294.833	262.75
295.064	262.75
295.295	235.75
295.525	259.75
295.756	229.75
295.987	225.75
296.217	225.75
296.448	248.75
296.679	263.75
296.909	271.75
297.14	293.75
297.37	311.75
297.601	279.75
297.831	292.75
298.062	304.75
298.292	338.75
298.523	309.75
298.753	350.75
298.984	309.75
299.214	269.75
299.445	250.75
299.675	224.75
299.905	221.75
300.136	223.75
300.366	207.75
300.597	214.75
300.827	199.75
301.057	206.75
301.288	244.75
301.518	258.75
301.748	287.75
301.979	288.75
302.209	253.75
302.439	253.75
302.669	268.75
302.9	278.75
303.13	251.75
303.36	231.75
303.59	228.75
303.82	268.75
304.051	292.75
304.281	315.75
304.511	265.75
304.741	261.75
304.971	270.75
305.201	277.75
305.431	240.75
305.661	212.75
305.891	214.75
306.121	210.75
306.352	212.75
306.582	202.75
306.812	194.75
307.042	187.75
307.272	192.75
307.502	189.75
307.731	192.75
307.961	192.75
308.191	188.75
308.421	194.75
308.651	185.75
308.881	193.75
309.111	215.75
309.341	220.75
309.571	206.75
309.8	231.75
310.03	205.75
310.26	216.75
310.49	227.75
310.72	236.75
310.949	248.75
311.179	247.75
311.409	301.75
311.639	329.75
311.868	415.75
312.098	533.75
312.328	501.75
312.557	468.75
312.787	466.75
313.017	462.75
313.246	486.75
313.476	452.75
313.706	355.75
313.935	319.75
314.165	263.75
314.394	253.75
314.624	269.75
314.853	286.75
315.083	261.75
315.312	255.75
315.542	202.75
315.771	212.75
316.001	209.75
316.23	187.75
316.46	183.75
316.689	200.75
316.919	199.75
317.148	217.75
317.377	215.75
317.607	224.75
317.836	245.75
318.065	286.75
318.295	296.75
318.524	257.75
318.753	212.75
318.983	212.75
319.212	201.75
319.441	224.75
319.67	245.75
319.9	259.75
320.129	246.75
320.358	221.75
320.587	223.75
320.816	237.75
321.046	254.75
321.275	249.75
321.504	245.75
321.733	249.75
321.962	240.75
322.191	220.75
322.42	195.75
322.649	179.75
322.878	209.75
323.108	197.75
323.337	213.75
323.566	223.75
323.795	207.75
324.024	224.75
324.253	191.75
324.482	177.75
324.71	201.75
324.939	216.75
325.168	180.75
325.397	207.75
325.626	189.75
325.855	175.75
326.084	191.75
326.313	201.75
326.542	203.75
326.77	202.75
326.999	211.75
327.228	218.75
327.457	206.75
327.686	190.75
327.914	181.75
328.143	171.75
328.372	177.75
328.6	187.75
328.829	191.75
329.058	205.75
329.287	209.75
329.515	208.75
329.744	208.75
329.972	205.75
330.201	192.75
330.43	193.75
330.658	227.75
330.887	238.75
331.115	247.75
331.344	251.75
331.572	246.75
331.801	212.75
332.03	213.75
332.258	234.75
332.486	243.75
332.715	241.75
332.943	221.75
333.172	238.75
333.4	242.75
333.629	279.75
333.857	287.75
334.085	270.75
334.314	291.75
334.542	266.75
334.771	256.75
334.999	250.75
335.227	236.75
335.455	258.75
335.684	309.75
335.912	351.75
336.14	341.75
336.369	304.75
336.597	324.75
336.825	362.75
337.053	343.75
337.281	269.75
337.51	243.75
337.738	268.75
337.966	284.75
338.194	273.75
338.422	255.75
338.65	235.75
338.878	223.75
339.106	215.75
339.334	238.75
339.562	244.75
339.79	250.75
340.018	234.75
340.246	254.75
340.474	283.75
340.702	296.75
340.93	307.75
341.158	269.75
341.386	229.75
341.614	217.75
341.842	244.75
342.07	281.75
342.298	304.75
342.526	273.75
342.754	227.75
342.981	222.75
343.209	221.75
343.437	263.75
343.665	216.75
343.893	191.75
344.12	219.75
344.348	215.75
344.576	205.75
344.804	213.75
345.031	207.75
345.259	197.75
345.487	193.75
345.714	202.75
345.942	184.75
346.17	176.75
346.397	177.75
346.625	194.75
346.853	186.75
347.08	195.75
347.308	193.75
347.535	193.75
347.763	168.75
347.99	201.75
348.218	168.75
348.445	176.75
348.673	164.75
348.9	186.75
349.128	180.75
349.355	168.75
349.583	178.75
349.81	184.75
350.037	170.75
350.265	183.75
350.492	179.75
350.72	183.75
350.947	177.75
351.174	192.75
351.402	165.75
351.629	170.75
351.856	179.75
352.083	171.75
352.311	188.75
352.538	163.75
352.765	167.75
352.992	170.75
353.22	174.75
353.447	199.75
353.674	167.75
353.901	165.75
354.128	174.75
354.355	164.75
354.583	187.75
354.81	184.75
355.037	187.75
355.264	187.75
355.491	193.75
355.718	202.75
355.945	185.75
356.172	191.75
356.399	201.75
356.626	213.75
356.853	203.75
357.08	205.75
357.307	238.75
357.534	266.75
357.761	296.75
357.988	307.75
358.215	271.75
358.441	247.75
358.668	229.75
358.895	240.75
359.122	232.75
359.349	282.75
359.576	289.75
359.802	218.75
360.029	223.75
360.256	244.75
360.483	271.75
360.709	263.75
360.936	228.75
361.163	209.75
361.39	215.75
361.616	194.75
361.843	181.75
362.07	185.75
362.296	163.75
362.523	169.75
362.749	187.75
362.976	199.75
363.203	200.75
363.429	203.75
363.656	189.75
363.882	203.75
364.109	212.75
364.335	212.75
364.562	202.75
364.788	209.75
365.015	209.75
365.241	201.75
365.468	198.75
365.694	213.75
365.92	190.75
366.147	197.75
366.373	191.75
366.599	182.75
366.826	190.75
367.052	186.75
367.278	197.75
367.505	193.75
367.731	211.75
367.957	198.75
368.184	199.75
368.41	190.75
368.636	203.75
368.862	204.75
369.089	181.75
369.315	186.75
369.541	185.75
369.767	205.75
369.993	181.75
370.219	187.75
370.445	173.75
370.672	187.75
370.898	194.75
371.124	189.75
371.35	193.75
371.576	198.75
371.802	179.75
372.028	188.75
372.254	187.75
372.48	174.75
372.706	189.75
372.932	190.75
373.158	195.75
373.384	198.75
373.61	192.75
373.835	199.75
374.061	204.75
374.287	222.75
374.513	213.75
374.739	207.75
374.965	203.75
375.191	193.75
375.416	201.75
375.642	196.75
375.868	189.75
376.094	175.75
376.319	200.75
376.545	183.75
376.771	186.75
376.997	183.75
377.222	154.75
377.448	172.75
377.674	192.75
377.899	190.75
378.125	163.75
378.35	185.75
378.576	169.75
378.802	171.75
379.027	181.75
379.253	192.75
379.478	190.75
379.704	193.75
379.929	192.75
380.155	210.75
380.38	215.75
380.606	207.75
380.831	177.75
381.057	184.75
381.282	200.75
381.507	186.75
381.733	194.75
381.958	198.75
382.184	199.75
382.409	200.75
382.634	220.75
382.86	209.75
383.085	200.75
383.31	203.75
383.535	202.75
383.761	193.75
383.986	197.75
384.211	217.75
384.436	225.75
384.662	191.75
384.887	205.75
385.112	232.75
385.337	237.75
385.562	222.75
385.787	228.75
386.013	222.75
386.238	220.75
386.463	210.75
386.688	220.75
386.913	204.75
387.138	204.75
387.363	205.75
387.588	228.75
387.813	215.75
388.038	217.75
388.263	211.75
388.488	230.75
388.713	223.75
388.938	216.75
389.163	193.75
389.387	213.75
389.612	211.75
389.837	201.75
390.062	220.75
390.287	209.75
390.512	209.75
390.736	215.75
390.961	206.75
391.186	210.75
391.411	215.75
391.636	219.75
391.86	247.75
392.085	223.75
392.31	220.75
392.534	191.75
392.759	201.75
392.984	199.75
393.208	216.75
393.433	200.75
393.658	196.75
393.882	212.75
394.107	206.75
394.331	208.75
394.556	194.75
394.78	183.75
395.005	197.75
395.229	200.75
395.454	215.75
395.678	213.75
395.903	204.75
396.127	235.75
396.352	251.75
396.576	238.75
396.801	246.75
397.025	251.75
397.249	246.75
397.474	238.75
397.698	242.75
397.922	250.75
398.147	239.75
398.371	255.75
398.595	252.75
398.82	256.75
399.044	250.75
399.268	254.75
399.492	280.75
399.717	264.75
399.941	248.75
400.165	251.75
400.389	226.75
400.613	233.75
400.837	211.75
401.062	211.75
401.286	235.75
401.51	209.75
401.734	208.75
401.958	232.75
402.182	213.75
402.406	211.75
402.63	217.75
402.854	221.75
403.078	229.75
403.302	229.75
403.526	218.75
403.75	236.75
403.974	237.75
404.198	214.75
404.422	205.75
404.645	216.75
404.869	208.75
405.093	239.75
405.317	215.75
405.541	228.75
405.765	223.75
405.988	207.75
406.212	234.75
406.436	210.75
406.66	222.75
406.883	233.75
407.107	229.75
407.331	239.75
407.555	254.75
407.778	235.75
408.002	236.75
408.226	236.75
408.449	215.75
408.673	239.75
408.896	225.75
409.12	221.75
409.344	233.75
409.567	231.75
409.791	214.75
410.014	214.75
410.238	224.75
410.461	218.75
410.685	218.75
410.908	236.75
411.132	229.75
411.355	229.75
411.578	226.75
411.802	219.75
412.025	224.75
412.249	237.75
412.472	225.75
412.695	224.75
412.919	239.75
413.142	218.75
413.365	221.75
413.589	219.75
413.812	212.75
414.035	221.75
414.258	197.75
414.482	201.75
414.705	217.75
414.928	235.75
415.151	221.75
415.374	211.75
415.597	208.75
415.821	211.75
416.044	207.75
416.267	215.75
416.49	215.75
416.713	217.75
416.936	205.75
417.159	232.75
417.382	218.75
417.605	222.75
417.828	210.75
418.051	222.75
418.274	217.75
418.497	227.75
418.72	220.75
418.943	230.75
419.166	221.75
419.389	218.75
419.611	238.75
419.834	218.75
420.057	217.75
420.28	206.75
420.503	223.75
420.726	217.75
420.948	213.75
421.171	222.75
421.394	215.75
421.617	214.75
421.839	221.75
422.062	215.75
422.285	197.75
422.507	222.75
422.73	225.75
422.953	231.75
423.175	229.75
423.398	235.75
423.621	223.75
423.843	213.75
424.066	205.75
424.288	216.75
424.511	231.75
424.733	225.75
424.956	216.75
425.178	257.75
425.401	318.75
425.623	358.75
425.846	257.75
426.068	227.75
426.291	225.75
426.513	233.75
426.735	225.75
426.958	215.75
427.18	242.75
427.402	293.75
427.625	352.75
427.847	253.75
428.069	220.75
428.292	222.75
428.514	213.75
428.736	227.75
428.958	284.75
429.181	303.75
429.403	227.75
429.625	216.75
429.847	230.75
430.069	206.75
430.292	213.75
430.514	210.75
430.736	202.75
430.958	213.75
431.18	205.75
431.402	199.75
431.624	198.75
431.846	197.75
432.068	199.75
432.29	204.75
432.512	197.75
432.734	206.75
432.956	232.75
433.178	219.75
433.4	195.75
433.622	228.75
433.844	249.75
434.066	259.75
434.287	234.75
434.509	257.75
434.731	260.75
434.953	233.75
435.175	275.75
435.397	263.75
435.618	206.75
435.84	201.75
436.062	229.75
436.284	223.75
436.505	199.75
436.727	214.75
436.949	208.75
437.17	206.75
437.392	222.75
437.614	202.75
437.835	196.75
438.057	223.75
438.278	211.75
438.5	202.75
438.721	191.75
438.943	201.75
439.165	195.75
439.386	223.75
439.608	203.75
439.829	216.75
440.05	203.75
440.272	211.75
440.493	213.75
440.715	199.75
440.936	211.75
441.158	204.75
441.379	205.75
441.6	207.75
441.822	197.75
442.043	214.75
442.264	235.75
442.486	220.75
442.707	210.75
442.928	230.75
443.149	214.75
443.371	211.75
443.592	208.75
443.813	222.75
444.034	211.75
444.255	212.75
444.476	219.75
444.698	224.75
444.919	194.75
445.14	283.75
445.361	266.75
445.582	217.75
445.803	213.75
446.024	203.75
446.245	187.75
446.466	208.75
446.687	209.75
446.908	203.75
447.129	209.75
447.35	189.75
447.571	190.75
447.792	207.75
448.013	202.75
448.234	205.75
448.455	209.75
448.675	204.75
448.896	200.75
449.117	207.75
449.338	209.75
449.559	221.75
449.779	217.75
450	215.75
450.221	188.75
450.442	197.75
450.662	192.75
450.883	197.75
451.104	194.75
451.324	219.75
451.545	204.75
451.766	221.75
451.986	198.75
452.207	208.75
452.428	191.75
452.648	200.75
452.869	216.75
453.089	222.75
453.31	209.75
453.53	207.75
453.751	208.75
453.971	204.75
454.192	227.75
454.412	211.75
454.633	199.75
454.853	211.75
455.073	181.75
455.294	187.75
455.514	187.75
455.734	203.75
455.955	215.75
456.175	215.75
456.395	205.75
456.616	209.75
456.836	207.75
457.056	185.75
457.276	189.75
457.497	189.75
457.717	198.75
457.937	195.75
458.157	185.75
458.377	197.75
458.598	214.75
458.818	206.75
459.038	227.75
459.258	217.75
459.478	214.75
459.698	221.75
459.918	213.75
460.138	213.75
460.358	230.75
460.578	203.75
460.798	227.75
461.018	212.75
461.238	223.75
461.458	237.75
461.678	242.75
461.898	249.75
462.118	249.75
462.338	240.75
462.558	253.75
462.777	251.75
462.997	235.75
463.217	229.75
463.437	233.75
463.657	244.75
463.876	250.75
464.096	245.75
464.316	258.75
464.536	256.75
464.755	269.75
464.975	238.75
465.195	238.75
465.414	249.75
465.634	231.75
465.854	199.75
466.073	214.75
466.293	214.75
466.512	225.75
466.732	210.75
466.951	220.75
467.171	212.75
467.391	217.75
467.61	202.75
467.829	211.75
468.049	193.75
468.268	190.75
468.488	189.75
468.707	192.75
468.927	198.75
469.146	197.75
469.365	216.75
469.585	205.75
469.804	214.75
470.023	216.75
470.243	213.75
470.462	206.75
470.681	189.75
470.901	203.75
471.12	210.75
471.339	200.75
471.558	202.75
471.777	199.75
471.997	215.75
472.216	214.75
472.435	205.75
472.654	196.75
472.873	205.75
473.092	214.75
473.311	231.75
473.53	192.75
473.749	213.75
473.968	207.75
474.187	202.75
474.406	193.75
474.625	197.75
474.844	201.75
475.063	204.75
475.282	192.75
475.501	208.75
475.72	216.75
475.939	220.75
476.158	192.75
476.377	206.75
476.596	216.75
476.814	214.75
477.033	209.75
477.252	219.75
477.471	221.75
477.69	206.75
477.908	215.75
478.127	223.75
478.346	199.75
478.564	226.75
478.783	241.75
479.002	246.75
479.22	242.75
479.439	226.75
479.658	230.75
479.876	237.75
480.095	238.75
480.313	249.75
480.532	249.75
480.751	218.75
480.969	229.75
481.188	227.75
481.406	229.75
481.624	222.75
481.843	215.75
482.061	228.75
482.28	207.75
482.498	220.75
482.717	213.75
482.935	255.75
483.153	234.75
483.372	233.75
483.59	223.75
483.808	227.75
484.027	227.75
484.245	217.75
484.463	212.75
484.681	228.75
484.9	229.75
485.118	225.75
485.336	221.75
485.554	221.75
485.772	219.75
485.99	241.75
486.209	251.75
486.427	233.75
486.645	232.75
486.863	260.75
487.081	233.75
487.299	257.75
487.517	235.75
487.735	235.75
487.953	223.75
488.171	228.75
488.389	221.75
488.607	253.75
488.825	252.75
489.043	231.75
489.261	222.75
489.479	215.75
489.696	224.75
489.914	223.75
490.132	220.75
490.35	237.75
490.568	231.75
490.786	234.75
491.003	232.75
491.221	229.75
491.439	229.75
491.657	210.75
491.874	229.75
492.092	251.75
492.31	283.75
492.527	278.75
492.745	245.75
492.963	221.75
493.18	240.75
493.398	241.75
493.615	246.75
493.833	252.75
494.05	246.75
494.268	238.75
494.485	240.75
494.703	229.75
494.92	230.75
495.138	243.75
495.355	248.75
495.573	249.75
495.79	267.75
496.008	236.75
496.225	239.75
496.442	250.75
496.66	271.75
496.877	271.75
497.094	255.75
497.312	256.75
497.529	265.75
497.746	263.75
497.963	280.75
498.181	288.75
498.398	261.75
498.615	286.75
498.832	292.75
499.049	291.75
499.267	317.75
499.484	323.75
499.701	344.75
499.918	349.75
500.135	365.75
500.352	377.75
500.569	381.75
500.786	389.75
501.003	368.75
501.22	348.75
501.437	337.75
501.654	326.75
501.871	310.75
502.088	304.75
502.305	281.75
502.522	288.75
502.739	278.75
502.956	260.75
503.172	267.75
503.389	267.75
503.606	261.75
