Data from StA_HRD10591_002.txt Node
Date: Fri May 16 15:18:45 EDT 2025
User: Yrep
Spectrometer: HR+D1059
Trigger mode: 1
Integration Time (sec): 1.000000E-1
Scans to average: 1
Electric dark correction enabled: true
Nonlinearity correction enabled: false
Boxcar width: 0
XAxis mode: Wavelengths
Number of Pixels in Spectrum: 2048
>>>>>Begin Spectral Data<<<<<
223.165	-16.19
223.4	-16.19
223.635	-16.19
223.869	-17.19
224.104	-25.19
224.338	-17.19
224.573	-23.19
224.808	-8.19
225.042	-3.19
225.277	-6.19
225.511	0.81
225.746	5.81
225.98	7.81
226.215	20.81
226.449	14.81
226.683	17.81
226.918	21.81
227.152	26.81
227.387	43.81
227.621	43.81
227.856	41.81
228.09	40.81
228.324	51.81
228.559	46.81
228.793	61.81
229.027	68.81
229.262	78.81
229.496	76.81
229.73	84.81
229.964	90.81
230.199	89.81
230.433	104.81
230.667	87.81
230.901	75.81
231.136	104.81
231.37	91.81
231.604	94.81
231.838	95.81
232.072	95.81
232.306	93.81
232.541	99.81
232.775	103.81
233.009	94.81
233.243	91.81
233.477	91.81
233.711	108.81
233.945	100.81
234.179	99.81
234.413	84.81
234.647	86.81
234.881	86.81
235.115	81.81
235.349	87.81
235.583	101.81
235.817	93.81
236.051	80.81
236.285	71.81
236.519	92.81
236.753	94.81
236.987	83.81
237.221	75.81
237.455	96.81
237.689	100.81
237.922	83.81
238.156	97.81
238.39	93.81
238.624	83.81
238.858	79.81
239.091	92.81
239.325	79.81
239.559	85.81
239.793	101.81
240.027	91.81
240.26	90.81
240.494	84.81
240.728	95.81
240.961	94.81
241.195	92.81
241.429	84.81
241.662	95.81
241.896	90.81
242.13	102.81
242.363	77.81
242.597	99.81
242.83	103.81
243.064	88.81
243.298	95.81
243.531	94.81
243.765	108.81
243.998	99.81
244.232	111.81
244.465	95.81
244.699	95.81
244.932	107.81
245.166	97.81
245.399	110.81
245.633	94.81
245.866	103.81
246.099	102.81
246.333	104.81
246.566	115.81
246.8	108.81
247.033	97.81
247.266	118.81
247.5	103.81
247.733	109.81
247.966	111.81
248.2	114.81
248.433	117.81
248.666	122.81
248.899	128.81
249.133	123.81
249.366	127.81
249.599	125.81
249.832	123.81
250.066	132.81
250.299	131.81
250.532	122.81
250.765	112.81
250.998	120.81
251.231	110.81
251.465	119.81
251.698	124.81
251.931	128.81
252.164	148.81
252.397	149.81
252.63	143.81
252.863	135.81
253.096	137.81
253.329	150.81
253.562	145.81
253.795	147.81
254.028	144.81
254.261	141.81
254.494	138.81
254.727	139.81
254.96	145.81
255.193	130.81
255.426	140.81
255.659	153.81
255.892	133.81
256.124	145.81
256.357	156.81
256.59	163.81
256.823	147.81
257.056	156.81
257.289	165.81
257.521	163.81
257.754	157.81
257.987	174.81
258.22	170.81
258.452	163.81
258.685	150.81
258.918	149.81
259.151	171.81
259.383	169.81
259.616	151.81
259.849	177.81
260.081	141.81
260.314	166.81
260.547	147.81
260.779	171.81
261.012	185.81
261.244	175.81
261.477	177.81
261.71	174.81
261.942	159.81
262.175	188.81
262.407	199.81
262.64	179.81
262.872	184.81
263.105	157.81
263.337	207.81
263.57	180.81
263.802	160.81
264.035	176.81
264.267	158.81
264.499	170.81
264.732	173.81
264.964	163.81
265.197	185.81
265.429	190.81
265.661	203.81
265.894	215.81
266.126	241.81
266.358	260.81
266.591	288.81
266.823	287.81
267.055	288.81
267.287	300.81
267.52	303.81
267.752	305.81
267.984	347.81
268.216	268.81
268.448	216.81
268.681	228.81
268.913	269.81
269.145	308.81
269.377	269.81
269.609	255.81
269.841	289.81
270.073	293.81
270.306	256.81
270.538	257.81
270.77	252.81
271.002	249.81
271.234	259.81
271.466	231.81
271.698	217.81
271.93	235.81
272.162	259.81
272.394	264.81
272.626	238.81
272.858	233.81
273.09	217.81
273.322	197.81
273.553	186.81
273.785	205.81
274.017	239.81
274.249	269.81
274.481	302.81
274.713	310.81
274.945	337.81
275.176	362.81
275.408	343.81
275.64	327.81
275.872	342.81
276.104	405.81
276.335	419.81
276.567	409.81
276.799	404.81
277.031	335.81
277.262	266.81
277.494	260.81
277.726	263.81
277.957	310.81
278.189	312.81
278.421	292.81
278.652	277.81
278.884	305.81
279.115	292.81
279.347	271.81
279.579	240.81
279.81	241.81
280.042	286.81
280.273	281.81
280.505	228.81
280.736	245.81
280.968	263.81
281.199	283.81
281.431	299.81
281.662	299.81
281.894	314.81
282.125	346.81
282.356	372.81
282.588	326.81
282.819	339.81
283.051	397.81
283.282	461.81
283.513	502.81
283.745	549.81
283.976	487.81
284.207	493.81
284.439	477.81
284.67	476.81
284.901	440.81
285.132	513.81
285.364	483.81
285.595	453.81
285.826	495.81
286.057	496.81
286.288	490.81
286.52	523.81
286.751	511.81
286.982	468.81
287.213	413.81
287.444	423.81
287.675	460.81
287.906	407.81
288.138	347.81
288.369	309.81
288.6	318.81
288.831	321.81
289.062	392.81
289.293	378.81
289.524	395.81
289.755	404.81
289.986	401.81
290.217	327.81
290.448	233.81
290.679	242.81
290.91	247.81
291.141	260.81
291.371	274.81
291.602	264.81
291.833	285.81
292.064	315.81
292.295	353.81
292.526	355.81
292.757	375.81
292.987	380.81
293.218	349.81
293.449	337.81
293.68	330.81
293.91	305.81
294.141	283.81
294.372	268.81
294.603	250.81
294.833	263.81
295.064	257.81
295.295	246.81
295.525	256.81
295.756	236.81
295.987	247.81
296.217	231.81
296.448	231.81
296.679	256.81
296.909	283.81
297.14	322.81
297.37	335.81
297.601	295.81
297.831	303.81
298.062	343.81
298.292	329.81
298.523	355.81
298.753	380.81
298.984	317.81
299.214	291.81
299.445	265.81
299.675	220.81
299.905	241.81
300.136	223.81
300.366	223.81
300.597	223.81
300.827	211.81
301.057	216.81
301.288	241.81
301.518	259.81
301.748	292.81
301.979	309.81
302.209	274.81
302.439	264.81
302.669	286.81
302.9	300.81
303.13	260.81
303.36	235.81
303.59	244.81
303.82	287.81
304.051	296.81
304.281	341.81
304.511	308.81
304.741	274.81
304.971	309.81
305.201	325.81
305.431	280.81
305.661	233.81
305.891	222.81
306.121	204.81
306.352	204.81
306.582	192.81
306.812	197.81
307.042	193.81
307.272	182.81
307.502	190.81
307.731	215.81
307.961	211.81
308.191	196.81
308.421	194.81
308.651	209.81
308.881	208.81
309.111	228.81
309.341	223.81
309.571	237.81
309.8	220.81
310.03	205.81
310.26	229.81
310.49	215.81
310.72	215.81
310.949	228.81
311.179	233.81
311.409	269.81
311.639	349.81
311.868	451.81
312.098	512.81
312.328	523.81
312.557	490.81
312.787	487.81
313.017	448.81
313.246	517.81
313.476	445.81
313.706	360.81
313.935	329.81
314.165	274.81
314.394	263.81
314.624	280.81
314.853	292.81
315.083	276.81
315.312	249.81
315.542	224.81
315.771	233.81
316.001	243.81
316.23	185.81
316.46	203.81
316.689	207.81
316.919	207.81
317.148	216.81
317.377	215.81
317.607	227.81
317.836	252.81
318.065	271.81
318.295	306.81
318.524	252.81
318.753	213.81
318.983	204.81
319.212	217.81
319.441	220.81
319.67	254.81
319.9	299.81
320.129	246.81
320.358	237.81
320.587	217.81
320.816	253.81
321.046	255.81
321.275	258.81
321.504	261.81
321.733	258.81
321.962	249.81
322.191	224.81
322.42	212.81
322.649	213.81
322.878	208.81
323.108	197.81
323.337	214.81
323.566	231.81
323.795	209.81
324.024	239.81
324.253	221.81
324.482	194.81
324.71	193.81
324.939	204.81
325.168	204.81
325.397	197.81
325.626	192.81
325.855	206.81
326.084	192.81
326.313	203.81
326.542	188.81
326.77	221.81
326.999	233.81
327.228	201.81
327.457	191.81
327.686	192.81
327.914	201.81
328.143	187.81
328.372	173.81
328.6	196.81
328.829	204.81
329.058	201.81
329.287	202.81
329.515	227.81
329.744	207.81
329.972	201.81
330.201	215.81
330.43	193.81
330.658	237.81
330.887	243.81
331.115	262.81
331.344	258.81
331.572	239.81
331.801	225.81
332.03	208.81
332.258	243.81
332.486	253.81
332.715	243.81
332.943	229.81
333.172	241.81
333.4	251.81
333.629	284.81
333.857	303.81
334.085	296.81
334.314	301.81
334.542	276.81
334.771	243.81
334.999	250.81
335.227	236.81
335.455	268.81
335.684	300.81
335.912	355.81
336.14	360.81
336.369	320.81
336.597	341.81
336.825	395.81
337.053	368.81
337.281	282.81
337.51	238.81
337.738	279.81
337.966	276.81
338.194	277.81
338.422	240.81
338.65	227.81
338.878	234.81
339.106	248.81
339.334	255.81
339.562	261.81
339.79	239.81
340.018	255.81
340.246	262.81
340.474	304.81
340.702	289.81
340.93	323.81
341.158	281.81
341.386	244.81
341.614	219.81
341.842	255.81
342.07	310.81
342.298	334.81
342.526	285.81
342.754	239.81
342.981	221.81
343.209	251.81
343.437	267.81
343.665	245.81
343.893	228.81
344.12	214.81
344.348	205.81
344.576	213.81
344.804	196.81
345.031	193.81
345.259	195.81
345.487	219.81
345.714	199.81
345.942	205.81
346.17	191.81
346.397	186.81
346.625	190.81
346.853	192.81
347.08	184.81
347.308	179.81
347.535	190.81
347.763	168.81
347.99	162.81
348.218	192.81
348.445	187.81
348.673	177.81
348.9	187.81
349.128	192.81
349.355	188.81
349.583	186.81
349.81	194.81
350.037	171.81
350.265	154.81
350.492	171.81
350.72	164.81
350.947	189.81
351.174	168.81
351.402	188.81
351.629	178.81
351.856	170.81
352.083	185.81
352.311	192.81
352.538	171.81
352.765	175.81
352.992	197.81
353.22	195.81
353.447	189.81
353.674	196.81
353.901	188.81
354.128	158.81
354.355	159.81
354.583	181.81
354.81	199.81
355.037	193.81
355.264	206.81
355.491	199.81
355.718	200.81
355.945	199.81
356.172	193.81
356.399	191.81
356.626	203.81
356.853	213.81
357.08	213.81
357.307	219.81
357.534	237.81
357.761	293.81
357.988	319.81
358.215	275.81
358.441	224.81
358.668	256.81
358.895	241.81
359.122	256.81
359.349	286.81
359.576	278.81
359.802	223.81
360.029	227.81
360.256	237.81
360.483	275.81
360.709	286.81
360.936	223.81
361.163	206.81
361.39	203.81
361.616	182.81
361.843	187.81
362.07	190.81
362.296	171.81
362.523	199.81
362.749	197.81
362.976	198.81
363.203	233.81
363.429	223.81
363.656	198.81
363.882	222.81
364.109	209.81
364.335	203.81
364.562	205.81
364.788	209.81
365.015	187.81
365.241	197.81
365.468	197.81
365.694	193.81
365.92	201.81
366.147	189.81
366.373	187.81
366.599	188.81
366.826	192.81
367.052	191.81
367.278	192.81
367.505	201.81
367.731	199.81
367.957	214.81
368.184	202.81
368.41	195.81
368.636	189.81
368.862	198.81
369.089	197.81
369.315	183.81
369.541	179.81
369.767	187.81
369.993	188.81
370.219	191.81
370.445	175.81
370.672	190.81
370.898	185.81
371.124	197.81
371.35	204.81
371.576	202.81
371.802	198.81
372.028	196.81
372.254	192.81
372.48	203.81
372.706	187.81
372.932	193.81
373.158	191.81
373.384	176.81
373.61	193.81
373.835	205.81
374.061	194.81
374.287	212.81
374.513	223.81
374.739	204.81
374.965	215.81
375.191	188.81
375.416	205.81
375.642	206.81
375.868	201.81
376.094	201.81
376.319	183.81
376.545	174.81
376.771	197.81
376.997	192.81
377.222	180.81
377.448	191.81
377.674	170.81
377.899	173.81
378.125	183.81
378.35	185.81
378.576	172.81
378.802	187.81
379.027	183.81
379.253	200.81
379.478	191.81
379.704	198.81
379.929	203.81
380.155	199.81
380.38	197.81
380.606	213.81
380.831	200.81
381.057	195.81
381.282	196.81
381.507	210.81
381.733	222.81
381.958	200.81
382.184	208.81
382.409	206.81
382.634	197.81
382.86	194.81
383.085	195.81
383.31	193.81
383.535	211.81
383.761	206.81
383.986	199.81
384.211	215.81
384.436	213.81
384.662	207.81
384.887	207.81
385.112	217.81
385.337	222.81
385.562	242.81
385.787	231.81
386.013	223.81
386.238	220.81
386.463	222.81
386.688	225.81
386.913	206.81
387.138	215.81
387.363	201.81
387.588	209.81
387.813	213.81
388.038	222.81
388.263	215.81
388.488	228.81
388.713	213.81
388.938	204.81
389.163	211.81
389.387	214.81
389.612	207.81
389.837	196.81
390.062	207.81
390.287	215.81
390.512	214.81
390.736	213.81
390.961	222.81
391.186	215.81
391.411	209.81
391.636	239.81
391.86	231.81
392.085	217.81
392.31	228.81
392.534	196.81
392.759	213.81
392.984	219.81
393.208	213.81
393.433	203.81
393.658	194.81
393.882	200.81
394.107	196.81
394.331	199.81
394.556	210.81
394.78	207.81
395.005	212.81
395.229	188.81
395.454	193.81
395.678	224.81
395.903	211.81
396.127	220.81
396.352	249.81
396.576	247.81
396.801	247.81
397.025	257.81
397.249	239.81
397.474	239.81
397.698	239.81
397.922	247.81
398.147	229.81
398.371	240.81
398.595	251.81
398.82	243.81
399.044	245.81
399.268	297.81
399.492	261.81
399.717	253.81
399.941	272.81
400.165	257.81
400.389	249.81
400.613	228.81
400.837	225.81
401.062	220.81
401.286	238.81
401.51	220.81
401.734	212.81
401.958	216.81
402.182	230.81
402.406	215.81
402.63	228.81
402.854	217.81
403.078	217.81
403.302	215.81
403.526	227.81
403.75	230.81
403.974	254.81
404.198	251.81
404.422	224.81
404.645	245.81
404.869	233.81
405.093	223.81
405.317	235.81
405.541	217.81
405.765	225.81
405.988	232.81
406.212	225.81
406.436	229.81
406.66	238.81
406.883	240.81
407.107	230.81
407.331	248.81
407.555	249.81
407.778	236.81
408.002	244.81
408.226	243.81
408.449	227.81
408.673	217.81
408.896	225.81
409.12	228.81
409.344	227.81
409.567	220.81
409.791	231.81
410.014	227.81
410.238	231.81
410.461	227.81
410.685	210.81
410.908	227.81
411.132	243.81
411.355	234.81
411.578	227.81
411.802	217.81
412.025	233.81
412.249	243.81
412.472	231.81
412.695	233.81
412.919	235.81
413.142	233.81
413.365	239.81
413.589	243.81
413.812	197.81
414.035	240.81
414.258	223.81
414.482	209.81
414.705	232.81
414.928	224.81
415.151	225.81
415.374	207.81
415.597	230.81
415.821	209.81
416.044	201.81
416.267	222.81
416.49	217.81
416.713	222.81
416.936	238.81
417.159	209.81
417.382	218.81
417.605	219.81
417.828	218.81
418.051	227.81
418.274	214.81
418.497	219.81
418.72	246.81
418.943	224.81
419.166	227.81
419.389	249.81
419.611	227.81
419.834	222.81
420.057	223.81
420.28	224.81
420.503	212.81
420.726	233.81
420.948	208.81
421.171	205.81
421.394	222.81
421.617	213.81
421.839	211.81
422.062	222.81
422.285	229.81
422.507	214.81
422.73	211.81
422.953	241.81
423.175	233.81
423.398	225.81
423.621	235.81
423.843	216.81
424.066	232.81
424.288	225.81
424.511	213.81
424.733	220.81
424.956	215.81
425.178	242.81
425.401	311.81
425.623	347.81
425.846	254.81
426.068	231.81
426.291	240.81
426.513	223.81
426.735	241.81
426.958	236.81
427.18	256.81
427.402	296.81
427.625	333.81
427.847	271.81
428.069	231.81
428.292	235.81
428.514	223.81
428.736	225.81
428.958	304.81
429.181	311.81
429.403	231.81
429.625	218.81
429.847	232.81
430.069	223.81
430.292	207.81
430.514	198.81
430.736	214.81
430.958	218.81
431.18	220.81
431.402	208.81
431.624	200.81
431.846	177.81
432.068	210.81
432.29	198.81
432.512	213.81
432.734	208.81
432.956	202.81
433.178	208.81
433.4	215.81
433.622	219.81
433.844	266.81
434.066	280.81
434.287	252.81
434.509	268.81
434.731	256.81
434.953	245.81
435.175	264.81
435.397	256.81
435.618	203.81
435.84	197.81
436.062	200.81
436.284	207.81
436.505	209.81
436.727	216.81
436.949	206.81
437.17	229.81
437.392	203.81
437.614	207.81
437.835	214.81
438.057	205.81
438.278	211.81
438.5	211.81
438.721	189.81
438.943	193.81
439.165	203.81
439.386	198.81
439.608	196.81
439.829	197.81
440.05	204.81
440.272	215.81
440.493	214.81
440.715	201.81
440.936	216.81
441.158	221.81
441.379	205.81
441.6	199.81
441.822	207.81
442.043	222.81
442.264	225.81
442.486	235.81
442.707	230.81
442.928	223.81
443.149	227.81
443.371	205.81
443.592	214.81
443.813	218.81
444.034	232.81
444.255	215.81
444.476	223.81
444.698	217.81
444.919	221.81
445.14	326.81
445.361	256.81
445.582	219.81
445.803	223.81
446.024	217.81
446.245	227.81
446.466	234.81
446.687	201.81
446.908	219.81
447.129	212.81
447.35	198.81
447.571	202.81
447.792	199.81
448.013	199.81
448.234	193.81
448.455	211.81
448.675	199.81
448.896	209.81
449.117	220.81
449.338	192.81
449.559	217.81
449.779	240.81
450	223.81
450.221	218.81
450.442	215.81
450.662	210.81
450.883	192.81
451.104	181.81
451.324	205.81
451.545	200.81
451.766	218.81
451.986	201.81
452.207	202.81
452.428	208.81
452.648	217.81
452.869	223.81
453.089	202.81
453.31	210.81
453.53	186.81
453.751	213.81
453.971	198.81
454.192	202.81
454.412	223.81
454.633	197.81
454.853	202.81
455.073	206.81
455.294	182.81
455.514	198.81
455.734	211.81
455.955	210.81
456.175	205.81
456.395	200.81
456.616	209.81
456.836	201.81
457.056	183.81
457.276	198.81
457.497	197.81
457.717	182.81
457.937	191.81
458.157	192.81
458.377	200.81
458.598	176.81
458.818	193.81
459.038	222.81
459.258	225.81
459.478	222.81
459.698	216.81
459.918	225.81
460.138	244.81
460.358	245.81
460.578	225.81
460.798	239.81
461.018	231.81
461.238	235.81
461.458	240.81
461.678	239.81
461.898	256.81
462.118	240.81
462.338	248.81
462.558	240.81
462.777	270.81
462.997	256.81
463.217	259.81
463.437	238.81
463.657	247.81
463.876	256.81
464.096	236.81
464.316	251.81
464.536	235.81
464.755	274.81
464.975	256.81
465.195	267.81
465.414	262.81
465.634	210.81
465.854	204.81
466.073	217.81
466.293	199.81
466.512	226.81
466.732	229.81
466.951	212.81
467.171	220.81
467.391	200.81
467.61	204.81
467.829	205.81
468.049	202.81
468.268	204.81
468.488	198.81
468.707	199.81
468.927	205.81
469.146	192.81
469.365	217.81
469.585	211.81
469.804	218.81
470.023	222.81
470.243	228.81
470.462	210.81
470.681	204.81
470.901	218.81
471.12	217.81
471.339	201.81
471.558	204.81
471.777	214.81
471.997	214.81
472.216	212.81
472.435	208.81
472.654	215.81
472.873	213.81
473.092	191.81
473.311	213.81
473.53	212.81
473.749	203.81
473.968	212.81
474.187	206.81
474.406	189.81
474.625	218.81
474.844	200.81
475.063	195.81
475.282	219.81
475.501	229.81
475.72	239.81
475.939	222.81
476.158	220.81
476.377	217.81
476.596	192.81
476.814	231.81
477.033	207.81
477.252	203.81
477.471	205.81
477.69	212.81
477.908	211.81
478.127	220.81
478.346	217.81
478.564	220.81
478.783	225.81
479.002	233.81
479.22	245.81
479.439	235.81
479.658	228.81
479.876	225.81
480.095	246.81
480.313	237.81
480.532	252.81
480.751	253.81
480.969	224.81
481.188	233.81
481.406	233.81
481.624	222.81
481.843	227.81
482.061	227.81
482.28	220.81
482.498	238.81
482.717	224.81
482.935	245.81
483.153	244.81
483.372	227.81
483.59	227.81
483.808	220.81
484.027	215.81
484.245	219.81
484.463	230.81
484.681	214.81
484.9	233.81
485.118	243.81
485.336	233.81
485.554	228.81
485.772	219.81
485.99	235.81
486.209	251.81
486.427	239.81
486.645	253.81
486.863	237.81
487.081	239.81
487.299	250.81
487.517	224.81
487.735	259.81
487.953	245.81
488.171	233.81
488.389	221.81
488.607	236.81
488.825	263.81
489.043	254.81
489.261	236.81
489.479	236.81
489.696	207.81
489.914	233.81
490.132	240.81
490.35	248.81
490.568	244.81
490.786	245.81
491.003	247.81
491.221	239.81
491.439	232.81
491.657	245.81
491.874	246.81
492.092	251.81
492.31	284.81
492.527	282.81
492.745	257.81
492.963	258.81
493.18	259.81
493.398	248.81
493.615	249.81
493.833	268.81
494.05	241.81
494.268	233.81
494.485	240.81
494.703	237.81
494.92	248.81
495.138	239.81
495.355	252.81
495.573	264.81
495.79	268.81
496.008	262.81
496.225	250.81
496.442	249.81
496.66	252.81
496.877	257.81
497.094	253.81
497.312	261.81
497.529	248.81
497.746	261.81
497.963	264.81
498.181	263.81
498.398	281.81
498.615	276.81
498.832	304.81
499.049	289.81
499.267	303.81
499.484	330.81
499.701	333.81
499.918	378.81
500.135	367.81
500.352	387.81
500.569	394.81
500.786	394.81
501.003	383.81
501.22	343.81
501.437	343.81
501.654	318.81
501.871	317.81
502.088	319.81
502.305	315.81
502.522	286.81
502.739	266.81
502.956	276.81
503.172	270.81
503.389	259.81
503.606	272.81
