Data from StA_HRD10591_073.txt Node
Date: Fri May 16 15:19:20 EDT 2025
User: Yrep
Spectrometer: HR+D1059
Trigger mode: 1
Integration Time (sec): 1.000000E-1
Scans to average: 1
Electric dark correction enabled: true
Nonlinearity correction enabled: false
Boxcar width: 0
XAxis mode: Wavelengths
Number of Pixels in Spectrum: 2048
>>>>>Begin Spectral Data<<<<<
223.165	-15.62
223.4	-15.62
223.635	-15.62
223.869	-19.62
224.104	-13.62
224.338	-20.62
224.573	-14.62
224.808	-15.62
225.042	-15.62
225.277	-4.62
225.511	9.38
225.746	7.38
225.98	7.38
226.215	12.38
226.449	12.38
226.683	32.38
226.918	16.38
227.152	22.38
227.387	43.38
227.621	47.38
227.856	48.38
228.09	46.38
228.324	40.38
228.559	50.38
228.793	53.38
229.027	71.38
229.262	70.38
229.496	64.38
229.73	66.38
229.964	77.38
230.199	60.38
230.433	71.38
230.667	77.38
230.901	74.38
231.136	65.38
231.37	71.38
231.604	59.38
231.838	70.38
232.072	86.38
232.306	74.38
232.541	76.38
232.775	75.38
233.009	75.38
233.243	77.38
233.477	67.38
233.711	78.38
233.945	89.38
234.179	74.38
234.413	77.38
234.647	83.38
234.881	87.38
235.115	79.38
235.349	78.38
235.583	76.38
235.817	66.38
236.051	84.38
236.285	77.38
236.519	70.38
236.753	83.38
236.987	65.38
237.221	82.38
237.455	78.38
237.689	76.38
237.922	61.38
238.156	75.38
238.39	68.38
238.624	65.38
238.858	81.38
239.091	63.38
239.325	80.38
239.559	77.38
239.793	91.38
240.027	92.38
240.26	87.38
240.494	70.38
240.728	81.38
240.961	85.38
241.195	85.38
241.429	69.38
241.662	102.38
241.896	79.38
242.13	81.38
242.363	80.38
242.597	70.38
242.83	74.38
243.064	89.38
243.298	79.38
243.531	88.38
243.765	80.38
243.998	84.38
244.232	66.38
244.465	80.38
244.699	81.38
244.932	82.38
245.166	80.38
245.399	73.38
245.633	84.38
245.866	93.38
246.099	84.38
246.333	67.38
246.566	71.38
246.8	64.38
247.033	71.38
247.266	82.38
247.5	85.38
247.733	78.38
247.966	73.38
248.2	70.38
248.433	63.38
248.666	79.38
248.899	82.38
249.133	81.38
249.366	87.38
249.599	77.38
249.832	68.38
250.066	61.38
250.299	70.38
250.532	70.38
250.765	76.38
250.998	76.38
251.231	78.38
251.465	85.38
251.698	93.38
251.931	85.38
252.164	73.38
252.397	81.38
252.63	60.38
252.863	61.38
253.096	77.38
253.329	75.38
253.562	91.38
253.795	87.38
254.028	85.38
254.261	73.38
254.494	75.38
254.727	93.38
254.96	81.38
255.193	73.38
255.426	74.38
255.659	59.38
255.892	77.38
256.124	79.38
256.357	80.38
256.59	86.38
256.823	72.38
257.056	76.38
257.289	78.38
257.521	84.38
257.754	89.38
257.987	87.38
258.22	91.38
258.452	71.38
258.685	76.38
258.918	78.38
259.151	92.38
259.383	81.38
259.616	87.38
259.849	86.38
260.081	98.38
260.314	85.38
260.547	82.38
260.779	78.38
261.012	72.38
261.244	87.38
261.477	91.38
261.71	91.38
261.942	87.38
262.175	85.38
262.407	78.38
262.64	68.38
262.872	91.38
263.105	81.38
263.337	82.38
263.57	84.38
263.802	90.38
264.035	95.38
264.267	95.38
264.499	106.38
264.732	90.38
264.964	84.38
265.197	92.38
265.429	85.38
265.661	85.38
265.894	85.38
266.126	83.38
266.358	85.38
266.591	94.38
266.823	93.38
267.055	85.38
267.287	86.38
267.52	92.38
267.752	89.38
267.984	77.38
268.216	65.38
268.448	84.38
268.681	93.38
268.913	83.38
269.145	82.38
269.377	88.38
269.609	85.38
269.841	81.38
270.073	79.38
270.306	85.38
270.538	76.38
270.77	88.38
271.002	68.38
271.234	96.38
271.466	81.38
271.698	86.38
271.93	87.38
272.162	82.38
272.394	84.38
272.626	93.38
272.858	74.38
273.09	94.38
273.322	80.38
273.553	93.38
273.785	77.38
274.017	89.38
274.249	109.38
274.481	92.38
274.713	85.38
274.945	89.38
275.176	78.38
275.408	84.38
275.64	91.38
275.872	89.38
276.104	98.38
276.335	93.38
276.567	65.38
276.799	94.38
277.031	82.38
277.262	81.38
277.494	75.38
277.726	89.38
277.957	80.38
278.189	78.38
278.421	87.38
278.652	86.38
278.884	69.38
279.115	86.38
279.347	82.38
279.579	99.38
279.81	91.38
280.042	79.38
280.273	99.38
280.505	96.38
280.736	72.38
280.968	79.38
281.199	66.38
281.431	85.38
281.662	89.38
281.894	86.38
282.125	83.38
282.356	95.38
282.588	90.38
282.819	88.38
283.051	87.38
283.282	92.38
283.513	90.38
283.745	82.38
283.976	84.38
284.207	101.38
284.439	105.38
284.67	83.38
284.901	90.38
285.132	87.38
285.364	92.38
285.595	88.38
285.826	90.38
286.057	91.38
286.288	86.38
286.52	97.38
286.751	87.38
286.982	98.38
287.213	98.38
287.444	93.38
287.675	74.38
287.906	81.38
288.138	79.38
288.369	87.38
288.6	93.38
288.831	67.38
289.062	97.38
289.293	83.38
289.524	87.38
289.755	87.38
289.986	116.38
290.217	78.38
290.448	88.38
290.679	101.38
290.91	97.38
291.141	89.38
291.371	88.38
291.602	89.38
291.833	86.38
292.064	85.38
292.295	83.38
292.526	96.38
292.757	80.38
292.987	76.38
293.218	87.38
293.449	85.38
293.68	71.38
293.91	85.38
294.141	85.38
294.372	79.38
294.603	87.38
294.833	90.38
295.064	88.38
295.295	103.38
295.525	87.38
295.756	89.38
295.987	94.38
296.217	75.38
296.448	79.38
296.679	96.38
296.909	92.38
297.14	82.38
297.37	81.38
297.601	83.38
297.831	77.38
298.062	88.38
298.292	88.38
298.523	90.38
298.753	87.38
298.984	89.38
299.214	88.38
299.445	90.38
299.675	93.38
299.905	92.38
300.136	75.38
300.366	79.38
300.597	94.38
300.827	75.38
301.057	86.38
301.288	96.38
301.518	90.38
301.748	97.38
301.979	107.38
302.209	109.38
302.439	88.38
302.669	89.38
302.9	93.38
303.13	91.38
303.36	92.38
303.59	85.38
303.82	92.38
304.051	93.38
304.281	67.38
304.511	81.38
304.741	80.38
304.971	74.38
305.201	88.38
305.431	96.38
305.661	83.38
305.891	87.38
306.121	97.38
306.352	92.38
306.582	93.38
306.812	81.38
307.042	77.38
307.272	92.38
307.502	98.38
307.731	88.38
307.961	86.38
308.191	77.38
308.421	88.38
308.651	103.38
308.881	89.38
309.111	91.38
309.341	79.38
309.571	82.38
309.8	89.38
310.03	72.38
310.26	89.38
310.49	79.38
310.72	86.38
310.949	81.38
311.179	84.38
311.409	71.38
311.639	82.38
311.868	90.38
312.098	86.38
312.328	91.38
312.557	91.38
312.787	88.38
313.017	98.38
313.246	95.38
313.476	90.38
313.706	89.38
313.935	90.38
314.165	81.38
314.394	91.38
314.624	82.38
314.853	86.38
315.083	93.38
315.312	87.38
315.542	91.38
315.771	86.38
316.001	81.38
316.23	87.38
316.46	89.38
316.689	90.38
316.919	90.38
317.148	93.38
317.377	81.38
317.607	81.38
317.836	95.38
318.065	88.38
318.295	84.38
318.524	78.38
318.753	74.38
318.983	92.38
319.212	98.38
319.441	93.38
319.67	91.38
319.9	90.38
320.129	88.38
320.358	85.38
320.587	91.38
320.816	74.38
321.046	86.38
321.275	88.38
321.504	87.38
321.733	78.38
321.962	83.38
322.191	91.38
322.42	83.38
322.649	86.38
322.878	86.38
323.108	93.38
323.337	80.38
323.566	83.38
323.795	77.38
324.024	106.38
324.253	77.38
324.482	79.38
324.71	84.38
324.939	99.38
325.168	77.38
325.397	92.38
325.626	92.38
325.855	96.38
326.084	88.38
326.313	81.38
326.542	74.38
326.77	84.38
326.999	85.38
327.228	95.38
327.457	89.38
327.686	71.38
327.914	93.38
328.143	82.38
328.372	80.38
328.6	90.38
328.829	92.38
329.058	75.38
329.287	81.38
329.515	101.38
329.744	92.38
329.972	89.38
330.201	84.38
330.43	91.38
330.658	75.38
330.887	85.38
331.115	94.38
331.344	90.38
331.572	89.38
331.801	91.38
332.03	87.38
332.258	75.38
332.486	87.38
332.715	93.38
332.943	86.38
333.172	80.38
333.4	92.38
333.629	101.38
333.857	105.38
334.085	89.38
334.314	79.38
334.542	77.38
334.771	81.38
334.999	85.38
335.227	85.38
335.455	86.38
335.684	98.38
335.912	92.38
336.14	95.38
336.369	93.38
336.597	85.38
336.825	75.38
337.053	83.38
337.281	82.38
337.51	93.38
337.738	85.38
337.966	87.38
338.194	88.38
338.422	94.38
338.65	79.38
338.878	76.38
339.106	79.38
339.334	93.38
339.562	73.38
339.79	79.38
340.018	91.38
340.246	87.38
340.474	78.38
340.702	75.38
340.93	83.38
341.158	65.38
341.386	81.38
341.614	86.38
341.842	78.38
342.07	91.38
342.298	82.38
342.526	90.38
342.754	92.38
342.981	82.38
343.209	83.38
343.437	104.38
343.665	75.38
343.893	79.38
344.12	102.38
344.348	76.38
344.576	80.38
344.804	78.38
345.031	96.38
345.259	82.38
345.487	91.38
345.714	96.38
345.942	83.38
346.17	83.38
346.397	97.38
346.625	86.38
346.853	89.38
347.08	78.38
347.308	82.38
347.535	91.38
347.763	79.38
347.99	91.38
348.218	92.38
348.445	83.38
348.673	90.38
348.9	83.38
349.128	100.38
349.355	86.38
349.583	88.38
349.81	88.38
350.037	91.38
350.265	101.38
350.492	71.38
350.72	85.38
350.947	91.38
351.174	77.38
351.402	91.38
351.629	75.38
351.856	80.38
352.083	78.38
352.311	90.38
352.538	85.38
352.765	73.38
352.992	87.38
353.22	84.38
353.447	81.38
353.674	85.38
353.901	93.38
354.128	90.38
354.355	72.38
354.583	86.38
354.81	79.38
355.037	86.38
355.264	90.38
355.491	78.38
355.718	94.38
355.945	79.38
356.172	74.38
356.399	91.38
356.626	82.38
356.853	100.38
357.08	87.38
357.307	90.38
357.534	107.38
357.761	107.38
357.988	111.38
358.215	82.38
358.441	89.38
358.668	90.38
358.895	89.38
359.122	112.38
359.349	110.38
359.576	122.38
359.802	97.38
360.029	89.38
360.256	102.38
360.483	107.38
360.709	121.38
360.936	81.38
361.163	88.38
361.39	87.38
361.616	82.38
361.843	79.38
362.07	94.38
362.296	72.38
362.523	77.38
362.749	94.38
362.976	78.38
363.203	81.38
363.429	86.38
363.656	93.38
363.882	82.38
364.109	89.38
364.335	86.38
364.562	77.38
364.788	74.38
365.015	77.38
365.241	89.38
365.468	88.38
365.694	91.38
365.92	87.38
366.147	95.38
366.373	87.38
366.599	83.38
366.826	85.38
367.052	79.38
367.278	80.38
367.505	85.38
367.731	94.38
367.957	86.38
368.184	85.38
368.41	80.38
368.636	84.38
368.862	90.38
369.089	76.38
369.315	84.38
369.541	84.38
369.767	82.38
369.993	89.38
370.219	90.38
370.445	76.38
370.672	76.38
370.898	74.38
371.124	82.38
371.35	88.38
371.576	92.38
371.802	90.38
372.028	89.38
372.254	104.38
372.48	87.38
372.706	97.38
372.932	85.38
373.158	94.38
373.384	79.38
373.61	88.38
373.835	81.38
374.061	91.38
374.287	97.38
374.513	85.38
374.739	93.38
374.965	81.38
375.191	83.38
375.416	76.38
375.642	75.38
375.868	89.38
376.094	71.38
376.319	88.38
376.545	74.38
376.771	74.38
376.997	81.38
377.222	81.38
377.448	60.38
377.674	92.38
377.899	95.38
378.125	102.38
378.35	90.38
378.576	86.38
378.802	87.38
379.027	93.38
379.253	91.38
379.478	93.38
379.704	87.38
379.929	87.38
380.155	73.38
380.38	83.38
380.606	77.38
380.831	96.38
381.057	103.38
381.282	75.38
381.507	75.38
381.733	93.38
381.958	101.38
382.184	69.38
382.409	88.38
382.634	89.38
382.86	94.38
383.085	105.38
383.31	94.38
383.535	87.38
383.761	82.38
383.986	87.38
384.211	93.38
384.436	83.38
384.662	76.38
384.887	83.38
385.112	90.38
385.337	83.38
385.562	82.38
385.787	88.38
386.013	87.38
386.238	80.38
386.463	82.38
386.688	79.38
386.913	82.38
387.138	98.38
387.363	73.38
387.588	98.38
387.813	77.38
388.038	86.38
388.263	98.38
388.488	93.38
388.713	88.38
388.938	86.38
389.163	89.38
389.387	82.38
389.612	85.38
389.837	93.38
390.062	77.38
390.287	78.38
390.512	86.38
390.736	99.38
390.961	78.38
391.186	79.38
391.411	93.38
391.636	94.38
391.86	96.38
392.085	105.38
392.31	81.38
392.534	93.38
392.759	77.38
392.984	84.38
393.208	84.38
393.433	85.38
393.658	79.38
393.882	87.38
394.107	83.38
394.331	78.38
394.556	84.38
394.78	83.38
395.005	76.38
395.229	68.38
395.454	80.38
395.678	91.38
395.903	95.38
396.127	88.38
396.352	105.38
396.576	92.38
396.801	95.38
397.025	82.38
397.249	84.38
397.474	77.38
397.698	89.38
397.922	92.38
398.147	81.38
398.371	89.38
398.595	93.38
398.82	87.38
399.044	77.38
399.268	90.38
399.492	78.38
399.717	86.38
399.941	101.38
400.165	73.38
400.389	83.38
400.613	89.38
400.837	76.38
401.062	86.38
401.286	80.38
401.51	74.38
401.734	90.38
401.958	86.38
402.182	88.38
402.406	78.38
402.63	89.38
402.854	90.38
403.078	72.38
403.302	80.38
403.526	86.38
403.75	85.38
403.974	76.38
404.198	83.38
404.422	80.38
404.645	74.38
404.869	82.38
405.093	81.38
405.317	73.38
405.541	83.38
405.765	82.38
405.988	86.38
406.212	90.38
406.436	86.38
406.66	86.38
406.883	74.38
407.107	82.38
407.331	81.38
407.555	77.38
407.778	78.38
408.002	94.38
408.226	98.38
408.449	86.38
408.673	95.38
408.896	89.38
409.12	84.38
409.344	83.38
409.567	87.38
409.791	77.38
410.014	83.38
410.238	89.38
410.461	90.38
410.685	87.38
410.908	75.38
411.132	80.38
411.355	85.38
411.578	73.38
411.802	86.38
412.025	79.38
412.249	90.38
412.472	86.38
412.695	73.38
412.919	76.38
413.142	87.38
413.365	91.38
413.589	89.38
413.812	64.38
414.035	90.38
414.258	86.38
414.482	90.38
414.705	78.38
414.928	94.38
415.151	71.38
415.374	86.38
415.597	82.38
415.821	91.38
416.044	84.38
416.267	84.38
416.49	81.38
416.713	93.38
416.936	90.38
417.159	75.38
417.382	89.38
417.605	85.38
417.828	82.38
418.051	80.38
418.274	92.38
418.497	79.38
418.72	73.38
418.943	81.38
419.166	71.38
419.389	94.38
419.611	86.38
419.834	98.38
420.057	85.38
420.28	98.38
420.503	95.38
420.726	73.38
420.948	95.38
421.171	91.38
421.394	85.38
421.617	95.38
421.839	85.38
422.062	62.38
422.285	73.38
422.507	76.38
422.73	89.38
422.953	82.38
423.175	91.38
423.398	84.38
423.621	87.38
423.843	81.38
424.066	81.38
424.288	91.38
424.511	83.38
424.733	68.38
424.956	67.38
425.178	93.38
425.401	117.38
425.623	131.38
425.846	103.38
426.068	92.38
426.291	68.38
426.513	97.38
426.735	87.38
426.958	89.38
427.18	89.38
427.402	113.38
427.625	130.38
427.847	105.38
428.069	95.38
428.292	84.38
428.514	80.38
428.736	92.38
428.958	113.38
429.181	135.38
429.403	99.38
429.625	86.38
429.847	83.38
430.069	87.38
430.292	86.38
430.514	87.38
430.736	86.38
430.958	82.38
431.18	87.38
431.402	79.38
431.624	88.38
431.846	78.38
432.068	85.38
432.29	95.38
432.512	86.38
432.734	87.38
432.956	85.38
433.178	85.38
433.4	79.38
433.622	77.38
433.844	111.38
434.066	102.38
434.287	90.38
434.509	94.38
434.731	99.38
434.953	99.38
435.175	113.38
435.397	101.38
435.618	100.38
435.84	85.38
436.062	83.38
436.284	94.38
436.505	98.38
436.727	74.38
436.949	90.38
437.17	81.38
437.392	96.38
437.614	94.38
437.835	79.38
438.057	79.38
438.278	90.38
438.5	97.38
438.721	91.38
438.943	80.38
439.165	102.38
439.386	79.38
439.608	90.38
439.829	80.38
440.05	72.38
440.272	78.38
440.493	85.38
440.715	78.38
440.936	77.38
441.158	82.38
441.379	93.38
441.6	83.38
441.822	92.38
442.043	65.38
442.264	83.38
442.486	79.38
442.707	59.38
442.928	83.38
443.149	82.38
443.371	96.38
443.592	91.38
443.813	95.38
444.034	78.38
444.255	90.38
444.476	78.38
444.698	73.38
444.919	77.38
445.14	170.38
445.361	126.38
445.582	87.38
445.803	83.38
446.024	88.38
446.245	85.38
446.466	89.38
446.687	74.38
446.908	96.38
447.129	75.38
447.35	90.38
447.571	94.38
447.792	74.38
448.013	85.38
448.234	87.38
448.455	94.38
448.675	74.38
448.896	79.38
449.117	86.38
449.338	80.38
449.559	86.38
449.779	101.38
450	91.38
450.221	78.38
450.442	64.38
450.662	83.38
450.883	79.38
451.104	94.38
451.324	93.38
451.545	78.38
451.766	90.38
451.986	81.38
452.207	74.38
452.428	91.38
452.648	89.38
452.869	93.38
453.089	89.38
453.31	78.38
453.53	85.38
453.751	110.38
453.971	88.38
454.192	85.38
454.412	95.38
454.633	84.38
454.853	87.38
455.073	72.38
455.294	84.38
455.514	93.38
455.734	70.38
455.955	86.38
456.175	97.38
456.395	80.38
456.616	81.38
456.836	83.38
457.056	83.38
457.276	78.38
457.497	83.38
457.717	84.38
457.937	95.38
458.157	96.38
458.377	89.38
458.598	86.38
458.818	70.38
459.038	82.38
459.258	90.38
459.478	95.38
459.698	95.38
459.918	97.38
460.138	91.38
460.358	81.38
460.578	79.38
460.798	86.38
461.018	86.38
461.238	80.38
461.458	108.38
461.678	105.38
461.898	97.38
462.118	75.38
462.338	95.38
462.558	103.38
462.777	95.38
462.997	86.38
463.217	95.38
463.437	75.38
463.657	87.38
463.876	81.38
464.096	90.38
464.316	91.38
464.536	92.38
464.755	112.38
464.975	101.38
465.195	113.38
465.414	95.38
465.634	91.38
465.854	82.38
466.073	94.38
466.293	64.38
466.512	83.38
466.732	89.38
466.951	92.38
467.171	75.38
467.391	104.38
467.61	83.38
467.829	79.38
468.049	71.38
468.268	87.38
468.488	78.38
468.707	79.38
468.927	94.38
469.146	80.38
469.365	86.38
469.585	93.38
469.804	107.38
470.023	77.38
470.243	79.38
470.462	91.38
470.681	97.38
470.901	89.38
471.12	87.38
471.339	97.38
471.558	69.38
471.777	86.38
471.997	96.38
472.216	79.38
472.435	97.38
472.654	85.38
472.873	101.38
473.092	93.38
473.311	93.38
473.53	90.38
473.749	83.38
473.968	88.38
474.187	98.38
474.406	81.38
474.625	85.38
474.844	87.38
475.063	86.38
475.282	89.38
475.501	95.38
475.72	97.38
475.939	109.38
476.158	81.38
476.377	88.38
476.596	83.38
476.814	84.38
477.033	78.38
477.252	94.38
477.471	99.38
477.69	97.38
477.908	99.38
478.127	85.38
478.346	72.38
478.564	94.38
478.783	94.38
479.002	86.38
479.22	76.38
479.439	70.38
479.658	73.38
479.876	86.38
480.095	89.38
480.313	87.38
480.532	81.38
480.751	83.38
480.969	87.38
481.188	95.38
481.406	76.38
481.624	79.38
481.843	80.38
482.061	77.38
482.28	90.38
482.498	87.38
482.717	90.38
482.935	99.38
483.153	77.38
483.372	81.38
483.59	93.38
483.808	93.38
484.027	84.38
484.245	81.38
484.463	81.38
484.681	76.38
484.9	77.38
485.118	76.38
485.336	85.38
485.554	86.38
485.772	76.38
485.99	67.38
486.209	95.38
486.427	77.38
486.645	86.38
486.863	89.38
487.081	94.38
487.299	82.38
487.517	84.38
487.735	88.38
487.953	81.38
488.171	89.38
488.389	83.38
488.607	93.38
488.825	97.38
489.043	90.38
489.261	75.38
489.479	77.38
489.696	72.38
489.914	85.38
490.132	77.38
490.35	86.38
490.568	94.38
490.786	88.38
491.003	90.38
491.221	92.38
491.439	91.38
491.657	85.38
491.874	94.38
492.092	110.38
492.31	110.38
492.527	109.38
492.745	86.38
492.963	86.38
493.18	97.38
493.398	101.38
493.615	96.38
493.833	101.38
494.05	98.38
494.268	88.38
494.485	109.38
494.703	72.38
494.92	95.38
495.138	81.38
495.355	94.38
495.573	83.38
495.79	93.38
496.008	93.38
496.225	95.38
496.442	90.38
496.66	108.38
496.877	86.38
497.094	88.38
497.312	79.38
497.529	82.38
497.746	79.38
497.963	82.38
498.181	80.38
498.398	86.38
498.615	89.38
498.832	73.38
499.049	82.38
499.267	87.38
499.484	84.38
499.701	89.38
499.918	81.38
500.135	80.38
500.352	72.38
500.569	75.38
500.786	94.38
501.003	96.38
501.22	77.38
501.437	86.38
501.654	65.38
501.871	87.38
502.088	78.38
502.305	87.38
502.522	94.38
502.739	75.38
502.956	73.38
503.172	85.38
503.389	70.38
503.606	79.38
503.823	93.38
504.04	95.38
504.256	84.38
504.473	80.38
504.69	91.38
504.907	90.38
505.123	92.38
505.34	83.38
505.557	89.38
505.773	96.38
505.99	87.38
506.207	88.38
506.423	85.38
506.64	86.38
506.856	94.38
507.073	87.38
507.289	79.38
507.506	90.38
507.722	77.38
507.939	104.38
508.155	85.38
508.372	83.38
508.588	79.38
508.805	85.38
509.021	97.38
509.238	86.38
509.454	78.38
509.67	86.38
509.887	90.38
510.103	86.38
510.319	83.38
510.536	78.38
510.752	68.38
510.968	88.38
511.184	95.38
511.401	92.38
511.617	91.38
511.833	75.38
512.049	87.38
512.265	80.38
512.481	82.38
512.698	95.38
512.914	86.38
513.13	85.38
513.346	78.38
513.562	75.38
513.778	91.38
513.994	79.38
514.21	76.38
514.426	85.38
514.642	60.38
514.858	67.38
515.074	90.38
515.29	89.38
515.506	79.38
515.721	74.38
515.937	87.38
516.153	80.38
516.369	91.38
516.585	86.38
516.801	84.38
517.016	90.38
517.232	87.38
517.448	90.38
517.664	89.38
517.879	86.38
518.095	86.38
518.311	91.38
518.527	81.38
518.742	80.38
518.958	87.38
519.173	96.38
519.389	91.38
