Data from StA_HRD10591_061.txt Node
Date: Fri May 16 15:19:14 EDT 2025
User: Yrep
Spectrometer: HR+D1059
Trigger mode: 1
Integration Time (sec): 1.000000E-1
Scans to average: 1
Electric dark correction enabled: true
Nonlinearity correction enabled: false
Boxcar width: 0
XAxis mode: Wavelengths
Number of Pixels in Spectrum: 2048
>>>>>Begin Spectral Data<<<<<
223.165	-27.12
223.4	-27.12
223.635	-27.12
223.869	-25.12
224.104	-25.12
224.338	-19.12
224.573	-14.12
224.808	-8.12
225.042	6.88
225.277	-5.12
225.511	3.88
225.746	3.88
225.98	7.88
226.215	15.88
226.449	12.88
226.683	19.88
226.918	26.88
227.152	25.88
227.387	38.88
227.621	36.88
227.856	43.88
228.09	40.88
228.324	52.88
228.559	58.88
228.793	58.88
229.027	72.88
229.262	83.88
229.496	85.88
229.73	82.88
229.964	102.88
230.199	90.88
230.433	71.88
230.667	75.88
230.901	94.88
231.136	97.88
231.37	75.88
231.604	69.88
231.838	80.88
232.072	91.88
232.306	99.88
232.541	91.88
232.775	86.88
233.009	93.88
233.243	87.88
233.477	91.88
233.711	92.88
233.945	93.88
234.179	92.88
234.413	101.88
234.647	98.88
234.881	98.88
235.115	92.88
235.349	85.88
235.583	90.88
235.817	88.88
236.051	79.88
236.285	93.88
236.519	100.88
236.753	90.88
236.987	95.88
237.221	86.88
237.455	91.88
237.689	92.88
237.922	86.88
238.156	77.88
238.39	85.88
238.624	85.88
238.858	91.88
239.091	106.88
239.325	97.88
239.559	97.88
239.793	107.88
240.027	80.88
240.26	99.88
240.494	94.88
240.728	99.88
240.961	105.88
241.195	90.88
241.429	103.88
241.662	91.88
241.896	90.88
242.13	106.88
242.363	105.88
242.597	97.88
242.83	98.88
243.064	94.88
243.298	89.88
243.531	91.88
243.765	101.88
243.998	99.88
244.232	98.88
244.465	95.88
244.699	91.88
244.932	109.88
245.166	113.88
245.399	108.88
245.633	111.88
245.866	116.88
246.099	113.88
246.333	107.88
246.566	91.88
246.8	120.88
247.033	110.88
247.266	107.88
247.5	93.88
247.733	115.88
247.966	112.88
248.2	122.88
248.433	122.88
248.666	115.88
248.899	106.88
249.133	139.88
249.366	122.88
249.599	141.88
249.832	129.88
250.066	132.88
250.299	118.88
250.532	134.88
250.765	114.88
250.998	117.88
251.231	114.88
251.465	116.88
251.698	126.88
251.931	140.88
252.164	150.88
252.397	158.88
252.63	156.88
252.863	137.88
253.096	143.88
253.329	161.88
253.562	145.88
253.795	135.88
254.028	154.88
254.261	155.88
254.494	146.88
254.727	157.88
254.96	150.88
255.193	161.88
255.426	146.88
255.659	141.88
255.892	154.88
256.124	147.88
256.357	166.88
256.59	177.88
256.823	165.88
257.056	159.88
257.289	169.88
257.521	175.88
257.754	164.88
257.987	162.88
258.22	168.88
258.452	170.88
258.685	181.88
258.918	161.88
259.151	182.88
259.383	178.88
259.616	159.88
259.849	149.88
260.081	180.88
260.314	179.88
260.547	164.88
260.779	175.88
261.012	180.88
261.244	181.88
261.477	188.88
261.71	183.88
261.942	196.88
262.175	181.88
262.407	203.88
262.64	157.88
262.872	193.88
263.105	195.88
263.337	198.88
263.57	176.88
263.802	183.88
264.035	184.88
264.267	164.88
264.499	150.88
264.732	177.88
264.964	191.88
265.197	188.88
265.429	202.88
265.661	242.88
265.894	235.88
266.126	267.88
266.358	307.88
266.591	337.88
266.823	323.88
267.055	317.88
267.287	311.88
267.52	341.88
267.752	374.88
267.984	389.88
268.216	293.88
268.448	239.88
268.681	261.88
268.913	293.88
269.145	308.88
269.377	303.88
269.609	289.88
269.841	306.88
270.073	325.88
270.306	278.88
270.538	259.88
270.77	240.88
271.002	270.88
271.234	273.88
271.466	263.88
271.698	235.88
271.93	252.88
272.162	290.88
272.394	273.88
272.626	283.88
272.858	252.88
273.09	213.88
273.322	195.88
273.553	195.88
273.785	206.88
274.017	243.88
274.249	277.88
274.481	323.88
274.713	344.88
274.945	374.88
275.176	395.88
275.408	401.88
275.64	366.88
275.872	401.88
276.104	462.88
276.335	474.88
276.567	447.88
276.799	439.88
277.031	367.88
277.262	315.88
277.494	278.88
277.726	296.88
277.957	307.88
278.189	355.88
278.421	331.88
278.652	320.88
278.884	326.88
279.115	306.88
279.347	299.88
279.579	283.88
279.81	243.88
280.042	284.88
280.273	301.88
280.505	249.88
280.736	257.88
280.968	261.88
281.199	299.88
281.431	333.88
281.662	305.88
281.894	372.88
282.125	403.88
282.356	397.88
282.588	373.88
282.819	359.88
283.051	411.88
283.282	509.88
283.513	576.88
283.745	616.88
283.976	568.88
284.207	565.88
284.439	575.88
284.67	525.88
284.901	511.88
285.132	566.88
285.364	564.88
285.595	536.88
285.826	565.88
286.057	575.88
286.288	584.88
286.52	605.88
286.751	623.88
286.982	561.88
287.213	454.88
287.444	479.88
287.675	514.88
287.906	466.88
288.138	371.88
288.369	329.88
288.6	334.88
288.831	354.88
289.062	436.88
289.293	439.88
289.524	433.88
289.755	457.88
289.986	463.88
290.217	353.88
290.448	266.88
290.679	255.88
290.91	272.88
291.141	291.88
291.371	285.88
291.602	297.88
291.833	298.88
292.064	342.88
292.295	389.88
292.526	404.88
292.757	419.88
292.987	440.88
293.218	409.88
293.449	385.88
293.68	349.88
293.91	313.88
294.141	300.88
294.372	279.88
294.603	259.88
294.833	272.88
295.064	282.88
295.295	271.88
295.525	267.88
295.756	259.88
295.987	253.88
296.217	268.88
296.448	262.88
296.679	274.88
296.909	298.88
297.14	342.88
297.37	369.88
297.601	351.88
297.831	339.88
298.062	371.88
298.292	357.88
298.523	387.88
298.753	402.88
298.984	370.88
299.214	333.88
299.445	269.88
299.675	237.88
299.905	246.88
300.136	245.88
300.366	234.88
300.597	228.88
300.827	236.88
301.057	231.88
301.288	254.88
301.518	313.88
301.748	323.88
301.979	314.88
302.209	317.88
302.439	310.88
302.669	307.88
302.9	317.88
303.13	288.88
303.36	266.88
303.59	282.88
303.82	290.88
304.051	333.88
304.281	354.88
304.511	329.88
304.741	318.88
304.971	328.88
305.201	322.88
305.431	293.88
305.661	249.88
305.891	235.88
306.121	226.88
306.352	214.88
306.582	212.88
306.812	226.88
307.042	188.88
307.272	206.88
307.502	206.88
307.731	209.88
307.961	200.88
308.191	217.88
308.421	192.88
308.651	184.88
308.881	213.88
309.111	224.88
309.341	239.88
309.571	257.88
309.8	249.88
310.03	211.88
310.26	214.88
310.49	220.88
310.72	228.88
310.949	271.88
311.179	271.88
311.409	283.88
311.639	398.88
311.868	535.88
312.098	603.88
312.328	604.88
312.557	592.88
312.787	575.88
313.017	568.88
313.246	593.88
313.476	554.88
313.706	435.88
313.935	363.88
314.165	301.88
314.394	286.88
314.624	294.88
314.853	317.88
315.083	301.88
315.312	275.88
315.542	241.88
315.771	220.88
316.001	209.88
316.23	218.88
316.46	217.88
316.689	203.88
316.919	212.88
317.148	225.88
317.377	232.88
317.607	253.88
317.836	272.88
318.065	307.88
318.295	338.88
318.524	271.88
318.753	229.88
318.983	241.88
319.212	220.88
319.441	251.88
319.67	285.88
319.9	304.88
320.129	271.88
320.358	260.88
320.587	237.88
320.816	251.88
321.046	295.88
321.275	276.88
321.504	250.88
321.733	279.88
321.962	273.88
322.191	227.88
322.42	199.88
322.649	210.88
322.878	193.88
323.108	215.88
323.337	253.88
323.566	257.88
323.795	241.88
324.024	235.88
324.253	217.88
324.482	205.88
324.71	194.88
324.939	186.88
325.168	206.88
325.397	212.88
325.626	195.88
325.855	205.88
326.084	206.88
326.313	216.88
326.542	215.88
326.77	216.88
326.999	213.88
327.228	219.88
327.457	218.88
327.686	190.88
327.914	182.88
328.143	197.88
328.372	185.88
328.6	195.88
328.829	214.88
329.058	207.88
329.287	221.88
329.515	216.88
329.744	234.88
329.972	203.88
330.201	221.88
330.43	238.88
330.658	255.88
330.887	278.88
331.115	267.88
331.344	280.88
331.572	264.88
331.801	235.88
332.03	241.88
332.258	256.88
332.486	290.88
332.715	266.88
332.943	228.88
333.172	252.88
333.4	269.88
333.629	313.88
333.857	325.88
334.085	313.88
334.314	305.88
334.542	293.88
334.771	266.88
334.999	253.88
335.227	254.88
335.455	267.88
335.684	329.88
335.912	404.88
336.14	407.88
336.369	379.88
336.597	380.88
336.825	437.88
337.053	379.88
337.281	281.88
337.51	261.88
337.738	288.88
337.966	313.88
338.194	314.88
338.422	284.88
338.65	239.88
338.878	241.88
339.106	232.88
339.334	275.88
339.562	284.88
339.79	253.88
340.018	271.88
340.246	307.88
340.474	337.88
340.702	319.88
340.93	347.88
341.158	309.88
341.386	220.88
341.614	241.88
341.842	265.88
342.07	322.88
342.298	365.88
342.526	321.88
342.754	260.88
342.981	244.88
343.209	269.88
343.437	266.88
343.665	257.88
343.893	217.88
344.12	221.88
344.348	217.88
344.576	217.88
344.804	216.88
345.031	186.88
345.259	194.88
345.487	219.88
345.714	231.88
345.942	221.88
346.17	191.88
346.397	174.88
346.625	190.88
346.853	195.88
347.08	204.88
347.308	187.88
347.535	187.88
347.763	178.88
347.99	188.88
348.218	188.88
348.445	187.88
348.673	176.88
348.9	172.88
349.128	190.88
349.355	188.88
349.583	174.88
349.81	184.88
350.037	188.88
350.265	183.88
350.492	198.88
350.72	189.88
350.947	183.88
351.174	189.88
351.402	179.88
351.629	177.88
351.856	170.88
352.083	164.88
352.311	185.88
352.538	187.88
352.765	174.88
352.992	179.88
353.22	174.88
353.447	179.88
353.674	171.88
353.901	186.88
354.128	178.88
354.355	173.88
354.583	193.88
354.81	209.88
355.037	185.88
355.264	201.88
355.491	211.88
355.718	205.88
355.945	209.88
356.172	202.88
356.399	212.88
356.626	207.88
356.853	197.88
357.08	205.88
357.307	237.88
357.534	289.88
357.761	320.88
357.988	377.88
358.215	289.88
358.441	261.88
358.668	261.88
358.895	259.88
359.122	267.88
359.349	319.88
359.576	307.88
359.802	222.88
360.029	220.88
360.256	256.88
360.483	309.88
360.709	318.88
360.936	242.88
361.163	203.88
361.39	205.88
361.616	198.88
361.843	195.88
362.07	195.88
362.296	172.88
362.523	177.88
362.749	212.88
362.976	201.88
363.203	228.88
363.429	217.88
363.656	214.88
363.882	229.88
364.109	225.88
364.335	231.88
364.562	203.88
364.788	210.88
365.015	210.88
365.241	198.88
365.468	218.88
365.694	201.88
365.92	209.88
366.147	203.88
366.373	198.88
366.599	188.88
366.826	188.88
367.052	172.88
367.278	193.88
367.505	205.88
367.731	220.88
367.957	222.88
368.184	205.88
368.41	198.88
368.636	204.88
368.862	204.88
369.089	187.88
369.315	195.88
369.541	190.88
369.767	199.88
369.993	196.88
370.219	191.88
370.445	173.88
370.672	180.88
370.898	189.88
371.124	203.88
371.35	198.88
371.576	209.88
371.802	186.88
372.028	185.88
372.254	182.88
372.48	188.88
372.706	181.88
372.932	191.88
373.158	190.88
373.384	183.88
373.61	187.88
373.835	202.88
374.061	211.88
374.287	221.88
374.513	251.88
374.739	219.88
374.965	219.88
375.191	215.88
375.416	201.88
375.642	215.88
375.868	211.88
376.094	204.88
376.319	191.88
376.545	198.88
376.771	195.88
376.997	185.88
377.222	198.88
377.448	178.88
377.674	191.88
377.899	173.88
378.125	186.88
378.35	199.88
378.576	187.88
378.802	186.88
379.027	193.88
379.253	218.88
379.478	198.88
379.704	210.88
379.929	201.88
380.155	197.88
380.38	214.88
380.606	205.88
380.831	212.88
381.057	193.88
381.282	202.88
381.507	218.88
381.733	213.88
381.958	212.88
382.184	213.88
382.409	213.88
382.634	229.88
382.86	208.88
383.085	223.88
383.31	206.88
383.535	212.88
383.761	210.88
383.986	216.88
384.211	221.88
384.436	210.88
384.662	217.88
384.887	237.88
385.112	248.88
385.337	228.88
385.562	249.88
385.787	235.88
386.013	223.88
386.238	237.88
386.463	217.88
386.688	233.88
386.913	220.88
387.138	223.88
387.363	217.88
387.588	214.88
387.813	211.88
388.038	229.88
388.263	215.88
388.488	241.88
388.713	223.88
388.938	221.88
389.163	203.88
389.387	203.88
389.612	199.88
389.837	199.88
390.062	190.88
390.287	206.88
390.512	217.88
390.736	229.88
390.961	219.88
391.186	213.88
391.411	216.88
391.636	237.88
391.86	246.88
392.085	243.88
392.31	233.88
392.534	192.88
392.759	208.88
392.984	218.88
393.208	200.88
393.433	203.88
393.658	199.88
393.882	198.88
394.107	217.88
394.331	224.88
394.556	211.88
394.78	189.88
395.005	203.88
395.229	204.88
395.454	211.88
395.678	201.88
395.903	202.88
396.127	214.88
396.352	227.88
396.576	254.88
396.801	239.88
397.025	254.88
397.249	262.88
397.474	230.88
397.698	252.88
397.922	261.88
398.147	232.88
398.371	254.88
398.595	261.88
398.82	242.88
399.044	256.88
399.268	295.88
399.492	280.88
399.717	247.88
399.941	235.88
400.165	237.88
400.389	245.88
400.613	231.88
400.837	215.88
401.062	239.88
401.286	213.88
401.51	222.88
401.734	217.88
401.958	228.88
402.182	225.88
402.406	230.88
402.63	222.88
402.854	227.88
403.078	208.88
403.302	236.88
403.526	220.88
403.75	230.88
403.974	227.88
404.198	221.88
404.422	243.88
404.645	231.88
404.869	238.88
405.093	241.88
405.317	231.88
405.541	232.88
405.765	223.88
405.988	220.88
406.212	231.88
406.436	227.88
406.66	231.88
406.883	236.88
407.107	237.88
407.331	227.88
407.555	235.88
407.778	230.88
408.002	246.88
408.226	245.88
408.449	218.88
408.673	226.88
408.896	219.88
409.12	213.88
409.344	252.88
409.567	216.88
409.791	219.88
410.014	220.88
410.238	229.88
410.461	217.88
410.685	218.88
410.908	220.88
411.132	244.88
411.355	221.88
411.578	249.88
411.802	221.88
412.025	228.88
412.249	228.88
412.472	226.88
412.695	273.88
412.919	241.88
413.142	235.88
413.365	219.88
413.589	226.88
413.812	238.88
414.035	217.88
414.258	220.88
414.482	202.88
414.705	218.88
414.928	222.88
415.151	209.88
415.374	227.88
415.597	226.88
415.821	214.88
416.044	213.88
416.267	243.88
416.49	231.88
416.713	216.88
416.936	214.88
417.159	213.88
417.382	212.88
417.605	214.88
417.828	218.88
418.051	221.88
418.274	227.88
418.497	209.88
418.72	200.88
418.943	216.88
419.166	232.88
419.389	225.88
419.611	234.88
419.834	234.88
420.057	221.88
420.28	212.88
420.503	219.88
420.726	227.88
420.948	233.88
421.171	231.88
421.394	215.88
421.617	217.88
421.839	215.88
422.062	212.88
422.285	217.88
422.507	220.88
422.73	227.88
422.953	209.88
423.175	216.88
423.398	217.88
423.621	222.88
423.843	220.88
424.066	213.88
424.288	231.88
424.511	220.88
424.733	220.88
424.956	221.88
425.178	264.88
425.401	341.88
425.623	383.88
425.846	275.88
426.068	236.88
426.291	227.88
426.513	241.88
426.735	246.88
426.958	258.88
427.18	259.88
427.402	324.88
427.625	392.88
427.847	278.88
428.069	250.88
428.292	235.88
428.514	239.88
428.736	264.88
428.958	311.88
429.181	337.88
429.403	234.88
429.625	213.88
429.847	229.88
430.069	237.88
430.292	205.88
430.514	214.88
430.736	206.88
430.958	213.88
431.18	202.88
431.402	204.88
431.624	206.88
431.846	192.88
432.068	203.88
432.29	213.88
432.512	229.88
432.734	203.88
432.956	197.88
433.178	201.88
433.4	203.88
433.622	231.88
433.844	252.88
434.066	281.88
434.287	254.88
434.509	252.88
434.731	275.88
434.953	235.88
435.175	255.88
435.397	255.88
435.618	226.88
435.84	219.88
436.062	214.88
436.284	211.88
436.505	213.88
436.727	210.88
436.949	219.88
437.17	220.88
437.392	226.88
437.614	205.88
437.835	209.88
438.057	209.88
438.278	206.88
438.5	203.88
438.721	211.88
438.943	195.88
439.165	204.88
439.386	187.88
439.608	207.88
439.829	211.88
440.05	214.88
440.272	216.88
440.493	196.88
440.715	217.88
440.936	206.88
441.158	213.88
441.379	212.88
441.6	209.88
441.822	195.88
442.043	198.88
442.264	218.88
442.486	235.88
442.707	218.88
442.928	233.88
443.149	225.88
443.371	229.88
443.592	222.88
443.813	209.88
444.034	197.88
444.255	218.88
444.476	235.88
444.698	218.88
444.919	210.88
445.14	298.88
445.361	265.88
445.582	218.88
445.803	217.88
446.024	240.88
446.245	216.88
446.466	221.88
446.687	199.88
446.908	203.88
447.129	195.88
447.35	200.88
447.571	198.88
447.792	200.88
448.013	203.88
448.234	195.88
448.455	211.88
448.675	208.88
448.896	210.88
449.117	221.88
449.338	213.88
449.559	213.88
449.779	237.88
450	235.88
450.221	219.88
450.442	207.88
450.662	195.88
450.883	213.88
451.104	192.88
451.324	235.88
451.545	212.88
451.766	225.88
451.986	218.88
452.207	206.88
452.428	214.88
452.648	218.88
452.869	226.88
453.089	223.88
453.31	210.88
453.53	209.88
453.751	206.88
453.971	217.88
454.192	223.88
454.412	204.88
454.633	206.88
454.853	205.88
455.073	182.88
455.294	185.88
455.514	186.88
455.734	212.88
455.955	236.88
456.175	219.88
456.395	213.88
456.616	199.88
456.836	198.88
457.056	204.88
457.276	195.88
457.497	191.88
457.717	199.88
457.937	177.88
458.157	192.88
458.377	210.88
458.598	202.88
458.818	211.88
459.038	236.88
459.258	217.88
459.478	224.88
459.698	237.88
459.918	220.88
460.138	247.88
460.358	231.88
460.578	215.88
460.798	213.88
461.018	226.88
461.238	218.88
461.458	251.88
461.678	268.88
461.898	268.88
462.118	246.88
462.338	255.88
462.558	245.88
462.777	257.88
462.997	244.88
463.217	242.88
463.437	243.88
463.657	263.88
463.876	246.88
464.096	251.88
464.316	244.88
464.536	265.88
464.755	271.88
464.975	235.88
465.195	251.88
465.414	265.88
465.634	214.88
465.854	207.88
466.073	213.88
466.293	197.88
466.512	226.88
466.732	211.88
466.951	231.88
467.171	223.88
467.391	202.88
467.61	188.88
467.829	199.88
468.049	185.88
468.268	195.88
468.488	203.88
468.707	183.88
468.927	196.88
469.146	200.88
469.365	210.88
469.585	210.88
469.804	217.88
470.023	221.88
470.243	206.88
470.462	210.88
470.681	206.88
470.901	226.88
471.12	218.88
471.339	204.88
471.558	202.88
471.777	223.88
471.997	231.88
472.216	217.88
472.435	226.88
472.654	200.88
472.873	221.88
473.092	219.88
473.311	209.88
473.53	195.88
473.749	216.88
473.968	221.88
474.187	203.88
474.406	199.88
474.625	186.88
474.844	207.88
475.063	199.88
475.282	207.88
475.501	229.88
475.72	251.88
475.939	241.88
476.158	199.88
476.377	217.88
476.596	228.88
476.814	217.88
477.033	225.88
477.252	207.88
477.471	210.88
477.69	227.88
477.908	195.88
478.127	199.88
478.346	227.88
478.564	225.88
478.783	232.88
479.002	242.88
479.22	229.88
479.439	236.88
479.658	235.88
479.876	221.88
480.095	248.88
480.313	249.88
480.532	233.88
480.751	202.88
480.969	214.88
481.188	237.88
481.406	213.88
481.624	232.88
481.843	230.88
482.061	235.88
482.28	227.88
482.498	251.88
482.717	236.88
482.935	241.88
483.153	246.88
483.372	221.88
483.59	231.88
483.808	225.88
484.027	216.88
484.245	221.88
484.463	225.88
484.681	235.88
484.9	224.88
485.118	243.88
485.336	233.88
485.554	219.88
485.772	214.88
485.99	215.88
486.209	244.88
486.427	247.88
486.645	219.88
486.863	236.88
487.081	249.88
487.299	265.88
487.517	254.88
487.735	249.88
487.953	254.88
488.171	250.88
488.389	239.88
488.607	237.88
488.825	276.88
489.043	274.88
489.261	231.88
489.479	231.88
489.696	239.88
489.914	238.88
490.132	234.88
490.35	233.88
490.568	235.88
490.786	251.88
491.003	236.88
491.221	253.88
491.439	239.88
491.657	242.88
491.874	244.88
492.092	253.88
492.31	307.88
492.527	282.88
492.745	245.88
492.963	252.88
493.18	256.88
493.398	253.88
493.615	246.88
493.833	261.88
494.05	234.88
494.268	241.88
494.485	242.88
494.703	251.88
494.92	245.88
495.138	237.88
495.355	264.88
495.573	276.88
495.79	254.88
496.008	263.88
496.225	236.88
496.442	254.88
496.66	253.88
496.877	261.88
497.094	249.88
497.312	253.88
497.529	251.88
497.746	248.88
497.963	271.88
498.181	267.88
498.398	289.88
498.615	289.88
498.832	296.88
499.049	290.88
499.267	302.88
499.484	310.88
499.701	331.88
499.918	355.88
500.135	351.88
500.352	364.88
500.569	383.88
500.786	372.88
501.003	368.88
501.22	352.88
501.437	335.88
501.654	326.88
501.871	299.88
502.088	299.88
502.305	281.88
502.522	271.88
502.739	269.88
502.956	276.88
503.172	275.88
503.389	270.88
503.606	263.88
