Data from StA_HRD10591_017.txt Node
Date: Fri May 16 15:18:53 EDT 2025
User: Yrep
Spectrometer: HR+D1059
Trigger mode: 1
Integration Time (sec): 1.000000E-1
Scans to average: 1
Electric dark correction enabled: true
Nonlinearity correction enabled: false
Boxcar width: 0
XAxis mode: Wavelengths
Number of Pixels in Spectrum: 2048
>>>>>Begin Spectral Data<<<<<
223.165	-26
223.4	-26
223.635	-26
223.869	-10
224.104	-16
224.338	-19
224.573	-6
224.808	-12
225.042	-1
225.277	1
225.511	-1
225.746	-4
225.98	7
226.215	8
226.449	6
226.683	8
226.918	40
227.152	25
227.387	47
227.621	46
227.856	57
228.09	42
228.324	48
228.559	57
228.793	46
229.027	73
229.262	88
229.496	71
229.73	70
229.964	72
230.199	76
230.433	84
230.667	81
230.901	79
231.136	84
231.37	97
231.604	89
231.838	87
232.072	85
232.306	90
232.541	95
232.775	83
233.009	102
233.243	99
233.477	96
233.711	103
233.945	91
234.179	91
234.413	90
234.647	91
234.881	92
235.115	89
235.349	91
235.583	83
235.817	81
236.051	87
236.285	100
236.519	93
236.753	73
236.987	86
237.221	89
237.455	89
237.689	96
237.922	93
238.156	88
238.39	101
238.624	79
238.858	92
239.091	87
239.325	96
239.559	89
239.793	91
240.027	100
240.26	92
240.494	86
240.728	88
240.961	105
241.195	94
241.429	84
241.662	83
241.896	85
242.13	91
242.363	88
242.597	109
242.83	87
243.064	91
243.298	91
243.531	83
243.765	93
243.998	94
244.232	95
244.465	107
244.699	105
244.932	112
245.166	106
245.399	105
245.633	97
245.866	103
246.099	104
246.333	88
246.566	100
246.8	110
247.033	119
247.266	105
247.5	100
247.733	111
247.966	112
248.2	114
248.433	100
248.666	119
248.899	107
249.133	116
249.366	127
249.599	130
249.832	127
250.066	127
250.299	136
250.532	130
250.765	119
250.998	137
251.231	119
251.465	144
251.698	144
251.931	140
252.164	143
252.397	148
252.63	150
252.863	145
253.096	160
253.329	144
253.562	147
253.795	147
254.028	154
254.261	153
254.494	145
254.727	136
254.96	147
255.193	162
255.426	144
255.659	141
255.892	137
256.124	144
256.357	126
256.59	168
256.823	160
257.056	142
257.289	157
257.521	185
257.754	186
257.987	165
258.22	160
258.452	159
258.685	164
258.918	167
259.151	168
259.383	177
259.616	155
259.849	164
260.081	151
260.314	163
260.547	170
260.779	196
261.012	189
261.244	184
261.477	182
261.71	154
261.942	180
262.175	181
262.407	192
262.64	173
262.872	204
263.105	189
263.337	188
263.57	171
263.802	169
264.035	176
264.267	178
264.499	158
264.732	152
264.964	171
265.197	189
265.429	187
265.661	228
265.894	218
266.126	245
266.358	286
266.591	311
266.823	291
267.055	304
267.287	307
267.52	335
267.752	339
267.984	366
268.216	296
268.448	243
268.681	267
268.913	270
269.145	312
269.377	284
269.609	283
269.841	279
270.073	312
270.306	274
270.538	259
270.77	252
271.002	239
271.234	262
271.466	255
271.698	223
271.93	240
272.162	259
272.394	275
272.626	263
272.858	232
273.09	206
273.322	213
273.553	195
273.785	211
274.017	238
274.249	271
274.481	295
274.713	325
274.945	357
275.176	359
275.408	351
275.64	366
275.872	378
276.104	433
276.335	435
276.567	424
276.799	422
277.031	341
277.262	270
277.494	257
277.726	276
277.957	295
278.189	317
278.421	305
278.652	314
278.884	299
279.115	289
279.347	273
279.579	259
279.81	241
280.042	271
280.273	289
280.505	267
280.736	235
280.968	253
281.199	284
281.431	295
281.662	299
281.894	319
282.125	374
282.356	371
282.588	360
282.819	349
283.051	408
283.282	474
283.513	521
283.745	574
283.976	529
284.207	509
284.439	512
284.67	474
284.901	478
285.132	536
285.364	525
285.595	493
285.826	525
286.057	509
286.288	534
286.52	565
286.751	563
286.982	517
287.213	421
287.444	428
287.675	477
287.906	441
288.138	369
288.369	307
288.6	290
288.831	338
289.062	400
289.293	421
289.524	423
289.755	436
289.986	416
290.217	347
290.448	270
290.679	245
290.91	264
291.141	264
291.371	276
291.602	273
291.833	297
292.064	311
292.295	379
292.526	388
292.757	405
292.987	406
293.218	373
293.449	352
293.68	335
293.91	312
294.141	295
294.372	264
294.603	283
294.833	279
295.064	263
295.295	246
295.525	257
295.756	245
295.987	222
296.217	235
296.448	262
296.679	246
296.909	275
297.14	328
297.37	351
297.601	312
297.831	313
298.062	345
298.292	343
298.523	371
298.753	375
298.984	332
299.214	284
299.445	250
299.675	244
299.905	233
300.136	233
300.366	226
300.597	217
300.827	216
301.057	220
301.288	248
301.518	264
301.748	300
301.979	305
302.209	279
302.439	289
302.669	305
302.9	282
303.13	274
303.36	252
303.59	259
303.82	265
304.051	329
304.281	321
304.511	311
304.741	280
304.971	309
305.201	331
305.431	279
305.661	229
305.891	215
306.121	215
306.352	191
306.582	200
306.812	207
307.042	209
307.272	200
307.502	219
307.731	214
307.961	208
308.191	203
308.421	201
308.651	223
308.881	214
309.111	215
309.341	230
309.571	246
309.8	223
310.03	212
310.26	204
310.49	210
310.72	223
310.949	237
311.179	259
311.409	308
311.639	359
311.868	493
312.098	580
312.328	551
312.557	537
312.787	510
313.017	519
313.246	550
313.476	508
313.706	409
313.935	348
314.165	270
314.394	270
314.624	287
314.853	298
315.083	291
315.312	243
315.542	241
315.771	223
316.001	224
316.23	211
316.46	212
316.689	201
316.919	183
317.148	212
317.377	214
317.607	237
317.836	263
318.065	291
318.295	311
318.524	282
318.753	219
318.983	197
319.212	227
319.441	247
319.67	277
319.9	293
320.129	269
320.358	236
320.587	247
320.816	256
321.046	276
321.275	275
321.504	260
321.733	277
321.962	265
322.191	233
322.42	201
322.649	202
322.878	201
323.108	239
323.337	222
323.566	245
323.795	239
324.024	244
324.253	210
324.482	196
324.71	204
324.939	190
325.168	192
325.397	210
325.626	209
325.855	185
326.084	208
326.313	214
326.542	212
326.77	235
326.999	219
327.228	216
327.457	203
327.686	197
327.914	193
328.143	204
328.372	192
328.6	200
328.829	196
329.058	198
329.287	217
329.515	223
329.744	239
329.972	204
330.201	233
330.43	244
330.658	258
330.887	270
331.115	264
331.344	280
331.572	247
331.801	237
332.03	242
332.258	245
332.486	243
332.715	262
332.943	253
333.172	241
333.4	277
333.629	293
333.857	310
334.085	309
334.314	308
334.542	260
334.771	273
334.999	260
335.227	257
335.455	273
335.684	331
335.912	374
336.14	379
336.369	367
336.597	352
336.825	396
337.053	367
337.281	293
337.51	244
337.738	283
337.966	301
338.194	301
338.422	270
338.65	239
338.878	233
339.106	235
339.334	269
339.562	268
339.79	257
340.018	250
340.246	291
340.474	319
340.702	319
340.93	302
341.158	283
341.386	221
341.614	241
341.842	268
342.07	301
342.298	350
342.526	293
342.754	239
342.981	220
343.209	255
343.437	278
343.665	245
343.893	245
344.12	222
344.348	205
344.576	206
344.804	222
345.031	198
345.259	218
345.487	211
345.714	235
345.942	217
346.17	211
346.397	209
346.625	198
346.853	199
347.08	204
347.308	188
347.535	187
347.763	188
347.99	189
348.218	189
348.445	183
348.673	177
348.9	179
349.128	200
349.355	181
349.583	202
349.81	176
350.037	174
350.265	182
350.492	187
350.72	167
350.947	185
351.174	192
351.402	170
351.629	191
351.856	174
352.083	194
352.311	187
352.538	164
352.765	166
352.992	191
353.22	178
353.447	176
353.674	189
353.901	185
354.128	182
354.355	185
354.583	185
354.81	201
355.037	203
355.264	205
355.491	187
355.718	191
355.945	211
356.172	201
356.399	200
356.626	191
356.853	197
357.08	208
357.307	227
357.534	275
357.761	309
357.988	326
358.215	280
358.441	269
358.668	258
358.895	257
359.122	272
359.349	306
359.576	294
359.802	224
360.029	231
360.256	268
360.483	277
360.709	275
360.936	246
361.163	196
361.39	208
361.616	189
361.843	201
362.07	197
362.296	186
362.523	172
362.749	183
362.976	207
363.203	203
363.429	207
363.656	204
363.882	208
364.109	230
364.335	223
364.562	193
364.788	216
365.015	202
365.241	208
365.468	204
365.694	214
365.92	206
366.147	205
366.373	190
366.599	185
366.826	185
367.052	187
367.278	184
367.505	195
367.731	245
367.957	220
368.184	211
368.41	229
368.636	199
368.862	207
369.089	198
369.315	180
369.541	187
369.767	195
369.993	185
370.219	193
370.445	192
370.672	184
370.898	199
371.124	196
371.35	203
371.576	228
371.802	185
372.028	185
372.254	186
372.48	193
372.706	195
372.932	199
373.158	190
373.384	190
373.61	191
373.835	179
374.061	207
374.287	231
374.513	224
374.739	207
374.965	215
375.191	209
375.416	201
375.642	210
375.868	196
376.094	175
376.319	191
376.545	199
376.771	198
376.997	204
377.222	183
377.448	183
377.674	186
377.899	185
378.125	181
378.35	196
378.576	182
378.802	187
379.027	198
379.253	213
379.478	199
379.704	203
379.929	208
380.155	216
380.38	202
380.606	203
380.831	208
381.057	201
381.282	209
381.507	192
381.733	214
381.958	211
382.184	215
382.409	193
382.634	232
382.86	212
383.085	206
383.31	232
383.535	200
383.761	215
383.986	227
384.211	206
384.436	216
384.662	211
384.887	236
385.112	243
385.337	227
385.562	224
385.787	235
386.013	235
386.238	219
386.463	224
386.688	252
386.913	215
387.138	219
387.363	213
387.588	218
387.813	220
388.038	204
388.263	249
388.488	248
388.713	240
388.938	224
389.163	192
389.387	210
389.612	199
389.837	215
390.062	221
390.287	219
390.512	222
390.736	228
390.961	207
391.186	235
391.411	215
391.636	205
391.86	235
392.085	261
392.31	222
392.534	227
392.759	213
392.984	203
393.208	221
393.433	196
393.658	184
393.882	214
394.107	220
394.331	213
394.556	199
394.78	207
395.005	192
395.229	218
395.454	201
395.678	215
395.903	223
396.127	231
396.352	262
396.576	260
396.801	235
397.025	255
397.249	246
397.474	244
397.698	254
397.922	269
398.147	233
398.371	256
398.595	250
398.82	282
399.044	273
399.268	280
399.492	263
399.717	251
399.941	247
400.165	247
400.389	239
400.613	235
400.837	222
401.062	240
401.286	245
401.51	253
401.734	228
401.958	224
402.182	229
402.406	223
402.63	225
402.854	237
403.078	220
403.302	243
403.526	243
403.75	219
403.974	244
404.198	257
404.422	233
404.645	248
404.869	234
405.093	229
405.317	244
405.541	233
405.765	213
405.988	243
406.212	242
406.436	215
406.66	232
406.883	238
407.107	238
407.331	253
407.555	254
407.778	244
408.002	245
408.226	240
408.449	243
408.673	231
408.896	240
409.12	231
409.344	252
409.567	237
409.791	224
410.014	232
410.238	214
410.461	230
410.685	240
410.908	225
411.132	237
411.355	240
411.578	245
411.802	230
412.025	231
412.249	255
412.472	255
412.695	232
412.919	233
413.142	233
413.365	239
413.589	238
413.812	236
414.035	219
414.258	220
414.482	227
414.705	231
414.928	216
415.151	223
415.374	223
415.597	227
415.821	225
416.044	223
416.267	225
416.49	229
416.713	210
416.936	235
417.159	216
417.382	215
417.605	229
417.828	231
418.051	225
418.274	219
418.497	221
418.72	220
418.943	220
419.166	221
419.389	243
419.611	259
419.834	229
420.057	217
420.28	237
420.503	222
420.726	230
420.948	229
421.171	217
421.394	217
421.617	220
421.839	209
422.062	222
422.285	238
422.507	229
422.73	224
422.953	218
423.175	223
423.398	219
423.621	221
423.843	226
424.066	227
424.288	245
424.511	233
424.733	227
424.956	215
425.178	257
425.401	333
425.623	369
425.846	282
426.068	243
426.291	245
426.513	260
426.735	230
426.958	254
427.18	263
427.402	305
427.625	359
427.847	270
428.069	237
428.292	233
428.514	244
428.736	249
428.958	297
429.181	325
429.403	252
429.625	233
429.847	231
430.069	225
430.292	222
430.514	228
430.736	218
430.958	208
431.18	199
431.402	212
431.624	215
431.846	216
432.068	201
432.29	200
432.512	223
432.734	217
432.956	207
433.178	212
433.4	218
433.622	240
433.844	253
434.066	265
434.287	250
434.509	242
434.731	255
434.953	226
435.175	244
435.397	256
435.618	227
435.84	214
436.062	235
436.284	210
436.505	194
436.727	214
436.949	221
437.17	231
437.392	231
437.614	230
437.835	221
438.057	214
438.278	204
438.5	213
438.721	240
438.943	200
439.165	219
439.386	194
439.608	208
439.829	203
440.05	210
440.272	213
440.493	211
440.715	213
440.936	224
441.158	229
441.379	216
441.6	233
441.822	220
442.043	229
442.264	226
442.486	211
442.707	210
442.928	218
443.149	215
443.371	223
443.592	216
443.813	211
444.034	211
444.255	224
444.476	215
444.698	223
444.919	237
445.14	322
445.361	265
445.582	231
445.803	207
446.024	224
446.245	206
446.466	221
446.687	231
446.908	216
447.129	207
447.35	230
447.571	220
447.792	189
448.013	197
448.234	216
448.455	201
448.675	214
448.896	206
449.117	217
449.338	225
449.559	231
449.779	231
450	235
450.221	206
450.442	215
450.662	227
450.883	182
451.104	199
451.324	195
451.545	205
451.766	198
451.986	207
452.207	205
452.428	227
452.648	217
452.869	222
453.089	214
453.31	206
453.53	200
453.751	204
453.971	207
454.192	230
454.412	208
454.633	222
454.853	221
455.073	187
455.294	200
455.514	204
455.734	224
455.955	227
456.175	227
456.395	214
456.616	228
456.836	212
457.056	192
457.276	207
457.497	204
457.717	197
457.937	208
458.157	215
458.377	220
458.598	202
458.818	223
459.038	232
459.258	227
459.478	240
459.698	235
459.918	220
460.138	236
460.358	228
460.578	230
460.798	220
461.018	226
461.238	214
461.458	229
461.678	263
461.898	259
462.118	244
462.338	251
462.558	278
462.777	263
462.997	257
463.217	248
463.437	251
463.657	249
463.876	255
464.096	247
464.316	253
464.536	262
464.755	252
464.975	266
465.195	263
465.414	260
465.634	220
465.854	206
466.073	204
466.293	202
466.512	223
466.732	214
466.951	186
467.171	205
467.391	215
467.61	213
467.829	204
468.049	200
468.268	209
468.488	195
468.707	199
468.927	196
469.146	197
469.365	200
469.585	215
469.804	233
470.023	222
470.243	214
470.462	212
470.681	224
470.901	212
471.12	217
471.339	215
471.558	189
471.777	208
471.997	241
472.216	217
472.435	215
472.654	206
472.873	206
473.092	207
473.311	226
473.53	217
473.749	202
473.968	212
474.187	214
474.406	196
474.625	200
474.844	187
475.063	209
475.282	219
475.501	209
475.72	220
475.939	233
476.158	208
476.377	212
476.596	209
476.814	215
477.033	211
477.252	210
477.471	220
477.69	202
477.908	219
478.127	241
478.346	224
478.564	225
478.783	233
479.002	240
479.22	258
479.439	232
479.658	236
479.876	233
480.095	249
480.313	245
480.532	233
480.751	245
480.969	239
481.188	234
481.406	248
481.624	235
481.843	221
482.061	212
482.28	249
482.498	245
482.717	232
482.935	241
483.153	247
483.372	214
483.59	227
483.808	237
484.027	247
484.245	222
484.463	225
484.681	238
484.9	240
485.118	240
485.336	228
485.554	225
485.772	240
485.99	221
486.209	247
486.427	248
486.645	257
486.863	229
487.081	238
487.299	254
487.517	257
487.735	246
487.953	256
488.171	251
488.389	249
488.607	232
488.825	276
489.043	249
489.261	243
489.479	224
489.696	238
489.914	231
490.132	238
490.35	246
490.568	253
490.786	247
491.003	237
491.221	236
491.439	253
491.657	258
491.874	265
492.092	251
492.31	289
492.527	283
492.745	237
492.963	251
493.18	265
493.398	243
493.615	245
493.833	267
494.05	237
494.268	252
494.485	238
494.703	246
494.92	247
495.138	235
495.355	247
495.573	272
495.79	262
496.008	258
496.225	251
496.442	248
496.66	263
496.877	250
497.094	263
497.312	264
497.529	271
497.746	265
497.963	272
498.181	280
498.398	288
498.615	299
498.832	283
499.049	310
499.267	317
499.484	322
499.701	332
499.918	370
500.135	372
500.352	391
500.569	396
500.786	388
501.003	367
501.22	376
501.437	341
501.654	308
501.871	302
502.088	299
502.305	287
502.522	289
502.739	300
502.956	275
503.172	284
503.389	280
503.606	284
503.823	288
504.04	273
504.256	269
504.473	281
504.69	279
504.907	272
505.123	274
505.34	255
505.557	216
505.773	240
505.99	253
506.207	249
506.423	240
506.64	250
506.856	237
507.073	231
507.289	223
507.506	240
507.722	225
507.939	243
508.155	237
508.372	244
508.588	233
508.805	229
509.021	236
509.238	222
509.454	209
509.67	249
509.887	233
510.103	233
510.319	240
510.536	226
510.752	220
510.968	213
511.184	215
511.401	223
511.617	219
511.833	224
512.049	219
512.265	223
512.481	223
512.698	223
512.914	241
513.13	221
513.346	223
513.562	220
513.778	224
513.994	234
514.21	239
514.426	227
514.642	250
514.858	245
515.074	218
515.29	229
515.506	207
515.721	217
515.937	237
516.153	216
516.369	229
516.585	214
516.801	264
517.016	266
517.232	241
517.448	249
517.664	240
517.879	256
518.095	257
518.311	252
518.527	250
518.742	259
518.958	243
519.173	243
519.389	266
519.605	256
519.82	244
520.036	253
520.251	281
520.467	410
520.682	745
520.898	799
521.113	607
521.329	319
521.544	244
521.76	250
521.975	237
522.19	247
522.406	238
522.621	260
522.836	252
523.052	221
523.267	200
523.482	230
523.698	207
523.913	232
524.128	243
524.343	231
524.559	244
524.774	224
524.989	274
525.204	231
525.419	222
525.634	239
525.849	249
526.064	239
526.28	240
526.495	287
526.71	295
526.925	227
527.14	231
527.355	244
527.57	274
527.785	306
527.999	259
528.214	251
528.429	218
528.644	226
528.859	220
529.074	240
529.289	259
529.503	234
529.718	284
529.933	412
530.148	315
530.363	238
530.577	226
530.792	234
531.007	241
531.221	224
531.436	219
531.651	224
531.865	236
532.08	227
532.295	225
532.509	255
532.724	275
532.938	313
533.153	335
533.367	273
533.582	259
533.796	251
534.011	252
534.225	241
534.44	266
534.654	309
534.868	357
535.083	300
535.297	256
535.511	270
535.726	309
535.94	255
536.154	242
536.369	243
536.583	207
536.797	207
537.011	228
537.225	243
537.44	241
537.654	242
537.868	228
538.082	241
538.296	218
538.51	247
538.724	251
538.938	253
539.153	239
539.367	217
539.581	245
539.795	243
540.009	266
540.222	240
540.436	245
540.65	260
540.864	273
541.078	339
541.292	332
541.506	231
541.72	239
541.934	231
542.147	227
542.361	227
542.575	234
542.789	202
543.002	237
543.216	216
543.43	220
543.644	239
543.857	234
544.071	212
544.285	217
544.498	227
544.712	234
544.925	221
545.139	235
545.352	219
545.566	205
545.779	219
545.993	203
546.206	217
546.42	212
546.633	222
546.847	231
547.06	206
547.274	218
547.487	207
547.7	207
547.914	232
548.127	221
548.34	218
548.554	210
548.767	212
548.98	239
549.193	227
549.407	222
549.62	204
549.833	212
550.046	231
550.259	237
550.473	248
550.686	231
550.899	234
551.112	213
551.325	216
551.538	220
551.751	216
551.964	262
552.177	224
552.39	231
552.603	237
552.816	255
553.029	222
553.242	248
553.455	269
553.667	238
553.88	225
554.093	218
554.306	215
554.519	216
554.732	201
554.944	214
555.157	211
555.37	218
555.583	227
555.795	219
556.008	204
556.221	213
556.433	218
556.646	193
556.859	214
557.071	202
557.284	221
557.496	205
557.709	212
557.921	210
558.134	195
558.346	209
558.559	226
558.771	206
558.984	205
559.196	198
559.409	192
559.621	186
559.833	201
560.046	206
560.258	217
560.47	204
560.683	212
560.895	199
561.107	194
561.32	176
561.532	184
561.744	201
561.956	201
562.168	189
562.381	208
562.593	200
562.805	202
563.017	181
563.229	183
563.441	176
563.653	200
563.865	207
564.077	200
564.289	205
564.501	207
564.713	232
564.925	214
565.137	215
565.349	210
565.561	193
565.773	210
