Data from StA_HRD10591_009.txt Node
Date: Fri May 16 15:18:49 EDT 2025
User: Yrep
Spectrometer: HR+D1059
Trigger mode: 1
Integration Time (sec): 1.000000E-1
Scans to average: 1
Electric dark correction enabled: true
Nonlinearity correction enabled: false
Boxcar width: 0
XAxis mode: Wavelengths
Number of Pixels in Spectrum: 2048
>>>>>Begin Spectral Data<<<<<
223.165	-20.25
223.4	-20.25
223.635	-20.25
223.869	-24.25
224.104	-20.25
224.338	-26.25
224.573	-18.25
224.808	-19.25
225.042	-4.25
225.277	-6.25
225.511	5.75
225.746	11.75
225.98	8.75
226.215	9.75
226.449	25.75
226.683	13.75
226.918	23.75
227.152	39.75
227.387	35.75
227.621	46.75
227.856	59.75
228.09	41.75
228.324	40.75
228.559	71.75
228.793	57.75
229.027	74.75
229.262	89.75
229.496	93.75
229.73	69.75
229.964	83.75
230.199	81.75
230.433	79.75
230.667	86.75
230.901	99.75
231.136	99.75
231.37	87.75
231.604	97.75
231.838	96.75
232.072	85.75
232.306	105.75
232.541	92.75
232.775	95.75
233.009	79.75
233.243	106.75
233.477	103.75
233.711	94.75
233.945	103.75
234.179	94.75
234.413	95.75
234.647	82.75
234.881	86.75
235.115	99.75
235.349	84.75
235.583	78.75
235.817	92.75
236.051	105.75
236.285	84.75
236.519	100.75
236.753	103.75
236.987	96.75
237.221	90.75
237.455	95.75
237.689	102.75
237.922	82.75
238.156	89.75
238.39	87.75
238.624	82.75
238.858	87.75
239.091	92.75
239.325	104.75
239.559	94.75
239.793	89.75
240.027	100.75
240.26	94.75
240.494	99.75
240.728	79.75
240.961	95.75
241.195	104.75
241.429	103.75
241.662	95.75
241.896	99.75
242.13	88.75
242.363	86.75
242.597	78.75
242.83	101.75
243.064	103.75
243.298	94.75
243.531	89.75
243.765	90.75
243.998	94.75
244.232	114.75
244.465	112.75
244.699	71.75
244.932	115.75
245.166	107.75
245.399	111.75
245.633	103.75
245.866	77.75
246.099	99.75
246.333	89.75
246.566	103.75
246.8	100.75
247.033	121.75
247.266	111.75
247.5	101.75
247.733	119.75
247.966	111.75
248.2	125.75
248.433	107.75
248.666	116.75
248.899	130.75
249.133	123.75
249.366	133.75
249.599	129.75
249.832	127.75
250.066	133.75
250.299	131.75
250.532	132.75
250.765	101.75
250.998	123.75
251.231	128.75
251.465	127.75
251.698	122.75
251.931	146.75
252.164	149.75
252.397	143.75
252.63	139.75
252.863	147.75
253.096	141.75
253.329	141.75
253.562	156.75
253.795	119.75
254.028	139.75
254.261	137.75
254.494	128.75
254.727	140.75
254.96	148.75
255.193	155.75
255.426	142.75
255.659	138.75
255.892	148.75
256.124	138.75
256.357	165.75
256.59	163.75
256.823	147.75
257.056	153.75
257.289	146.75
257.521	149.75
257.754	132.75
257.987	147.75
258.22	136.75
258.452	149.75
258.685	150.75
258.918	160.75
259.151	155.75
259.383	154.75
259.616	153.75
259.849	166.75
260.081	160.75
260.314	144.75
260.547	158.75
260.779	164.75
261.012	179.75
261.244	163.75
261.477	160.75
261.71	165.75
261.942	175.75
262.175	175.75
262.407	172.75
262.64	183.75
262.872	187.75
263.105	191.75
263.337	186.75
263.57	179.75
263.802	167.75
264.035	160.75
264.267	165.75
264.499	160.75
264.732	156.75
264.964	159.75
265.197	185.75
265.429	197.75
265.661	204.75
265.894	214.75
266.126	230.75
266.358	251.75
266.591	285.75
266.823	279.75
267.055	275.75
267.287	281.75
267.52	298.75
267.752	319.75
267.984	319.75
268.216	260.75
268.448	221.75
268.681	224.75
268.913	266.75
269.145	263.75
269.377	279.75
269.609	240.75
269.841	261.75
270.073	291.75
270.306	249.75
270.538	224.75
270.77	219.75
271.002	228.75
271.234	224.75
271.466	236.75
271.698	204.75
271.93	234.75
272.162	259.75
272.394	240.75
272.626	258.75
272.858	207.75
273.09	199.75
273.322	193.75
273.553	186.75
273.785	199.75
274.017	205.75
274.249	244.75
274.481	273.75
274.713	283.75
274.945	311.75
275.176	328.75
275.408	311.75
275.64	320.75
275.872	371.75
276.104	372.75
276.335	367.75
276.567	377.75
276.799	366.75
277.031	332.75
277.262	257.75
277.494	241.75
277.726	266.75
277.957	287.75
278.189	288.75
278.421	283.75
278.652	275.75
278.884	272.75
279.115	277.75
279.347	264.75
279.579	243.75
279.81	235.75
280.042	262.75
280.273	270.75
280.505	224.75
280.736	232.75
280.968	247.75
281.199	280.75
281.431	298.75
281.662	274.75
281.894	283.75
282.125	321.75
282.356	359.75
282.588	340.75
282.819	317.75
283.051	363.75
283.282	433.75
283.513	468.75
283.745	501.75
283.976	488.75
284.207	456.75
284.439	456.75
284.67	429.75
284.901	408.75
285.132	455.75
285.364	475.75
285.595	459.75
285.826	449.75
286.057	442.75
286.288	476.75
286.52	489.75
286.751	493.75
286.982	445.75
287.213	400.75
287.444	381.75
287.675	413.75
287.906	385.75
288.138	319.75
288.369	296.75
288.6	292.75
288.831	295.75
289.062	350.75
289.293	384.75
289.524	385.75
289.755	382.75
289.986	381.75
290.217	305.75
290.448	253.75
290.679	240.75
290.91	234.75
291.141	243.75
291.371	246.75
291.602	248.75
291.833	282.75
292.064	286.75
292.295	338.75
292.526	355.75
292.757	352.75
292.987	372.75
293.218	341.75
293.449	302.75
293.68	331.75
293.91	282.75
294.141	261.75
294.372	236.75
294.603	245.75
294.833	255.75
295.064	253.75
295.295	237.75
295.525	238.75
295.756	247.75
295.987	230.75
296.217	233.75
296.448	251.75
296.679	239.75
296.909	262.75
297.14	295.75
297.37	318.75
297.601	302.75
297.831	291.75
298.062	308.75
298.292	307.75
298.523	325.75
298.753	359.75
298.984	327.75
299.214	274.75
299.445	245.75
299.675	218.75
299.905	219.75
300.136	219.75
300.366	214.75
300.597	225.75
300.827	210.75
301.057	206.75
301.288	244.75
301.518	259.75
301.748	273.75
301.979	276.75
302.209	268.75
302.439	249.75
302.669	257.75
302.9	286.75
303.13	261.75
303.36	247.75
303.59	244.75
303.82	245.75
304.051	295.75
304.281	313.75
304.511	283.75
304.741	259.75
304.971	268.75
305.201	283.75
305.431	248.75
305.661	218.75
305.891	233.75
306.121	207.75
306.352	208.75
306.582	207.75
306.812	200.75
307.042	195.75
307.272	184.75
307.502	199.75
307.731	205.75
307.961	209.75
308.191	195.75
308.421	202.75
308.651	187.75
308.881	198.75
309.111	200.75
309.341	200.75
309.571	238.75
309.8	222.75
310.03	187.75
310.26	217.75
310.49	209.75
310.72	232.75
310.949	247.75
311.179	240.75
311.409	268.75
311.639	332.75
311.868	428.75
312.098	505.75
312.328	500.75
312.557	497.75
312.787	459.75
313.017	453.75
313.246	472.75
313.476	436.75
313.706	355.75
313.935	317.75
314.165	265.75
314.394	261.75
314.624	266.75
314.853	261.75
315.083	280.75
315.312	234.75
315.542	205.75
315.771	215.75
316.001	209.75
316.23	205.75
316.46	192.75
316.689	198.75
316.919	199.75
317.148	192.75
317.377	211.75
317.607	202.75
317.836	239.75
318.065	279.75
318.295	280.75
318.524	247.75
318.753	228.75
318.983	216.75
319.212	207.75
319.441	229.75
319.67	259.75
319.9	268.75
320.129	254.75
320.358	223.75
320.587	209.75
320.816	234.75
321.046	252.75
321.275	267.75
321.504	254.75
321.733	229.75
321.962	234.75
322.191	212.75
322.42	200.75
322.649	197.75
322.878	206.75
323.108	214.75
323.337	222.75
323.566	225.75
323.795	224.75
324.024	212.75
324.253	197.75
324.482	176.75
324.71	187.75
324.939	198.75
325.168	221.75
325.397	185.75
325.626	201.75
325.855	202.75
326.084	204.75
326.313	200.75
326.542	215.75
326.77	208.75
326.999	217.75
327.228	225.75
327.457	199.75
327.686	197.75
327.914	185.75
328.143	203.75
328.372	181.75
328.6	187.75
328.829	191.75
329.058	213.75
329.287	213.75
329.515	225.75
329.744	215.75
329.972	208.75
330.201	209.75
330.43	225.75
330.658	234.75
330.887	252.75
331.115	245.75
331.344	236.75
331.572	236.75
331.801	225.75
332.03	234.75
332.258	236.75
332.486	246.75
332.715	241.75
332.943	247.75
333.172	244.75
333.4	246.75
333.629	284.75
333.857	304.75
334.085	291.75
334.314	291.75
334.542	267.75
334.771	253.75
334.999	239.75
335.227	247.75
335.455	257.75
335.684	269.75
335.912	353.75
336.14	337.75
336.369	311.75
336.597	324.75
336.825	361.75
337.053	346.75
337.281	276.75
337.51	234.75
337.738	259.75
337.966	270.75
338.194	273.75
338.422	260.75
338.65	221.75
338.878	205.75
339.106	239.75
339.334	260.75
339.562	243.75
339.79	221.75
340.018	235.75
340.246	270.75
340.474	292.75
340.702	276.75
340.93	291.75
341.158	269.75
341.386	211.75
341.614	217.75
341.842	231.75
342.07	301.75
342.298	328.75
342.526	275.75
342.754	219.75
342.981	218.75
343.209	251.75
343.437	252.75
343.665	237.75
343.893	209.75
344.12	209.75
344.348	206.75
344.576	213.75
344.804	206.75
345.031	190.75
345.259	192.75
345.487	205.75
345.714	201.75
345.942	198.75
346.17	197.75
346.397	194.75
346.625	202.75
346.853	198.75
347.08	184.75
347.308	181.75
347.535	188.75
347.763	179.75
347.99	171.75
348.218	187.75
348.445	192.75
348.673	176.75
348.9	197.75
349.128	176.75
349.355	183.75
349.583	189.75
349.81	187.75
350.037	166.75
350.265	169.75
350.492	170.75
350.72	185.75
350.947	183.75
351.174	182.75
351.402	195.75
351.629	187.75
351.856	171.75
352.083	160.75
352.311	187.75
352.538	175.75
352.765	164.75
352.992	192.75
353.22	185.75
353.447	176.75
353.674	185.75
353.901	170.75
354.128	167.75
354.355	179.75
354.583	191.75
354.81	188.75
355.037	197.75
355.264	187.75
355.491	198.75
355.718	186.75
355.945	204.75
356.172	197.75
356.399	195.75
356.626	204.75
356.853	192.75
357.08	195.75
357.307	223.75
357.534	249.75
357.761	287.75
357.988	315.75
358.215	268.75
358.441	237.75
358.668	219.75
358.895	229.75
359.122	248.75
359.349	279.75
359.576	285.75
359.802	215.75
360.029	201.75
360.256	236.75
360.483	281.75
360.709	258.75
360.936	215.75
361.163	213.75
361.39	180.75
361.616	183.75
361.843	189.75
362.07	183.75
362.296	184.75
362.523	188.75
362.749	201.75
362.976	208.75
363.203	208.75
363.429	219.75
363.656	213.75
363.882	203.75
364.109	215.75
364.335	197.75
364.562	190.75
364.788	208.75
365.015	200.75
365.241	207.75
365.468	200.75
365.694	184.75
365.92	191.75
366.147	183.75
366.373	181.75
366.599	191.75
366.826	183.75
367.052	176.75
367.278	181.75
367.505	182.75
367.731	213.75
367.957	206.75
368.184	193.75
368.41	193.75
368.636	211.75
368.862	196.75
369.089	187.75
369.315	177.75
369.541	187.75
369.767	163.75
369.993	177.75
370.219	172.75
370.445	171.75
370.672	183.75
370.898	176.75
371.124	193.75
371.35	199.75
371.576	204.75
371.802	184.75
372.028	177.75
372.254	192.75
372.48	185.75
372.706	187.75
372.932	187.75
373.158	187.75
373.384	199.75
373.61	183.75
373.835	197.75
374.061	191.75
374.287	212.75
374.513	231.75
374.739	209.75
374.965	201.75
375.191	208.75
375.416	172.75
375.642	196.75
375.868	174.75
376.094	179.75
376.319	185.75
376.545	183.75
376.771	166.75
376.997	181.75
377.222	171.75
377.448	193.75
377.674	194.75
377.899	197.75
378.125	173.75
378.35	181.75
378.576	184.75
378.802	179.75
379.027	197.75
379.253	194.75
379.478	194.75
379.704	193.75
379.929	198.75
380.155	174.75
380.38	190.75
380.606	172.75
380.831	195.75
381.057	203.75
381.282	201.75
381.507	203.75
381.733	212.75
381.958	189.75
382.184	214.75
382.409	186.75
382.634	214.75
382.86	204.75
383.085	204.75
383.31	208.75
383.535	199.75
383.761	206.75
383.986	198.75
384.211	211.75
384.436	220.75
384.662	217.75
384.887	233.75
385.112	219.75
385.337	236.75
385.562	208.75
385.787	234.75
386.013	217.75
386.238	217.75
386.463	212.75
386.688	202.75
386.913	200.75
387.138	206.75
387.363	204.75
387.588	219.75
387.813	225.75
388.038	192.75
388.263	225.75
388.488	224.75
388.713	229.75
388.938	198.75
389.163	214.75
389.387	206.75
389.612	212.75
389.837	215.75
390.062	207.75
390.287	219.75
390.512	215.75
390.736	227.75
390.961	221.75
391.186	211.75
391.411	211.75
391.636	219.75
391.86	240.75
392.085	231.75
392.31	212.75
392.534	202.75
392.759	203.75
392.984	219.75
393.208	194.75
393.433	181.75
393.658	203.75
393.882	189.75
394.107	208.75
394.331	200.75
394.556	201.75
394.78	217.75
395.005	189.75
395.229	213.75
395.454	199.75
395.678	187.75
395.903	189.75
396.127	204.75
396.352	237.75
396.576	246.75
396.801	241.75
397.025	258.75
397.249	249.75
397.474	242.75
397.698	223.75
397.922	245.75
398.147	229.75
398.371	253.75
398.595	247.75
398.82	237.75
399.044	250.75
399.268	265.75
399.492	277.75
399.717	254.75
399.941	245.75
400.165	246.75
400.389	230.75
400.613	219.75
400.837	233.75
401.062	230.75
401.286	218.75
401.51	235.75
401.734	206.75
401.958	217.75
402.182	228.75
402.406	223.75
402.63	219.75
402.854	223.75
403.078	218.75
403.302	233.75
403.526	236.75
403.75	222.75
403.974	211.75
404.198	216.75
404.422	237.75
404.645	220.75
404.869	233.75
405.093	233.75
405.317	232.75
405.541	236.75
405.765	236.75
405.988	234.75
406.212	239.75
406.436	233.75
406.66	237.75
406.883	239.75
407.107	236.75
407.331	225.75
407.555	236.75
407.778	241.75
408.002	233.75
408.226	244.75
408.449	245.75
408.673	220.75
408.896	221.75
409.12	227.75
409.344	216.75
409.567	220.75
409.791	226.75
410.014	214.75
410.238	221.75
410.461	208.75
410.685	214.75
410.908	220.75
411.132	238.75
411.355	233.75
411.578	229.75
411.802	204.75
412.025	231.75
412.249	241.75
412.472	236.75
412.695	233.75
412.919	238.75
413.142	227.75
413.365	228.75
413.589	223.75
413.812	235.75
414.035	239.75
414.258	221.75
414.482	227.75
414.705	221.75
414.928	217.75
415.151	217.75
415.374	213.75
415.597	215.75
415.821	209.75
416.044	194.75
416.267	224.75
416.49	219.75
416.713	216.75
416.936	217.75
417.159	206.75
417.382	216.75
417.605	217.75
417.828	214.75
418.051	214.75
418.274	223.75
418.497	206.75
418.72	205.75
418.943	213.75
419.166	220.75
419.389	229.75
419.611	237.75
419.834	225.75
420.057	228.75
420.28	215.75
420.503	223.75
420.726	217.75
420.948	221.75
421.171	230.75
421.394	212.75
421.617	212.75
421.839	230.75
422.062	211.75
422.285	221.75
422.507	220.75
422.73	218.75
422.953	215.75
423.175	227.75
423.398	213.75
423.621	221.75
423.843	222.75
424.066	213.75
424.288	234.75
424.511	216.75
424.733	235.75
424.956	213.75
425.178	243.75
425.401	330.75
425.623	348.75
425.846	248.75
426.068	241.75
426.291	232.75
426.513	237.75
426.735	227.75
426.958	247.75
427.18	255.75
427.402	286.75
427.625	335.75
427.847	267.75
428.069	210.75
428.292	215.75
428.514	222.75
428.736	229.75
428.958	281.75
429.181	297.75
429.403	227.75
429.625	224.75
429.847	234.75
430.069	233.75
430.292	218.75
430.514	213.75
430.736	209.75
430.958	211.75
431.18	186.75
431.402	197.75
431.624	185.75
431.846	202.75
432.068	216.75
432.29	195.75
432.512	186.75
432.734	211.75
432.956	193.75
433.178	205.75
433.4	216.75
433.622	224.75
433.844	264.75
434.066	260.75
434.287	237.75
434.509	248.75
434.731	237.75
434.953	229.75
435.175	268.75
435.397	260.75
435.618	206.75
435.84	218.75
436.062	213.75
436.284	224.75
436.505	217.75
436.727	205.75
436.949	227.75
437.17	224.75
437.392	211.75
437.614	203.75
437.835	203.75
438.057	223.75
438.278	217.75
438.5	213.75
438.721	207.75
438.943	201.75
439.165	204.75
439.386	203.75
439.608	212.75
439.829	187.75
440.05	198.75
440.272	187.75
440.493	195.75
440.715	203.75
440.936	207.75
441.158	228.75
441.379	215.75
441.6	208.75
441.822	212.75
442.043	185.75
442.264	212.75
442.486	217.75
442.707	217.75
442.928	214.75
443.149	224.75
443.371	213.75
443.592	211.75
443.813	208.75
444.034	227.75
444.255	233.75
444.476	216.75
444.698	218.75
444.919	216.75
445.14	315.75
445.361	253.75
445.582	224.75
445.803	200.75
446.024	214.75
446.245	211.75
446.466	216.75
446.687	207.75
446.908	201.75
447.129	197.75
447.35	203.75
447.571	206.75
447.792	184.75
448.013	186.75
448.234	195.75
448.455	198.75
448.675	188.75
448.896	206.75
449.117	208.75
449.338	188.75
449.559	201.75
449.779	219.75
450	233.75
450.221	217.75
450.442	202.75
450.662	198.75
450.883	190.75
451.104	181.75
451.324	220.75
451.545	209.75
451.766	219.75
451.986	212.75
452.207	199.75
452.428	222.75
452.648	217.75
452.869	227.75
453.089	218.75
453.31	227.75
453.53	192.75
453.751	197.75
453.971	192.75
454.192	212.75
454.412	196.75
454.633	203.75
454.853	216.75
455.073	187.75
455.294	189.75
455.514	194.75
455.734	215.75
455.955	229.75
456.175	211.75
456.395	213.75
456.616	200.75
456.836	190.75
457.056	202.75
457.276	195.75
457.497	197.75
457.717	183.75
457.937	193.75
458.157	208.75
458.377	191.75
458.598	197.75
458.818	203.75
459.038	217.75
459.258	202.75
459.478	215.75
459.698	225.75
459.918	217.75
460.138	227.75
460.358	227.75
460.578	230.75
460.798	229.75
461.018	213.75
461.238	229.75
461.458	240.75
461.678	252.75
461.898	254.75
462.118	238.75
462.338	247.75
462.558	255.75
462.777	251.75
462.997	251.75
463.217	243.75
463.437	261.75
463.657	250.75
463.876	228.75
464.096	231.75
464.316	251.75
464.536	235.75
464.755	264.75
464.975	253.75
465.195	271.75
465.414	263.75
465.634	220.75
465.854	222.75
466.073	178.75
466.293	213.75
466.512	214.75
466.732	202.75
466.951	211.75
467.171	215.75
467.391	203.75
467.61	213.75
467.829	195.75
468.049	197.75
468.268	196.75
468.488	193.75
468.707	198.75
468.927	192.75
469.146	215.75
469.365	210.75
469.585	190.75
469.804	199.75
470.023	211.75
470.243	197.75
470.462	219.75
470.681	204.75
470.901	203.75
471.12	215.75
471.339	191.75
471.558	193.75
471.777	208.75
471.997	215.75
472.216	219.75
472.435	205.75
472.654	202.75
472.873	200.75
473.092	224.75
473.311	208.75
473.53	204.75
473.749	219.75
473.968	191.75
474.187	194.75
474.406	199.75
474.625	202.75
474.844	204.75
475.063	193.75
475.282	204.75
475.501	211.75
475.72	218.75
475.939	228.75
476.158	193.75
476.377	209.75
476.596	202.75
476.814	223.75
477.033	208.75
477.252	219.75
477.471	213.75
477.69	201.75
477.908	225.75
478.127	216.75
478.346	225.75
478.564	204.75
478.783	240.75
479.002	246.75
479.22	248.75
479.439	231.75
479.658	232.75
479.876	225.75
480.095	231.75
480.313	237.75
480.532	234.75
480.751	233.75
480.969	241.75
481.188	215.75
481.406	235.75
481.624	222.75
481.843	219.75
482.061	229.75
482.28	228.75
482.498	233.75
482.717	217.75
482.935	231.75
483.153	229.75
483.372	218.75
483.59	224.75
483.808	227.75
484.027	216.75
484.245	214.75
484.463	236.75
484.681	249.75
484.9	233.75
485.118	224.75
485.336	230.75
485.554	210.75
485.772	237.75
485.99	221.75
486.209	247.75
486.427	235.75
486.645	247.75
486.863	237.75
487.081	235.75
487.299	253.75
487.517	239.75
487.735	246.75
487.953	223.75
488.171	247.75
488.389	227.75
488.607	243.75
488.825	273.75
489.043	222.75
489.261	225.75
489.479	245.75
489.696	240.75
489.914	232.75
490.132	237.75
490.35	243.75
490.568	246.75
490.786	230.75
491.003	230.75
491.221	239.75
491.439	254.75
491.657	238.75
491.874	241.75
492.092	249.75
492.31	283.75
492.527	286.75
492.745	236.75
492.963	247.75
493.18	253.75
493.398	241.75
493.615	259.75
493.833	260.75
494.05	249.75
494.268	252.75
494.485	238.75
494.703	231.75
494.92	240.75
495.138	238.75
495.355	237.75
495.573	276.75
495.79	254.75
496.008	254.75
496.225	250.75
496.442	254.75
496.66	267.75
496.877	256.75
497.094	258.75
497.312	257.75
497.529	270.75
497.746	279.75
497.963	285.75
498.181	268.75
498.398	261.75
498.615	279.75
498.832	291.75
499.049	299.75
499.267	302.75
499.484	333.75
499.701	337.75
499.918	354.75
500.135	375.75
500.352	367.75
500.569	384.75
500.786	386.75
501.003	367.75
501.22	341.75
501.437	331.75
501.654	313.75
501.871	306.75
502.088	303.75
502.305	278.75
502.522	275.75
502.739	274.75
502.956	275.75
503.172	275.75
503.389	268.75
503.606	263.75
