Data from StA_HRD10591_038.txt Node
Date: Fri May 16 15:19:03 EDT 2025
User: Yrep
Spectrometer: HR+D1059
Trigger mode: 1
Integration Time (sec): 1.000000E-1
Scans to average: 1
Electric dark correction enabled: true
Nonlinearity correction enabled: false
Boxcar width: 0
XAxis mode: Wavelengths
Number of Pixels in Spectrum: 2048
>>>>>Begin Spectral Data<<<<<
223.165	-10.06
223.4	-10.06
223.635	-10.06
223.869	-14.06
224.104	-20.06
224.338	-19.06
224.573	-17.06
224.808	-9.06
225.042	-16.06
225.277	-7.06
225.511	-5.06
225.746	4.94
225.98	7.94
226.215	13.94
226.449	11.94
226.683	13.94
226.918	24.94
227.152	39.94
227.387	35.94
227.621	43.94
227.856	54.94
228.09	49.94
228.324	51.94
228.559	66.94
228.793	65.94
229.027	59.94
229.262	69.94
229.496	76.94
229.73	83.94
229.964	91.94
230.199	89.94
230.433	76.94
230.667	87.94
230.901	85.94
231.136	90.94
231.37	92.94
231.604	93.94
231.838	79.94
232.072	109.94
232.306	113.94
232.541	103.94
232.775	100.94
233.009	86.94
233.243	92.94
233.477	97.94
233.711	89.94
233.945	83.94
234.179	79.94
234.413	88.94
234.647	101.94
234.881	85.94
235.115	97.94
235.349	90.94
235.583	81.94
235.817	87.94
236.051	83.94
236.285	88.94
236.519	96.94
236.753	89.94
236.987	73.94
237.221	96.94
237.455	103.94
237.689	84.94
237.922	89.94
238.156	97.94
238.39	88.94
238.624	98.94
238.858	88.94
239.091	94.94
239.325	84.94
239.559	90.94
239.793	94.94
240.027	103.94
240.26	93.94
240.494	97.94
240.728	95.94
240.961	91.94
241.195	94.94
241.429	109.94
241.662	97.94
241.896	96.94
242.13	99.94
242.363	101.94
242.597	100.94
242.83	83.94
243.064	104.94
243.298	107.94
243.531	103.94
243.765	100.94
243.998	97.94
244.232	101.94
244.465	99.94
244.699	105.94
244.932	109.94
245.166	107.94
245.399	108.94
245.633	107.94
245.866	103.94
246.099	102.94
246.333	102.94
246.566	96.94
246.8	121.94
247.033	129.94
247.266	97.94
247.5	97.94
247.733	125.94
247.966	116.94
248.2	126.94
248.433	120.94
248.666	135.94
248.899	127.94
249.133	134.94
249.366	118.94
249.599	144.94
249.832	130.94
250.066	131.94
250.299	117.94
250.532	120.94
250.765	123.94
250.998	135.94
251.231	129.94
251.465	125.94
251.698	142.94
251.931	146.94
252.164	146.94
252.397	153.94
252.63	143.94
252.863	140.94
253.096	141.94
253.329	167.94
253.562	139.94
253.795	149.94
254.028	163.94
254.261	156.94
254.494	127.94
254.727	145.94
254.96	154.94
255.193	148.94
255.426	149.94
255.659	134.94
255.892	142.94
256.124	137.94
256.357	156.94
256.59	149.94
256.823	159.94
257.056	160.94
257.289	163.94
257.521	154.94
257.754	172.94
257.987	156.94
258.22	170.94
258.452	171.94
258.685	168.94
258.918	174.94
259.151	168.94
259.383	160.94
259.616	173.94
259.849	188.94
260.081	175.94
260.314	170.94
260.547	166.94
260.779	169.94
261.012	181.94
261.244	195.94
261.477	188.94
261.71	167.94
261.942	199.94
262.175	186.94
262.407	194.94
262.64	192.94
262.872	197.94
263.105	199.94
263.337	184.94
263.57	185.94
263.802	187.94
264.035	169.94
264.267	196.94
264.499	171.94
264.732	170.94
264.964	190.94
265.197	183.94
265.429	197.94
265.661	225.94
265.894	224.94
266.126	253.94
266.358	304.94
266.591	330.94
266.823	320.94
267.055	319.94
267.287	324.94
267.52	357.94
267.752	331.94
267.984	379.94
268.216	295.94
268.448	258.94
268.681	235.94
268.913	303.94
269.145	299.94
269.377	279.94
269.609	293.94
269.841	291.94
270.073	322.94
270.306	276.94
270.538	261.94
270.77	238.94
271.002	243.94
271.234	277.94
271.466	251.94
271.698	238.94
271.93	249.94
272.162	254.94
272.394	269.94
272.626	255.94
272.858	234.94
273.09	217.94
273.322	198.94
273.553	212.94
273.785	199.94
274.017	234.94
274.249	284.94
274.481	320.94
274.713	317.94
274.945	359.94
275.176	375.94
275.408	378.94
275.64	347.94
275.872	408.94
276.104	460.94
276.335	463.94
276.567	443.94
276.799	433.94
277.031	371.94
277.262	265.94
277.494	277.94
277.726	280.94
277.957	292.94
278.189	315.94
278.421	324.94
278.652	313.94
278.884	296.94
279.115	285.94
279.347	285.94
279.579	271.94
279.81	273.94
280.042	279.94
280.273	285.94
280.505	263.94
280.736	236.94
280.968	260.94
281.199	300.94
281.431	307.94
281.662	300.94
281.894	360.94
282.125	382.94
282.356	395.94
282.588	375.94
282.819	342.94
283.051	400.94
283.282	488.94
283.513	550.94
283.745	596.94
283.976	547.94
284.207	522.94
284.439	535.94
284.67	503.94
284.901	478.94
285.132	543.94
285.364	527.94
285.595	526.94
285.826	525.94
286.057	532.94
286.288	526.94
286.52	567.94
286.751	569.94
286.982	514.94
287.213	423.94
287.444	464.94
287.675	473.94
287.906	453.94
288.138	380.94
288.369	330.94
288.6	304.94
288.831	347.94
289.062	404.94
289.293	417.94
289.524	419.94
289.755	439.94
289.986	438.94
290.217	333.94
290.448	279.94
290.679	270.94
290.91	271.94
291.141	277.94
291.371	280.94
291.602	277.94
291.833	307.94
292.064	333.94
292.295	363.94
292.526	393.94
292.757	403.94
292.987	434.94
293.218	365.94
293.449	365.94
293.68	361.94
293.91	321.94
294.141	307.94
294.372	279.94
294.603	280.94
294.833	298.94
295.064	278.94
295.295	260.94
295.525	266.94
295.756	261.94
295.987	245.94
296.217	230.94
296.448	264.94
296.679	264.94
296.909	291.94
297.14	330.94
297.37	360.94
297.601	325.94
297.831	313.94
298.062	348.94
298.292	356.94
298.523	369.94
298.753	394.94
298.984	353.94
299.214	321.94
299.445	253.94
299.675	228.94
299.905	228.94
300.136	223.94
300.366	210.94
300.597	244.94
300.827	213.94
301.057	227.94
301.288	275.94
301.518	297.94
301.748	310.94
301.979	306.94
302.209	294.94
302.439	287.94
302.669	289.94
302.9	301.94
303.13	278.94
303.36	266.94
303.59	259.94
303.82	294.94
304.051	338.94
304.281	356.94
304.511	322.94
304.741	292.94
304.971	312.94
305.201	329.94
305.431	288.94
305.661	250.94
305.891	237.94
306.121	220.94
306.352	222.94
306.582	207.94
306.812	201.94
307.042	206.94
307.272	200.94
307.502	200.94
307.731	206.94
307.961	217.94
308.191	205.94
308.421	209.94
308.651	197.94
308.881	196.94
309.111	208.94
309.341	231.94
309.571	241.94
309.8	222.94
310.03	217.94
310.26	212.94
310.49	221.94
310.72	235.94
310.949	249.94
311.179	285.94
311.409	308.94
311.639	388.94
311.868	508.94
312.098	567.94
312.328	570.94
312.557	557.94
312.787	527.94
313.017	514.94
313.246	570.94
313.476	516.94
313.706	431.94
313.935	350.94
314.165	276.94
314.394	265.94
314.624	275.94
314.853	283.94
315.083	285.94
315.312	274.94
315.542	228.94
315.771	211.94
316.001	217.94
316.23	221.94
316.46	224.94
316.689	204.94
316.919	207.94
317.148	236.94
317.377	231.94
317.607	214.94
317.836	245.94
318.065	293.94
318.295	320.94
318.524	265.94
318.753	233.94
318.983	211.94
319.212	207.94
319.441	233.94
319.67	278.94
319.9	298.94
320.129	253.94
320.358	243.94
320.587	243.94
320.816	270.94
321.046	295.94
321.275	282.94
321.504	257.94
321.733	271.94
321.962	267.94
322.191	227.94
322.42	206.94
322.649	209.94
322.878	227.94
323.108	197.94
323.337	236.94
323.566	252.94
323.795	258.94
324.024	241.94
324.253	209.94
324.482	205.94
324.71	199.94
324.939	206.94
325.168	206.94
325.397	197.94
325.626	213.94
325.855	200.94
326.084	217.94
326.313	205.94
326.542	204.94
326.77	212.94
326.999	231.94
327.228	211.94
327.457	195.94
327.686	188.94
327.914	188.94
328.143	199.94
328.372	202.94
328.6	196.94
328.829	208.94
329.058	216.94
329.287	222.94
329.515	233.94
329.744	224.94
329.972	209.94
330.201	203.94
330.43	221.94
330.658	236.94
330.887	299.94
331.115	276.94
331.344	277.94
331.572	249.94
331.801	234.94
332.03	237.94
332.258	234.94
332.486	249.94
332.715	241.94
332.943	239.94
333.172	254.94
333.4	276.94
333.629	313.94
333.857	305.94
334.085	311.94
334.314	279.94
334.542	277.94
334.771	276.94
334.999	262.94
335.227	251.94
335.455	276.94
335.684	316.94
335.912	389.94
336.14	385.94
336.369	362.94
336.597	391.94
336.825	395.94
337.053	384.94
337.281	272.94
337.51	275.94
337.738	285.94
337.966	305.94
338.194	297.94
338.422	267.94
338.65	237.94
338.878	244.94
339.106	250.94
339.334	265.94
339.562	275.94
339.79	234.94
340.018	258.94
340.246	283.94
340.474	333.94
340.702	336.94
340.93	335.94
341.158	295.94
341.386	239.94
341.614	235.94
341.842	275.94
342.07	308.94
342.298	377.94
342.526	296.94
342.754	231.94
342.981	242.94
343.209	258.94
343.437	289.94
343.665	260.94
343.893	229.94
344.12	231.94
344.348	234.94
344.576	214.94
344.804	213.94
345.031	210.94
345.259	199.94
345.487	203.94
345.714	201.94
345.942	205.94
346.17	202.94
346.397	198.94
346.625	191.94
346.853	185.94
347.08	188.94
347.308	201.94
347.535	197.94
347.763	204.94
347.99	168.94
348.218	180.94
348.445	178.94
348.673	197.94
348.9	181.94
349.128	166.94
349.355	182.94
349.583	190.94
349.81	191.94
350.037	179.94
350.265	176.94
350.492	174.94
350.72	189.94
350.947	189.94
351.174	172.94
351.402	173.94
351.629	177.94
351.856	176.94
352.083	177.94
352.311	184.94
352.538	175.94
352.765	188.94
352.992	174.94
353.22	190.94
353.447	172.94
353.674	190.94
353.901	181.94
354.128	191.94
354.355	178.94
354.583	190.94
354.81	188.94
355.037	185.94
355.264	200.94
355.491	195.94
355.718	204.94
355.945	201.94
356.172	187.94
356.399	185.94
356.626	191.94
356.853	212.94
357.08	206.94
357.307	213.94
357.534	263.94
357.761	318.94
357.988	366.94
358.215	312.94
358.441	252.94
358.668	262.94
358.895	251.94
359.122	261.94
359.349	321.94
359.576	300.94
359.802	230.94
360.029	237.94
360.256	265.94
360.483	298.94
360.709	309.94
360.936	246.94
361.163	198.94
361.39	195.94
361.616	185.94
361.843	200.94
362.07	180.94
362.296	186.94
362.523	190.94
362.749	211.94
362.976	211.94
363.203	221.94
363.429	212.94
363.656	215.94
363.882	214.94
364.109	234.94
364.335	223.94
364.562	187.94
364.788	207.94
365.015	190.94
365.241	203.94
365.468	223.94
365.694	210.94
365.92	199.94
366.147	187.94
366.373	201.94
366.599	199.94
366.826	185.94
367.052	185.94
367.278	188.94
367.505	195.94
367.731	216.94
367.957	227.94
368.184	211.94
368.41	200.94
368.636	183.94
368.862	204.94
369.089	193.94
369.315	190.94
369.541	186.94
369.767	198.94
369.993	204.94
370.219	191.94
370.445	190.94
370.672	179.94
370.898	197.94
371.124	207.94
371.35	198.94
371.576	210.94
371.802	183.94
372.028	194.94
372.254	190.94
372.48	172.94
372.706	192.94
372.932	197.94
373.158	191.94
373.384	200.94
373.61	188.94
373.835	196.94
374.061	197.94
374.287	238.94
374.513	240.94
374.739	217.94
374.965	215.94
375.191	193.94
375.416	190.94
375.642	218.94
375.868	219.94
376.094	198.94
376.319	189.94
376.545	183.94
376.771	188.94
376.997	180.94
377.222	176.94
377.448	188.94
377.674	207.94
377.899	174.94
378.125	172.94
378.35	187.94
378.576	190.94
378.802	180.94
379.027	190.94
379.253	204.94
379.478	205.94
379.704	211.94
379.929	217.94
380.155	206.94
380.38	200.94
380.606	213.94
380.831	201.94
381.057	199.94
381.282	192.94
381.507	206.94
381.733	217.94
381.958	209.94
382.184	209.94
382.409	204.94
382.634	215.94
382.86	204.94
383.085	222.94
383.31	209.94
383.535	218.94
383.761	213.94
383.986	206.94
384.211	200.94
384.436	221.94
384.662	204.94
384.887	227.94
385.112	235.94
385.337	235.94
385.562	239.94
385.787	225.94
386.013	240.94
386.238	236.94
386.463	228.94
386.688	236.94
386.913	224.94
387.138	240.94
387.363	208.94
387.588	222.94
387.813	222.94
388.038	213.94
388.263	215.94
388.488	233.94
388.713	223.94
388.938	206.94
389.163	187.94
389.387	209.94
389.612	227.94
389.837	200.94
390.062	208.94
390.287	197.94
390.512	217.94
390.736	227.94
390.961	229.94
391.186	217.94
391.411	227.94
391.636	227.94
391.86	234.94
392.085	252.94
392.31	216.94
392.534	194.94
392.759	209.94
392.984	209.94
393.208	192.94
393.433	200.94
393.658	194.94
393.882	212.94
394.107	211.94
394.331	197.94
394.556	203.94
394.78	196.94
395.005	209.94
395.229	201.94
395.454	214.94
395.678	214.94
395.903	199.94
396.127	237.94
396.352	237.94
396.576	244.94
396.801	248.94
397.025	266.94
397.249	241.94
397.474	249.94
397.698	256.94
397.922	261.94
398.147	245.94
398.371	237.94
398.595	270.94
398.82	241.94
399.044	255.94
399.268	266.94
399.492	253.94
399.717	250.94
399.941	254.94
400.165	259.94
400.389	252.94
400.613	240.94
400.837	236.94
401.062	217.94
401.286	227.94
401.51	225.94
401.734	228.94
401.958	221.94
402.182	204.94
402.406	231.94
402.63	236.94
402.854	227.94
403.078	237.94
403.302	222.94
403.526	223.94
403.75	216.94
403.974	247.94
404.198	245.94
404.422	235.94
404.645	235.94
404.869	223.94
405.093	243.94
405.317	224.94
405.541	233.94
405.765	237.94
405.988	228.94
406.212	237.94
406.436	231.94
406.66	237.94
406.883	226.94
407.107	247.94
407.331	234.94
407.555	236.94
407.778	233.94
408.002	234.94
408.226	237.94
408.449	223.94
408.673	230.94
408.896	233.94
409.12	224.94
409.344	220.94
409.567	219.94
409.791	221.94
410.014	223.94
410.238	218.94
410.461	218.94
410.685	212.94
410.908	220.94
411.132	220.94
411.355	233.94
411.578	249.94
411.802	235.94
412.025	226.94
412.249	236.94
412.472	235.94
412.695	243.94
412.919	227.94
413.142	234.94
413.365	215.94
413.589	217.94
413.812	219.94
414.035	211.94
414.258	209.94
414.482	213.94
414.705	210.94
414.928	208.94
415.151	229.94
415.374	204.94
415.597	236.94
415.821	216.94
416.044	205.94
416.267	236.94
416.49	237.94
416.713	235.94
416.936	229.94
417.159	225.94
417.382	213.94
417.605	228.94
417.828	232.94
418.051	252.94
418.274	218.94
418.497	205.94
418.72	211.94
418.943	222.94
419.166	227.94
419.389	239.94
419.611	240.94
419.834	228.94
420.057	229.94
420.28	228.94
420.503	231.94
420.726	236.94
420.948	207.94
421.171	218.94
421.394	205.94
421.617	217.94
421.839	202.94
422.062	209.94
422.285	234.94
422.507	221.94
422.73	230.94
422.953	203.94
423.175	208.94
423.398	209.94
423.621	204.94
423.843	209.94
424.066	209.94
424.288	242.94
424.511	230.94
424.733	213.94
424.956	225.94
425.178	248.94
425.401	340.94
425.623	377.94
425.846	277.94
426.068	239.94
426.291	242.94
426.513	239.94
426.735	246.94
426.958	251.94
427.18	272.94
427.402	324.94
427.625	367.94
427.847	298.94
428.069	236.94
428.292	231.94
428.514	216.94
428.736	225.94
428.958	294.94
429.181	312.94
429.403	241.94
429.625	229.94
429.847	226.94
430.069	225.94
430.292	211.94
430.514	205.94
430.736	195.94
430.958	217.94
431.18	196.94
431.402	224.94
431.624	213.94
431.846	193.94
432.068	210.94
432.29	198.94
432.512	225.94
432.734	205.94
432.956	207.94
433.178	200.94
433.4	212.94
433.622	229.94
433.844	265.94
434.066	266.94
434.287	258.94
434.509	262.94
434.731	264.94
434.953	233.94
435.175	274.94
435.397	273.94
435.618	225.94
435.84	229.94
436.062	222.94
436.284	227.94
436.505	220.94
436.727	209.94
436.949	201.94
437.17	235.94
437.392	215.94
437.614	204.94
437.835	204.94
438.057	187.94
438.278	187.94
438.5	199.94
438.721	215.94
438.943	212.94
439.165	205.94
439.386	195.94
439.608	208.94
439.829	191.94
440.05	192.94
440.272	196.94
440.493	217.94
440.715	205.94
440.936	207.94
441.158	207.94
441.379	214.94
441.6	192.94
441.822	228.94
442.043	218.94
442.264	221.94
442.486	246.94
442.707	229.94
442.928	217.94
443.149	197.94
443.371	237.94
443.592	213.94
443.813	220.94
444.034	225.94
444.255	207.94
444.476	220.94
444.698	217.94
444.919	216.94
445.14	299.94
445.361	282.94
445.582	216.94
445.803	235.94
446.024	218.94
446.245	217.94
446.466	216.94
446.687	204.94
446.908	210.94
447.129	202.94
447.35	212.94
447.571	211.94
447.792	198.94
448.013	204.94
448.234	184.94
448.455	189.94
448.675	205.94
448.896	209.94
449.117	213.94
449.338	201.94
449.559	216.94
449.779	230.94
450	225.94
450.221	212.94
450.442	183.94
450.662	206.94
450.883	196.94
451.104	204.94
451.324	222.94
451.545	225.94
451.766	213.94
451.986	212.94
452.207	189.94
452.428	220.94
452.648	229.94
452.869	229.94
453.089	227.94
453.31	218.94
453.53	210.94
453.751	208.94
453.971	208.94
454.192	233.94
454.412	219.94
454.633	223.94
454.853	205.94
455.073	203.94
455.294	191.94
455.514	207.94
455.734	216.94
455.955	215.94
456.175	222.94
456.395	201.94
456.616	205.94
456.836	190.94
457.056	202.94
457.276	191.94
457.497	193.94
457.717	210.94
457.937	194.94
458.157	214.94
458.377	197.94
458.598	199.94
458.818	222.94
459.038	217.94
459.258	217.94
459.478	218.94
459.698	227.94
459.918	213.94
460.138	224.94
460.358	241.94
460.578	227.94
460.798	209.94
461.018	210.94
461.238	233.94
461.458	248.94
461.678	262.94
461.898	243.94
462.118	236.94
462.338	265.94
462.558	258.94
462.777	256.94
462.997	243.94
463.217	263.94
463.437	256.94
463.657	249.94
463.876	244.94
464.096	257.94
464.316	252.94
464.536	251.94
464.755	288.94
464.975	263.94
465.195	257.94
465.414	253.94
465.634	232.94
465.854	212.94
466.073	202.94
466.293	199.94
466.512	206.94
466.732	230.94
466.951	213.94
467.171	207.94
467.391	220.94
467.61	201.94
467.829	209.94
468.049	206.94
468.268	212.94
468.488	203.94
468.707	199.94
468.927	193.94
469.146	216.94
469.365	213.94
469.585	194.94
469.804	215.94
470.023	211.94
470.243	200.94
470.462	221.94
470.681	208.94
470.901	216.94
471.12	204.94
471.339	202.94
471.558	192.94
471.777	195.94
471.997	233.94
472.216	221.94
472.435	212.94
472.654	205.94
472.873	218.94
473.092	208.94
473.311	214.94
473.53	212.94
473.749	206.94
473.968	207.94
474.187	204.94
474.406	201.94
474.625	231.94
474.844	222.94
475.063	198.94
475.282	203.94
475.501	233.94
475.72	223.94
475.939	233.94
476.158	229.94
476.377	216.94
476.596	213.94
476.814	213.94
477.033	227.94
477.252	203.94
477.471	209.94
477.69	210.94
477.908	183.94
478.127	207.94
478.346	224.94
478.564	223.94
478.783	205.94
479.002	257.94
479.22	256.94
479.439	251.94
479.658	237.94
479.876	247.94
480.095	251.94
480.313	245.94
480.532	245.94
480.751	228.94
480.969	222.94
481.188	216.94
481.406	212.94
481.624	218.94
481.843	238.94
482.061	224.94
482.28	245.94
482.498	233.94
482.717	224.94
482.935	241.94
483.153	234.94
483.372	232.94
483.59	241.94
483.808	210.94
484.027	224.94
484.245	208.94
484.463	206.94
484.681	241.94
484.9	252.94
485.118	238.94
485.336	229.94
485.554	243.94
485.772	227.94
485.99	238.94
486.209	261.94
486.427	236.94
486.645	255.94
486.863	253.94
487.081	254.94
487.299	260.94
487.517	240.94
487.735	221.94
487.953	251.94
488.171	233.94
488.389	223.94
488.607	253.94
488.825	281.94
489.043	249.94
489.261	230.94
489.479	231.94
489.696	227.94
489.914	238.94
490.132	248.94
490.35	244.94
490.568	242.94
490.786	232.94
491.003	231.94
491.221	231.94
491.439	240.94
491.657	230.94
491.874	249.94
492.092	248.94
492.31	304.94
492.527	281.94
492.745	242.94
492.963	235.94
493.18	251.94
493.398	240.94
493.615	255.94
493.833	254.94
494.05	266.94
494.268	239.94
494.485	249.94
494.703	239.94
494.92	230.94
495.138	250.94
495.355	259.94
495.573	273.94
495.79	263.94
496.008	256.94
496.225	263.94
496.442	237.94
496.66	270.94
496.877	249.94
497.094	257.94
497.312	264.94
497.529	261.94
497.746	272.94
497.963	266.94
498.181	276.94
498.398	299.94
498.615	271.94
498.832	299.94
499.049	311.94
499.267	302.94
499.484	348.94
499.701	343.94
499.918	380.94
500.135	379.94
500.352	379.94
500.569	383.94
500.786	386.94
501.003	382.94
501.22	353.94
501.437	343.94
501.654	342.94
501.871	295.94
502.088	309.94
502.305	296.94
502.522	294.94
502.739	272.94
502.956	251.94
503.172	269.94
503.389	281.94
503.606	269.94
