Data from StA_HRD10591_046.txt Node
Date: Fri May 16 15:19:06 EDT 2025
User: Yrep
Spectrometer: HR+D1059
Trigger mode: 1
Integration Time (sec): 1.000000E-1
Scans to average: 1
Electric dark correction enabled: true
Nonlinearity correction enabled: false
Boxcar width: 0
XAxis mode: Wavelengths
Number of Pixels in Spectrum: 2048
>>>>>Begin Spectral Data<<<<<
223.165	-18.19
223.4	-18.19
223.635	-18.19
223.869	-18.19
224.104	-31.19
224.338	-38.19
224.573	-25.19
224.808	-5.19
225.042	-5.19
225.277	-0.19
225.511	2.81
225.746	9.81
225.98	11.81
226.215	3.81
226.449	16.81
226.683	28.81
226.918	30.81
227.152	36.81
227.387	47.81
227.621	41.81
227.856	52.81
228.09	43.81
228.324	45.81
228.559	44.81
228.793	79.81
229.027	63.81
229.262	71.81
229.496	80.81
229.73	83.81
229.964	91.81
230.199	85.81
230.433	83.81
230.667	77.81
230.901	103.81
231.136	96.81
231.37	93.81
231.604	95.81
231.838	88.81
232.072	108.81
232.306	93.81
232.541	90.81
232.775	97.81
233.009	95.81
233.243	93.81
233.477	93.81
233.711	95.81
233.945	88.81
234.179	87.81
234.413	97.81
234.647	92.81
234.881	92.81
235.115	84.81
235.349	81.81
235.583	85.81
235.817	85.81
236.051	92.81
236.285	91.81
236.519	97.81
236.753	86.81
236.987	86.81
237.221	87.81
237.455	89.81
237.689	80.81
237.922	97.81
238.156	84.81
238.39	86.81
238.624	95.81
238.858	91.81
239.091	97.81
239.325	99.81
239.559	95.81
239.793	85.81
240.027	84.81
240.26	91.81
240.494	89.81
240.728	96.81
240.961	91.81
241.195	80.81
241.429	89.81
241.662	85.81
241.896	100.81
242.13	103.81
242.363	91.81
242.597	105.81
242.83	92.81
243.064	92.81
243.298	89.81
243.531	92.81
243.765	99.81
243.998	93.81
244.232	92.81
244.465	91.81
244.699	95.81
244.932	100.81
245.166	107.81
245.399	100.81
245.633	100.81
245.866	101.81
246.099	95.81
246.333	101.81
246.566	99.81
246.8	110.81
247.033	118.81
247.266	112.81
247.5	110.81
247.733	127.81
247.966	124.81
248.2	118.81
248.433	107.81
248.666	118.81
248.899	123.81
249.133	134.81
249.366	140.81
249.599	129.81
249.832	123.81
250.066	141.81
250.299	114.81
250.532	119.81
250.765	123.81
250.998	137.81
251.231	122.81
251.465	124.81
251.698	131.81
251.931	133.81
252.164	146.81
252.397	139.81
252.63	152.81
252.863	149.81
253.096	140.81
253.329	169.81
253.562	141.81
253.795	140.81
254.028	158.81
254.261	166.81
254.494	147.81
254.727	143.81
254.96	152.81
255.193	150.81
255.426	147.81
255.659	135.81
255.892	143.81
256.124	151.81
256.357	158.81
256.59	156.81
256.823	158.81
257.056	167.81
257.289	161.81
257.521	177.81
257.754	161.81
257.987	160.81
258.22	163.81
258.452	165.81
258.685	167.81
258.918	168.81
259.151	152.81
259.383	163.81
259.616	166.81
259.849	173.81
260.081	146.81
260.314	165.81
260.547	165.81
260.779	172.81
261.012	181.81
261.244	193.81
261.477	188.81
261.71	185.81
261.942	197.81
262.175	191.81
262.407	191.81
262.64	167.81
262.872	178.81
263.105	171.81
263.337	184.81
263.57	185.81
263.802	182.81
264.035	188.81
264.267	186.81
264.499	177.81
264.732	183.81
264.964	177.81
265.197	191.81
265.429	187.81
265.661	231.81
265.894	235.81
266.126	271.81
266.358	292.81
266.591	329.81
266.823	329.81
267.055	319.81
267.287	336.81
267.52	349.81
267.752	339.81
267.984	367.81
268.216	301.81
268.448	245.81
268.681	252.81
268.913	283.81
269.145	277.81
269.377	267.81
269.609	280.81
269.841	297.81
270.073	320.81
270.306	287.81
270.538	254.81
270.77	250.81
271.002	254.81
271.234	270.81
271.466	236.81
271.698	246.81
271.93	250.81
272.162	263.81
272.394	284.81
272.626	262.81
272.858	249.81
273.09	217.81
273.322	211.81
273.553	173.81
273.785	205.81
274.017	237.81
274.249	279.81
274.481	318.81
274.713	321.81
274.945	334.81
275.176	397.81
275.408	381.81
275.64	354.81
275.872	391.81
276.104	450.81
276.335	447.81
276.567	455.81
276.799	409.81
277.031	366.81
277.262	301.81
277.494	273.81
277.726	299.81
277.957	332.81
278.189	328.81
278.421	330.81
278.652	314.81
278.884	321.81
279.115	288.81
279.347	291.81
279.579	257.81
279.81	261.81
280.042	261.81
280.273	298.81
280.505	249.81
280.736	250.81
280.968	255.81
281.199	296.81
281.431	334.81
281.662	301.81
281.894	332.81
282.125	368.81
282.356	383.81
282.588	369.81
282.819	347.81
283.051	421.81
283.282	493.81
283.513	544.81
283.745	577.81
283.976	528.81
284.207	552.81
284.439	515.81
284.67	477.81
284.901	502.81
285.132	572.81
285.364	539.81
285.595	530.81
285.826	555.81
286.057	535.81
286.288	545.81
286.52	581.81
286.751	583.81
286.982	508.81
287.213	464.81
287.444	455.81
287.675	496.81
287.906	459.81
288.138	356.81
288.369	318.81
288.6	295.81
288.831	343.81
289.062	421.81
289.293	440.81
289.524	416.81
289.755	448.81
289.986	434.81
290.217	351.81
290.448	297.81
290.679	272.81
290.91	267.81
291.141	248.81
291.371	271.81
291.602	279.81
291.833	303.81
292.064	323.81
292.295	387.81
292.526	399.81
292.757	395.81
292.987	432.81
293.218	391.81
293.449	373.81
293.68	363.81
293.91	312.81
294.141	299.81
294.372	268.81
294.603	266.81
294.833	276.81
295.064	278.81
295.295	251.81
295.525	254.81
295.756	256.81
295.987	245.81
296.217	243.81
296.448	252.81
296.679	276.81
296.909	307.81
297.14	341.81
297.37	381.81
297.601	336.81
297.831	321.81
298.062	366.81
298.292	359.81
298.523	378.81
298.753	377.81
298.984	353.81
299.214	304.81
299.445	252.81
299.675	248.81
299.905	252.81
300.136	222.81
300.366	246.81
300.597	231.81
300.827	214.81
301.057	244.81
301.288	257.81
301.518	289.81
301.748	308.81
301.979	296.81
302.209	296.81
302.439	302.81
302.669	312.81
302.9	317.81
303.13	299.81
303.36	262.81
303.59	263.81
303.82	275.81
304.051	328.81
304.281	343.81
304.511	339.81
304.741	298.81
304.971	301.81
305.201	321.81
305.431	261.81
305.661	246.81
305.891	227.81
306.121	243.81
306.352	209.81
306.582	210.81
306.812	204.81
307.042	211.81
307.272	214.81
307.502	209.81
307.731	216.81
307.961	220.81
308.191	217.81
308.421	201.81
308.651	195.81
308.881	212.81
309.111	222.81
309.341	240.81
309.571	247.81
309.8	234.81
310.03	205.81
310.26	225.81
310.49	237.81
310.72	237.81
310.949	256.81
311.179	272.81
311.409	290.81
311.639	388.81
311.868	491.81
312.098	585.81
312.328	569.81
312.557	551.81
312.787	544.81
313.017	524.81
313.246	560.81
313.476	540.81
313.706	435.81
313.935	335.81
314.165	283.81
314.394	285.81
314.624	288.81
314.853	300.81
315.083	277.81
315.312	254.81
315.542	239.81
315.771	222.81
316.001	219.81
316.23	207.81
316.46	194.81
316.689	197.81
316.919	216.81
317.148	207.81
317.377	223.81
317.607	236.81
317.836	275.81
318.065	292.81
318.295	329.81
318.524	275.81
318.753	243.81
318.983	233.81
319.212	220.81
319.441	252.81
319.67	271.81
319.9	307.81
320.129	264.81
320.358	239.81
320.587	237.81
320.816	267.81
321.046	282.81
321.275	278.81
321.504	282.81
321.733	261.81
321.962	254.81
322.191	211.81
322.42	217.81
322.649	195.81
322.878	202.81
323.108	221.81
323.337	250.81
323.566	254.81
323.795	235.81
324.024	224.81
324.253	210.81
324.482	191.81
324.71	199.81
324.939	198.81
325.168	211.81
325.397	190.81
325.626	184.81
325.855	190.81
326.084	202.81
326.313	189.81
326.542	208.81
326.77	222.81
326.999	247.81
327.228	215.81
327.457	197.81
327.686	199.81
327.914	214.81
328.143	218.81
328.372	199.81
328.6	207.81
328.829	196.81
329.058	211.81
329.287	228.81
329.515	222.81
329.744	216.81
329.972	200.81
330.201	201.81
330.43	216.81
330.658	230.81
330.887	279.81
331.115	259.81
331.344	274.81
331.572	243.81
331.801	234.81
332.03	252.81
332.258	254.81
332.486	267.81
332.715	262.81
332.943	237.81
333.172	248.81
333.4	283.81
333.629	307.81
333.857	327.81
334.085	334.81
334.314	306.81
334.542	277.81
334.771	266.81
334.999	255.81
335.227	262.81
335.455	281.81
335.684	335.81
335.912	403.81
336.14	389.81
336.369	352.81
336.597	363.81
336.825	415.81
337.053	371.81
337.281	273.81
337.51	256.81
337.738	291.81
337.966	299.81
338.194	315.81
338.422	257.81
338.65	241.81
338.878	231.81
339.106	247.81
339.334	255.81
339.562	266.81
339.79	252.81
340.018	275.81
340.246	303.81
340.474	331.81
340.702	305.81
340.93	333.81
341.158	275.81
341.386	237.81
341.614	237.81
341.842	267.81
342.07	311.81
342.298	353.81
342.526	304.81
342.754	243.81
342.981	227.81
343.209	248.81
343.437	304.81
343.665	256.81
343.893	239.81
344.12	231.81
344.348	212.81
344.576	215.81
344.804	205.81
345.031	212.81
345.259	213.81
345.487	220.81
345.714	211.81
345.942	212.81
346.17	206.81
346.397	197.81
346.625	192.81
346.853	197.81
347.08	187.81
347.308	191.81
347.535	188.81
347.763	190.81
347.99	190.81
348.218	186.81
348.445	190.81
348.673	163.81
348.9	175.81
349.128	162.81
349.355	187.81
349.583	191.81
349.81	189.81
350.037	187.81
350.265	189.81
350.492	181.81
350.72	187.81
350.947	178.81
351.174	185.81
351.402	189.81
351.629	184.81
351.856	192.81
352.083	187.81
352.311	199.81
352.538	168.81
352.765	183.81
352.992	194.81
353.22	179.81
353.447	189.81
353.674	177.81
353.901	182.81
354.128	190.81
354.355	170.81
354.583	189.81
354.81	206.81
355.037	184.81
355.264	190.81
355.491	209.81
355.718	210.81
355.945	215.81
356.172	214.81
356.399	195.81
356.626	208.81
356.853	206.81
357.08	221.81
357.307	237.81
357.534	287.81
357.761	308.81
357.988	341.81
358.215	282.81
358.441	271.81
358.668	256.81
358.895	247.81
359.122	262.81
359.349	312.81
359.576	302.81
359.802	242.81
360.029	222.81
360.256	265.81
360.483	301.81
360.709	303.81
360.936	249.81
361.163	204.81
361.39	215.81
361.616	195.81
361.843	197.81
362.07	180.81
362.296	187.81
362.523	184.81
362.749	196.81
362.976	198.81
363.203	208.81
363.429	209.81
363.656	222.81
363.882	219.81
364.109	224.81
364.335	220.81
364.562	211.81
364.788	189.81
365.015	209.81
365.241	223.81
365.468	213.81
365.694	205.81
365.92	204.81
366.147	186.81
366.373	206.81
366.599	200.81
366.826	197.81
367.052	180.81
367.278	185.81
367.505	212.81
367.731	220.81
367.957	206.81
368.184	214.81
368.41	216.81
368.636	204.81
368.862	197.81
369.089	199.81
369.315	187.81
369.541	192.81
369.767	196.81
369.993	197.81
370.219	193.81
370.445	172.81
370.672	188.81
370.898	185.81
371.124	205.81
371.35	189.81
371.576	219.81
371.802	210.81
372.028	188.81
372.254	192.81
372.48	173.81
372.706	188.81
372.932	171.81
373.158	190.81
373.384	187.81
373.61	204.81
373.835	202.81
374.061	207.81
374.287	220.81
374.513	235.81
374.739	236.81
374.965	224.81
375.191	194.81
375.416	189.81
375.642	204.81
375.868	203.81
376.094	182.81
376.319	181.81
376.545	189.81
376.771	191.81
376.997	181.81
377.222	202.81
377.448	187.81
377.674	196.81
377.899	185.81
378.125	188.81
378.35	186.81
378.576	167.81
378.802	191.81
379.027	200.81
379.253	224.81
379.478	192.81
379.704	197.81
379.929	204.81
380.155	189.81
380.38	181.81
380.606	203.81
380.831	201.81
381.057	207.81
381.282	195.81
381.507	195.81
381.733	215.81
381.958	205.81
382.184	230.81
382.409	216.81
382.634	197.81
382.86	203.81
383.085	214.81
383.31	225.81
383.535	211.81
383.761	195.81
383.986	202.81
384.211	229.81
384.436	211.81
384.662	229.81
384.887	238.81
385.112	245.81
385.337	242.81
385.562	241.81
385.787	243.81
386.013	239.81
386.238	213.81
386.463	233.81
386.688	239.81
386.913	207.81
387.138	203.81
387.363	220.81
387.588	231.81
387.813	219.81
388.038	231.81
388.263	229.81
388.488	231.81
388.713	239.81
388.938	208.81
389.163	210.81
389.387	194.81
389.612	204.81
389.837	216.81
390.062	215.81
390.287	218.81
390.512	220.81
390.736	227.81
390.961	229.81
391.186	238.81
391.411	204.81
391.636	227.81
391.86	232.81
392.085	247.81
392.31	211.81
392.534	207.81
392.759	210.81
392.984	212.81
393.208	211.81
393.433	208.81
393.658	208.81
393.882	189.81
394.107	199.81
394.331	212.81
394.556	203.81
394.78	208.81
395.005	228.81
395.229	211.81
395.454	221.81
395.678	212.81
395.903	202.81
396.127	215.81
396.352	247.81
396.576	270.81
396.801	232.81
397.025	256.81
397.249	240.81
397.474	228.81
397.698	255.81
397.922	242.81
398.147	227.81
398.371	257.81
398.595	253.81
398.82	230.81
399.044	269.81
399.268	272.81
399.492	248.81
399.717	245.81
399.941	260.81
400.165	249.81
400.389	249.81
400.613	222.81
400.837	237.81
401.062	227.81
401.286	219.81
401.51	219.81
401.734	219.81
401.958	227.81
402.182	231.81
402.406	227.81
402.63	209.81
402.854	216.81
403.078	211.81
403.302	220.81
403.526	227.81
403.75	231.81
403.974	250.81
404.198	231.81
404.422	233.81
404.645	229.81
404.869	220.81
405.093	245.81
405.317	225.81
405.541	216.81
405.765	235.81
405.988	233.81
406.212	234.81
406.436	224.81
406.66	233.81
406.883	229.81
407.107	243.81
407.331	227.81
407.555	240.81
407.778	235.81
408.002	239.81
408.226	225.81
408.449	236.81
408.673	219.81
408.896	233.81
409.12	221.81
409.344	233.81
409.567	230.81
409.791	233.81
410.014	227.81
410.238	226.81
410.461	220.81
410.685	233.81
410.908	227.81
411.132	240.81
411.355	217.81
411.578	244.81
411.802	235.81
412.025	230.81
412.249	227.81
412.472	262.81
412.695	243.81
412.919	251.81
413.142	231.81
413.365	241.81
413.589	207.81
413.812	219.81
414.035	224.81
414.258	215.81
414.482	209.81
414.705	219.81
414.928	213.81
415.151	197.81
415.374	238.81
415.597	213.81
415.821	192.81
416.044	199.81
416.267	227.81
416.49	235.81
416.713	224.81
416.936	213.81
417.159	228.81
417.382	214.81
417.605	239.81
417.828	224.81
418.051	216.81
418.274	230.81
418.497	224.81
418.72	212.81
418.943	212.81
419.166	236.81
419.389	244.81
419.611	250.81
419.834	238.81
420.057	225.81
420.28	200.81
420.503	209.81
420.726	215.81
420.948	228.81
421.171	231.81
421.394	217.81
421.617	219.81
421.839	220.81
422.062	217.81
422.285	234.81
422.507	229.81
422.73	205.81
422.953	227.81
423.175	208.81
423.398	227.81
423.621	240.81
423.843	229.81
424.066	228.81
424.288	241.81
424.511	213.81
424.733	225.81
424.956	232.81
425.178	248.81
425.401	340.81
425.623	368.81
425.846	259.81
426.068	237.81
426.291	263.81
426.513	233.81
426.735	233.81
426.958	254.81
427.18	268.81
427.402	309.81
427.625	353.81
427.847	296.81
428.069	231.81
428.292	235.81
428.514	230.81
428.736	246.81
428.958	300.81
429.181	307.81
429.403	238.81
429.625	222.81
429.847	209.81
430.069	216.81
430.292	209.81
430.514	231.81
430.736	223.81
430.958	205.81
431.18	211.81
431.402	198.81
431.624	198.81
431.846	214.81
432.068	196.81
432.29	214.81
432.512	192.81
432.734	208.81
432.956	200.81
433.178	214.81
433.4	209.81
433.622	241.81
433.844	253.81
434.066	295.81
434.287	263.81
434.509	273.81
434.731	238.81
434.953	235.81
435.175	253.81
435.397	260.81
435.618	215.81
435.84	213.81
436.062	223.81
436.284	207.81
436.505	200.81
436.727	197.81
436.949	214.81
437.17	224.81
437.392	213.81
437.614	221.81
437.835	196.81
438.057	201.81
438.278	197.81
438.5	205.81
438.721	200.81
438.943	207.81
439.165	212.81
439.386	189.81
439.608	187.81
439.829	204.81
440.05	197.81
440.272	207.81
440.493	193.81
440.715	212.81
440.936	207.81
441.158	222.81
441.379	202.81
441.6	225.81
441.822	224.81
442.043	204.81
442.264	224.81
442.486	216.81
442.707	231.81
442.928	229.81
443.149	231.81
443.371	240.81
443.592	235.81
443.813	208.81
444.034	217.81
444.255	223.81
444.476	219.81
444.698	227.81
444.919	225.81
445.14	294.81
445.361	253.81
445.582	231.81
445.803	229.81
446.024	214.81
446.245	211.81
446.466	220.81
446.687	213.81
446.908	188.81
447.129	194.81
447.35	207.81
447.571	203.81
447.792	192.81
448.013	199.81
448.234	211.81
448.455	193.81
448.675	219.81
448.896	214.81
449.117	220.81
449.338	206.81
449.559	227.81
449.779	228.81
450	228.81
450.221	239.81
450.442	208.81
450.662	187.81
450.883	210.81
451.104	197.81
451.324	203.81
451.545	202.81
451.766	218.81
451.986	217.81
452.207	199.81
452.428	194.81
452.648	204.81
452.869	207.81
453.089	210.81
453.31	216.81
453.53	203.81
453.751	211.81
453.971	207.81
454.192	228.81
454.412	227.81
454.633	222.81
454.853	215.81
455.073	199.81
455.294	205.81
455.514	205.81
455.734	225.81
455.955	237.81
456.175	222.81
456.395	205.81
456.616	227.81
456.836	220.81
457.056	194.81
457.276	208.81
457.497	187.81
457.717	189.81
457.937	199.81
458.157	199.81
458.377	183.81
458.598	217.81
458.818	221.81
459.038	216.81
459.258	231.81
459.478	220.81
459.698	218.81
459.918	214.81
460.138	237.81
460.358	241.81
460.578	216.81
460.798	211.81
461.018	222.81
461.238	245.81
461.458	250.81
461.678	239.81
461.898	261.81
462.118	253.81
462.338	248.81
462.558	236.81
462.777	259.81
462.997	257.81
463.217	234.81
463.437	275.81
463.657	267.81
463.876	249.81
464.096	236.81
464.316	237.81
464.536	273.81
464.755	283.81
464.975	263.81
465.195	274.81
465.414	263.81
465.634	221.81
465.854	208.81
466.073	202.81
466.293	209.81
466.512	234.81
466.732	217.81
466.951	222.81
467.171	198.81
467.391	199.81
467.61	190.81
467.829	191.81
468.049	190.81
468.268	207.81
468.488	208.81
468.707	187.81
468.927	212.81
469.146	209.81
469.365	196.81
469.585	192.81
469.804	206.81
470.023	236.81
470.243	198.81
470.462	213.81
470.681	221.81
470.901	204.81
471.12	196.81
471.339	215.81
471.558	213.81
471.777	202.81
471.997	229.81
472.216	217.81
472.435	199.81
472.654	214.81
472.873	210.81
473.092	227.81
473.311	206.81
473.53	214.81
473.749	208.81
473.968	210.81
474.187	198.81
474.406	200.81
474.625	200.81
474.844	199.81
475.063	196.81
475.282	205.81
475.501	221.81
475.72	230.81
475.939	229.81
476.158	219.81
476.377	221.81
476.596	217.81
476.814	218.81
477.033	218.81
477.252	198.81
477.471	214.81
477.69	225.81
477.908	224.81
478.127	210.81
478.346	217.81
478.564	217.81
478.783	213.81
479.002	247.81
479.22	246.81
479.439	229.81
479.658	234.81
479.876	223.81
480.095	234.81
480.313	235.81
480.532	231.81
480.751	221.81
480.969	241.81
481.188	217.81
481.406	227.81
481.624	232.81
481.843	232.81
482.061	217.81
482.28	240.81
482.498	239.81
482.717	247.81
482.935	239.81
483.153	249.81
483.372	221.81
483.59	236.81
483.808	228.81
484.027	218.81
484.245	222.81
484.463	233.81
484.681	232.81
484.9	256.81
485.118	240.81
485.336	220.81
485.554	240.81
485.772	218.81
485.99	230.81
486.209	258.81
486.427	263.81
486.645	223.81
486.863	231.81
487.081	256.81
487.299	253.81
487.517	238.81
487.735	233.81
487.953	240.81
488.171	227.81
488.389	218.81
488.607	250.81
488.825	266.81
489.043	245.81
489.261	227.81
489.479	225.81
489.696	221.81
489.914	227.81
490.132	247.81
490.35	239.81
490.568	249.81
490.786	234.81
491.003	227.81
491.221	255.81
491.439	221.81
491.657	235.81
491.874	235.81
492.092	249.81
492.31	310.81
492.527	293.81
492.745	237.81
492.963	233.81
493.18	233.81
493.398	245.81
493.615	253.81
493.833	258.81
494.05	240.81
494.268	259.81
494.485	241.81
494.703	247.81
494.92	238.81
495.138	249.81
495.355	240.81
495.573	270.81
495.79	260.81
496.008	256.81
496.225	242.81
496.442	246.81
496.66	253.81
496.877	250.81
497.094	249.81
497.312	255.81
497.529	257.81
497.746	264.81
497.963	267.81
498.181	279.81
498.398	282.81
498.615	288.81
498.832	290.81
499.049	301.81
499.267	313.81
499.484	336.81
499.701	346.81
499.918	361.81
500.135	351.81
500.352	388.81
500.569	365.81
500.786	361.81
501.003	364.81
501.22	330.81
501.437	337.81
501.654	319.81
501.871	298.81
502.088	293.81
502.305	286.81
502.522	279.81
502.739	286.81
502.956	285.81
503.172	278.81
503.389	268.81
503.606	266.81
