Data from StA_HRD10591_036.txt Node
Date: Fri May 16 15:19:02 EDT 2025
User: Yrep
Spectrometer: HR+D1059
Trigger mode: 1
Integration Time (sec): 1.000000E-1
Scans to average: 1
Electric dark correction enabled: true
Nonlinearity correction enabled: false
Boxcar width: 0
XAxis mode: Wavelengths
Number of Pixels in Spectrum: 2048
>>>>>Begin Spectral Data<<<<<
223.165	-18.19
223.4	-18.19
223.635	-18.19
223.869	-11.19
224.104	-26.19
224.338	-18.19
224.573	-4.19
224.808	-11.19
225.042	-11.19
225.277	-9.19
225.511	-11.19
225.746	-1.19
225.98	-2.19
226.215	15.81
226.449	20.81
226.683	13.81
226.918	41.81
227.152	31.81
227.387	35.81
227.621	34.81
227.856	58.81
228.09	35.81
228.324	44.81
228.559	58.81
228.793	70.81
229.027	51.81
229.262	76.81
229.496	74.81
229.73	73.81
229.964	68.81
230.199	75.81
230.433	74.81
230.667	86.81
230.901	81.81
231.136	71.81
231.37	73.81
231.604	80.81
231.838	86.81
232.072	79.81
232.306	74.81
232.541	80.81
232.775	75.81
233.009	80.81
233.243	98.81
233.477	74.81
233.711	84.81
233.945	74.81
234.179	74.81
234.413	81.81
234.647	81.81
234.881	89.81
235.115	90.81
235.349	78.81
235.583	75.81
235.817	90.81
236.051	82.81
236.285	71.81
236.519	74.81
236.753	68.81
236.987	72.81
237.221	84.81
237.455	75.81
237.689	70.81
237.922	72.81
238.156	82.81
238.39	76.81
238.624	81.81
238.858	64.81
239.091	79.81
239.325	64.81
239.559	70.81
239.793	87.81
240.027	68.81
240.26	71.81
240.494	74.81
240.728	79.81
240.961	71.81
241.195	90.81
241.429	86.81
241.662	86.81
241.896	71.81
242.13	70.81
242.363	60.81
242.597	73.81
242.83	73.81
243.064	79.81
243.298	72.81
243.531	74.81
243.765	85.81
243.998	69.81
244.232	98.81
244.465	80.81
244.699	83.81
244.932	79.81
245.166	69.81
245.399	79.81
245.633	72.81
245.866	90.81
246.099	83.81
246.333	78.81
246.566	68.81
246.8	70.81
247.033	70.81
247.266	80.81
247.5	78.81
247.733	86.81
247.966	73.81
248.2	80.81
248.433	77.81
248.666	75.81
248.899	79.81
249.133	69.81
249.366	84.81
249.599	64.81
249.832	78.81
250.066	84.81
250.299	65.81
250.532	82.81
250.765	85.81
250.998	71.81
251.231	78.81
251.465	68.81
251.698	86.81
251.931	80.81
252.164	88.81
252.397	76.81
252.63	88.81
252.863	69.81
253.096	87.81
253.329	82.81
253.562	64.81
253.795	81.81
254.028	87.81
254.261	74.81
254.494	85.81
254.727	78.81
254.96	76.81
255.193	78.81
255.426	80.81
255.659	69.81
255.892	84.81
256.124	69.81
256.357	76.81
256.59	79.81
256.823	64.81
257.056	83.81
257.289	75.81
257.521	94.81
257.754	84.81
257.987	67.81
258.22	78.81
258.452	81.81
258.685	74.81
258.918	76.81
259.151	70.81
259.383	80.81
259.616	92.81
259.849	80.81
260.081	77.81
260.314	92.81
260.547	84.81
260.779	93.81
261.012	88.81
261.244	80.81
261.477	86.81
261.71	79.81
261.942	80.81
262.175	86.81
262.407	67.81
262.64	74.81
262.872	89.81
263.105	82.81
263.337	80.81
263.57	82.81
263.802	73.81
264.035	87.81
264.267	78.81
264.499	91.81
264.732	74.81
264.964	72.81
265.197	81.81
265.429	75.81
265.661	88.81
265.894	87.81
266.126	73.81
266.358	77.81
266.591	92.81
266.823	94.81
267.055	87.81
267.287	86.81
267.52	70.81
267.752	73.81
267.984	71.81
268.216	69.81
268.448	81.81
268.681	81.81
268.913	82.81
269.145	76.81
269.377	91.81
269.609	80.81
269.841	97.81
270.073	79.81
270.306	93.81
270.538	76.81
270.77	77.81
271.002	70.81
271.234	86.81
271.466	83.81
271.698	72.81
271.93	87.81
272.162	103.81
272.394	81.81
272.626	75.81
272.858	89.81
273.09	74.81
273.322	77.81
273.553	79.81
273.785	75.81
274.017	96.81
274.249	76.81
274.481	82.81
274.713	99.81
274.945	80.81
275.176	86.81
275.408	90.81
275.64	82.81
275.872	85.81
276.104	87.81
276.335	87.81
276.567	82.81
276.799	102.81
277.031	76.81
277.262	82.81
277.494	77.81
277.726	78.81
277.957	83.81
278.189	72.81
278.421	61.81
278.652	85.81
278.884	88.81
279.115	82.81
279.347	87.81
279.579	82.81
279.81	100.81
280.042	79.81
280.273	87.81
280.505	77.81
280.736	83.81
280.968	80.81
281.199	90.81
281.431	87.81
281.662	73.81
281.894	88.81
282.125	74.81
282.356	85.81
282.588	80.81
282.819	76.81
283.051	62.81
283.282	90.81
283.513	79.81
283.745	74.81
283.976	90.81
284.207	88.81
284.439	85.81
284.67	81.81
284.901	88.81
285.132	90.81
285.364	73.81
285.595	82.81
285.826	84.81
286.057	94.81
286.288	75.81
286.52	84.81
286.751	94.81
286.982	85.81
287.213	70.81
287.444	92.81
287.675	88.81
287.906	97.81
288.138	92.81
288.369	76.81
288.6	75.81
288.831	76.81
289.062	95.81
289.293	95.81
289.524	94.81
289.755	82.81
289.986	84.81
290.217	62.81
290.448	89.81
290.679	85.81
290.91	94.81
291.141	85.81
291.371	80.81
291.602	78.81
291.833	89.81
292.064	98.81
292.295	78.81
292.526	86.81
292.757	84.81
292.987	83.81
293.218	98.81
293.449	91.81
293.68	78.81
293.91	90.81
294.141	73.81
294.372	75.81
294.603	79.81
294.833	100.81
295.064	84.81
295.295	72.81
295.525	91.81
295.756	80.81
295.987	89.81
296.217	89.81
296.448	72.81
296.679	99.81
296.909	90.81
297.14	77.81
297.37	79.81
297.601	79.81
297.831	86.81
298.062	100.81
298.292	82.81
298.523	88.81
298.753	89.81
298.984	88.81
299.214	104.81
299.445	98.81
299.675	93.81
299.905	93.81
300.136	99.81
300.366	70.81
300.597	84.81
300.827	83.81
301.057	90.81
301.288	79.81
301.518	104.81
301.748	92.81
301.979	100.81
302.209	82.81
302.439	92.81
302.669	93.81
302.9	72.81
303.13	90.81
303.36	87.81
303.59	97.81
303.82	93.81
304.051	81.81
304.281	88.81
304.511	88.81
304.741	92.81
304.971	78.81
305.201	94.81
305.431	82.81
305.661	92.81
305.891	82.81
306.121	95.81
306.352	85.81
306.582	100.81
306.812	85.81
307.042	96.81
307.272	87.81
307.502	73.81
307.731	90.81
307.961	82.81
308.191	87.81
308.421	81.81
308.651	86.81
308.881	88.81
309.111	78.81
309.341	91.81
309.571	87.81
309.8	93.81
310.03	90.81
310.26	74.81
310.49	74.81
310.72	93.81
310.949	78.81
311.179	84.81
311.409	90.81
311.639	91.81
311.868	95.81
312.098	84.81
312.328	91.81
312.557	104.81
312.787	98.81
313.017	93.81
313.246	95.81
313.476	84.81
313.706	83.81
313.935	79.81
314.165	71.81
314.394	81.81
314.624	91.81
314.853	94.81
315.083	72.81
315.312	83.81
315.542	98.81
315.771	77.81
316.001	91.81
316.23	92.81
316.46	83.81
316.689	83.81
316.919	90.81
317.148	98.81
317.377	83.81
317.607	78.81
317.836	79.81
318.065	87.81
318.295	91.81
318.524	84.81
318.753	91.81
318.983	79.81
319.212	74.81
319.441	94.81
319.67	84.81
319.9	85.81
320.129	72.81
320.358	85.81
320.587	78.81
320.816	84.81
321.046	80.81
321.275	80.81
321.504	79.81
321.733	80.81
321.962	78.81
322.191	92.81
322.42	85.81
322.649	94.81
322.878	103.81
323.108	86.81
323.337	81.81
323.566	100.81
323.795	87.81
324.024	64.81
324.253	93.81
324.482	74.81
324.71	84.81
324.939	78.81
325.168	85.81
325.397	90.81
325.626	96.81
325.855	102.81
326.084	85.81
326.313	82.81
326.542	73.81
326.77	85.81
326.999	91.81
327.228	87.81
327.457	84.81
327.686	91.81
327.914	87.81
328.143	83.81
328.372	75.81
328.6	86.81
328.829	76.81
329.058	100.81
329.287	87.81
329.515	78.81
329.744	94.81
329.972	88.81
330.201	75.81
330.43	78.81
330.658	94.81
330.887	78.81
331.115	86.81
331.344	91.81
331.572	86.81
331.801	82.81
332.03	99.81
332.258	73.81
332.486	74.81
332.715	90.81
332.943	83.81
333.172	87.81
333.4	89.81
333.629	83.81
333.857	66.81
334.085	106.81
334.314	91.81
334.542	78.81
334.771	85.81
334.999	84.81
335.227	81.81
335.455	77.81
335.684	89.81
335.912	72.81
336.14	94.81
336.369	77.81
336.597	89.81
336.825	88.81
337.053	84.81
337.281	80.81
337.51	78.81
337.738	81.81
337.966	87.81
338.194	79.81
338.422	93.81
338.65	79.81
338.878	98.81
339.106	85.81
339.334	87.81
339.562	91.81
339.79	84.81
340.018	81.81
340.246	89.81
340.474	84.81
340.702	77.81
340.93	72.81
341.158	77.81
341.386	77.81
341.614	65.81
341.842	85.81
342.07	94.81
342.298	79.81
342.526	77.81
342.754	95.81
342.981	82.81
343.209	94.81
343.437	105.81
343.665	95.81
343.893	93.81
344.12	82.81
344.348	83.81
344.576	86.81
344.804	92.81
345.031	78.81
345.259	88.81
345.487	91.81
345.714	68.81
345.942	83.81
346.17	88.81
346.397	75.81
346.625	74.81
346.853	82.81
347.08	78.81
347.308	89.81
347.535	88.81
347.763	78.81
347.99	85.81
348.218	76.81
348.445	86.81
348.673	82.81
348.9	85.81
349.128	93.81
349.355	82.81
349.583	74.81
349.81	91.81
350.037	84.81
350.265	79.81
350.492	74.81
350.72	90.81
350.947	87.81
351.174	79.81
351.402	76.81
351.629	71.81
351.856	78.81
352.083	75.81
352.311	82.81
352.538	90.81
352.765	81.81
352.992	83.81
353.22	79.81
353.447	80.81
353.674	85.81
353.901	88.81
354.128	83.81
354.355	94.81
354.583	84.81
354.81	94.81
355.037	90.81
355.264	94.81
355.491	90.81
355.718	90.81
355.945	86.81
356.172	79.81
356.399	83.81
356.626	81.81
356.853	72.81
357.08	79.81
357.307	86.81
357.534	104.81
357.761	118.81
357.988	124.81
358.215	112.81
358.441	95.81
358.668	102.81
358.895	92.81
359.122	88.81
359.349	107.81
359.576	100.81
359.802	82.81
360.029	84.81
360.256	79.81
360.483	96.81
360.709	111.81
360.936	101.81
361.163	91.81
361.39	76.81
361.616	64.81
361.843	74.81
362.07	74.81
362.296	97.81
362.523	85.81
362.749	74.81
362.976	88.81
363.203	86.81
363.429	85.81
363.656	96.81
363.882	101.81
364.109	104.81
364.335	101.81
364.562	83.81
364.788	89.81
365.015	92.81
365.241	76.81
365.468	97.81
365.694	75.81
365.92	80.81
366.147	81.81
366.373	82.81
366.599	98.81
366.826	85.81
367.052	78.81
367.278	75.81
367.505	84.81
367.731	91.81
367.957	88.81
368.184	82.81
368.41	77.81
368.636	78.81
368.862	85.81
369.089	73.81
369.315	78.81
369.541	74.81
369.767	71.81
369.993	91.81
370.219	83.81
370.445	81.81
370.672	76.81
370.898	87.81
371.124	82.81
371.35	82.81
371.576	79.81
371.802	98.81
372.028	91.81
372.254	85.81
372.48	78.81
372.706	69.81
372.932	74.81
373.158	80.81
373.384	91.81
373.61	91.81
373.835	76.81
374.061	91.81
374.287	89.81
374.513	108.81
374.739	66.81
374.965	78.81
375.191	98.81
375.416	76.81
375.642	78.81
375.868	92.81
376.094	83.81
376.319	81.81
376.545	84.81
376.771	82.81
376.997	84.81
377.222	95.81
377.448	75.81
377.674	80.81
377.899	87.81
378.125	99.81
378.35	77.81
378.576	72.81
378.802	95.81
379.027	84.81
379.253	93.81
379.478	86.81
379.704	80.81
379.929	79.81
380.155	82.81
380.38	106.81
380.606	88.81
380.831	89.81
381.057	100.81
381.282	85.81
381.507	81.81
381.733	85.81
381.958	94.81
382.184	87.81
382.409	81.81
382.634	84.81
382.86	90.81
383.085	82.81
383.31	85.81
383.535	80.81
383.761	94.81
383.986	74.81
384.211	88.81
384.436	93.81
384.662	87.81
384.887	94.81
385.112	95.81
385.337	77.81
385.562	88.81
385.787	88.81
386.013	93.81
386.238	81.81
386.463	75.81
386.688	119.81
386.913	95.81
387.138	91.81
387.363	88.81
387.588	91.81
387.813	78.81
388.038	94.81
388.263	95.81
388.488	91.81
388.713	93.81
388.938	82.81
389.163	90.81
389.387	85.81
389.612	72.81
389.837	72.81
390.062	100.81
390.287	89.81
390.512	87.81
390.736	89.81
390.961	84.81
391.186	82.81
391.411	91.81
391.636	100.81
391.86	110.81
392.085	90.81
392.31	95.81
392.534	77.81
392.759	73.81
392.984	90.81
393.208	85.81
393.433	73.81
393.658	84.81
393.882	86.81
394.107	78.81
394.331	88.81
394.556	74.81
394.78	73.81
395.005	83.81
395.229	90.81
395.454	79.81
395.678	69.81
395.903	95.81
396.127	102.81
396.352	106.81
396.576	88.81
396.801	102.81
397.025	93.81
397.249	77.81
397.474	81.81
397.698	101.81
397.922	94.81
398.147	79.81
398.371	94.81
398.595	83.81
398.82	76.81
399.044	94.81
399.268	94.81
399.492	86.81
399.717	84.81
399.941	83.81
400.165	87.81
400.389	86.81
400.613	80.81
400.837	70.81
401.062	82.81
401.286	66.81
401.51	84.81
401.734	83.81
401.958	76.81
402.182	91.81
402.406	109.81
402.63	71.81
402.854	86.81
403.078	77.81
403.302	68.81
403.526	80.81
403.75	95.81
403.974	78.81
404.198	83.81
404.422	77.81
404.645	74.81
404.869	80.81
405.093	73.81
405.317	79.81
405.541	74.81
405.765	84.81
405.988	74.81
406.212	89.81
406.436	91.81
406.66	90.81
406.883	93.81
407.107	76.81
407.331	84.81
407.555	92.81
407.778	86.81
408.002	82.81
408.226	78.81
408.449	77.81
408.673	98.81
408.896	86.81
409.12	82.81
409.344	77.81
409.567	86.81
409.791	75.81
410.014	78.81
410.238	83.81
410.461	86.81
410.685	91.81
410.908	90.81
411.132	93.81
411.355	73.81
411.578	73.81
411.802	72.81
412.025	91.81
412.249	84.81
412.472	91.81
412.695	90.81
412.919	81.81
413.142	75.81
413.365	87.81
413.589	85.81
413.812	73.81
414.035	87.81
414.258	91.81
414.482	86.81
414.705	74.81
414.928	71.81
415.151	82.81
415.374	78.81
415.597	88.81
415.821	82.81
416.044	82.81
416.267	77.81
416.49	91.81
416.713	89.81
416.936	91.81
417.159	88.81
417.382	91.81
417.605	78.81
417.828	80.81
418.051	80.81
418.274	75.81
418.497	65.81
418.72	95.81
418.943	84.81
419.166	82.81
419.389	69.81
419.611	91.81
419.834	91.81
420.057	90.81
420.28	69.81
420.503	93.81
420.726	89.81
420.948	78.81
421.171	79.81
421.394	80.81
421.617	82.81
421.839	85.81
422.062	89.81
422.285	80.81
422.507	101.81
422.73	77.81
422.953	82.81
423.175	86.81
423.398	60.81
423.621	82.81
423.843	100.81
424.066	97.81
424.288	98.81
424.511	78.81
424.733	68.81
424.956	84.81
425.178	73.81
425.401	111.81
425.623	141.81
425.846	106.81
426.068	86.81
426.291	82.81
426.513	84.81
426.735	84.81
426.958	74.81
427.18	84.81
427.402	123.81
427.625	147.81
427.847	102.81
428.069	71.81
428.292	106.81
428.514	85.81
428.736	82.81
428.958	133.81
429.181	132.81
429.403	93.81
429.625	81.81
429.847	97.81
430.069	90.81
430.292	87.81
430.514	87.81
430.736	83.81
430.958	89.81
431.18	94.81
431.402	77.81
431.624	80.81
431.846	74.81
432.068	69.81
432.29	86.81
432.512	78.81
432.734	76.81
432.956	70.81
433.178	83.81
433.4	99.81
433.622	85.81
433.844	120.81
434.066	105.81
434.287	116.81
434.509	102.81
434.731	93.81
434.953	79.81
435.175	94.81
435.397	112.81
435.618	83.81
435.84	86.81
436.062	87.81
436.284	76.81
436.505	81.81
436.727	78.81
436.949	90.81
437.17	91.81
437.392	99.81
437.614	85.81
437.835	96.81
438.057	79.81
438.278	79.81
438.5	102.81
438.721	89.81
438.943	88.81
439.165	102.81
439.386	71.81
439.608	73.81
439.829	75.81
440.05	90.81
440.272	79.81
440.493	68.81
440.715	70.81
440.936	78.81
441.158	76.81
441.379	84.81
441.6	85.81
441.822	89.81
442.043	93.81
442.264	92.81
442.486	95.81
442.707	91.81
442.928	84.81
443.149	88.81
443.371	90.81
443.592	77.81
443.813	87.81
444.034	73.81
444.255	82.81
444.476	72.81
444.698	82.81
444.919	83.81
445.14	173.81
445.361	134.81
445.582	97.81
445.803	73.81
446.024	83.81
446.245	90.81
446.466	86.81
446.687	68.81
446.908	71.81
447.129	78.81
447.35	98.81
447.571	75.81
447.792	73.81
448.013	86.81
448.234	90.81
448.455	83.81
448.675	85.81
448.896	76.81
449.117	92.81
449.338	85.81
449.559	89.81
449.779	87.81
450	86.81
450.221	82.81
450.442	81.81
450.662	86.81
450.883	76.81
451.104	84.81
451.324	86.81
451.545	86.81
451.766	79.81
451.986	70.81
452.207	71.81
452.428	103.81
452.648	88.81
452.869	89.81
453.089	86.81
453.31	73.81
453.53	72.81
453.751	86.81
453.971	78.81
454.192	100.81
454.412	82.81
454.633	86.81
454.853	106.81
455.073	83.81
455.294	75.81
455.514	86.81
455.734	82.81
455.955	83.81
456.175	87.81
456.395	80.81
456.616	77.81
456.836	77.81
457.056	91.81
457.276	85.81
457.497	95.81
457.717	81.81
457.937	72.81
458.157	84.81
458.377	85.81
458.598	77.81
458.818	80.81
459.038	86.81
459.258	89.81
459.478	85.81
459.698	85.81
459.918	77.81
460.138	72.81
460.358	94.81
460.578	90.81
460.798	83.81
461.018	79.81
461.238	91.81
461.458	105.81
461.678	94.81
461.898	98.81
462.118	94.81
462.338	67.81
462.558	83.81
462.777	82.81
462.997	81.81
463.217	88.81
463.437	79.81
463.657	95.81
463.876	88.81
464.096	90.81
464.316	78.81
464.536	89.81
464.755	125.81
464.975	104.81
465.195	98.81
465.414	116.81
465.634	77.81
465.854	78.81
466.073	70.81
466.293	83.81
466.512	102.81
466.732	76.81
466.951	82.81
467.171	93.81
467.391	94.81
467.61	91.81
467.829	86.81
468.049	87.81
468.268	88.81
468.488	82.81
468.707	72.81
468.927	84.81
469.146	90.81
469.365	87.81
469.585	83.81
469.804	87.81
470.023	89.81
470.243	71.81
470.462	73.81
470.681	77.81
470.901	84.81
471.12	82.81
471.339	78.81
471.558	86.81
471.777	81.81
471.997	91.81
472.216	89.81
472.435	69.81
472.654	85.81
472.873	90.81
473.092	78.81
473.311	86.81
473.53	80.81
473.749	81.81
473.968	81.81
474.187	78.81
474.406	80.81
474.625	90.81
474.844	74.81
475.063	96.81
475.282	78.81
475.501	80.81
475.72	93.81
475.939	84.81
476.158	82.81
476.377	84.81
476.596	84.81
476.814	87.81
477.033	79.81
477.252	76.81
477.471	76.81
477.69	75.81
477.908	82.81
478.127	78.81
478.346	82.81
478.564	88.81
478.783	84.81
479.002	85.81
479.22	90.81
479.439	98.81
479.658	66.81
479.876	85.81
480.095	84.81
480.313	76.81
480.532	76.81
480.751	91.81
480.969	85.81
481.188	89.81
481.406	86.81
481.624	77.81
481.843	90.81
482.061	79.81
482.28	95.81
482.498	89.81
482.717	83.81
482.935	92.81
483.153	98.81
483.372	85.81
483.59	85.81
483.808	87.81
484.027	83.81
484.245	75.81
484.463	79.81
484.681	97.81
484.9	84.81
485.118	90.81
485.336	70.81
485.554	78.81
485.772	90.81
485.99	84.81
486.209	84.81
486.427	90.81
486.645	72.81
486.863	95.81
487.081	85.81
487.299	92.81
487.517	87.81
487.735	90.81
487.953	94.81
488.171	98.81
488.389	95.81
488.607	98.81
488.825	98.81
489.043	85.81
489.261	83.81
489.479	77.81
489.696	90.81
489.914	99.81
490.132	87.81
490.35	85.81
490.568	84.81
490.786	89.81
491.003	74.81
491.221	71.81
491.439	81.81
491.657	78.81
491.874	76.81
492.092	81.81
492.31	113.81
492.527	107.81
492.745	88.81
492.963	95.81
493.18	99.81
493.398	77.81
493.615	91.81
493.833	87.81
494.05	84.81
494.268	91.81
494.485	84.81
494.703	82.81
494.92	92.81
495.138	90.81
495.355	88.81
495.573	76.81
495.79	90.81
496.008	70.81
496.225	78.81
496.442	86.81
496.66	85.81
496.877	83.81
497.094	102.81
497.312	90.81
497.529	78.81
497.746	77.81
497.963	98.81
498.181	74.81
498.398	74.81
498.615	67.81
498.832	91.81
499.049	82.81
499.267	87.81
499.484	106.81
499.701	80.81
499.918	74.81
500.135	86.81
500.352	76.81
500.569	77.81
500.786	88.81
501.003	81.81
501.22	59.81
501.437	90.81
501.654	78.81
501.871	81.81
502.088	84.81
502.305	91.81
502.522	79.81
502.739	87.81
502.956	83.81
503.172	84.81
503.389	94.81
503.606	73.81
503.823	82.81
504.04	98.81
504.256	84.81
504.473	95.81
504.69	84.81
504.907	92.81
505.123	79.81
505.34	70.81
505.557	87.81
505.773	79.81
505.99	83.81
506.207	83.81
506.423	89.81
506.64	94.81
506.856	85.81
507.073	84.81
507.289	86.81
507.506	85.81
507.722	93.81
507.939	101.81
508.155	87.81
508.372	90.81
508.588	88.81
508.805	79.81
509.021	73.81
509.238	68.81
509.454	81.81
509.67	79.81
509.887	77.81
510.103	93.81
510.319	89.81
510.536	88.81
510.752	75.81
510.968	68.81
511.184	80.81
511.401	85.81
511.617	86.81
511.833	86.81
512.049	98.81
512.265	83.81
512.481	82.81
512.698	73.81
512.914	74.81
513.13	84.81
513.346	99.81
513.562	88.81
513.778	83.81
513.994	86.81
514.21	80.81
514.426	88.81
514.642	86.81
514.858	87.81
515.074	78.81
515.29	98.81
515.506	79.81
515.721	83.81
515.937	84.81
516.153	83.81
516.369	80.81
516.585	75.81
516.801	75.81
517.016	75.81
517.232	86.81
517.448	77.81
517.664	78.81
517.879	89.81
518.095	91.81
518.311	86.81
518.527	84.81
518.742	81.81
518.958	91.81
519.173	70.81
519.389	90.81
