Data from StA_HRD10591_084.txt Node
Date: Fri May 16 15:19:25 EDT 2025
User: Yrep
Spectrometer: HR+D1059
Trigger mode: 1
Integration Time (sec): 1.000000E-1
Scans to average: 1
Electric dark correction enabled: true
Nonlinearity correction enabled: false
Boxcar width: 0
XAxis mode: Wavelengths
Number of Pixels in Spectrum: 2048
>>>>>Begin Spectral Data<<<<<
223.165	-15.25
223.4	-15.25
223.635	-15.25
223.869	-10.25
224.104	-23.25
224.338	-17.25
224.573	-11.25
224.808	-15.25
225.042	-3.25
225.277	-10.25
225.511	-5.25
225.746	-2.25
225.98	10.75
226.215	14.75
226.449	23.75
226.683	14.75
226.918	25.75
227.152	23.75
227.387	34.75
227.621	34.75
227.856	44.75
228.09	36.75
228.324	51.75
228.559	48.75
228.793	68.75
229.027	70.75
229.262	77.75
229.496	68.75
229.73	81.75
229.964	84.75
230.199	63.75
230.433	71.75
230.667	88.75
230.901	72.75
231.136	88.75
231.37	80.75
231.604	72.75
231.838	81.75
232.072	88.75
232.306	79.75
232.541	78.75
232.775	79.75
233.009	86.75
233.243	80.75
233.477	94.75
233.711	67.75
233.945	77.75
234.179	88.75
234.413	81.75
234.647	82.75
234.881	81.75
235.115	67.75
235.349	78.75
235.583	82.75
235.817	73.75
236.051	78.75
236.285	76.75
236.519	72.75
236.753	80.75
236.987	80.75
237.221	77.75
237.455	71.75
237.689	82.75
237.922	93.75
238.156	74.75
238.39	79.75
238.624	75.75
238.858	68.75
239.091	78.75
239.325	65.75
239.559	67.75
239.793	82.75
240.027	72.75
240.26	77.75
240.494	84.75
240.728	72.75
240.961	77.75
241.195	65.75
241.429	78.75
241.662	87.75
241.896	92.75
242.13	93.75
242.363	84.75
242.597	80.75
242.83	89.75
243.064	88.75
243.298	80.75
243.531	77.75
243.765	71.75
243.998	80.75
244.232	82.75
244.465	82.75
244.699	65.75
244.932	67.75
245.166	76.75
245.399	79.75
245.633	76.75
245.866	83.75
246.099	71.75
246.333	72.75
246.566	79.75
246.8	83.75
247.033	81.75
247.266	50.75
247.5	90.75
247.733	77.75
247.966	79.75
248.2	80.75
248.433	84.75
248.666	80.75
248.899	81.75
249.133	67.75
249.366	77.75
249.599	87.75
249.832	87.75
250.066	93.75
250.299	78.75
250.532	89.75
250.765	93.75
250.998	60.75
251.231	81.75
251.465	72.75
251.698	80.75
251.931	86.75
252.164	71.75
252.397	88.75
252.63	82.75
252.863	80.75
253.096	72.75
253.329	71.75
253.562	77.75
253.795	82.75
254.028	92.75
254.261	88.75
254.494	70.75
254.727	78.75
254.96	92.75
255.193	64.75
255.426	63.75
255.659	77.75
255.892	74.75
256.124	73.75
256.357	78.75
256.59	85.75
256.823	101.75
257.056	87.75
257.289	76.75
257.521	92.75
257.754	80.75
257.987	73.75
258.22	86.75
258.452	76.75
258.685	85.75
258.918	92.75
259.151	86.75
259.383	93.75
259.616	86.75
259.849	89.75
260.081	87.75
260.314	93.75
260.547	93.75
260.779	80.75
261.012	86.75
261.244	85.75
261.477	87.75
261.71	62.75
261.942	81.75
262.175	79.75
262.407	65.75
262.64	79.75
262.872	74.75
263.105	78.75
263.337	96.75
263.57	86.75
263.802	85.75
264.035	84.75
264.267	80.75
264.499	87.75
264.732	81.75
264.964	84.75
265.197	96.75
265.429	83.75
265.661	76.75
265.894	74.75
266.126	97.75
266.358	95.75
266.591	102.75
266.823	87.75
267.055	79.75
267.287	78.75
267.52	75.75
267.752	84.75
267.984	82.75
268.216	96.75
268.448	85.75
268.681	89.75
268.913	83.75
269.145	90.75
269.377	94.75
269.609	81.75
269.841	86.75
270.073	90.75
270.306	79.75
270.538	85.75
270.77	75.75
271.002	80.75
271.234	88.75
271.466	84.75
271.698	89.75
271.93	88.75
272.162	77.75
272.394	91.75
272.626	89.75
272.858	97.75
273.09	95.75
273.322	104.75
273.553	101.75
273.785	75.75
274.017	84.75
274.249	94.75
274.481	85.75
274.713	81.75
274.945	95.75
275.176	89.75
275.408	88.75
275.64	85.75
275.872	91.75
276.104	79.75
276.335	91.75
276.567	93.75
276.799	72.75
277.031	97.75
277.262	84.75
277.494	91.75
277.726	101.75
277.957	90.75
278.189	74.75
278.421	72.75
278.652	92.75
278.884	88.75
279.115	76.75
279.347	72.75
279.579	93.75
279.81	88.75
280.042	88.75
280.273	87.75
280.505	98.75
280.736	81.75
280.968	81.75
281.199	77.75
281.431	93.75
281.662	90.75
281.894	88.75
282.125	76.75
282.356	76.75
282.588	94.75
282.819	87.75
283.051	87.75
283.282	92.75
283.513	86.75
283.745	89.75
283.976	83.75
284.207	82.75
284.439	80.75
284.67	92.75
284.901	97.75
285.132	99.75
285.364	84.75
285.595	84.75
285.826	91.75
286.057	91.75
286.288	96.75
286.52	80.75
286.751	91.75
286.982	101.75
287.213	102.75
287.444	98.75
287.675	93.75
287.906	92.75
288.138	83.75
288.369	79.75
288.6	86.75
288.831	79.75
289.062	90.75
289.293	89.75
289.524	80.75
289.755	89.75
289.986	81.75
290.217	93.75
290.448	62.75
290.679	74.75
290.91	81.75
291.141	91.75
291.371	88.75
291.602	88.75
291.833	95.75
292.064	77.75
292.295	89.75
292.526	84.75
292.757	82.75
292.987	72.75
293.218	82.75
293.449	68.75
293.68	90.75
293.91	81.75
294.141	97.75
294.372	85.75
294.603	90.75
294.833	90.75
295.064	78.75
295.295	84.75
295.525	94.75
295.756	102.75
295.987	87.75
296.217	99.75
296.448	86.75
296.679	83.75
296.909	86.75
297.14	92.75
297.37	92.75
297.601	91.75
297.831	87.75
298.062	89.75
298.292	98.75
298.523	90.75
298.753	91.75
298.984	88.75
299.214	109.75
299.445	82.75
299.675	93.75
299.905	80.75
300.136	98.75
300.366	90.75
300.597	87.75
300.827	87.75
301.057	85.75
301.288	82.75
301.518	89.75
301.748	109.75
301.979	109.75
302.209	102.75
302.439	104.75
302.669	81.75
302.9	88.75
303.13	88.75
303.36	76.75
303.59	90.75
303.82	96.75
304.051	89.75
304.281	88.75
304.511	95.75
304.741	86.75
304.971	85.75
305.201	92.75
305.431	91.75
305.661	97.75
305.891	90.75
306.121	65.75
306.352	85.75
306.582	79.75
306.812	90.75
307.042	79.75
307.272	78.75
307.502	84.75
307.731	81.75
307.961	91.75
308.191	81.75
308.421	93.75
308.651	93.75
308.881	87.75
309.111	94.75
309.341	78.75
309.571	93.75
309.8	102.75
310.03	85.75
310.26	84.75
310.49	85.75
310.72	87.75
310.949	85.75
311.179	81.75
311.409	78.75
311.639	77.75
311.868	100.75
312.098	96.75
312.328	104.75
312.557	101.75
312.787	83.75
313.017	92.75
313.246	81.75
313.476	92.75
313.706	89.75
313.935	76.75
314.165	93.75
314.394	80.75
314.624	98.75
314.853	97.75
315.083	78.75
315.312	93.75
315.542	86.75
315.771	92.75
316.001	92.75
316.23	86.75
316.46	77.75
316.689	92.75
316.919	73.75
317.148	110.75
317.377	78.75
317.607	85.75
317.836	92.75
318.065	90.75
318.295	84.75
318.524	79.75
318.753	104.75
318.983	82.75
319.212	79.75
319.441	71.75
319.67	79.75
319.9	87.75
320.129	85.75
320.358	73.75
320.587	93.75
320.816	89.75
321.046	90.75
321.275	93.75
321.504	69.75
321.733	88.75
321.962	82.75
322.191	82.75
322.42	89.75
322.649	88.75
322.878	97.75
323.108	89.75
323.337	92.75
323.566	84.75
323.795	92.75
324.024	86.75
324.253	89.75
324.482	84.75
324.71	92.75
324.939	81.75
325.168	82.75
325.397	78.75
325.626	89.75
325.855	83.75
326.084	87.75
326.313	93.75
326.542	81.75
326.77	84.75
326.999	96.75
327.228	76.75
327.457	82.75
327.686	92.75
327.914	85.75
328.143	82.75
328.372	78.75
328.6	97.75
328.829	91.75
329.058	88.75
329.287	84.75
329.515	86.75
329.744	90.75
329.972	77.75
330.201	92.75
330.43	82.75
330.658	92.75
330.887	98.75
331.115	86.75
331.344	86.75
331.572	84.75
331.801	77.75
332.03	100.75
332.258	96.75
332.486	92.75
332.715	83.75
332.943	81.75
333.172	76.75
333.4	88.75
333.629	78.75
333.857	86.75
334.085	74.75
334.314	81.75
334.542	84.75
334.771	90.75
334.999	98.75
335.227	88.75
335.455	92.75
335.684	99.75
335.912	96.75
336.14	93.75
336.369	77.75
336.597	86.75
336.825	86.75
337.053	74.75
337.281	89.75
337.51	81.75
337.738	86.75
337.966	82.75
338.194	74.75
338.422	72.75
338.65	83.75
338.878	102.75
339.106	88.75
339.334	80.75
339.562	107.75
339.79	82.75
340.018	82.75
340.246	81.75
340.474	90.75
340.702	94.75
340.93	88.75
341.158	97.75
341.386	96.75
341.614	94.75
341.842	78.75
342.07	93.75
342.298	85.75
342.526	84.75
342.754	94.75
342.981	94.75
343.209	87.75
343.437	91.75
343.665	90.75
343.893	91.75
344.12	95.75
344.348	97.75
344.576	81.75
344.804	85.75
345.031	96.75
345.259	93.75
345.487	78.75
345.714	91.75
345.942	80.75
346.17	83.75
346.397	88.75
346.625	89.75
346.853	86.75
347.08	96.75
347.308	71.75
347.535	82.75
347.763	87.75
347.99	85.75
348.218	93.75
348.445	91.75
348.673	77.75
348.9	82.75
349.128	95.75
349.355	93.75
349.583	93.75
349.81	98.75
350.037	86.75
350.265	102.75
350.492	66.75
350.72	97.75
350.947	97.75
351.174	85.75
351.402	76.75
351.629	94.75
351.856	82.75
352.083	76.75
352.311	98.75
352.538	88.75
352.765	85.75
352.992	82.75
353.22	79.75
353.447	86.75
353.674	72.75
353.901	86.75
354.128	82.75
354.355	76.75
354.583	85.75
354.81	92.75
355.037	90.75
355.264	95.75
355.491	76.75
355.718	82.75
355.945	88.75
356.172	97.75
356.399	78.75
356.626	94.75
356.853	101.75
357.08	90.75
357.307	91.75
357.534	113.75
357.761	105.75
357.988	123.75
358.215	114.75
358.441	87.75
358.668	89.75
358.895	104.75
359.122	91.75
359.349	118.75
359.576	127.75
359.802	96.75
360.029	90.75
360.256	102.75
360.483	107.75
360.709	112.75
360.936	89.75
361.163	100.75
361.39	92.75
361.616	90.75
361.843	90.75
362.07	82.75
362.296	103.75
362.523	104.75
362.749	90.75
362.976	74.75
363.203	90.75
363.429	81.75
363.656	83.75
363.882	69.75
364.109	91.75
364.335	93.75
364.562	88.75
364.788	79.75
365.015	102.75
365.241	74.75
365.468	87.75
365.694	81.75
365.92	88.75
366.147	85.75
366.373	89.75
366.599	87.75
366.826	104.75
367.052	82.75
367.278	92.75
367.505	83.75
367.731	104.75
367.957	68.75
368.184	78.75
368.41	92.75
368.636	79.75
368.862	101.75
369.089	89.75
369.315	70.75
369.541	78.75
369.767	93.75
369.993	100.75
370.219	90.75
370.445	90.75
370.672	83.75
370.898	86.75
371.124	94.75
371.35	94.75
371.576	89.75
371.802	92.75
372.028	78.75
372.254	85.75
372.48	78.75
372.706	76.75
372.932	91.75
373.158	96.75
373.384	76.75
373.61	78.75
373.835	80.75
374.061	82.75
374.287	97.75
374.513	95.75
374.739	88.75
374.965	85.75
375.191	81.75
375.416	84.75
375.642	92.75
375.868	78.75
376.094	79.75
376.319	84.75
376.545	82.75
376.771	98.75
376.997	81.75
377.222	77.75
377.448	82.75
377.674	78.75
377.899	79.75
378.125	86.75
378.35	84.75
378.576	82.75
378.802	102.75
379.027	79.75
379.253	89.75
379.478	88.75
379.704	73.75
379.929	81.75
380.155	93.75
380.38	93.75
380.606	81.75
380.831	80.75
381.057	86.75
381.282	77.75
381.507	84.75
381.733	90.75
381.958	97.75
382.184	75.75
382.409	78.75
382.634	81.75
382.86	82.75
383.085	81.75
383.31	94.75
383.535	93.75
383.761	88.75
383.986	95.75
384.211	95.75
384.436	85.75
384.662	85.75
384.887	89.75
385.112	108.75
385.337	100.75
385.562	82.75
385.787	100.75
386.013	102.75
386.238	75.75
386.463	101.75
386.688	98.75
386.913	94.75
387.138	83.75
387.363	87.75
387.588	97.75
387.813	94.75
388.038	74.75
388.263	98.75
388.488	91.75
388.713	93.75
388.938	85.75
389.163	84.75
389.387	92.75
389.612	87.75
389.837	89.75
390.062	84.75
390.287	97.75
390.512	84.75
390.736	95.75
390.961	95.75
391.186	93.75
391.411	100.75
391.636	94.75
391.86	84.75
392.085	93.75
392.31	93.75
392.534	92.75
392.759	82.75
392.984	94.75
393.208	85.75
393.433	88.75
393.658	88.75
393.882	83.75
394.107	89.75
394.331	71.75
394.556	76.75
394.78	87.75
395.005	89.75
395.229	78.75
395.454	83.75
395.678	100.75
395.903	81.75
396.127	90.75
396.352	105.75
396.576	95.75
396.801	95.75
397.025	97.75
397.249	101.75
397.474	106.75
397.698	82.75
397.922	100.75
398.147	103.75
398.371	95.75
398.595	96.75
398.82	86.75
399.044	87.75
399.268	91.75
399.492	82.75
399.717	85.75
399.941	78.75
400.165	74.75
400.389	84.75
400.613	78.75
400.837	93.75
401.062	79.75
401.286	80.75
401.51	88.75
401.734	93.75
401.958	84.75
402.182	79.75
402.406	82.75
402.63	73.75
402.854	76.75
403.078	78.75
403.302	87.75
403.526	77.75
403.75	85.75
403.974	81.75
404.198	93.75
404.422	70.75
404.645	80.75
404.869	86.75
405.093	79.75
405.317	86.75
405.541	93.75
405.765	77.75
405.988	81.75
406.212	88.75
406.436	80.75
406.66	73.75
406.883	88.75
407.107	89.75
407.331	94.75
407.555	76.75
407.778	86.75
408.002	91.75
408.226	78.75
408.449	83.75
408.673	86.75
408.896	96.75
409.12	87.75
409.344	83.75
409.567	85.75
409.791	81.75
410.014	72.75
410.238	82.75
410.461	88.75
410.685	88.75
410.908	94.75
411.132	87.75
411.355	80.75
411.578	82.75
411.802	80.75
412.025	75.75
412.249	84.75
412.472	77.75
412.695	86.75
412.919	79.75
413.142	74.75
413.365	67.75
413.589	85.75
413.812	65.75
414.035	78.75
414.258	79.75
414.482	90.75
414.705	78.75
414.928	78.75
415.151	88.75
415.374	87.75
415.597	88.75
415.821	89.75
416.044	85.75
416.267	90.75
416.49	85.75
416.713	78.75
416.936	79.75
417.159	86.75
417.382	94.75
417.605	76.75
417.828	92.75
418.051	85.75
418.274	86.75
418.497	87.75
418.72	73.75
418.943	89.75
419.166	90.75
419.389	90.75
419.611	84.75
419.834	89.75
420.057	86.75
420.28	81.75
420.503	86.75
420.726	87.75
420.948	101.75
421.171	85.75
421.394	86.75
421.617	95.75
421.839	80.75
422.062	79.75
422.285	78.75
422.507	95.75
422.73	84.75
422.953	78.75
423.175	100.75
423.398	90.75
423.621	87.75
423.843	94.75
424.066	83.75
424.288	86.75
424.511	92.75
424.733	86.75
424.956	98.75
425.178	98.75
425.401	130.75
425.623	141.75
425.846	90.75
426.068	88.75
426.291	89.75
426.513	95.75
426.735	88.75
426.958	86.75
427.18	89.75
427.402	117.75
427.625	144.75
427.847	97.75
428.069	82.75
428.292	73.75
428.514	94.75
428.736	97.75
428.958	124.75
429.181	130.75
429.403	78.75
429.625	89.75
429.847	80.75
430.069	84.75
430.292	84.75
430.514	90.75
430.736	85.75
430.958	92.75
431.18	73.75
431.402	87.75
431.624	80.75
431.846	84.75
432.068	74.75
432.29	75.75
432.512	88.75
432.734	84.75
432.956	96.75
433.178	87.75
433.4	102.75
433.622	102.75
433.844	105.75
434.066	124.75
434.287	94.75
434.509	111.75
434.731	95.75
434.953	106.75
435.175	100.75
435.397	115.75
435.618	82.75
435.84	82.75
436.062	97.75
436.284	95.75
436.505	79.75
436.727	77.75
436.949	90.75
437.17	96.75
437.392	87.75
437.614	89.75
437.835	77.75
438.057	92.75
438.278	85.75
438.5	81.75
438.721	93.75
438.943	88.75
439.165	88.75
439.386	91.75
439.608	89.75
439.829	74.75
440.05	74.75
440.272	87.75
440.493	99.75
440.715	81.75
440.936	94.75
441.158	93.75
441.379	81.75
441.6	94.75
441.822	79.75
442.043	84.75
442.264	81.75
442.486	96.75
442.707	95.75
442.928	88.75
443.149	80.75
443.371	72.75
443.592	82.75
443.813	86.75
444.034	67.75
444.255	70.75
444.476	87.75
444.698	89.75
444.919	95.75
445.14	176.75
445.361	122.75
445.582	77.75
445.803	75.75
446.024	89.75
446.245	76.75
446.466	94.75
446.687	97.75
446.908	78.75
447.129	78.75
447.35	94.75
447.571	66.75
447.792	74.75
448.013	90.75
448.234	92.75
448.455	80.75
448.675	85.75
448.896	84.75
449.117	97.75
449.338	98.75
449.559	90.75
449.779	105.75
450	90.75
450.221	88.75
450.442	88.75
450.662	78.75
450.883	82.75
451.104	90.75
451.324	80.75
451.545	75.75
451.766	95.75
451.986	81.75
452.207	86.75
452.428	81.75
452.648	96.75
452.869	88.75
453.089	75.75
453.31	84.75
453.53	93.75
453.751	84.75
453.971	85.75
454.192	93.75
454.412	93.75
454.633	94.75
454.853	101.75
455.073	78.75
455.294	93.75
455.514	65.75
455.734	78.75
455.955	91.75
456.175	98.75
456.395	85.75
456.616	88.75
456.836	91.75
457.056	77.75
457.276	81.75
457.497	71.75
457.717	93.75
457.937	94.75
458.157	98.75
458.377	90.75
458.598	92.75
458.818	88.75
459.038	91.75
459.258	78.75
459.478	72.75
459.698	81.75
459.918	84.75
460.138	88.75
460.358	79.75
460.578	94.75
460.798	93.75
461.018	89.75
461.238	93.75
461.458	89.75
461.678	111.75
461.898	102.75
462.118	86.75
462.338	84.75
462.558	96.75
462.777	97.75
462.997	91.75
463.217	92.75
463.437	77.75
463.657	69.75
463.876	104.75
464.096	68.75
464.316	100.75
464.536	87.75
464.755	124.75
464.975	96.75
465.195	84.75
465.414	121.75
465.634	81.75
465.854	89.75
466.073	85.75
466.293	87.75
466.512	89.75
466.732	86.75
466.951	103.75
467.171	78.75
467.391	95.75
467.61	94.75
467.829	86.75
468.049	80.75
468.268	75.75
468.488	78.75
468.707	77.75
468.927	80.75
469.146	89.75
469.365	100.75
469.585	83.75
469.804	84.75
470.023	88.75
470.243	78.75
470.462	88.75
470.681	93.75
470.901	98.75
471.12	87.75
471.339	85.75
471.558	64.75
471.777	76.75
471.997	97.75
472.216	75.75
472.435	100.75
472.654	96.75
472.873	73.75
473.092	93.75
473.311	97.75
473.53	86.75
473.749	90.75
473.968	84.75
474.187	76.75
474.406	81.75
474.625	91.75
474.844	95.75
475.063	81.75
475.282	90.75
475.501	76.75
475.72	95.75
475.939	87.75
476.158	84.75
476.377	78.75
476.596	82.75
476.814	91.75
477.033	84.75
477.252	86.75
477.471	91.75
477.69	84.75
477.908	97.75
478.127	90.75
478.346	86.75
478.564	75.75
478.783	78.75
479.002	89.75
479.22	84.75
479.439	79.75
479.658	91.75
479.876	78.75
480.095	77.75
480.313	93.75
480.532	95.75
480.751	85.75
480.969	93.75
481.188	84.75
481.406	86.75
481.624	87.75
481.843	88.75
482.061	72.75
482.28	81.75
482.498	98.75
482.717	92.75
482.935	77.75
483.153	88.75
483.372	90.75
483.59	92.75
483.808	84.75
484.027	90.75
484.245	71.75
484.463	94.75
484.681	82.75
484.9	88.75
485.118	74.75
485.336	73.75
485.554	89.75
485.772	71.75
485.99	88.75
486.209	88.75
486.427	96.75
486.645	86.75
486.863	88.75
487.081	91.75
487.299	89.75
487.517	78.75
487.735	86.75
487.953	72.75
488.171	85.75
488.389	85.75
488.607	78.75
488.825	92.75
489.043	86.75
489.261	80.75
489.479	77.75
489.696	103.75
489.914	94.75
490.132	82.75
490.35	90.75
490.568	89.75
490.786	84.75
491.003	80.75
491.221	82.75
491.439	88.75
491.657	85.75
491.874	75.75
492.092	90.75
492.31	102.75
492.527	87.75
492.745	88.75
492.963	92.75
493.18	96.75
493.398	85.75
493.615	86.75
493.833	84.75
494.05	97.75
494.268	107.75
494.485	68.75
494.703	100.75
494.92	88.75
495.138	85.75
495.355	93.75
495.573	79.75
495.79	81.75
496.008	77.75
496.225	93.75
496.442	84.75
496.66	88.75
496.877	79.75
497.094	95.75
497.312	96.75
497.529	86.75
497.746	77.75
497.963	90.75
498.181	75.75
498.398	86.75
498.615	84.75
498.832	84.75
499.049	88.75
499.267	87.75
499.484	94.75
499.701	85.75
499.918	94.75
500.135	73.75
500.352	74.75
500.569	82.75
500.786	95.75
501.003	85.75
501.22	93.75
501.437	85.75
501.654	81.75
501.871	76.75
502.088	76.75
502.305	91.75
502.522	86.75
502.739	82.75
502.956	104.75
503.172	98.75
503.389	88.75
503.606	94.75
503.823	69.75
504.04	85.75
504.256	90.75
504.473	82.75
504.69	97.75
504.907	96.75
505.123	94.75
505.34	83.75
505.557	85.75
505.773	73.75
505.99	101.75
506.207	77.75
506.423	86.75
506.64	81.75
506.856	84.75
507.073	73.75
507.289	82.75
507.506	92.75
507.722	88.75
507.939	77.75
508.155	80.75
508.372	75.75
508.588	84.75
508.805	81.75
509.021	86.75
509.238	86.75
509.454	88.75
509.67	74.75
509.887	82.75
510.103	89.75
510.319	102.75
510.536	86.75
510.752	86.75
510.968	85.75
511.184	77.75
511.401	73.75
511.617	81.75
511.833	73.75
512.049	85.75
512.265	92.75
512.481	86.75
512.698	81.75
512.914	77.75
513.13	82.75
513.346	84.75
513.562	86.75
513.778	83.75
513.994	93.75
514.21	74.75
514.426	90.75
514.642	78.75
514.858	87.75
515.074	97.75
515.29	72.75
515.506	81.75
515.721	95.75
515.937	85.75
516.153	75.75
516.369	74.75
516.585	95.75
516.801	93.75
517.016	80.75
517.232	71.75
517.448	80.75
517.664	90.75
517.879	81.75
518.095	97.75
518.311	100.75
518.527	84.75
518.742	75.75
518.958	89.75
