Data from StA_HRD10591_066.txt Node
Date: Fri May 16 15:19:16 EDT 2025
User: Yrep
Spectrometer: HR+D1059
Trigger mode: 1
Integration Time (sec): 1.000000E-1
Scans to average: 1
Electric dark correction enabled: true
Nonlinearity correction enabled: false
Boxcar width: 0
XAxis mode: Wavelengths
Number of Pixels in Spectrum: 2048
>>>>>Begin Spectral Data<<<<<
223.165	-19.94
223.4	-19.94
223.635	-19.94
223.869	-19.94
224.104	-27.94
224.338	1.06
224.573	-16.94
224.808	-16.94
225.042	-11.94
225.277	0.06
225.511	-3.94
225.746	2.06
225.98	22.06
226.215	11.06
226.449	18.06
226.683	11.06
226.918	18.06
227.152	34.06
227.387	53.06
227.621	38.06
227.856	47.06
228.09	60.06
228.324	59.06
228.559	60.06
228.793	68.06
229.027	82.06
229.262	73.06
229.496	81.06
229.73	72.06
229.964	83.06
230.199	88.06
230.433	92.06
230.667	84.06
230.901	87.06
231.136	79.06
231.37	92.06
231.604	85.06
231.838	91.06
232.072	100.06
232.306	96.06
232.541	107.06
232.775	92.06
233.009	100.06
233.243	80.06
233.477	95.06
233.711	103.06
233.945	106.06
234.179	110.06
234.413	103.06
234.647	74.06
234.881	90.06
235.115	95.06
235.349	90.06
235.583	87.06
235.817	89.06
236.051	108.06
236.285	97.06
236.519	84.06
236.753	87.06
236.987	92.06
237.221	90.06
237.455	100.06
237.689	99.06
237.922	91.06
238.156	106.06
238.39	90.06
238.624	87.06
238.858	80.06
239.091	75.06
239.325	81.06
239.559	102.06
239.793	81.06
240.027	88.06
240.26	90.06
240.494	79.06
240.728	91.06
240.961	105.06
241.195	85.06
241.429	97.06
241.662	92.06
241.896	96.06
242.13	108.06
242.363	104.06
242.597	100.06
242.83	94.06
243.064	103.06
243.298	100.06
243.531	93.06
243.765	91.06
243.998	77.06
244.232	103.06
244.465	112.06
244.699	108.06
244.932	100.06
245.166	115.06
245.399	121.06
245.633	117.06
245.866	108.06
246.099	108.06
246.333	116.06
246.566	119.06
246.8	114.06
247.033	115.06
247.266	110.06
247.5	128.06
247.733	111.06
247.966	114.06
248.2	119.06
248.433	119.06
248.666	121.06
248.899	134.06
249.133	125.06
249.366	120.06
249.599	119.06
249.832	113.06
250.066	133.06
250.299	127.06
250.532	115.06
250.765	125.06
250.998	127.06
251.231	132.06
251.465	134.06
251.698	134.06
251.931	138.06
252.164	157.06
252.397	156.06
252.63	155.06
252.863	146.06
253.096	154.06
253.329	145.06
253.562	142.06
253.795	154.06
254.028	168.06
254.261	156.06
254.494	148.06
254.727	148.06
254.96	152.06
255.193	151.06
255.426	155.06
255.659	118.06
255.892	129.06
256.124	144.06
256.357	148.06
256.59	149.06
256.823	154.06
257.056	166.06
257.289	169.06
257.521	172.06
257.754	171.06
257.987	163.06
258.22	169.06
258.452	143.06
258.685	179.06
258.918	156.06
259.151	163.06
259.383	153.06
259.616	170.06
259.849	163.06
260.081	156.06
260.314	168.06
260.547	161.06
260.779	168.06
261.012	188.06
261.244	183.06
261.477	194.06
261.71	172.06
261.942	175.06
262.175	174.06
262.407	191.06
262.64	172.06
262.872	195.06
263.105	188.06
263.337	181.06
263.57	168.06
263.802	170.06
264.035	167.06
264.267	174.06
264.499	177.06
264.732	175.06
264.964	178.06
265.197	166.06
265.429	199.06
265.661	212.06
265.894	223.06
266.126	248.06
266.358	277.06
266.591	341.06
266.823	330.06
267.055	319.06
267.287	316.06
267.52	327.06
267.752	361.06
267.984	383.06
268.216	303.06
268.448	256.06
268.681	261.06
268.913	319.06
269.145	303.06
269.377	295.06
269.609	286.06
269.841	280.06
270.073	310.06
270.306	271.06
270.538	263.06
270.77	243.06
271.002	253.06
271.234	257.06
271.466	242.06
271.698	211.06
271.93	249.06
272.162	276.06
272.394	268.06
272.626	278.06
272.858	236.06
273.09	211.06
273.322	215.06
273.553	194.06
273.785	217.06
274.017	249.06
274.249	271.06
274.481	312.06
274.713	317.06
274.945	366.06
275.176	392.06
275.408	381.06
275.64	356.06
275.872	393.06
276.104	445.06
276.335	453.06
276.567	441.06
276.799	435.06
277.031	378.06
277.262	291.06
277.494	265.06
277.726	280.06
277.957	304.06
278.189	343.06
278.421	311.06
278.652	328.06
278.884	317.06
279.115	299.06
279.347	296.06
279.579	264.06
279.81	270.06
280.042	275.06
280.273	296.06
280.505	260.06
280.736	237.06
280.968	258.06
281.199	303.06
281.431	311.06
281.662	313.06
281.894	356.06
282.125	368.06
282.356	394.06
282.588	389.06
282.819	365.06
283.051	393.06
283.282	500.06
283.513	555.06
283.745	615.06
283.976	562.06
284.207	531.06
284.439	537.06
284.67	503.06
284.901	488.06
285.132	555.06
285.364	526.06
285.595	519.06
285.826	559.06
286.057	539.06
286.288	532.06
286.52	591.06
286.751	574.06
286.982	536.06
287.213	463.06
287.444	459.06
287.675	501.06
287.906	443.06
288.138	363.06
288.369	325.06
288.6	305.06
288.831	341.06
289.062	416.06
289.293	424.06
289.524	435.06
289.755	448.06
289.986	460.06
290.217	350.06
290.448	282.06
290.679	265.06
290.91	257.06
291.141	279.06
291.371	273.06
291.602	283.06
291.833	299.06
292.064	311.06
292.295	373.06
292.526	393.06
292.757	398.06
292.987	425.06
293.218	384.06
293.449	374.06
293.68	347.06
293.91	315.06
294.141	309.06
294.372	293.06
294.603	285.06
294.833	294.06
295.064	271.06
295.295	269.06
295.525	285.06
295.756	257.06
295.987	238.06
296.217	225.06
296.448	234.06
296.679	254.06
296.909	301.06
297.14	350.06
297.37	373.06
297.601	311.06
297.831	323.06
298.062	357.06
298.292	372.06
298.523	353.06
298.753	383.06
298.984	363.06
299.214	305.06
299.445	270.06
299.675	247.06
299.905	222.06
300.136	225.06
300.366	239.06
300.597	213.06
300.827	227.06
301.057	227.06
301.288	248.06
301.518	304.06
301.748	315.06
301.979	311.06
302.209	271.06
302.439	299.06
302.669	283.06
302.9	293.06
303.13	269.06
303.36	263.06
303.59	271.06
303.82	292.06
304.051	323.06
304.281	364.06
304.511	325.06
304.741	299.06
304.971	320.06
305.201	326.06
305.431	267.06
305.661	239.06
305.891	242.06
306.121	229.06
306.352	216.06
306.582	213.06
306.812	209.06
307.042	196.06
307.272	205.06
307.502	211.06
307.731	209.06
307.961	223.06
308.191	209.06
308.421	202.06
308.651	201.06
308.881	208.06
309.111	225.06
309.341	235.06
309.571	222.06
309.8	232.06
310.03	205.06
310.26	221.06
310.49	223.06
310.72	233.06
310.949	239.06
311.179	249.06
311.409	309.06
311.639	383.06
311.868	499.06
312.098	607.06
312.328	583.06
312.557	578.06
312.787	551.06
313.017	528.06
313.246	581.06
313.476	519.06
313.706	409.06
313.935	342.06
314.165	286.06
314.394	284.06
314.624	280.06
314.853	296.06
315.083	284.06
315.312	271.06
315.542	241.06
315.771	219.06
316.001	214.06
316.23	195.06
316.46	212.06
316.689	208.06
316.919	217.06
317.148	221.06
317.377	210.06
317.607	238.06
317.836	239.06
318.065	293.06
318.295	312.06
318.524	261.06
318.753	207.06
318.983	217.06
319.212	231.06
319.441	244.06
319.67	261.06
319.9	303.06
320.129	261.06
320.358	235.06
320.587	250.06
320.816	248.06
321.046	263.06
321.275	285.06
321.504	266.06
321.733	283.06
321.962	264.06
322.191	242.06
322.42	201.06
322.649	200.06
322.878	215.06
323.108	210.06
323.337	212.06
323.566	237.06
323.795	233.06
324.024	230.06
324.253	217.06
324.482	191.06
324.71	196.06
324.939	199.06
325.168	183.06
325.397	201.06
325.626	205.06
325.855	205.06
326.084	203.06
326.313	204.06
326.542	224.06
326.77	209.06
326.999	230.06
327.228	217.06
327.457	203.06
327.686	188.06
327.914	196.06
328.143	182.06
328.372	195.06
328.6	203.06
328.829	209.06
329.058	212.06
329.287	233.06
329.515	243.06
329.744	223.06
329.972	205.06
330.201	218.06
330.43	235.06
330.658	239.06
330.887	269.06
331.115	268.06
331.344	283.06
331.572	245.06
331.801	221.06
332.03	224.06
332.258	251.06
332.486	259.06
332.715	247.06
332.943	256.06
333.172	244.06
333.4	286.06
333.629	304.06
333.857	320.06
334.085	324.06
334.314	307.06
334.542	277.06
334.771	271.06
334.999	271.06
335.227	245.06
335.455	299.06
335.684	328.06
335.912	364.06
336.14	393.06
336.369	355.06
336.597	355.06
336.825	413.06
337.053	371.06
337.281	277.06
337.51	254.06
337.738	278.06
337.966	314.06
338.194	299.06
338.422	271.06
338.65	237.06
338.878	229.06
339.106	243.06
339.334	262.06
339.562	268.06
339.79	265.06
340.018	245.06
340.246	292.06
340.474	327.06
340.702	316.06
340.93	325.06
341.158	278.06
341.386	227.06
341.614	238.06
341.842	268.06
342.07	321.06
342.298	371.06
342.526	299.06
342.754	239.06
342.981	237.06
343.209	256.06
343.437	284.06
343.665	261.06
343.893	221.06
344.12	200.06
344.348	205.06
344.576	201.06
344.804	195.06
345.031	208.06
345.259	195.06
345.487	215.06
345.714	225.06
345.942	200.06
346.17	215.06
346.397	195.06
346.625	199.06
346.853	193.06
347.08	192.06
347.308	197.06
347.535	189.06
347.763	201.06
347.99	183.06
348.218	181.06
348.445	183.06
348.673	177.06
348.9	172.06
349.128	183.06
349.355	187.06
349.583	196.06
349.81	185.06
350.037	191.06
350.265	159.06
350.492	165.06
350.72	162.06
350.947	180.06
351.174	184.06
351.402	181.06
351.629	183.06
351.856	175.06
352.083	177.06
352.311	182.06
352.538	170.06
352.765	178.06
352.992	179.06
353.22	198.06
353.447	187.06
353.674	178.06
353.901	172.06
354.128	177.06
354.355	182.06
354.583	185.06
354.81	185.06
355.037	188.06
355.264	200.06
355.491	193.06
355.718	192.06
355.945	209.06
356.172	193.06
356.399	194.06
356.626	200.06
356.853	210.06
357.08	215.06
357.307	223.06
357.534	256.06
357.761	304.06
357.988	340.06
358.215	282.06
358.441	250.06
358.668	272.06
358.895	243.06
359.122	246.06
359.349	284.06
359.576	296.06
359.802	224.06
360.029	239.06
360.256	265.06
360.483	280.06
360.709	292.06
360.936	247.06
361.163	208.06
361.39	191.06
361.616	183.06
361.843	176.06
362.07	196.06
362.296	183.06
362.523	185.06
362.749	183.06
362.976	206.06
363.203	227.06
363.429	201.06
363.656	220.06
363.882	219.06
364.109	224.06
364.335	206.06
364.562	218.06
364.788	199.06
365.015	188.06
365.241	209.06
365.468	210.06
365.694	195.06
365.92	193.06
366.147	199.06
366.373	201.06
366.599	199.06
366.826	186.06
367.052	179.06
367.278	201.06
367.505	199.06
367.731	216.06
367.957	216.06
368.184	213.06
368.41	195.06
368.636	199.06
368.862	200.06
369.089	179.06
369.315	175.06
369.541	181.06
369.767	187.06
369.993	187.06
370.219	176.06
370.445	201.06
370.672	180.06
370.898	184.06
371.124	200.06
371.35	204.06
371.576	221.06
371.802	177.06
372.028	204.06
372.254	195.06
372.48	182.06
372.706	179.06
372.932	184.06
373.158	192.06
373.384	209.06
373.61	197.06
373.835	206.06
374.061	209.06
374.287	224.06
374.513	233.06
374.739	223.06
374.965	211.06
375.191	192.06
375.416	178.06
375.642	199.06
375.868	217.06
376.094	188.06
376.319	172.06
376.545	188.06
376.771	194.06
376.997	179.06
377.222	183.06
377.448	179.06
377.674	197.06
377.899	172.06
378.125	183.06
378.35	196.06
378.576	188.06
378.802	197.06
379.027	210.06
379.253	191.06
379.478	213.06
379.704	197.06
379.929	194.06
380.155	205.06
380.38	204.06
380.606	211.06
380.831	201.06
381.057	209.06
381.282	195.06
381.507	199.06
381.733	221.06
381.958	211.06
382.184	208.06
382.409	223.06
382.634	201.06
382.86	195.06
383.085	187.06
383.31	203.06
383.535	198.06
383.761	189.06
383.986	205.06
384.211	189.06
384.436	201.06
384.662	201.06
384.887	212.06
385.112	246.06
385.337	238.06
385.562	238.06
385.787	238.06
386.013	223.06
386.238	227.06
386.463	201.06
386.688	227.06
386.913	212.06
387.138	202.06
387.363	231.06
387.588	219.06
387.813	212.06
388.038	216.06
388.263	214.06
388.488	219.06
388.713	220.06
388.938	207.06
389.163	208.06
389.387	206.06
389.612	219.06
389.837	220.06
390.062	207.06
390.287	214.06
390.512	195.06
390.736	220.06
390.961	229.06
391.186	215.06
391.411	225.06
391.636	219.06
391.86	227.06
392.085	234.06
392.31	223.06
392.534	206.06
392.759	212.06
392.984	209.06
393.208	209.06
393.433	194.06
393.658	209.06
393.882	202.06
394.107	199.06
394.331	221.06
394.556	208.06
394.78	202.06
395.005	208.06
395.229	201.06
395.454	207.06
395.678	207.06
395.903	203.06
396.127	213.06
396.352	221.06
396.576	263.06
396.801	244.06
397.025	251.06
397.249	242.06
397.474	235.06
397.698	264.06
397.922	263.06
398.147	238.06
398.371	244.06
398.595	253.06
398.82	237.06
399.044	260.06
399.268	272.06
399.492	251.06
399.717	256.06
399.941	238.06
400.165	240.06
400.389	233.06
400.613	211.06
400.837	215.06
401.062	229.06
401.286	239.06
401.51	226.06
401.734	207.06
401.958	208.06
402.182	218.06
402.406	238.06
402.63	232.06
402.854	235.06
403.078	215.06
403.302	216.06
403.526	230.06
403.75	237.06
403.974	247.06
404.198	217.06
404.422	244.06
404.645	235.06
404.869	206.06
405.093	227.06
405.317	224.06
405.541	217.06
405.765	213.06
405.988	225.06
406.212	253.06
406.436	216.06
406.66	233.06
406.883	227.06
407.107	233.06
407.331	224.06
407.555	227.06
407.778	247.06
408.002	238.06
408.226	235.06
408.449	224.06
408.673	225.06
408.896	207.06
409.12	211.06
409.344	236.06
409.567	214.06
409.791	204.06
410.014	229.06
410.238	224.06
410.461	225.06
410.685	209.06
410.908	221.06
411.132	224.06
411.355	217.06
411.578	222.06
411.802	209.06
412.025	233.06
412.249	224.06
412.472	235.06
412.695	243.06
412.919	220.06
413.142	230.06
413.365	237.06
413.589	221.06
413.812	217.06
414.035	219.06
414.258	194.06
414.482	230.06
414.705	212.06
414.928	209.06
415.151	213.06
415.374	229.06
415.597	213.06
415.821	224.06
416.044	197.06
416.267	223.06
416.49	229.06
416.713	229.06
416.936	212.06
417.159	222.06
417.382	221.06
417.605	221.06
417.828	227.06
418.051	214.06
418.274	197.06
418.497	209.06
418.72	224.06
418.943	216.06
419.166	222.06
419.389	225.06
419.611	235.06
419.834	214.06
420.057	205.06
420.28	210.06
420.503	230.06
420.726	201.06
420.948	229.06
421.171	220.06
421.394	228.06
421.617	229.06
421.839	215.06
422.062	214.06
422.285	212.06
422.507	216.06
422.73	222.06
422.953	205.06
423.175	215.06
423.398	215.06
423.621	220.06
423.843	199.06
424.066	223.06
424.288	236.06
424.511	229.06
424.733	227.06
424.956	224.06
425.178	246.06
425.401	341.06
425.623	366.06
425.846	267.06
426.068	222.06
426.291	234.06
426.513	247.06
426.735	232.06
426.958	261.06
427.18	269.06
427.402	332.06
427.625	368.06
427.847	279.06
428.069	220.06
428.292	219.06
428.514	238.06
428.736	249.06
428.958	312.06
429.181	315.06
429.403	252.06
429.625	208.06
429.847	223.06
430.069	222.06
430.292	212.06
430.514	204.06
430.736	216.06
430.958	183.06
431.18	202.06
431.402	203.06
431.624	198.06
431.846	200.06
432.068	208.06
432.29	211.06
432.512	208.06
432.734	213.06
432.956	201.06
433.178	203.06
433.4	218.06
433.622	222.06
433.844	253.06
434.066	263.06
434.287	257.06
434.509	260.06
434.731	251.06
434.953	256.06
435.175	265.06
435.397	267.06
435.618	196.06
435.84	192.06
436.062	223.06
436.284	218.06
436.505	197.06
436.727	189.06
436.949	215.06
437.17	203.06
437.392	230.06
437.614	217.06
437.835	192.06
438.057	191.06
438.278	175.06
438.5	198.06
438.721	205.06
438.943	215.06
439.165	201.06
439.386	217.06
439.608	198.06
439.829	193.06
440.05	199.06
440.272	200.06
440.493	202.06
440.715	213.06
440.936	197.06
441.158	200.06
441.379	194.06
441.6	200.06
441.822	199.06
442.043	217.06
442.264	222.06
442.486	232.06
442.707	221.06
442.928	227.06
443.149	222.06
443.371	241.06
443.592	218.06
443.813	220.06
444.034	217.06
444.255	206.06
444.476	217.06
444.698	209.06
444.919	213.06
445.14	294.06
445.361	252.06
445.582	211.06
445.803	208.06
446.024	227.06
446.245	220.06
446.466	207.06
446.687	190.06
446.908	209.06
447.129	199.06
447.35	208.06
447.571	205.06
447.792	204.06
448.013	193.06
448.234	205.06
448.455	198.06
448.675	205.06
448.896	219.06
449.117	213.06
449.338	200.06
449.559	215.06
449.779	247.06
450	222.06
450.221	211.06
450.442	202.06
450.662	206.06
450.883	202.06
451.104	204.06
451.324	215.06
451.545	207.06
451.766	209.06
451.986	207.06
452.207	207.06
452.428	202.06
452.648	217.06
452.869	220.06
453.089	218.06
453.31	230.06
453.53	199.06
453.751	207.06
453.971	203.06
454.192	227.06
454.412	210.06
454.633	216.06
454.853	208.06
455.073	204.06
455.294	190.06
455.514	189.06
455.734	199.06
455.955	241.06
456.175	221.06
456.395	199.06
456.616	199.06
456.836	183.06
457.056	188.06
457.276	207.06
457.497	189.06
457.717	191.06
457.937	206.06
458.157	198.06
458.377	200.06
458.598	207.06
458.818	216.06
459.038	222.06
459.258	242.06
459.478	227.06
459.698	232.06
459.918	227.06
460.138	230.06
460.358	222.06
460.578	207.06
460.798	220.06
461.018	215.06
461.238	223.06
461.458	239.06
461.678	249.06
461.898	263.06
462.118	257.06
462.338	241.06
462.558	258.06
462.777	253.06
462.997	234.06
463.217	250.06
463.437	251.06
463.657	241.06
463.876	253.06
464.096	241.06
464.316	248.06
464.536	261.06
464.755	275.06
464.975	272.06
465.195	257.06
465.414	272.06
465.634	202.06
465.854	211.06
466.073	191.06
466.293	217.06
466.512	224.06
466.732	212.06
466.951	207.06
467.171	216.06
467.391	203.06
467.61	199.06
467.829	192.06
468.049	170.06
468.268	200.06
468.488	187.06
468.707	205.06
468.927	193.06
469.146	214.06
469.365	220.06
469.585	184.06
469.804	205.06
470.023	209.06
470.243	205.06
470.462	196.06
470.681	199.06
470.901	212.06
471.12	203.06
471.339	207.06
471.558	203.06
471.777	208.06
471.997	233.06
472.216	199.06
472.435	208.06
472.654	200.06
472.873	205.06
473.092	214.06
473.311	221.06
473.53	185.06
473.749	205.06
473.968	221.06
474.187	203.06
474.406	201.06
474.625	190.06
474.844	192.06
475.063	192.06
475.282	216.06
475.501	222.06
475.72	243.06
475.939	248.06
476.158	221.06
476.377	212.06
476.596	217.06
476.814	207.06
477.033	213.06
477.252	208.06
477.471	198.06
477.69	224.06
477.908	217.06
478.127	213.06
478.346	228.06
478.564	229.06
478.783	215.06
479.002	237.06
479.22	246.06
479.439	212.06
479.658	239.06
479.876	243.06
480.095	241.06
480.313	258.06
480.532	235.06
480.751	222.06
480.969	222.06
481.188	228.06
481.406	235.06
481.624	214.06
481.843	212.06
482.061	215.06
482.28	222.06
482.498	249.06
482.717	244.06
482.935	238.06
483.153	257.06
483.372	216.06
483.59	219.06
483.808	212.06
484.027	227.06
484.245	233.06
484.463	223.06
484.681	236.06
484.9	234.06
485.118	242.06
485.336	226.06
485.554	240.06
485.772	215.06
485.99	241.06
486.209	251.06
486.427	261.06
486.645	235.06
486.863	227.06
487.081	233.06
487.299	260.06
487.517	251.06
487.735	237.06
487.953	231.06
488.171	235.06
488.389	233.06
488.607	235.06
488.825	276.06
489.043	243.06
489.261	225.06
489.479	229.06
489.696	249.06
489.914	225.06
490.132	229.06
490.35	253.06
490.568	245.06
490.786	245.06
491.003	229.06
491.221	234.06
491.439	231.06
491.657	238.06
491.874	234.06
492.092	252.06
492.31	285.06
492.527	281.06
492.745	245.06
492.963	252.06
493.18	239.06
493.398	234.06
493.615	240.06
493.833	264.06
494.05	248.06
494.268	239.06
494.485	238.06
494.703	244.06
494.92	237.06
495.138	245.06
495.355	251.06
495.573	263.06
495.79	257.06
496.008	241.06
496.225	255.06
496.442	251.06
496.66	262.06
496.877	259.06
497.094	259.06
497.312	249.06
497.529	270.06
497.746	275.06
497.963	256.06
498.181	275.06
498.398	263.06
498.615	294.06
498.832	277.06
499.049	299.06
499.267	315.06
499.484	313.06
499.701	336.06
499.918	357.06
500.135	371.06
500.352	376.06
500.569	377.06
500.786	369.06
501.003	360.06
501.22	359.06
501.437	328.06
501.654	319.06
501.871	300.06
502.088	297.06
502.305	297.06
502.522	256.06
502.739	284.06
502.956	270.06
503.172	280.06
503.389	255.06
