Data from StA_HRD10591_027.txt Node
Date: Fri May 16 15:18:57 EDT 2025
User: Yrep
Spectrometer: HR+D1059
Trigger mode: 1
Integration Time (sec): 1.000000E-1
Scans to average: 1
Electric dark correction enabled: true
Nonlinearity correction enabled: false
Boxcar width: 0
XAxis mode: Wavelengths
Number of Pixels in Spectrum: 2048
>>>>>Begin Spectral Data<<<<<
223.165	-27.69
223.4	-27.69
223.635	-27.69
223.869	-9.69
224.104	-27.69
224.338	-15.69
224.573	-0.69
224.808	-16.69
225.042	-0.69
225.277	-13.69
225.511	-2.69
225.746	9.31
225.98	12.31
226.215	21.31
226.449	13.31
226.683	18.31
226.918	14.31
227.152	26.31
227.387	35.31
227.621	44.31
227.856	38.31
228.09	55.31
228.324	46.31
228.559	47.31
228.793	61.31
229.027	54.31
229.262	48.31
229.496	57.31
229.73	55.31
229.964	58.31
230.199	47.31
230.433	72.31
230.667	76.31
230.901	70.31
231.136	57.31
231.37	73.31
231.604	73.31
231.838	52.31
232.072	68.31
232.306	84.31
232.541	78.31
232.775	73.31
233.009	73.31
233.243	71.31
233.477	76.31
233.711	79.31
233.945	58.31
234.179	67.31
234.413	62.31
234.647	68.31
234.881	77.31
235.115	68.31
235.349	70.31
235.583	84.31
235.817	63.31
236.051	66.31
236.285	83.31
236.519	69.31
236.753	76.31
236.987	60.31
237.221	63.31
237.455	60.31
237.689	74.31
237.922	76.31
238.156	78.31
238.39	74.31
238.624	59.31
238.858	73.31
239.091	65.31
239.325	69.31
239.559	72.31
239.793	63.31
240.027	58.31
240.26	70.31
240.494	85.31
240.728	77.31
240.961	71.31
241.195	73.31
241.429	80.31
241.662	70.31
241.896	58.31
242.13	79.31
242.363	72.31
242.597	55.31
242.83	68.31
243.064	58.31
243.298	62.31
243.531	71.31
243.765	87.31
243.998	77.31
244.232	71.31
244.465	70.31
244.699	68.31
244.932	68.31
245.166	69.31
245.399	78.31
245.633	74.31
245.866	79.31
246.099	72.31
246.333	60.31
246.566	78.31
246.8	65.31
247.033	66.31
247.266	65.31
247.5	90.31
247.733	79.31
247.966	79.31
248.2	49.31
248.433	64.31
248.666	70.31
248.899	83.31
249.133	75.31
249.366	73.31
249.599	72.31
249.832	65.31
250.066	83.31
250.299	69.31
250.532	72.31
250.765	84.31
250.998	74.31
251.231	70.31
251.465	59.31
251.698	80.31
251.931	73.31
252.164	79.31
252.397	75.31
252.63	58.31
252.863	76.31
253.096	63.31
253.329	73.31
253.562	64.31
253.795	62.31
254.028	79.31
254.261	82.31
254.494	75.31
254.727	66.31
254.96	71.31
255.193	88.31
255.426	68.31
255.659	80.31
255.892	79.31
256.124	85.31
256.357	82.31
256.59	69.31
256.823	67.31
257.056	64.31
257.289	66.31
257.521	64.31
257.754	63.31
257.987	72.31
258.22	77.31
258.452	57.31
258.685	67.31
258.918	78.31
259.151	61.31
259.383	75.31
259.616	81.31
259.849	64.31
260.081	66.31
260.314	68.31
260.547	80.31
260.779	86.31
261.012	80.31
261.244	75.31
261.477	85.31
261.71	90.31
261.942	81.31
262.175	70.31
262.407	76.31
262.64	80.31
262.872	83.31
263.105	76.31
263.337	55.31
263.57	75.31
263.802	89.31
264.035	82.31
264.267	85.31
264.499	78.31
264.732	62.31
264.964	70.31
265.197	72.31
265.429	79.31
265.661	73.31
265.894	79.31
266.126	80.31
266.358	76.31
266.591	77.31
266.823	77.31
267.055	74.31
267.287	78.31
267.52	84.31
267.752	71.31
267.984	69.31
268.216	72.31
268.448	87.31
268.681	83.31
268.913	78.31
269.145	85.31
269.377	65.31
269.609	86.31
269.841	70.31
270.073	71.31
270.306	80.31
270.538	83.31
270.77	69.31
271.002	74.31
271.234	70.31
271.466	78.31
271.698	86.31
271.93	89.31
272.162	79.31
272.394	85.31
272.626	90.31
272.858	81.31
273.09	86.31
273.322	80.31
273.553	76.31
273.785	78.31
274.017	70.31
274.249	78.31
274.481	82.31
274.713	86.31
274.945	73.31
275.176	78.31
275.408	60.31
275.64	84.31
275.872	81.31
276.104	73.31
276.335	83.31
276.567	72.31
276.799	86.31
277.031	68.31
277.262	79.31
277.494	82.31
277.726	74.31
277.957	75.31
278.189	73.31
278.421	72.31
278.652	66.31
278.884	75.31
279.115	73.31
279.347	75.31
279.579	76.31
279.81	78.31
280.042	78.31
280.273	82.31
280.505	80.31
280.736	78.31
280.968	68.31
281.199	73.31
281.431	67.31
281.662	82.31
281.894	66.31
282.125	72.31
282.356	78.31
282.588	63.31
282.819	90.31
283.051	82.31
283.282	88.31
283.513	76.31
283.745	88.31
283.976	72.31
284.207	69.31
284.439	79.31
284.67	84.31
284.901	82.31
285.132	86.31
285.364	91.31
285.595	76.31
285.826	111.31
286.057	74.31
286.288	84.31
286.52	86.31
286.751	92.31
286.982	86.31
287.213	80.31
287.444	60.31
287.675	82.31
287.906	95.31
288.138	81.31
288.369	89.31
288.6	77.31
288.831	97.31
289.062	84.31
289.293	83.31
289.524	74.31
289.755	67.31
289.986	87.31
290.217	61.31
290.448	75.31
290.679	72.31
290.91	89.31
291.141	82.31
291.371	76.31
291.602	72.31
291.833	83.31
292.064	72.31
292.295	72.31
292.526	78.31
292.757	66.31
292.987	79.31
293.218	70.31
293.449	78.31
293.68	78.31
293.91	76.31
294.141	92.31
294.372	82.31
294.603	83.31
294.833	79.31
295.064	85.31
295.295	66.31
295.525	76.31
295.756	84.31
295.987	71.31
296.217	80.31
296.448	86.31
296.679	84.31
296.909	83.31
297.14	75.31
297.37	86.31
297.601	77.31
297.831	82.31
298.062	76.31
298.292	77.31
298.523	88.31
298.753	84.31
298.984	94.31
299.214	71.31
299.445	88.31
299.675	96.31
299.905	82.31
300.136	76.31
300.366	84.31
300.597	80.31
300.827	74.31
301.057	80.31
301.288	83.31
301.518	95.31
301.748	108.31
301.979	108.31
302.209	108.31
302.439	84.31
302.669	91.31
302.9	74.31
303.13	80.31
303.36	90.31
303.59	90.31
303.82	96.31
304.051	69.31
304.281	89.31
304.511	84.31
304.741	68.31
304.971	68.31
305.201	86.31
305.431	84.31
305.661	77.31
305.891	73.31
306.121	82.31
306.352	63.31
306.582	94.31
306.812	68.31
307.042	89.31
307.272	70.31
307.502	75.31
307.731	90.31
307.961	83.31
308.191	83.31
308.421	90.31
308.651	87.31
308.881	83.31
309.111	71.31
309.341	99.31
309.571	82.31
309.8	75.31
310.03	80.31
310.26	82.31
310.49	83.31
310.72	89.31
310.949	73.31
311.179	66.31
311.409	78.31
311.639	85.31
311.868	89.31
312.098	82.31
312.328	79.31
312.557	77.31
312.787	70.31
313.017	80.31
313.246	95.31
313.476	84.31
313.706	77.31
313.935	73.31
314.165	73.31
314.394	84.31
314.624	70.31
314.853	76.31
315.083	73.31
315.312	81.31
315.542	88.31
315.771	75.31
316.001	89.31
316.23	88.31
316.46	80.31
316.689	59.31
316.919	86.31
317.148	76.31
317.377	80.31
317.607	65.31
317.836	80.31
318.065	78.31
318.295	82.31
318.524	68.31
318.753	79.31
318.983	73.31
319.212	87.31
319.441	63.31
319.67	75.31
319.9	70.31
320.129	80.31
320.358	68.31
320.587	82.31
320.816	69.31
321.046	63.31
321.275	82.31
321.504	82.31
321.733	84.31
321.962	83.31
322.191	66.31
322.42	77.31
322.649	75.31
322.878	81.31
323.108	88.31
323.337	78.31
323.566	70.31
323.795	79.31
324.024	91.31
324.253	95.31
324.482	78.31
324.71	61.31
324.939	58.31
325.168	77.31
325.397	100.31
325.626	71.31
325.855	70.31
326.084	82.31
326.313	87.31
326.542	81.31
326.77	85.31
326.999	73.31
327.228	80.31
327.457	82.31
327.686	81.31
327.914	84.31
328.143	72.31
328.372	84.31
328.6	80.31
328.829	81.31
329.058	60.31
329.287	76.31
329.515	76.31
329.744	91.31
329.972	74.31
330.201	72.31
330.43	68.31
330.658	78.31
330.887	70.31
331.115	69.31
331.344	68.31
331.572	79.31
331.801	71.31
332.03	72.31
332.258	79.31
332.486	87.31
332.715	70.31
332.943	80.31
333.172	67.31
333.4	86.31
333.629	81.31
333.857	86.31
334.085	78.31
334.314	81.31
334.542	73.31
334.771	64.31
334.999	72.31
335.227	79.31
335.455	78.31
335.684	82.31
335.912	84.31
336.14	82.31
336.369	69.31
336.597	76.31
336.825	78.31
337.053	83.31
337.281	80.31
337.51	67.31
337.738	86.31
337.966	84.31
338.194	66.31
338.422	84.31
338.65	72.31
338.878	66.31
339.106	68.31
339.334	89.31
339.562	78.31
339.79	92.31
340.018	64.31
340.246	76.31
340.474	75.31
340.702	78.31
340.93	82.31
341.158	86.31
341.386	71.31
341.614	78.31
341.842	61.31
342.07	78.31
342.298	82.31
342.526	80.31
342.754	85.31
342.981	75.31
343.209	79.31
343.437	96.31
343.665	84.31
343.893	88.31
344.12	86.31
344.348	83.31
344.576	90.31
344.804	65.31
345.031	67.31
345.259	74.31
345.487	68.31
345.714	76.31
345.942	81.31
346.17	70.31
346.397	72.31
346.625	86.31
346.853	70.31
347.08	61.31
347.308	79.31
347.535	79.31
347.763	70.31
347.99	73.31
348.218	76.31
348.445	85.31
348.673	71.31
348.9	68.31
349.128	62.31
349.355	72.31
349.583	75.31
349.81	82.31
350.037	83.31
350.265	82.31
350.492	86.31
350.72	74.31
350.947	72.31
351.174	87.31
351.402	81.31
351.629	67.31
351.856	75.31
352.083	82.31
352.311	75.31
352.538	84.31
352.765	89.31
352.992	74.31
353.22	74.31
353.447	85.31
353.674	79.31
353.901	94.31
354.128	87.31
354.355	64.31
354.583	84.31
354.81	84.31
355.037	81.31
355.264	78.31
355.491	81.31
355.718	86.31
355.945	95.31
356.172	97.31
356.399	87.31
356.626	80.31
356.853	81.31
357.08	90.31
357.307	98.31
357.534	96.31
357.761	108.31
357.988	130.31
358.215	108.31
358.441	86.31
358.668	80.31
358.895	97.31
359.122	90.31
359.349	101.31
359.576	91.31
359.802	79.31
360.029	81.31
360.256	96.31
360.483	105.31
360.709	98.31
360.936	94.31
361.163	75.31
361.39	79.31
361.616	72.31
361.843	65.31
362.07	85.31
362.296	80.31
362.523	84.31
362.749	72.31
362.976	71.31
363.203	79.31
363.429	74.31
363.656	81.31
363.882	78.31
364.109	90.31
364.335	72.31
364.562	83.31
364.788	94.31
365.015	88.31
365.241	72.31
365.468	84.31
365.694	89.31
365.92	65.31
366.147	77.31
366.373	88.31
366.599	73.31
366.826	83.31
367.052	86.31
367.278	83.31
367.505	62.31
367.731	88.31
367.957	74.31
368.184	72.31
368.41	87.31
368.636	85.31
368.862	88.31
369.089	96.31
369.315	72.31
369.541	76.31
369.767	64.31
369.993	72.31
370.219	83.31
370.445	68.31
370.672	72.31
370.898	79.31
371.124	86.31
371.35	80.31
371.576	80.31
371.802	73.31
372.028	62.31
372.254	68.31
372.48	75.31
372.706	85.31
372.932	66.31
373.158	95.31
373.384	80.31
373.61	73.31
373.835	74.31
374.061	86.31
374.287	91.31
374.513	86.31
374.739	94.31
374.965	83.31
375.191	76.31
375.416	71.31
375.642	88.31
375.868	82.31
376.094	78.31
376.319	84.31
376.545	88.31
376.771	91.31
376.997	98.31
377.222	92.31
377.448	80.31
377.674	81.31
377.899	74.31
378.125	66.31
378.35	81.31
378.576	80.31
378.802	81.31
379.027	79.31
379.253	84.31
379.478	88.31
379.704	71.31
379.929	74.31
380.155	72.31
380.38	71.31
380.606	70.31
380.831	80.31
381.057	97.31
381.282	80.31
381.507	82.31
381.733	79.31
381.958	69.31
382.184	67.31
382.409	87.31
382.634	74.31
382.86	88.31
383.085	81.31
383.31	88.31
383.535	83.31
383.761	75.31
383.986	76.31
384.211	78.31
384.436	72.31
384.662	88.31
384.887	94.31
385.112	90.31
385.337	81.31
385.562	67.31
385.787	91.31
386.013	90.31
386.238	92.31
386.463	83.31
386.688	78.31
386.913	87.31
387.138	78.31
387.363	83.31
387.588	90.31
387.813	91.31
388.038	83.31
388.263	81.31
388.488	87.31
388.713	92.31
388.938	89.31
389.163	80.31
389.387	74.31
389.612	64.31
389.837	56.31
390.062	90.31
390.287	70.31
390.512	87.31
390.736	91.31
390.961	77.31
391.186	88.31
391.411	70.31
391.636	89.31
391.86	83.31
392.085	80.31
392.31	79.31
392.534	80.31
392.759	99.31
392.984	86.31
393.208	74.31
393.433	71.31
393.658	74.31
393.882	78.31
394.107	73.31
394.331	75.31
394.556	71.31
394.78	73.31
395.005	88.31
395.229	76.31
395.454	83.31
395.678	79.31
395.903	90.31
396.127	73.31
396.352	101.31
396.576	99.31
396.801	81.31
397.025	74.31
397.249	86.31
397.474	82.31
397.698	87.31
397.922	98.31
398.147	73.31
398.371	85.31
398.595	83.31
398.82	68.31
399.044	83.31
399.268	90.31
399.492	86.31
399.717	80.31
399.941	77.31
400.165	72.31
400.389	76.31
400.613	76.31
400.837	79.31
401.062	80.31
401.286	80.31
401.51	62.31
401.734	75.31
401.958	83.31
402.182	62.31
402.406	71.31
402.63	72.31
402.854	77.31
403.078	78.31
403.302	86.31
403.526	76.31
403.75	84.31
403.974	79.31
404.198	60.31
404.422	67.31
404.645	72.31
404.869	71.31
405.093	86.31
405.317	76.31
405.541	59.31
405.765	86.31
405.988	78.31
406.212	76.31
406.436	81.31
406.66	86.31
406.883	80.31
407.107	77.31
407.331	73.31
407.555	69.31
407.778	74.31
408.002	74.31
408.226	76.31
408.449	68.31
408.673	70.31
408.896	71.31
409.12	78.31
409.344	77.31
409.567	76.31
409.791	83.31
410.014	80.31
410.238	80.31
410.461	84.31
410.685	77.31
410.908	80.31
411.132	62.31
411.355	73.31
411.578	78.31
411.802	66.31
412.025	78.31
412.249	84.31
412.472	75.31
412.695	80.31
412.919	68.31
413.142	75.31
413.365	63.31
413.589	70.31
413.812	72.31
414.035	73.31
414.258	71.31
414.482	87.31
414.705	81.31
414.928	79.31
415.151	74.31
415.374	84.31
415.597	70.31
415.821	67.31
416.044	82.31
416.267	67.31
416.49	79.31
416.713	80.31
416.936	87.31
417.159	74.31
417.382	82.31
417.605	79.31
417.828	79.31
418.051	73.31
418.274	89.31
418.497	75.31
418.72	75.31
418.943	82.31
419.166	65.31
419.389	86.31
419.611	75.31
419.834	83.31
420.057	66.31
420.28	64.31
420.503	73.31
420.726	69.31
420.948	86.31
421.171	83.31
421.394	69.31
421.617	70.31
421.839	66.31
422.062	80.31
422.285	80.31
422.507	86.31
422.73	75.31
422.953	72.31
423.175	63.31
423.398	85.31
423.621	72.31
423.843	79.31
424.066	81.31
424.288	78.31
424.511	85.31
424.733	64.31
424.956	75.31
425.178	97.31
425.401	124.31
425.623	140.31
425.846	106.31
426.068	68.31
426.291	71.31
426.513	82.31
426.735	80.31
426.958	71.31
427.18	103.31
427.402	110.31
427.625	136.31
427.847	94.31
428.069	81.31
428.292	66.31
428.514	75.31
428.736	83.31
428.958	115.31
429.181	119.31
429.403	86.31
429.625	76.31
429.847	67.31
430.069	66.31
430.292	60.31
430.514	82.31
430.736	80.31
430.958	64.31
431.18	59.31
431.402	76.31
431.624	70.31
431.846	78.31
432.068	75.31
432.29	74.31
432.512	71.31
432.734	60.31
432.956	67.31
433.178	78.31
433.4	97.31
433.622	85.31
433.844	113.31
434.066	123.31
434.287	114.31
434.509	98.31
434.731	98.31
434.953	85.31
435.175	93.31
435.397	94.31
435.618	68.31
435.84	73.31
436.062	77.31
436.284	68.31
436.505	74.31
436.727	68.31
436.949	84.31
437.17	59.31
437.392	87.31
437.614	84.31
437.835	65.31
438.057	86.31
438.278	87.31
438.5	88.31
438.721	101.31
438.943	81.31
439.165	81.31
439.386	67.31
439.608	73.31
439.829	80.31
440.05	75.31
440.272	79.31
440.493	73.31
440.715	66.31
440.936	79.31
441.158	97.31
441.379	69.31
441.6	84.31
441.822	77.31
442.043	67.31
442.264	81.31
442.486	89.31
442.707	80.31
442.928	80.31
443.149	85.31
443.371	74.31
443.592	82.31
443.813	94.31
444.034	74.31
444.255	79.31
444.476	76.31
444.698	65.31
444.919	68.31
445.14	153.31
445.361	113.31
445.582	78.31
445.803	97.31
446.024	66.31
446.245	94.31
446.466	66.31
446.687	85.31
446.908	86.31
447.129	56.31
447.35	74.31
447.571	82.31
447.792	78.31
448.013	70.31
448.234	85.31
448.455	83.31
448.675	72.31
448.896	74.31
449.117	72.31
449.338	83.31
449.559	91.31
449.779	81.31
450	91.31
450.221	79.31
450.442	74.31
450.662	62.31
450.883	69.31
451.104	73.31
451.324	75.31
451.545	68.31
451.766	77.31
451.986	73.31
452.207	66.31
452.428	67.31
452.648	82.31
452.869	79.31
453.089	84.31
453.31	73.31
453.53	81.31
453.751	64.31
453.971	87.31
454.192	89.31
454.412	88.31
454.633	81.31
454.853	92.31
455.073	63.31
455.294	75.31
455.514	83.31
455.734	74.31
455.955	78.31
456.175	78.31
456.395	71.31
456.616	83.31
456.836	69.31
457.056	70.31
457.276	76.31
457.497	81.31
457.717	77.31
457.937	69.31
458.157	101.31
458.377	75.31
458.598	82.31
458.818	76.31
459.038	76.31
459.258	87.31
459.478	81.31
459.698	68.31
459.918	84.31
460.138	90.31
460.358	83.31
460.578	78.31
460.798	72.31
461.018	54.31
461.238	85.31
461.458	82.31
461.678	80.31
461.898	73.31
462.118	72.31
462.338	83.31
462.558	98.31
462.777	96.31
462.997	76.31
463.217	79.31
463.437	68.31
463.657	96.31
463.876	89.31
464.096	80.31
464.316	70.31
464.536	82.31
464.755	117.31
464.975	76.31
465.195	82.31
465.414	95.31
465.634	80.31
465.854	73.31
466.073	72.31
466.293	71.31
466.512	99.31
466.732	82.31
466.951	88.31
467.171	75.31
467.391	80.31
467.61	92.31
467.829	74.31
468.049	66.31
468.268	66.31
468.488	83.31
468.707	80.31
468.927	72.31
469.146	68.31
469.365	71.31
469.585	77.31
469.804	72.31
470.023	83.31
470.243	73.31
470.462	81.31
470.681	75.31
470.901	70.31
471.12	63.31
471.339	82.31
471.558	81.31
471.777	96.31
471.997	78.31
472.216	79.31
472.435	74.31
472.654	75.31
472.873	70.31
473.092	66.31
473.311	80.31
473.53	77.31
473.749	81.31
473.968	79.31
474.187	87.31
474.406	74.31
474.625	74.31
474.844	61.31
475.063	67.31
475.282	93.31
475.501	88.31
475.72	92.31
475.939	87.31
476.158	90.31
476.377	68.31
476.596	79.31
476.814	81.31
477.033	71.31
477.252	78.31
477.471	78.31
477.69	64.31
477.908	74.31
478.127	80.31
478.346	83.31
478.564	75.31
478.783	73.31
479.002	89.31
479.22	83.31
479.439	79.31
479.658	81.31
479.876	80.31
480.095	69.31
480.313	80.31
480.532	76.31
480.751	66.31
480.969	82.31
481.188	67.31
481.406	68.31
481.624	82.31
481.843	76.31
482.061	74.31
482.28	76.31
482.498	73.31
482.717	75.31
482.935	74.31
483.153	75.31
483.372	82.31
483.59	74.31
483.808	88.31
484.027	75.31
484.245	74.31
484.463	75.31
484.681	70.31
484.9	89.31
485.118	81.31
485.336	72.31
485.554	73.31
485.772	83.31
485.99	80.31
486.209	83.31
486.427	95.31
486.645	72.31
486.863	74.31
487.081	81.31
487.299	80.31
487.517	72.31
487.735	74.31
487.953	79.31
488.171	85.31
488.389	78.31
488.607	84.31
488.825	94.31
489.043	79.31
489.261	92.31
489.479	78.31
489.696	64.31
489.914	76.31
490.132	83.31
490.35	98.31
490.568	85.31
490.786	73.31
491.003	67.31
491.221	85.31
491.439	85.31
491.657	68.31
491.874	76.31
492.092	90.31
492.31	105.31
492.527	101.31
492.745	74.31
492.963	86.31
493.18	71.31
493.398	75.31
493.615	86.31
493.833	79.31
494.05	87.31
494.268	79.31
494.485	86.31
494.703	79.31
494.92	75.31
495.138	73.31
495.355	69.31
495.573	88.31
495.79	82.31
496.008	72.31
496.225	78.31
496.442	67.31
496.66	87.31
496.877	79.31
497.094	75.31
497.312	76.31
497.529	68.31
497.746	76.31
497.963	69.31
498.181	80.31
498.398	69.31
498.615	88.31
498.832	69.31
499.049	72.31
499.267	79.31
499.484	69.31
499.701	72.31
499.918	75.31
500.135	74.31
500.352	83.31
500.569	78.31
500.786	65.31
501.003	66.31
501.22	79.31
501.437	87.31
501.654	81.31
501.871	82.31
502.088	74.31
502.305	90.31
502.522	71.31
502.739	99.31
502.956	82.31
503.172	84.31
503.389	83.31
503.606	78.31
503.823	64.31
504.04	90.31
504.256	76.31
504.473	72.31
504.69	95.31
504.907	69.31
505.123	77.31
505.34	59.31
505.557	82.31
505.773	80.31
505.99	66.31
506.207	88.31
506.423	77.31
506.64	81.31
506.856	79.31
507.073	73.31
507.289	78.31
507.506	74.31
507.722	75.31
507.939	66.31
508.155	79.31
508.372	70.31
508.588	89.31
508.805	85.31
509.021	86.31
509.238	79.31
509.454	83.31
509.67	60.31
509.887	67.31
510.103	69.31
510.319	74.31
510.536	80.31
510.752	79.31
510.968	72.31
511.184	81.31
511.401	71.31
511.617	73.31
511.833	78.31
512.049	83.31
512.265	86.31
512.481	84.31
512.698	75.31
512.914	69.31
513.13	76.31
513.346	63.31
513.562	80.31
513.778	77.31
513.994	96.31
514.21	89.31
514.426	82.31
514.642	87.31
514.858	80.31
515.074	88.31
515.29	76.31
515.506	74.31
515.721	66.31
515.937	97.31
516.153	77.31
516.369	75.31
516.585	80.31
516.801	87.31
517.016	79.31
517.232	78.31
517.448	67.31
517.664	76.31
517.879	73.31
518.095	79.31
518.311	72.31
518.527	78.31
518.742	103.31
518.958	76.31
519.173	87.31
519.389	85.31
519.605	85.31
519.82	80.31
520.036	88.31
