Data from StA_HRD10591_033.txt Node
Date: Fri May 16 15:19:00 EDT 2025
User: Yrep
Spectrometer: HR+D1059
Trigger mode: 1
Integration Time (sec): 1.000000E-1
Scans to average: 1
Electric dark correction enabled: true
Nonlinearity correction enabled: false
Boxcar width: 0
XAxis mode: Wavelengths
Number of Pixels in Spectrum: 2048
>>>>>Begin Spectral Data<<<<<
223.165	-7.62
223.4	-7.62
223.635	-7.62
223.869	-11.62
224.104	-20.62
224.338	-22.62
224.573	-13.62
224.808	-5.62
225.042	-7.62
225.277	-14.62
225.511	6.38
225.746	1.38
225.98	8.38
226.215	9.38
226.449	14.38
226.683	7.38
226.918	18.38
227.152	38.38
227.387	32.38
227.621	47.38
227.856	30.38
228.09	54.38
228.324	48.38
228.559	47.38
228.793	44.38
229.027	60.38
229.262	64.38
229.496	63.38
229.73	76.38
229.964	84.38
230.199	78.38
230.433	81.38
230.667	84.38
230.901	77.38
231.136	93.38
231.37	84.38
231.604	75.38
231.838	87.38
232.072	83.38
232.306	97.38
232.541	100.38
232.775	85.38
233.009	86.38
233.243	82.38
233.477	93.38
233.711	99.38
233.945	100.38
234.179	94.38
234.413	85.38
234.647	105.38
234.881	91.38
235.115	95.38
235.349	100.38
235.583	89.38
235.817	81.38
236.051	74.38
236.285	85.38
236.519	78.38
236.753	81.38
236.987	82.38
237.221	90.38
237.455	94.38
237.689	91.38
237.922	101.38
238.156	79.38
238.39	80.38
238.624	80.38
238.858	90.38
239.091	84.38
239.325	93.38
239.559	94.38
239.793	88.38
240.027	88.38
240.26	98.38
240.494	83.38
240.728	77.38
240.961	83.38
241.195	88.38
241.429	83.38
241.662	89.38
241.896	93.38
242.13	94.38
242.363	86.38
242.597	82.38
242.83	90.38
243.064	97.38
243.298	90.38
243.531	87.38
243.765	105.38
243.998	101.38
244.232	97.38
244.465	96.38
244.699	92.38
244.932	104.38
245.166	100.38
245.399	95.38
245.633	109.38
245.866	100.38
246.099	94.38
246.333	117.38
246.566	93.38
246.8	106.38
247.033	100.38
247.266	101.38
247.5	107.38
247.733	121.38
247.966	120.38
248.2	114.38
248.433	113.38
248.666	123.38
248.899	135.38
249.133	116.38
249.366	121.38
249.599	128.38
249.832	109.38
250.066	144.38
250.299	130.38
250.532	129.38
250.765	110.38
250.998	114.38
251.231	107.38
251.465	121.38
251.698	130.38
251.931	147.38
252.164	154.38
252.397	161.38
252.63	141.38
252.863	122.38
253.096	150.38
253.329	152.38
253.562	144.38
253.795	150.38
254.028	150.38
254.261	142.38
254.494	139.38
254.727	142.38
254.96	168.38
255.193	126.38
255.426	144.38
255.659	126.38
255.892	138.38
256.124	139.38
256.357	137.38
256.59	156.38
256.823	142.38
257.056	155.38
257.289	155.38
257.521	173.38
257.754	181.38
257.987	164.38
258.22	161.38
258.452	166.38
258.685	161.38
258.918	165.38
259.151	157.38
259.383	169.38
259.616	161.38
259.849	160.38
260.081	156.38
260.314	156.38
260.547	190.38
260.779	164.38
261.012	184.38
261.244	190.38
261.477	177.38
261.71	164.38
261.942	174.38
262.175	191.38
262.407	177.38
262.64	192.38
262.872	200.38
263.105	183.38
263.337	186.38
263.57	171.38
263.802	160.38
264.035	158.38
264.267	182.38
264.499	160.38
264.732	172.38
264.964	158.38
265.197	177.38
265.429	194.38
265.661	208.38
265.894	226.38
266.126	260.38
266.358	274.38
266.591	313.38
266.823	314.38
267.055	292.38
267.287	308.38
267.52	306.38
267.752	337.38
267.984	371.38
268.216	297.38
268.448	224.38
268.681	242.38
268.913	279.38
269.145	276.38
269.377	279.38
269.609	245.38
269.841	273.38
270.073	304.38
270.306	266.38
270.538	255.38
270.77	238.38
271.002	246.38
271.234	246.38
271.466	226.38
271.698	226.38
271.93	242.38
272.162	260.38
272.394	259.38
272.626	254.38
272.858	231.38
273.09	214.38
273.322	192.38
273.553	186.38
273.785	212.38
274.017	226.38
274.249	260.38
274.481	286.38
274.713	306.38
274.945	340.38
275.176	346.38
275.408	361.38
275.64	336.38
275.872	379.38
276.104	441.38
276.335	438.38
276.567	417.38
276.799	398.38
277.031	337.38
277.262	277.38
277.494	274.38
277.726	265.38
277.957	290.38
278.189	279.38
278.421	310.38
278.652	294.38
278.884	281.38
279.115	291.38
279.347	260.38
279.579	245.38
279.81	236.38
280.042	273.38
280.273	281.38
280.505	244.38
280.736	249.38
280.968	258.38
281.199	276.38
281.431	310.38
281.662	308.38
281.894	331.38
282.125	352.38
282.356	383.38
282.588	373.38
282.819	336.38
283.051	389.38
283.282	444.38
283.513	519.38
283.745	554.38
283.976	525.38
284.207	503.38
284.439	497.38
284.67	494.38
284.901	471.38
285.132	522.38
285.364	500.38
285.595	502.38
285.826	502.38
286.057	540.38
286.288	526.38
286.52	562.38
286.751	548.38
286.982	474.38
287.213	428.38
287.444	430.38
287.675	450.38
287.906	426.38
288.138	350.38
288.369	312.38
288.6	292.38
288.831	315.38
289.062	406.38
289.293	406.38
289.524	412.38
289.755	423.38
289.986	393.38
290.217	332.38
290.448	262.38
290.679	245.38
290.91	253.38
291.141	271.38
291.371	271.38
291.602	275.38
291.833	285.38
292.064	303.38
292.295	352.38
292.526	372.38
292.757	369.38
292.987	402.38
293.218	368.38
293.449	357.38
293.68	352.38
293.91	311.38
294.141	282.38
294.372	281.38
294.603	254.38
294.833	282.38
295.064	262.38
295.295	270.38
295.525	259.38
295.756	253.38
295.987	226.38
296.217	228.38
296.448	249.38
296.679	258.38
296.909	293.38
297.14	324.38
297.37	358.38
297.601	312.38
297.831	315.38
298.062	330.38
298.292	329.38
298.523	371.38
298.753	382.38
298.984	356.38
299.214	293.38
299.445	242.38
299.675	250.38
299.905	242.38
300.136	220.38
300.366	219.38
300.597	218.38
300.827	214.38
301.057	226.38
301.288	256.38
301.518	301.38
301.748	300.38
301.979	291.38
302.209	291.38
302.439	269.38
302.669	283.38
302.9	308.38
303.13	266.38
303.36	240.38
303.59	249.38
303.82	283.38
304.051	310.38
304.281	362.38
304.511	310.38
304.741	285.38
304.971	313.38
305.201	341.38
305.431	270.38
305.661	235.38
305.891	222.38
306.121	219.38
306.352	207.38
306.582	198.38
306.812	192.38
307.042	199.38
307.272	217.38
307.502	195.38
307.731	200.38
307.961	220.38
308.191	207.38
308.421	210.38
308.651	215.38
308.881	197.38
309.111	216.38
309.341	240.38
309.571	249.38
309.8	227.38
310.03	213.38
310.26	205.38
310.49	208.38
310.72	217.38
310.949	248.38
311.179	244.38
311.409	289.38
311.639	364.38
311.868	455.38
312.098	545.38
312.328	559.38
312.557	530.38
312.787	512.38
313.017	505.38
313.246	547.38
313.476	502.38
313.706	409.38
313.935	318.38
314.165	268.38
314.394	268.38
314.624	282.38
314.853	260.38
315.083	268.38
315.312	265.38
315.542	217.38
315.771	208.38
316.001	211.38
316.23	220.38
316.46	203.38
316.689	185.38
316.919	218.38
317.148	206.38
317.377	220.38
317.607	222.38
317.836	253.38
318.065	288.38
318.295	331.38
318.524	264.38
318.753	235.38
318.983	201.38
319.212	220.38
319.441	225.38
319.67	264.38
319.9	268.38
320.129	245.38
320.358	233.38
320.587	248.38
320.816	266.38
321.046	275.38
321.275	266.38
321.504	256.38
321.733	254.38
321.962	251.38
322.191	215.38
322.42	213.38
322.649	209.38
322.878	190.38
323.108	215.38
323.337	243.38
323.566	233.38
323.795	237.38
324.024	242.38
324.253	198.38
324.482	208.38
324.71	182.38
324.939	182.38
325.168	210.38
325.397	195.38
325.626	194.38
325.855	189.38
326.084	213.38
326.313	197.38
326.542	211.38
326.77	194.38
326.999	209.38
327.228	222.38
327.457	206.38
327.686	180.38
327.914	184.38
328.143	199.38
328.372	190.38
328.6	210.38
328.829	202.38
329.058	212.38
329.287	206.38
329.515	226.38
329.744	209.38
329.972	200.38
330.201	198.38
330.43	212.38
330.658	237.38
330.887	276.38
331.115	276.38
331.344	260.38
331.572	251.38
331.801	236.38
332.03	234.38
332.258	243.38
332.486	253.38
332.715	243.38
332.943	244.38
333.172	256.38
333.4	255.38
333.629	298.38
333.857	316.38
334.085	309.38
334.314	298.38
334.542	256.38
334.771	259.38
334.999	250.38
335.227	240.38
335.455	266.38
335.684	283.38
335.912	370.38
336.14	371.38
336.369	352.38
336.597	355.38
336.825	375.38
337.053	358.38
337.281	262.38
337.51	240.38
337.738	267.38
337.966	300.38
338.194	297.38
338.422	269.38
338.65	238.38
338.878	231.38
339.106	239.38
339.334	247.38
339.562	249.38
339.79	250.38
340.018	257.38
340.246	281.38
340.474	313.38
340.702	320.38
340.93	330.38
341.158	275.38
341.386	228.38
341.614	208.38
341.842	274.38
342.07	297.38
342.298	334.38
342.526	298.38
342.754	236.38
342.981	230.38
343.209	260.38
343.437	258.38
343.665	257.38
343.893	211.38
344.12	218.38
344.348	206.38
344.576	198.38
344.804	208.38
345.031	214.38
345.259	210.38
345.487	204.38
345.714	187.38
345.942	198.38
346.17	210.38
346.397	194.38
346.625	190.38
346.853	196.38
347.08	186.38
347.308	199.38
347.535	213.38
347.763	187.38
347.99	189.38
348.218	185.38
348.445	165.38
348.673	177.38
348.9	183.38
349.128	198.38
349.355	178.38
349.583	178.38
349.81	190.38
350.037	192.38
350.265	173.38
350.492	199.38
350.72	173.38
350.947	178.38
351.174	186.38
351.402	174.38
351.629	177.38
351.856	185.38
352.083	174.38
352.311	186.38
352.538	176.38
352.765	169.38
352.992	181.38
353.22	180.38
353.447	177.38
353.674	172.38
353.901	194.38
354.128	187.38
354.355	164.38
354.583	200.38
354.81	187.38
355.037	195.38
355.264	195.38
355.491	191.38
355.718	189.38
355.945	208.38
356.172	203.38
356.399	210.38
356.626	192.38
356.853	187.38
357.08	198.38
357.307	229.38
357.534	272.38
357.761	296.38
357.988	318.38
358.215	274.38
358.441	246.38
358.668	249.38
358.895	243.38
359.122	255.38
359.349	298.38
359.576	288.38
359.802	230.38
360.029	217.38
360.256	246.38
360.483	277.38
360.709	290.38
360.936	233.38
361.163	200.38
361.39	198.38
361.616	196.38
361.843	167.38
362.07	180.38
362.296	173.38
362.523	151.38
362.749	182.38
362.976	191.38
363.203	209.38
363.429	222.38
363.656	218.38
363.882	224.38
364.109	231.38
364.335	209.38
364.562	209.38
364.788	197.38
365.015	196.38
365.241	203.38
365.468	198.38
365.694	181.38
365.92	186.38
366.147	195.38
366.373	190.38
366.599	191.38
366.826	178.38
367.052	182.38
367.278	183.38
367.505	189.38
367.731	205.38
367.957	210.38
368.184	201.38
368.41	187.38
368.636	204.38
368.862	206.38
369.089	190.38
369.315	179.38
369.541	200.38
369.767	191.38
369.993	180.38
370.219	183.38
370.445	180.38
370.672	170.38
370.898	168.38
371.124	195.38
371.35	212.38
371.576	198.38
371.802	184.38
372.028	192.38
372.254	179.38
372.48	179.38
372.706	197.38
372.932	200.38
373.158	172.38
373.384	186.38
373.61	193.38
373.835	185.38
374.061	196.38
374.287	222.38
374.513	228.38
374.739	226.38
374.965	207.38
375.191	208.38
375.416	204.38
375.642	199.38
375.868	212.38
376.094	190.38
376.319	171.38
376.545	197.38
376.771	178.38
376.997	181.38
377.222	190.38
377.448	179.38
377.674	180.38
377.899	196.38
378.125	179.38
378.35	180.38
378.576	176.38
378.802	187.38
379.027	194.38
379.253	200.38
379.478	194.38
379.704	203.38
379.929	180.38
380.155	200.38
380.38	189.38
380.606	213.38
380.831	217.38
381.057	205.38
381.282	191.38
381.507	208.38
381.733	202.38
381.958	214.38
382.184	215.38
382.409	191.38
382.634	204.38
382.86	201.38
383.085	209.38
383.31	194.38
383.535	211.38
383.761	214.38
383.986	200.38
384.211	204.38
384.436	216.38
384.662	201.38
384.887	219.38
385.112	234.38
385.337	236.38
385.562	228.38
385.787	236.38
386.013	232.38
386.238	214.38
386.463	212.38
386.688	219.38
386.913	212.38
387.138	210.38
387.363	206.38
387.588	196.38
387.813	228.38
388.038	211.38
388.263	220.38
388.488	226.38
388.713	224.38
388.938	220.38
389.163	224.38
389.387	221.38
389.612	198.38
389.837	187.38
390.062	201.38
390.287	198.38
390.512	205.38
390.736	216.38
390.961	207.38
391.186	215.38
391.411	225.38
391.636	228.38
391.86	242.38
392.085	236.38
392.31	220.38
392.534	213.38
392.759	214.38
392.984	225.38
393.208	222.38
393.433	220.38
393.658	201.38
393.882	218.38
394.107	205.38
394.331	209.38
394.556	203.38
394.78	201.38
395.005	198.38
395.229	205.38
395.454	206.38
395.678	211.38
395.903	224.38
396.127	220.38
396.352	244.38
396.576	246.38
396.801	251.38
397.025	243.38
397.249	261.38
397.474	240.38
397.698	226.38
397.922	246.38
398.147	230.38
398.371	248.38
398.595	271.38
398.82	221.38
399.044	232.38
399.268	266.38
399.492	251.38
399.717	278.38
399.941	244.38
400.165	241.38
400.389	248.38
400.613	237.38
400.837	233.38
401.062	243.38
401.286	220.38
401.51	228.38
401.734	222.38
401.958	197.38
402.182	216.38
402.406	224.38
402.63	216.38
402.854	224.38
403.078	232.38
403.302	244.38
403.526	210.38
403.75	217.38
403.974	253.38
404.198	214.38
404.422	212.38
404.645	242.38
404.869	242.38
405.093	245.38
405.317	248.38
405.541	241.38
405.765	232.38
405.988	256.38
406.212	218.38
406.436	230.38
406.66	247.38
406.883	233.38
407.107	241.38
407.331	243.38
407.555	227.38
407.778	246.38
408.002	235.38
408.226	231.38
408.449	226.38
408.673	237.38
408.896	208.38
409.12	229.38
409.344	230.38
409.567	228.38
409.791	218.38
410.014	228.38
410.238	208.38
410.461	218.38
410.685	212.38
410.908	201.38
411.132	243.38
411.355	233.38
411.578	232.38
411.802	232.38
412.025	234.38
412.249	233.38
412.472	238.38
412.695	229.38
412.919	229.38
413.142	224.38
413.365	217.38
413.589	218.38
413.812	221.38
414.035	209.38
414.258	216.38
414.482	225.38
414.705	202.38
414.928	224.38
415.151	212.38
415.374	240.38
415.597	212.38
415.821	216.38
416.044	222.38
416.267	230.38
416.49	226.38
416.713	221.38
416.936	236.38
417.159	209.38
417.382	215.38
417.605	203.38
417.828	200.38
418.051	219.38
418.274	211.38
418.497	205.38
418.72	205.38
418.943	197.38
419.166	193.38
419.389	238.38
419.611	236.38
419.834	232.38
420.057	205.38
420.28	220.38
420.503	201.38
420.726	217.38
420.948	237.38
421.171	215.38
421.394	217.38
421.617	214.38
421.839	201.38
422.062	224.38
422.285	220.38
422.507	228.38
422.73	235.38
422.953	221.38
423.175	224.38
423.398	220.38
423.621	208.38
423.843	216.38
424.066	232.38
424.288	207.38
424.511	206.38
424.733	214.38
424.956	238.38
425.178	254.38
425.401	294.38
425.623	349.38
425.846	269.38
426.068	248.38
426.291	241.38
426.513	240.38
426.735	234.38
426.958	240.38
427.18	259.38
427.402	267.38
427.625	363.38
427.847	257.38
428.069	237.38
428.292	224.38
428.514	239.38
428.736	234.38
428.958	286.38
429.181	306.38
429.403	242.38
429.625	204.38
429.847	215.38
430.069	235.38
430.292	224.38
430.514	200.38
430.736	214.38
430.958	206.38
431.18	203.38
431.402	220.38
431.624	208.38
431.846	202.38
432.068	211.38
432.29	202.38
432.512	200.38
432.734	209.38
432.956	209.38
433.178	202.38
433.4	208.38
433.622	221.38
433.844	248.38
434.066	280.38
434.287	249.38
434.509	259.38
434.731	267.38
434.953	246.38
435.175	269.38
435.397	256.38
435.618	228.38
435.84	217.38
436.062	228.38
436.284	214.38
436.505	204.38
436.727	216.38
436.949	221.38
437.17	228.38
437.392	214.38
437.614	203.38
437.835	210.38
438.057	222.38
438.278	197.38
438.5	211.38
438.721	211.38
438.943	214.38
439.165	189.38
439.386	192.38
439.608	200.38
439.829	217.38
440.05	188.38
440.272	199.38
440.493	211.38
440.715	209.38
440.936	208.38
441.158	195.38
441.379	204.38
441.6	210.38
441.822	190.38
442.043	213.38
442.264	219.38
442.486	218.38
442.707	230.38
442.928	215.38
443.149	219.38
443.371	234.38
443.592	210.38
443.813	203.38
444.034	226.38
444.255	209.38
444.476	214.38
444.698	229.38
444.919	228.38
445.14	313.38
445.361	262.38
445.582	203.38
445.803	220.38
446.024	235.38
446.245	226.38
446.466	202.38
446.687	212.38
446.908	199.38
447.129	211.38
447.35	213.38
447.571	209.38
447.792	197.38
448.013	201.38
448.234	210.38
448.455	208.38
448.675	211.38
448.896	210.38
449.117	220.38
449.338	194.38
449.559	209.38
449.779	217.38
450	230.38
450.221	220.38
450.442	204.38
450.662	209.38
450.883	194.38
451.104	203.38
451.324	194.38
451.545	212.38
451.766	221.38
451.986	210.38
452.207	230.38
452.428	206.38
452.648	210.38
452.869	215.38
453.089	214.38
453.31	208.38
453.53	212.38
453.751	205.38
453.971	208.38
454.192	218.38
454.412	213.38
454.633	219.38
454.853	205.38
455.073	186.38
455.294	189.38
455.514	195.38
455.734	212.38
455.955	225.38
456.175	211.38
456.395	204.38
456.616	198.38
456.836	194.38
457.056	191.38
457.276	187.38
457.497	182.38
457.717	200.38
457.937	194.38
458.157	207.38
458.377	195.38
458.598	215.38
458.818	230.38
459.038	232.38
459.258	205.38
459.478	222.38
459.698	218.38
459.918	199.38
460.138	232.38
460.358	224.38
460.578	230.38
460.798	218.38
461.018	219.38
461.238	226.38
461.458	249.38
461.678	238.38
461.898	249.38
462.118	237.38
462.338	251.38
462.558	251.38
462.777	237.38
462.997	249.38
463.217	251.38
463.437	250.38
463.657	248.38
463.876	231.38
464.096	237.38
464.316	243.38
464.536	256.38
464.755	278.38
464.975	265.38
465.195	253.38
465.414	260.38
465.634	212.38
465.854	204.38
466.073	212.38
466.293	210.38
466.512	220.38
466.732	218.38
466.951	221.38
467.171	204.38
467.391	192.38
467.61	205.38
467.829	204.38
468.049	194.38
468.268	197.38
468.488	214.38
468.707	211.38
468.927	198.38
469.146	190.38
469.365	210.38
469.585	215.38
469.804	229.38
470.023	213.38
470.243	218.38
470.462	200.38
470.681	228.38
470.901	224.38
471.12	226.38
471.339	213.38
471.558	206.38
471.777	210.38
471.997	214.38
472.216	211.38
472.435	205.38
472.654	212.38
472.873	211.38
473.092	202.38
473.311	190.38
473.53	200.38
473.749	208.38
473.968	204.38
474.187	210.38
474.406	204.38
474.625	206.38
474.844	213.38
475.063	207.38
475.282	207.38
475.501	216.38
475.72	227.38
475.939	234.38
476.158	226.38
476.377	201.38
476.596	221.38
476.814	213.38
477.033	215.38
477.252	223.38
477.471	220.38
477.69	217.38
477.908	208.38
478.127	204.38
478.346	220.38
478.564	225.38
478.783	220.38
479.002	224.38
479.22	256.38
479.439	227.38
479.658	230.38
479.876	236.38
480.095	243.38
480.313	233.38
480.532	240.38
480.751	244.38
480.969	213.38
481.188	213.38
481.406	218.38
481.624	233.38
481.843	217.38
482.061	229.38
482.28	220.38
482.498	232.38
482.717	242.38
482.935	238.38
483.153	228.38
483.372	231.38
483.59	214.38
483.808	232.38
484.027	226.38
484.245	209.38
484.463	238.38
484.681	229.38
484.9	247.38
485.118	234.38
485.336	222.38
485.554	225.38
485.772	237.38
485.99	232.38
486.209	242.38
486.427	248.38
486.645	241.38
486.863	228.38
487.081	236.38
487.299	229.38
487.517	247.38
487.735	237.38
487.953	253.38
488.171	229.38
488.389	224.38
488.607	235.38
488.825	260.38
489.043	258.38
489.261	226.38
489.479	226.38
489.696	244.38
489.914	228.38
490.132	240.38
490.35	232.38
490.568	217.38
490.786	229.38
491.003	230.38
491.221	230.38
491.439	251.38
491.657	242.38
491.874	235.38
492.092	242.38
492.31	282.38
492.527	276.38
492.745	242.38
492.963	235.38
493.18	243.38
493.398	243.38
493.615	247.38
493.833	283.38
494.05	253.38
494.268	244.38
494.485	265.38
494.703	249.38
494.92	242.38
495.138	248.38
495.355	257.38
495.573	281.38
495.79	250.38
496.008	242.38
496.225	234.38
496.442	235.38
496.66	260.38
496.877	251.38
497.094	262.38
497.312	256.38
497.529	265.38
497.746	266.38
497.963	275.38
498.181	277.38
498.398	274.38
498.615	273.38
498.832	312.38
499.049	296.38
499.267	299.38
499.484	318.38
499.701	324.38
499.918	345.38
500.135	333.38
500.352	384.38
500.569	377.38
500.786	376.38
501.003	354.38
501.22	334.38
501.437	319.38
501.654	333.38
501.871	308.38
502.088	308.38
502.305	294.38
502.522	296.38
502.739	290.38
502.956	262.38
503.172	262.38
503.389	267.38
503.606	257.38
503.823	270.38
