Data from StA_HRD10591_014.txt Node
Date: Fri May 16 15:18:51 EDT 2025
User: Yrep
Spectrometer: HR+D1059
Trigger mode: 1
Integration Time (sec): 1.000000E-1
Scans to average: 1
Electric dark correction enabled: true
Nonlinearity correction enabled: false
Boxcar width: 0
XAxis mode: Wavelengths
Number of Pixels in Spectrum: 2048
>>>>>Begin Spectral Data<<<<<
223.165	-13.81
223.4	-13.81
223.635	-13.81
223.869	-31.81
224.104	-13.81
224.338	-9.81
224.573	-21.81
224.808	-19.81
225.042	-13.81
225.277	-2.81
225.511	-0.81
225.746	12.19
225.98	9.19
226.215	11.19
226.449	15.19
226.683	11.19
226.918	30.19
227.152	39.19
227.387	37.19
227.621	34.19
227.856	50.19
228.09	58.19
228.324	61.19
228.559	60.19
228.793	55.19
229.027	79.19
229.262	65.19
229.496	95.19
229.73	83.19
229.964	86.19
230.199	84.19
230.433	60.19
230.667	93.19
230.901	94.19
231.136	94.19
231.37	97.19
231.604	101.19
231.838	101.19
232.072	94.19
232.306	99.19
232.541	84.19
232.775	83.19
233.009	100.19
233.243	85.19
233.477	96.19
233.711	89.19
233.945	100.19
234.179	94.19
234.413	95.19
234.647	110.19
234.881	87.19
235.115	93.19
235.349	94.19
235.583	93.19
235.817	86.19
236.051	96.19
236.285	99.19
236.519	97.19
236.753	81.19
236.987	106.19
237.221	92.19
237.455	86.19
237.689	83.19
237.922	78.19
238.156	76.19
238.39	96.19
238.624	102.19
238.858	79.19
239.091	101.19
239.325	80.19
239.559	105.19
239.793	110.19
240.027	101.19
240.26	75.19
240.494	88.19
240.728	89.19
240.961	89.19
241.195	104.19
241.429	99.19
241.662	94.19
241.896	94.19
242.13	78.19
242.363	105.19
242.597	94.19
242.83	99.19
243.064	89.19
243.298	97.19
243.531	95.19
243.765	107.19
243.998	96.19
244.232	84.19
244.465	92.19
244.699	93.19
244.932	110.19
245.166	112.19
245.399	117.19
245.633	106.19
245.866	101.19
246.099	108.19
246.333	104.19
246.566	115.19
246.8	101.19
247.033	109.19
247.266	96.19
247.5	125.19
247.733	113.19
247.966	117.19
248.2	117.19
248.433	132.19
248.666	116.19
248.899	123.19
249.133	131.19
249.366	135.19
249.599	123.19
249.832	135.19
250.066	123.19
250.299	133.19
250.532	137.19
250.765	112.19
250.998	124.19
251.231	123.19
251.465	117.19
251.698	138.19
251.931	141.19
252.164	147.19
252.397	136.19
252.63	129.19
252.863	150.19
253.096	157.19
253.329	139.19
253.562	146.19
253.795	132.19
254.028	150.19
254.261	154.19
254.494	140.19
254.727	139.19
254.96	135.19
255.193	143.19
255.426	135.19
255.659	132.19
255.892	147.19
256.124	142.19
256.357	136.19
256.59	150.19
256.823	163.19
257.056	153.19
257.289	171.19
257.521	163.19
257.754	158.19
257.987	175.19
258.22	162.19
258.452	177.19
258.685	151.19
258.918	172.19
259.151	158.19
259.383	156.19
259.616	152.19
259.849	168.19
260.081	171.19
260.314	153.19
260.547	183.19
260.779	170.19
261.012	187.19
261.244	183.19
261.477	181.19
261.71	167.19
261.942	165.19
262.175	189.19
262.407	169.19
262.64	187.19
262.872	174.19
263.105	193.19
263.337	183.19
263.57	169.19
263.802	180.19
264.035	179.19
264.267	169.19
264.499	171.19
264.732	178.19
264.964	166.19
265.197	188.19
265.429	179.19
265.661	211.19
265.894	219.19
266.126	252.19
266.358	285.19
266.591	297.19
266.823	327.19
267.055	292.19
267.287	303.19
267.52	311.19
267.752	319.19
267.984	370.19
268.216	281.19
268.448	224.19
268.681	238.19
268.913	264.19
269.145	297.19
269.377	283.19
269.609	253.19
269.841	305.19
270.073	313.19
270.306	271.19
270.538	249.19
270.77	235.19
271.002	246.19
271.234	255.19
271.466	245.19
271.698	216.19
271.93	263.19
272.162	253.19
272.394	261.19
272.626	244.19
272.858	207.19
273.09	206.19
273.322	207.19
273.553	182.19
273.785	218.19
274.017	236.19
274.249	272.19
274.481	282.19
274.713	324.19
274.945	325.19
275.176	367.19
275.408	373.19
275.64	352.19
275.872	383.19
276.104	435.19
276.335	423.19
276.567	418.19
276.799	410.19
277.031	329.19
277.262	294.19
277.494	263.19
277.726	279.19
277.957	286.19
278.189	320.19
278.421	297.19
278.652	301.19
278.884	319.19
279.115	308.19
279.347	276.19
279.579	259.19
279.81	256.19
280.042	247.19
280.273	279.19
280.505	246.19
280.736	236.19
280.968	247.19
281.199	296.19
281.431	321.19
281.662	296.19
281.894	342.19
282.125	368.19
282.356	396.19
282.588	359.19
282.819	339.19
283.051	398.19
283.282	476.19
283.513	507.19
283.745	569.19
283.976	501.19
284.207	494.19
284.439	496.19
284.67	495.19
284.901	452.19
285.132	510.19
285.364	515.19
285.595	480.19
285.826	510.19
286.057	514.19
286.288	522.19
286.52	536.19
286.751	544.19
286.982	493.19
287.213	440.19
287.444	417.19
287.675	473.19
287.906	428.19
288.138	345.19
288.369	307.19
288.6	306.19
288.831	334.19
289.062	382.19
289.293	416.19
289.524	404.19
289.755	438.19
289.986	401.19
290.217	337.19
290.448	262.19
290.679	245.19
290.91	246.19
291.141	262.19
291.371	279.19
291.602	278.19
291.833	292.19
292.064	315.19
292.295	373.19
292.526	388.19
292.757	365.19
292.987	393.19
293.218	357.19
293.449	345.19
293.68	351.19
293.91	285.19
294.141	291.19
294.372	263.19
294.603	277.19
294.833	253.19
295.064	268.19
295.295	259.19
295.525	262.19
295.756	243.19
295.987	242.19
296.217	253.19
296.448	253.19
296.679	251.19
296.909	299.19
297.14	320.19
297.37	355.19
297.601	319.19
297.831	315.19
298.062	361.19
298.292	348.19
298.523	341.19
298.753	364.19
298.984	348.19
299.214	304.19
299.445	252.19
299.675	244.19
299.905	237.19
300.136	235.19
300.366	205.19
300.597	233.19
300.827	221.19
301.057	217.19
301.288	247.19
301.518	293.19
301.748	303.19
301.979	298.19
302.209	276.19
302.439	287.19
302.669	285.19
302.9	302.19
303.13	255.19
303.36	264.19
303.59	272.19
303.82	281.19
304.051	323.19
304.281	339.19
304.511	308.19
304.741	279.19
304.971	299.19
305.201	320.19
305.431	267.19
305.661	249.19
305.891	216.19
306.121	224.19
306.352	219.19
306.582	217.19
306.812	201.19
307.042	214.19
307.272	209.19
307.502	207.19
307.731	201.19
307.961	195.19
308.191	193.19
308.421	201.19
308.651	209.19
308.881	202.19
309.111	220.19
309.341	219.19
309.571	238.19
309.8	235.19
310.03	221.19
310.26	218.19
310.49	213.19
310.72	221.19
310.949	248.19
311.179	254.19
311.409	302.19
311.639	372.19
311.868	471.19
312.098	546.19
312.328	560.19
312.557	546.19
312.787	505.19
313.017	486.19
313.246	542.19
313.476	473.19
313.706	389.19
313.935	333.19
314.165	274.19
314.394	285.19
314.624	279.19
314.853	300.19
315.083	294.19
315.312	245.19
315.542	235.19
315.771	221.19
316.001	212.19
316.23	222.19
316.46	205.19
316.689	209.19
316.919	207.19
317.148	212.19
317.377	211.19
317.607	216.19
317.836	248.19
318.065	299.19
318.295	311.19
318.524	253.19
318.753	214.19
318.983	220.19
319.212	218.19
319.441	223.19
319.67	257.19
319.9	278.19
320.129	266.19
320.358	249.19
320.587	240.19
320.816	251.19
321.046	268.19
321.275	260.19
321.504	260.19
321.733	257.19
321.962	260.19
322.191	233.19
322.42	209.19
322.649	216.19
322.878	223.19
323.108	212.19
323.337	221.19
323.566	249.19
323.795	227.19
324.024	228.19
324.253	219.19
324.482	215.19
324.71	205.19
324.939	216.19
325.168	204.19
325.397	216.19
325.626	198.19
325.855	187.19
326.084	203.19
326.313	206.19
326.542	220.19
326.77	218.19
326.999	229.19
327.228	211.19
327.457	187.19
327.686	200.19
327.914	190.19
328.143	192.19
328.372	187.19
328.6	200.19
328.829	192.19
329.058	204.19
329.287	229.19
329.515	211.19
329.744	224.19
329.972	203.19
330.201	205.19
330.43	211.19
330.658	231.19
330.887	244.19
331.115	256.19
331.344	251.19
331.572	244.19
331.801	228.19
332.03	236.19
332.258	233.19
332.486	261.19
332.715	255.19
332.943	237.19
333.172	231.19
333.4	272.19
333.629	292.19
333.857	322.19
334.085	304.19
334.314	299.19
334.542	284.19
334.771	269.19
334.999	246.19
335.227	253.19
335.455	277.19
335.684	312.19
335.912	366.19
336.14	368.19
336.369	350.19
336.597	361.19
336.825	395.19
337.053	355.19
337.281	272.19
337.51	247.19
337.738	283.19
337.966	282.19
338.194	294.19
338.422	270.19
338.65	243.19
338.878	243.19
339.106	232.19
339.334	265.19
339.562	266.19
339.79	239.19
340.018	260.19
340.246	297.19
340.474	311.19
340.702	307.19
340.93	310.19
341.158	288.19
341.386	235.19
341.614	210.19
341.842	251.19
342.07	314.19
342.298	346.19
342.526	297.19
342.754	245.19
342.981	254.19
343.209	272.19
343.437	290.19
343.665	237.19
343.893	196.19
344.12	221.19
344.348	194.19
344.576	208.19
344.804	211.19
345.031	205.19
345.259	203.19
345.487	215.19
345.714	227.19
345.942	216.19
346.17	195.19
346.397	193.19
346.625	193.19
346.853	191.19
347.08	200.19
347.308	174.19
347.535	195.19
347.763	195.19
347.99	189.19
348.218	175.19
348.445	168.19
348.673	177.19
348.9	185.19
349.128	203.19
349.355	195.19
349.583	195.19
349.81	193.19
350.037	187.19
350.265	173.19
350.492	177.19
350.72	183.19
350.947	188.19
351.174	194.19
351.402	194.19
351.629	183.19
351.856	165.19
352.083	193.19
352.311	179.19
352.538	173.19
352.765	203.19
352.992	197.19
353.22	186.19
353.447	179.19
353.674	172.19
353.901	194.19
354.128	193.19
354.355	195.19
354.583	168.19
354.81	183.19
355.037	203.19
355.264	199.19
355.491	202.19
355.718	193.19
355.945	205.19
356.172	199.19
356.399	206.19
356.626	211.19
356.853	216.19
357.08	224.19
357.307	222.19
357.534	261.19
357.761	305.19
357.988	327.19
358.215	283.19
358.441	250.19
358.668	245.19
358.895	230.19
359.122	259.19
359.349	281.19
359.576	267.19
359.802	220.19
360.029	224.19
360.256	265.19
360.483	285.19
360.709	284.19
360.936	236.19
361.163	209.19
361.39	197.19
361.616	190.19
361.843	192.19
362.07	199.19
362.296	186.19
362.523	175.19
362.749	185.19
362.976	190.19
363.203	216.19
363.429	216.19
363.656	212.19
363.882	204.19
364.109	214.19
364.335	207.19
364.562	208.19
364.788	208.19
365.015	225.19
365.241	213.19
365.468	209.19
365.694	199.19
365.92	200.19
366.147	191.19
366.373	189.19
366.599	199.19
366.826	208.19
367.052	209.19
367.278	184.19
367.505	205.19
367.731	215.19
367.957	193.19
368.184	204.19
368.41	205.19
368.636	197.19
368.862	231.19
369.089	193.19
369.315	172.19
369.541	191.19
369.767	174.19
369.993	176.19
370.219	184.19
370.445	195.19
370.672	193.19
370.898	191.19
371.124	193.19
371.35	192.19
371.576	228.19
371.802	192.19
372.028	185.19
372.254	182.19
372.48	176.19
372.706	195.19
372.932	181.19
373.158	184.19
373.384	191.19
373.61	199.19
373.835	203.19
374.061	197.19
374.287	212.19
374.513	234.19
374.739	217.19
374.965	218.19
375.191	203.19
375.416	207.19
375.642	188.19
375.868	194.19
376.094	190.19
376.319	181.19
376.545	181.19
376.771	196.19
376.997	195.19
377.222	187.19
377.448	187.19
377.674	186.19
377.899	189.19
378.125	177.19
378.35	193.19
378.576	187.19
378.802	183.19
379.027	200.19
379.253	207.19
379.478	193.19
379.704	222.19
379.929	204.19
380.155	199.19
380.38	194.19
380.606	205.19
380.831	209.19
381.057	211.19
381.282	199.19
381.507	214.19
381.733	213.19
381.958	214.19
382.184	207.19
382.409	202.19
382.634	213.19
382.86	202.19
383.085	214.19
383.31	221.19
383.535	223.19
383.761	208.19
383.986	213.19
384.211	213.19
384.436	222.19
384.662	218.19
384.887	237.19
385.112	243.19
385.337	241.19
385.562	218.19
385.787	225.19
386.013	225.19
386.238	218.19
386.463	213.19
386.688	245.19
386.913	217.19
387.138	217.19
387.363	224.19
387.588	227.19
387.813	214.19
388.038	223.19
388.263	216.19
388.488	236.19
388.713	231.19
388.938	208.19
389.163	220.19
389.387	205.19
389.612	201.19
389.837	205.19
390.062	216.19
390.287	224.19
390.512	216.19
390.736	223.19
390.961	223.19
391.186	228.19
391.411	229.19
391.636	208.19
391.86	227.19
392.085	224.19
392.31	201.19
392.534	203.19
392.759	225.19
392.984	225.19
393.208	209.19
393.433	208.19
393.658	211.19
393.882	206.19
394.107	202.19
394.331	215.19
394.556	206.19
394.78	207.19
395.005	218.19
395.229	197.19
395.454	213.19
395.678	207.19
395.903	232.19
396.127	228.19
396.352	248.19
396.576	259.19
396.801	243.19
397.025	254.19
397.249	262.19
397.474	238.19
397.698	245.19
397.922	256.19
398.147	229.19
398.371	249.19
398.595	253.19
398.82	233.19
399.044	248.19
399.268	268.19
399.492	271.19
399.717	253.19
399.941	256.19
400.165	252.19
400.389	245.19
400.613	219.19
400.837	219.19
401.062	235.19
401.286	231.19
401.51	234.19
401.734	226.19
401.958	202.19
402.182	215.19
402.406	216.19
402.63	234.19
402.854	223.19
403.078	223.19
403.302	219.19
403.526	235.19
403.75	227.19
403.974	242.19
404.198	218.19
404.422	238.19
404.645	226.19
404.869	228.19
405.093	217.19
405.317	211.19
405.541	226.19
405.765	240.19
405.988	223.19
406.212	233.19
406.436	235.19
406.66	246.19
406.883	233.19
407.107	243.19
407.331	256.19
407.555	248.19
407.778	229.19
408.002	231.19
408.226	237.19
408.449	237.19
408.673	220.19
408.896	249.19
409.12	240.19
409.344	231.19
409.567	223.19
409.791	220.19
410.014	212.19
410.238	223.19
410.461	227.19
410.685	220.19
410.908	220.19
411.132	232.19
411.355	222.19
411.578	234.19
411.802	227.19
412.025	233.19
412.249	233.19
412.472	233.19
412.695	247.19
412.919	231.19
413.142	223.19
413.365	233.19
413.589	223.19
413.812	229.19
414.035	243.19
414.258	219.19
414.482	218.19
414.705	223.19
414.928	216.19
415.151	227.19
415.374	216.19
415.597	228.19
415.821	198.19
416.044	218.19
416.267	217.19
416.49	224.19
416.713	231.19
416.936	216.19
417.159	227.19
417.382	231.19
417.605	218.19
417.828	222.19
418.051	211.19
418.274	204.19
418.497	229.19
418.72	210.19
418.943	233.19
419.166	239.19
419.389	239.19
419.611	243.19
419.834	238.19
420.057	253.19
420.28	217.19
420.503	205.19
420.726	212.19
420.948	210.19
421.171	236.19
421.394	209.19
421.617	232.19
421.839	219.19
422.062	229.19
422.285	213.19
422.507	223.19
422.73	231.19
422.953	237.19
423.175	220.19
423.398	223.19
423.621	216.19
423.843	231.19
424.066	209.19
424.288	223.19
424.511	248.19
424.733	221.19
424.956	205.19
425.178	260.19
425.401	333.19
425.623	364.19
425.846	261.19
426.068	251.19
426.291	234.19
426.513	237.19
426.735	239.19
426.958	241.19
427.18	255.19
427.402	293.19
427.625	373.19
427.847	268.19
428.069	235.19
428.292	230.19
428.514	218.19
428.736	254.19
428.958	297.19
429.181	305.19
429.403	229.19
429.625	231.19
429.847	211.19
430.069	216.19
430.292	216.19
430.514	223.19
430.736	208.19
430.958	203.19
431.18	209.19
431.402	201.19
431.624	212.19
431.846	191.19
432.068	207.19
432.29	198.19
432.512	193.19
432.734	208.19
432.956	215.19
433.178	207.19
433.4	208.19
433.622	229.19
433.844	259.19
434.066	275.19
434.287	253.19
434.509	259.19
434.731	266.19
434.953	234.19
435.175	268.19
435.397	278.19
435.618	205.19
435.84	227.19
436.062	240.19
436.284	231.19
436.505	203.19
436.727	195.19
436.949	228.19
437.17	229.19
437.392	225.19
437.614	228.19
437.835	209.19
438.057	200.19
438.278	204.19
438.5	230.19
438.721	211.19
438.943	201.19
439.165	205.19
439.386	223.19
439.608	192.19
439.829	195.19
440.05	199.19
440.272	215.19
440.493	223.19
440.715	209.19
440.936	204.19
441.158	216.19
441.379	218.19
441.6	213.19
441.822	196.19
442.043	210.19
442.264	219.19
442.486	213.19
442.707	216.19
442.928	207.19
443.149	235.19
443.371	234.19
443.592	211.19
443.813	210.19
444.034	213.19
444.255	214.19
444.476	209.19
444.698	219.19
444.919	219.19
445.14	294.19
445.361	271.19
445.582	243.19
445.803	222.19
446.024	224.19
446.245	211.19
446.466	219.19
446.687	221.19
446.908	221.19
447.129	212.19
447.35	218.19
447.571	205.19
447.792	190.19
448.013	190.19
448.234	211.19
448.455	212.19
448.675	185.19
448.896	198.19
449.117	215.19
449.338	229.19
449.559	207.19
449.779	222.19
450	235.19
450.221	205.19
450.442	195.19
450.662	204.19
450.883	191.19
451.104	199.19
451.324	207.19
451.545	212.19
451.766	215.19
451.986	207.19
452.207	223.19
452.428	222.19
452.648	230.19
452.869	223.19
453.089	213.19
453.31	214.19
453.53	204.19
453.751	203.19
453.971	211.19
454.192	215.19
454.412	238.19
454.633	234.19
454.853	219.19
455.073	209.19
455.294	188.19
455.514	217.19
455.734	217.19
455.955	215.19
456.175	213.19
456.395	217.19
456.616	211.19
456.836	206.19
457.056	189.19
457.276	184.19
457.497	192.19
457.717	201.19
457.937	202.19
458.157	203.19
458.377	196.19
458.598	207.19
458.818	227.19
459.038	223.19
459.258	231.19
459.478	237.19
459.698	215.19
459.918	228.19
460.138	241.19
460.358	225.19
460.578	224.19
460.798	229.19
461.018	224.19
461.238	217.19
461.458	250.19
461.678	239.19
461.898	268.19
462.118	265.19
462.338	238.19
462.558	253.19
462.777	283.19
462.997	247.19
463.217	253.19
463.437	251.19
463.657	246.19
463.876	252.19
464.096	244.19
464.316	264.19
464.536	250.19
464.755	283.19
464.975	255.19
465.195	259.19
465.414	277.19
465.634	234.19
465.854	205.19
466.073	199.19
466.293	208.19
466.512	216.19
466.732	227.19
466.951	222.19
467.171	201.19
467.391	207.19
467.61	216.19
467.829	194.19
468.049	219.19
468.268	208.19
468.488	200.19
468.707	196.19
468.927	209.19
469.146	190.19
469.365	203.19
469.585	198.19
469.804	236.19
470.023	227.19
470.243	197.19
470.462	214.19
470.681	205.19
470.901	208.19
471.12	210.19
471.339	212.19
471.558	203.19
471.777	215.19
471.997	211.19
472.216	221.19
472.435	214.19
472.654	203.19
472.873	177.19
473.092	209.19
473.311	223.19
473.53	212.19
473.749	214.19
473.968	214.19
474.187	199.19
474.406	209.19
474.625	204.19
474.844	211.19
475.063	197.19
475.282	236.19
475.501	204.19
475.72	229.19
475.939	252.19
476.158	213.19
476.377	219.19
476.596	212.19
476.814	209.19
477.033	215.19
477.252	207.19
477.471	207.19
477.69	221.19
477.908	215.19
478.127	216.19
478.346	235.19
478.564	232.19
478.783	201.19
479.002	241.19
479.22	245.19
479.439	233.19
479.658	233.19
479.876	249.19
480.095	243.19
480.313	262.19
480.532	241.19
480.751	231.19
480.969	230.19
481.188	244.19
481.406	220.19
481.624	222.19
481.843	225.19
482.061	220.19
482.28	233.19
482.498	233.19
482.717	229.19
482.935	231.19
483.153	244.19
483.372	232.19
483.59	209.19
483.808	222.19
484.027	231.19
484.245	232.19
484.463	240.19
484.681	225.19
484.9	247.19
485.118	244.19
485.336	230.19
485.554	238.19
485.772	239.19
485.99	224.19
486.209	239.19
486.427	243.19
486.645	260.19
486.863	244.19
487.081	244.19
487.299	261.19
487.517	253.19
487.735	245.19
487.953	236.19
488.171	244.19
488.389	245.19
488.607	237.19
488.825	276.19
489.043	266.19
489.261	242.19
489.479	244.19
489.696	240.19
489.914	233.19
490.132	234.19
490.35	228.19
490.568	223.19
490.786	237.19
491.003	224.19
491.221	240.19
491.439	248.19
491.657	223.19
491.874	247.19
492.092	260.19
492.31	301.19
492.527	299.19
492.745	256.19
492.963	223.19
493.18	250.19
493.398	248.19
493.615	251.19
493.833	248.19
494.05	267.19
494.268	255.19
494.485	256.19
494.703	234.19
494.92	245.19
495.138	248.19
495.355	245.19
495.573	272.19
495.79	255.19
496.008	271.19
496.225	261.19
496.442	251.19
496.66	264.19
496.877	269.19
497.094	256.19
497.312	255.19
497.529	272.19
497.746	262.19
497.963	268.19
498.181	285.19
498.398	280.19
498.615	277.19
498.832	287.19
499.049	300.19
499.267	312.19
499.484	318.19
499.701	326.19
499.918	341.19
500.135	349.19
500.352	382.19
500.569	387.19
500.786	379.19
501.003	357.19
501.22	379.19
501.437	322.19
501.654	313.19
501.871	316.19
502.088	297.19
502.305	270.19
502.522	292.19
502.739	291.19
502.956	278.19
503.172	278.19
503.389	267.19
503.606	280.19
