Data from StA_HRD10591_043.txt Node
Date: Fri May 16 15:19:05 EDT 2025
User: Yrep
Spectrometer: HR+D1059
Trigger mode: 1
Integration Time (sec): 1.000000E-1
Scans to average: 1
Electric dark correction enabled: true
Nonlinearity correction enabled: false
Boxcar width: 0
XAxis mode: Wavelengths
Number of Pixels in Spectrum: 2048
>>>>>Begin Spectral Data<<<<<
223.165	-19.12
223.4	-19.12
223.635	-19.12
223.869	-25.12
224.104	-5.12
224.338	-17.12
224.573	-19.12
224.808	-7.12
225.042	-17.12
225.277	-10.12
225.511	-5.12
225.746	5.88
225.98	10.88
226.215	19.88
226.449	12.88
226.683	32.88
226.918	21.88
227.152	20.88
227.387	23.88
227.621	37.88
227.856	48.88
228.09	38.88
228.324	44.88
228.559	59.88
228.793	63.88
229.027	72.88
229.262	71.88
229.496	83.88
229.73	79.88
229.964	89.88
230.199	88.88
230.433	94.88
230.667	81.88
230.901	91.88
231.136	70.88
231.37	79.88
231.604	100.88
231.838	88.88
232.072	88.88
232.306	102.88
232.541	102.88
232.775	93.88
233.009	89.88
233.243	72.88
233.477	83.88
233.711	81.88
233.945	86.88
234.179	85.88
234.413	99.88
234.647	86.88
234.881	72.88
235.115	73.88
235.349	88.88
235.583	87.88
235.817	99.88
236.051	92.88
236.285	75.88
236.519	76.88
236.753	88.88
236.987	94.88
237.221	93.88
237.455	88.88
237.689	90.88
237.922	82.88
238.156	89.88
238.39	82.88
238.624	100.88
238.858	91.88
239.091	91.88
239.325	86.88
239.559	86.88
239.793	98.88
240.027	101.88
240.26	93.88
240.494	95.88
240.728	90.88
240.961	97.88
241.195	101.88
241.429	100.88
241.662	95.88
241.896	98.88
242.13	106.88
242.363	93.88
242.597	82.88
242.83	101.88
243.064	91.88
243.298	106.88
243.531	88.88
243.765	94.88
243.998	98.88
244.232	116.88
244.465	102.88
244.699	86.88
244.932	96.88
245.166	110.88
245.399	106.88
245.633	96.88
245.866	118.88
246.099	99.88
246.333	103.88
246.566	107.88
246.8	107.88
247.033	108.88
247.266	100.88
247.5	111.88
247.733	105.88
247.966	104.88
248.2	129.88
248.433	111.88
248.666	137.88
248.899	136.88
249.133	129.88
249.366	125.88
249.599	125.88
249.832	126.88
250.066	132.88
250.299	134.88
250.532	112.88
250.765	110.88
250.998	116.88
251.231	122.88
251.465	130.88
251.698	132.88
251.931	141.88
252.164	149.88
252.397	143.88
252.63	140.88
252.863	135.88
253.096	157.88
253.329	166.88
253.562	154.88
253.795	148.88
254.028	160.88
254.261	142.88
254.494	150.88
254.727	133.88
254.96	130.88
255.193	142.88
255.426	136.88
255.659	138.88
255.892	167.88
256.124	156.88
256.357	155.88
256.59	152.88
256.823	147.88
257.056	166.88
257.289	171.88
257.521	153.88
257.754	153.88
257.987	166.88
258.22	154.88
258.452	156.88
258.685	172.88
258.918	153.88
259.151	165.88
259.383	176.88
259.616	157.88
259.849	172.88
260.081	167.88
260.314	168.88
260.547	172.88
260.779	173.88
261.012	189.88
261.244	193.88
261.477	178.88
261.71	169.88
261.942	173.88
262.175	189.88
262.407	201.88
262.64	172.88
262.872	188.88
263.105	187.88
263.337	194.88
263.57	154.88
263.802	170.88
264.035	185.88
264.267	180.88
264.499	154.88
264.732	168.88
264.964	181.88
265.197	182.88
265.429	200.88
265.661	216.88
265.894	224.88
266.126	268.88
266.358	272.88
266.591	307.88
266.823	310.88
267.055	309.88
267.287	328.88
267.52	312.88
267.752	343.88
267.984	356.88
268.216	281.88
268.448	252.88
268.681	253.88
268.913	268.88
269.145	299.88
269.377	270.88
269.609	273.88
269.841	286.88
270.073	324.88
270.306	270.88
270.538	237.88
270.77	226.88
271.002	256.88
271.234	248.88
271.466	248.88
271.698	217.88
271.93	238.88
272.162	270.88
272.394	267.88
272.626	260.88
272.858	224.88
273.09	216.88
273.322	202.88
273.553	203.88
273.785	230.88
274.017	230.88
274.249	276.88
274.481	324.88
274.713	326.88
274.945	364.88
275.176	368.88
275.408	378.88
275.64	365.88
275.872	385.88
276.104	424.88
276.335	420.88
276.567	424.88
276.799	412.88
277.031	352.88
277.262	275.88
277.494	272.88
277.726	280.88
277.957	309.88
278.189	326.88
278.421	303.88
278.652	301.88
278.884	314.88
279.115	275.88
279.347	266.88
279.579	253.88
279.81	248.88
280.042	255.88
280.273	276.88
280.505	239.88
280.736	238.88
280.968	260.88
281.199	292.88
281.431	315.88
281.662	312.88
281.894	342.88
282.125	386.88
282.356	394.88
282.588	359.88
282.819	328.88
283.051	403.88
283.282	470.88
283.513	549.88
283.745	580.88
283.976	546.88
284.207	509.88
284.439	524.88
284.67	475.88
284.901	469.88
285.132	534.88
285.364	522.88
285.595	502.88
285.826	524.88
286.057	519.88
286.288	531.88
286.52	572.88
286.751	554.88
286.982	514.88
287.213	425.88
287.444	441.88
287.675	482.88
287.906	433.88
288.138	360.88
288.369	332.88
288.6	302.88
288.831	333.88
289.062	401.88
289.293	405.88
289.524	418.88
289.755	428.88
289.986	392.88
290.217	336.88
290.448	296.88
290.679	265.88
290.91	259.88
291.141	269.88
291.371	270.88
291.602	289.88
291.833	296.88
292.064	316.88
292.295	361.88
292.526	370.88
292.757	408.88
292.987	407.88
293.218	376.88
293.449	354.88
293.68	361.88
293.91	297.88
294.141	281.88
294.372	284.88
294.603	257.88
294.833	268.88
295.064	279.88
295.295	277.88
295.525	264.88
295.756	253.88
295.987	240.88
296.217	252.88
296.448	259.88
296.679	268.88
296.909	295.88
297.14	316.88
297.37	352.88
297.601	312.88
297.831	311.88
298.062	334.88
298.292	344.88
298.523	362.88
298.753	393.88
298.984	348.88
299.214	300.88
299.445	262.88
299.675	258.88
299.905	227.88
300.136	230.88
300.366	223.88
300.597	221.88
300.827	211.88
301.057	245.88
301.288	253.88
301.518	294.88
301.748	320.88
301.979	295.88
302.209	268.88
302.439	296.88
302.669	294.88
302.9	306.88
303.13	257.88
303.36	260.88
303.59	253.88
303.82	282.88
304.051	331.88
304.281	384.88
304.511	311.88
304.741	292.88
304.971	316.88
305.201	313.88
305.431	278.88
305.661	234.88
305.891	217.88
306.121	207.88
306.352	219.88
306.582	196.88
306.812	193.88
307.042	218.88
307.272	209.88
307.502	203.88
307.731	209.88
307.961	206.88
308.191	205.88
308.421	206.88
308.651	210.88
308.881	213.88
309.111	202.88
309.341	226.88
309.571	230.88
309.8	216.88
310.03	212.88
310.26	238.88
310.49	226.88
310.72	243.88
310.949	248.88
311.179	265.88
311.409	309.88
311.639	389.88
311.868	502.88
312.098	560.88
312.328	555.88
312.557	560.88
312.787	535.88
313.017	493.88
313.246	554.88
313.476	512.88
313.706	432.88
313.935	360.88
314.165	295.88
314.394	258.88
314.624	267.88
314.853	285.88
315.083	273.88
315.312	254.88
315.542	238.88
315.771	203.88
316.001	228.88
316.23	211.88
316.46	203.88
316.689	210.88
316.919	212.88
317.148	223.88
317.377	226.88
317.607	250.88
317.836	260.88
318.065	294.88
318.295	320.88
318.524	269.88
318.753	233.88
318.983	227.88
319.212	219.88
319.441	223.88
319.67	283.88
319.9	296.88
320.129	237.88
320.358	232.88
320.587	238.88
320.816	273.88
321.046	269.88
321.275	251.88
321.504	254.88
321.733	262.88
321.962	247.88
322.191	211.88
322.42	202.88
322.649	194.88
322.878	215.88
323.108	208.88
323.337	236.88
323.566	243.88
323.795	226.88
324.024	226.88
324.253	208.88
324.482	197.88
324.71	175.88
324.939	176.88
325.168	198.88
325.397	204.88
325.626	212.88
325.855	203.88
326.084	210.88
326.313	214.88
326.542	205.88
326.77	213.88
326.999	224.88
327.228	215.88
327.457	208.88
327.686	187.88
327.914	194.88
328.143	192.88
328.372	180.88
328.6	184.88
328.829	197.88
329.058	198.88
329.287	198.88
329.515	218.88
329.744	227.88
329.972	219.88
330.201	206.88
330.43	219.88
330.658	248.88
330.887	269.88
331.115	259.88
331.344	262.88
331.572	249.88
331.801	214.88
332.03	247.88
332.258	245.88
332.486	264.88
332.715	236.88
332.943	230.88
333.172	251.88
333.4	284.88
333.629	297.88
333.857	302.88
334.085	311.88
334.314	295.88
334.542	285.88
334.771	269.88
334.999	265.88
335.227	252.88
335.455	274.88
335.684	328.88
335.912	374.88
336.14	378.88
336.369	365.88
336.597	364.88
336.825	395.88
337.053	347.88
337.281	281.88
337.51	258.88
337.738	285.88
337.966	313.88
338.194	300.88
338.422	266.88
338.65	245.88
338.878	244.88
339.106	236.88
339.334	277.88
339.562	267.88
339.79	267.88
340.018	268.88
340.246	272.88
340.474	333.88
340.702	315.88
340.93	319.88
341.158	291.88
341.386	240.88
341.614	230.88
341.842	252.88
342.07	288.88
342.298	363.88
342.526	301.88
342.754	241.88
342.981	256.88
343.209	246.88
343.437	294.88
343.665	244.88
343.893	220.88
344.12	228.88
344.348	195.88
344.576	205.88
344.804	209.88
345.031	200.88
345.259	193.88
345.487	215.88
345.714	212.88
345.942	212.88
346.17	188.88
346.397	212.88
346.625	178.88
346.853	200.88
347.08	185.88
347.308	202.88
347.535	186.88
347.763	178.88
347.99	177.88
348.218	184.88
348.445	168.88
348.673	158.88
348.9	190.88
349.128	191.88
349.355	178.88
349.583	199.88
349.81	186.88
350.037	176.88
350.265	164.88
350.492	171.88
350.72	168.88
350.947	190.88
351.174	179.88
351.402	189.88
351.629	184.88
351.856	180.88
352.083	186.88
352.311	184.88
352.538	172.88
352.765	172.88
352.992	175.88
353.22	168.88
353.447	174.88
353.674	188.88
353.901	170.88
354.128	186.88
354.355	185.88
354.583	188.88
354.81	194.88
355.037	217.88
355.264	190.88
355.491	181.88
355.718	201.88
355.945	187.88
356.172	198.88
356.399	204.88
356.626	181.88
356.853	189.88
357.08	205.88
357.307	228.88
357.534	269.88
357.761	309.88
357.988	348.88
358.215	278.88
358.441	250.88
358.668	266.88
358.895	251.88
359.122	270.88
359.349	308.88
359.576	304.88
359.802	230.88
360.029	230.88
360.256	240.88
360.483	299.88
360.709	281.88
360.936	240.88
361.163	185.88
361.39	212.88
361.616	180.88
361.843	178.88
362.07	188.88
362.296	174.88
362.523	180.88
362.749	197.88
362.976	193.88
363.203	213.88
363.429	211.88
363.656	216.88
363.882	228.88
364.109	216.88
364.335	211.88
364.562	207.88
364.788	193.88
365.015	204.88
365.241	206.88
365.468	204.88
365.694	191.88
365.92	187.88
366.147	208.88
366.373	217.88
366.599	210.88
366.826	196.88
367.052	190.88
367.278	172.88
367.505	178.88
367.731	219.88
367.957	213.88
368.184	201.88
368.41	194.88
368.636	196.88
368.862	176.88
369.089	182.88
369.315	185.88
369.541	186.88
369.767	193.88
369.993	194.88
370.219	183.88
370.445	168.88
370.672	189.88
370.898	196.88
371.124	188.88
371.35	202.88
371.576	210.88
371.802	212.88
372.028	192.88
372.254	190.88
372.48	180.88
372.706	203.88
372.932	183.88
373.158	199.88
373.384	182.88
373.61	174.88
373.835	199.88
374.061	201.88
374.287	225.88
374.513	229.88
374.739	211.88
374.965	204.88
375.191	206.88
375.416	179.88
375.642	194.88
375.868	196.88
376.094	196.88
376.319	179.88
376.545	193.88
376.771	187.88
376.997	186.88
377.222	196.88
377.448	194.88
377.674	188.88
377.899	190.88
378.125	178.88
378.35	178.88
378.576	186.88
378.802	192.88
379.027	195.88
379.253	197.88
379.478	201.88
379.704	210.88
379.929	189.88
380.155	196.88
380.38	201.88
380.606	204.88
380.831	200.88
381.057	190.88
381.282	181.88
381.507	220.88
381.733	220.88
381.958	205.88
382.184	215.88
382.409	208.88
382.634	216.88
382.86	206.88
383.085	216.88
383.31	216.88
383.535	204.88
383.761	192.88
383.986	214.88
384.211	227.88
384.436	215.88
384.662	230.88
384.887	213.88
385.112	237.88
385.337	225.88
385.562	236.88
385.787	245.88
386.013	224.88
386.238	205.88
386.463	238.88
386.688	241.88
386.913	217.88
387.138	223.88
387.363	206.88
387.588	210.88
387.813	207.88
388.038	195.88
388.263	213.88
388.488	236.88
388.713	228.88
388.938	190.88
389.163	204.88
389.387	217.88
389.612	205.88
389.837	204.88
390.062	217.88
390.287	208.88
390.512	204.88
390.736	202.88
390.961	232.88
391.186	219.88
391.411	221.88
391.636	228.88
391.86	234.88
392.085	232.88
392.31	212.88
392.534	206.88
392.759	217.88
392.984	209.88
393.208	208.88
393.433	196.88
393.658	203.88
393.882	204.88
394.107	195.88
394.331	224.88
394.556	208.88
394.78	207.88
395.005	213.88
395.229	220.88
395.454	201.88
395.678	201.88
395.903	202.88
396.127	232.88
396.352	237.88
396.576	242.88
396.801	246.88
397.025	247.88
397.249	232.88
397.474	245.88
397.698	259.88
397.922	238.88
398.147	253.88
398.371	247.88
398.595	256.88
398.82	247.88
399.044	254.88
399.268	285.88
399.492	259.88
399.717	269.88
399.941	265.88
400.165	252.88
400.389	241.88
400.613	240.88
400.837	220.88
401.062	212.88
401.286	236.88
401.51	222.88
401.734	220.88
401.958	225.88
402.182	216.88
402.406	234.88
402.63	235.88
402.854	222.88
403.078	204.88
403.302	236.88
403.526	232.88
403.75	234.88
403.974	260.88
404.198	215.88
404.422	218.88
404.645	227.88
404.869	228.88
405.093	229.88
405.317	234.88
405.541	236.88
405.765	228.88
405.988	233.88
406.212	232.88
406.436	219.88
406.66	233.88
406.883	245.88
407.107	228.88
407.331	235.88
407.555	239.88
407.778	234.88
408.002	234.88
408.226	215.88
408.449	237.88
408.673	233.88
408.896	230.88
409.12	233.88
409.344	227.88
409.567	236.88
409.791	232.88
410.014	225.88
410.238	211.88
410.461	206.88
410.685	216.88
410.908	228.88
411.132	234.88
411.355	231.88
411.578	235.88
411.802	232.88
412.025	228.88
412.249	224.88
412.472	234.88
412.695	219.88
412.919	255.88
413.142	234.88
413.365	226.88
413.589	230.88
413.812	234.88
414.035	220.88
414.258	204.88
414.482	210.88
414.705	220.88
414.928	225.88
415.151	228.88
415.374	225.88
415.597	228.88
415.821	203.88
416.044	204.88
416.267	227.88
416.49	236.88
416.713	218.88
416.936	236.88
417.159	235.88
417.382	216.88
417.605	214.88
417.828	216.88
418.051	211.88
418.274	225.88
418.497	216.88
418.72	219.88
418.943	216.88
419.166	218.88
419.389	233.88
419.611	226.88
419.834	237.88
420.057	215.88
420.28	215.88
420.503	224.88
420.726	224.88
420.948	213.88
421.171	217.88
421.394	208.88
421.617	221.88
421.839	216.88
422.062	203.88
422.285	220.88
422.507	224.88
422.73	227.88
422.953	212.88
423.175	218.88
423.398	228.88
423.621	215.88
423.843	227.88
424.066	212.88
424.288	219.88
424.511	214.88
424.733	236.88
424.956	221.88
425.178	244.88
425.401	337.88
425.623	373.88
425.846	266.88
426.068	220.88
426.291	246.88
426.513	249.88
426.735	224.88
426.958	240.88
427.18	269.88
427.402	338.88
427.625	369.88
427.847	260.88
428.069	241.88
428.292	242.88
428.514	232.88
428.736	235.88
428.958	297.88
429.181	329.88
429.403	233.88
429.625	224.88
429.847	222.88
430.069	217.88
430.292	219.88
430.514	202.88
430.736	204.88
430.958	198.88
431.18	210.88
431.402	213.88
431.624	205.88
431.846	196.88
432.068	213.88
432.29	203.88
432.512	207.88
432.734	195.88
432.956	188.88
433.178	206.88
433.4	215.88
433.622	226.88
433.844	259.88
434.066	276.88
434.287	261.88
434.509	257.88
434.731	252.88
434.953	255.88
435.175	262.88
435.397	271.88
435.618	257.88
435.84	231.88
436.062	214.88
436.284	210.88
436.505	210.88
436.727	211.88
436.949	229.88
437.17	212.88
437.392	223.88
437.614	219.88
437.835	200.88
438.057	205.88
438.278	203.88
438.5	216.88
438.721	211.88
438.943	196.88
439.165	204.88
439.386	194.88
439.608	205.88
439.829	206.88
440.05	206.88
440.272	192.88
440.493	210.88
440.715	204.88
440.936	230.88
441.158	213.88
441.379	220.88
441.6	231.88
441.822	217.88
442.043	217.88
442.264	232.88
442.486	228.88
442.707	196.88
442.928	226.88
443.149	217.88
443.371	222.88
443.592	203.88
443.813	219.88
444.034	209.88
444.255	214.88
444.476	213.88
444.698	219.88
444.919	235.88
445.14	300.88
445.361	268.88
445.582	242.88
445.803	220.88
446.024	218.88
446.245	224.88
446.466	226.88
446.687	216.88
446.908	212.88
447.129	215.88
447.35	186.88
447.571	209.88
447.792	208.88
448.013	204.88
448.234	208.88
448.455	196.88
448.675	203.88
448.896	212.88
449.117	202.88
449.338	214.88
449.559	210.88
449.779	235.88
450	240.88
450.221	206.88
450.442	208.88
450.662	214.88
450.883	208.88
451.104	221.88
451.324	201.88
451.545	204.88
451.766	204.88
451.986	203.88
452.207	198.88
452.428	189.88
452.648	217.88
452.869	233.88
453.089	194.88
453.31	216.88
453.53	200.88
453.751	203.88
453.971	212.88
454.192	224.88
454.412	221.88
454.633	213.88
454.853	208.88
455.073	204.88
455.294	184.88
455.514	197.88
455.734	232.88
455.955	228.88
456.175	219.88
456.395	182.88
456.616	215.88
456.836	221.88
457.056	210.88
457.276	200.88
457.497	176.88
457.717	187.88
457.937	187.88
458.157	186.88
458.377	178.88
458.598	201.88
458.818	216.88
459.038	238.88
459.258	229.88
459.478	208.88
459.698	219.88
459.918	226.88
460.138	244.88
460.358	232.88
460.578	212.88
460.798	222.88
461.018	233.88
461.238	232.88
461.458	232.88
461.678	269.88
461.898	255.88
462.118	260.88
462.338	260.88
462.558	253.88
462.777	262.88
462.997	246.88
463.217	231.88
463.437	244.88
463.657	253.88
463.876	252.88
464.096	251.88
464.316	247.88
464.536	263.88
464.755	297.88
464.975	275.88
465.195	264.88
465.414	251.88
465.634	224.88
465.854	218.88
466.073	200.88
466.293	213.88
466.512	217.88
466.732	213.88
466.951	212.88
467.171	211.88
467.391	199.88
467.61	201.88
467.829	208.88
468.049	194.88
468.268	201.88
468.488	191.88
468.707	199.88
468.927	189.88
469.146	213.88
469.365	197.88
469.585	213.88
469.804	207.88
470.023	211.88
470.243	225.88
470.462	205.88
470.681	195.88
470.901	220.88
471.12	198.88
471.339	193.88
471.558	201.88
471.777	209.88
471.997	224.88
472.216	203.88
472.435	194.88
472.654	208.88
472.873	214.88
473.092	197.88
473.311	208.88
473.53	205.88
473.749	213.88
473.968	212.88
474.187	200.88
474.406	198.88
474.625	198.88
474.844	189.88
475.063	199.88
475.282	212.88
475.501	226.88
475.72	228.88
475.939	222.88
476.158	214.88
476.377	211.88
476.596	225.88
476.814	200.88
477.033	192.88
477.252	194.88
477.471	218.88
477.69	227.88
477.908	233.88
478.127	207.88
478.346	202.88
478.564	215.88
478.783	237.88
479.002	235.88
479.22	242.88
479.439	237.88
479.658	225.88
479.876	228.88
480.095	228.88
480.313	248.88
480.532	244.88
480.751	227.88
480.969	216.88
481.188	224.88
481.406	214.88
481.624	216.88
481.843	217.88
482.061	228.88
482.28	222.88
482.498	240.88
482.717	244.88
482.935	232.88
483.153	240.88
483.372	200.88
483.59	231.88
483.808	240.88
484.027	218.88
484.245	225.88
484.463	200.88
484.681	229.88
484.9	265.88
485.118	221.88
485.336	224.88
485.554	221.88
485.772	231.88
485.99	237.88
486.209	254.88
486.427	253.88
486.645	229.88
486.863	238.88
487.081	230.88
487.299	259.88
487.517	240.88
487.735	232.88
487.953	245.88
488.171	199.88
488.389	233.88
488.607	259.88
488.825	278.88
489.043	236.88
489.261	252.88
489.479	230.88
489.696	230.88
489.914	256.88
490.132	238.88
490.35	238.88
490.568	243.88
490.786	243.88
491.003	222.88
491.221	254.88
491.439	246.88
491.657	236.88
491.874	234.88
492.092	258.88
492.31	290.88
492.527	302.88
492.745	258.88
492.963	228.88
493.18	232.88
493.398	246.88
493.615	268.88
493.833	244.88
494.05	256.88
494.268	248.88
494.485	270.88
494.703	238.88
494.92	239.88
495.138	248.88
495.355	241.88
495.573	260.88
495.79	258.88
496.008	244.88
496.225	223.88
496.442	245.88
496.66	276.88
496.877	242.88
497.094	244.88
497.312	272.88
497.529	275.88
497.746	289.88
497.963	261.88
498.181	262.88
498.398	270.88
498.615	296.88
498.832	308.88
499.049	299.88
499.267	327.88
499.484	313.88
499.701	327.88
499.918	360.88
500.135	364.88
500.352	373.88
500.569	383.88
500.786	373.88
501.003	374.88
501.22	355.88
501.437	347.88
501.654	317.88
501.871	321.88
502.088	293.88
502.305	298.88
502.522	292.88
502.739	281.88
502.956	276.88
503.172	271.88
503.389	262.88
503.606	263.88
