Data from StA_HRD10591_072.txt Node
Date: Fri May 16 15:19:19 EDT 2025
User: Yrep
Spectrometer: HR+D1059
Trigger mode: 1
Integration Time (sec): 1.000000E-1
Scans to average: 1
Electric dark correction enabled: true
Nonlinearity correction enabled: false
Boxcar width: 0
XAxis mode: Wavelengths
Number of Pixels in Spectrum: 2048
>>>>>Begin Spectral Data<<<<<
223.165	-17.81
223.4	-17.81
223.635	-17.81
223.869	-31.81
224.104	-19.81
224.338	-25.81
224.573	-16.81
224.808	-24.81
225.042	-18.81
225.277	-2.81
225.511	-3.81
225.746	18.19
225.98	7.19
226.215	27.19
226.449	35.19
226.683	31.19
226.918	14.19
227.152	29.19
227.387	35.19
227.621	30.19
227.856	49.19
228.09	55.19
228.324	52.19
228.559	57.19
228.793	62.19
229.027	67.19
229.262	58.19
229.496	79.19
229.73	69.19
229.964	84.19
230.199	99.19
230.433	86.19
230.667	73.19
230.901	81.19
231.136	76.19
231.37	97.19
231.604	94.19
231.838	81.19
232.072	93.19
232.306	107.19
232.541	109.19
232.775	86.19
233.009	76.19
233.243	93.19
233.477	102.19
233.711	94.19
233.945	102.19
234.179	91.19
234.413	102.19
234.647	77.19
234.881	91.19
235.115	92.19
235.349	98.19
235.583	84.19
235.817	78.19
236.051	85.19
236.285	85.19
236.519	95.19
236.753	90.19
236.987	100.19
237.221	83.19
237.455	91.19
237.689	93.19
237.922	86.19
238.156	82.19
238.39	93.19
238.624	101.19
238.858	97.19
239.091	81.19
239.325	91.19
239.559	81.19
239.793	97.19
240.027	103.19
240.26	82.19
240.494	101.19
240.728	78.19
240.961	100.19
241.195	94.19
241.429	106.19
241.662	91.19
241.896	89.19
242.13	97.19
242.363	93.19
242.597	99.19
242.83	83.19
243.064	97.19
243.298	86.19
243.531	91.19
243.765	92.19
243.998	93.19
244.232	103.19
244.465	91.19
244.699	104.19
244.932	93.19
245.166	87.19
245.399	100.19
245.633	106.19
245.866	113.19
246.099	95.19
246.333	112.19
246.566	105.19
246.8	100.19
247.033	116.19
247.266	100.19
247.5	104.19
247.733	118.19
247.966	111.19
248.2	105.19
248.433	110.19
248.666	116.19
248.899	133.19
249.133	142.19
249.366	122.19
249.599	132.19
249.832	126.19
250.066	120.19
250.299	119.19
250.532	113.19
250.765	126.19
250.998	119.19
251.231	122.19
251.465	122.19
251.698	127.19
251.931	136.19
252.164	136.19
252.397	148.19
252.63	154.19
252.863	150.19
253.096	150.19
253.329	158.19
253.562	150.19
253.795	141.19
254.028	137.19
254.261	175.19
254.494	146.19
254.727	135.19
254.96	155.19
255.193	144.19
255.426	137.19
255.659	146.19
255.892	141.19
256.124	143.19
256.357	173.19
256.59	166.19
256.823	176.19
257.056	183.19
257.289	175.19
257.521	172.19
257.754	184.19
257.987	190.19
258.22	165.19
258.452	156.19
258.685	162.19
258.918	154.19
259.151	171.19
259.383	193.19
259.616	168.19
259.849	181.19
260.081	159.19
260.314	168.19
260.547	175.19
260.779	167.19
261.012	170.19
261.244	198.19
261.477	186.19
261.71	175.19
261.942	191.19
262.175	187.19
262.407	180.19
262.64	181.19
262.872	204.19
263.105	179.19
263.337	181.19
263.57	189.19
263.802	180.19
264.035	177.19
264.267	189.19
264.499	162.19
264.732	173.19
264.964	174.19
265.197	176.19
265.429	198.19
265.661	238.19
265.894	227.19
266.126	272.19
266.358	320.19
266.591	315.19
266.823	331.19
267.055	311.19
267.287	316.19
267.52	330.19
267.752	361.19
267.984	379.19
268.216	308.19
268.448	250.19
268.681	249.19
268.913	297.19
269.145	314.19
269.377	284.19
269.609	273.19
269.841	307.19
270.073	309.19
270.306	292.19
270.538	264.19
270.77	247.19
271.002	247.19
271.234	253.19
271.466	255.19
271.698	232.19
271.93	270.19
272.162	274.19
272.394	281.19
272.626	261.19
272.858	238.19
273.09	217.19
273.322	192.19
273.553	205.19
273.785	225.19
274.017	219.19
274.249	275.19
274.481	305.19
274.713	341.19
274.945	357.19
275.176	406.19
275.408	391.19
275.64	362.19
275.872	417.19
276.104	476.19
276.335	462.19
276.567	452.19
276.799	434.19
277.031	376.19
277.262	270.19
277.494	259.19
277.726	299.19
277.957	315.19
278.189	314.19
278.421	316.19
278.652	321.19
278.884	333.19
279.115	304.19
279.347	279.19
279.579	243.19
279.81	252.19
280.042	285.19
280.273	277.19
280.505	250.19
280.736	252.19
280.968	264.19
281.199	295.19
281.431	335.19
281.662	302.19
281.894	353.19
282.125	393.19
282.356	397.19
282.588	340.19
282.819	372.19
283.051	412.19
283.282	498.19
283.513	567.19
283.745	601.19
283.976	561.19
284.207	537.19
284.439	526.19
284.67	520.19
284.901	487.19
285.132	537.19
285.364	533.19
285.595	540.19
285.826	537.19
286.057	541.19
286.288	567.19
286.52	605.19
286.751	605.19
286.982	542.19
287.213	465.19
287.444	477.19
287.675	527.19
287.906	458.19
288.138	378.19
288.369	329.19
288.6	323.19
288.831	350.19
289.062	425.19
289.293	445.19
289.524	431.19
289.755	460.19
289.986	433.19
290.217	351.19
290.448	284.19
290.679	257.19
290.91	259.19
291.141	286.19
291.371	281.19
291.602	295.19
291.833	319.19
292.064	323.19
292.295	361.19
292.526	381.19
292.757	394.19
292.987	415.19
293.218	392.19
293.449	361.19
293.68	356.19
293.91	327.19
294.141	290.19
294.372	265.19
294.603	283.19
294.833	279.19
295.064	255.19
295.295	283.19
295.525	268.19
295.756	267.19
295.987	239.19
296.217	261.19
296.448	262.19
296.679	265.19
296.909	303.19
297.14	335.19
297.37	361.19
297.601	318.19
297.831	309.19
298.062	357.19
298.292	356.19
298.523	365.19
298.753	389.19
298.984	365.19
299.214	291.19
299.445	254.19
299.675	241.19
299.905	233.19
300.136	236.19
300.366	231.19
300.597	223.19
300.827	209.19
301.057	229.19
301.288	262.19
301.518	290.19
301.748	326.19
301.979	317.19
302.209	276.19
302.439	295.19
302.669	316.19
302.9	323.19
303.13	275.19
303.36	243.19
303.59	265.19
303.82	296.19
304.051	325.19
304.281	369.19
304.511	300.19
304.741	288.19
304.971	316.19
305.201	327.19
305.431	289.19
305.661	254.19
305.891	236.19
306.121	216.19
306.352	225.19
306.582	221.19
306.812	203.19
307.042	198.19
307.272	198.19
307.502	200.19
307.731	211.19
307.961	212.19
308.191	188.19
308.421	204.19
308.651	215.19
308.881	202.19
309.111	221.19
309.341	244.19
309.571	251.19
309.8	251.19
310.03	205.19
310.26	207.19
310.49	219.19
310.72	227.19
310.949	247.19
311.179	273.19
311.409	309.19
311.639	387.19
311.868	481.19
312.098	590.19
312.328	591.19
312.557	556.19
312.787	546.19
313.017	525.19
313.246	595.19
313.476	539.19
313.706	417.19
313.935	325.19
314.165	300.19
314.394	280.19
314.624	291.19
314.853	300.19
315.083	303.19
315.312	263.19
315.542	240.19
315.771	232.19
316.001	207.19
316.23	213.19
316.46	197.19
316.689	205.19
316.919	207.19
317.148	213.19
317.377	226.19
317.607	222.19
317.836	250.19
318.065	308.19
318.295	309.19
318.524	264.19
318.753	233.19
318.983	220.19
319.212	229.19
319.441	248.19
319.67	270.19
319.9	301.19
320.129	251.19
320.358	238.19
320.587	247.19
320.816	269.19
321.046	291.19
321.275	291.19
321.504	256.19
321.733	279.19
321.962	262.19
322.191	232.19
322.42	197.19
322.649	211.19
322.878	195.19
323.108	194.19
323.337	236.19
323.566	258.19
323.795	242.19
324.024	240.19
324.253	202.19
324.482	201.19
324.71	187.19
324.939	204.19
325.168	198.19
325.397	201.19
325.626	177.19
325.855	201.19
326.084	196.19
326.313	193.19
326.542	195.19
326.77	205.19
326.999	240.19
327.228	221.19
327.457	186.19
327.686	192.19
327.914	182.19
328.143	190.19
328.372	210.19
328.6	199.19
328.829	196.19
329.058	203.19
329.287	220.19
329.515	219.19
329.744	221.19
329.972	203.19
330.201	208.19
330.43	239.19
330.658	253.19
330.887	253.19
331.115	278.19
331.344	266.19
331.572	251.19
331.801	236.19
332.03	227.19
332.258	250.19
332.486	273.19
332.715	249.19
332.943	241.19
333.172	250.19
333.4	294.19
333.629	303.19
333.857	296.19
334.085	310.19
334.314	338.19
334.542	288.19
334.771	262.19
334.999	254.19
335.227	251.19
335.455	274.19
335.684	317.19
335.912	377.19
336.14	375.19
336.369	366.19
336.597	374.19
336.825	416.19
337.053	386.19
337.281	290.19
337.51	248.19
337.738	287.19
337.966	307.19
338.194	305.19
338.422	274.19
338.65	244.19
338.878	230.19
339.106	231.19
339.334	262.19
339.562	266.19
339.79	251.19
340.018	251.19
340.246	290.19
340.474	331.19
340.702	325.19
340.93	341.19
341.158	281.19
341.386	229.19
341.614	241.19
341.842	255.19
342.07	323.19
342.298	362.19
342.526	306.19
342.754	239.19
342.981	249.19
343.209	254.19
343.437	280.19
343.665	248.19
343.893	214.19
344.12	217.19
344.348	215.19
344.576	204.19
344.804	195.19
345.031	199.19
345.259	206.19
345.487	215.19
345.714	225.19
345.942	206.19
346.17	193.19
346.397	195.19
346.625	204.19
346.853	200.19
347.08	163.19
347.308	193.19
347.535	197.19
347.763	181.19
347.99	175.19
348.218	194.19
348.445	176.19
348.673	181.19
348.9	190.19
349.128	183.19
349.355	179.19
349.583	175.19
349.81	185.19
350.037	180.19
350.265	169.19
350.492	179.19
350.72	187.19
350.947	183.19
351.174	198.19
351.402	177.19
351.629	182.19
351.856	189.19
352.083	181.19
352.311	180.19
352.538	194.19
352.765	184.19
352.992	166.19
353.22	169.19
353.447	178.19
353.674	178.19
353.901	189.19
354.128	190.19
354.355	175.19
354.583	174.19
354.81	192.19
355.037	171.19
355.264	188.19
355.491	194.19
355.718	187.19
355.945	181.19
356.172	190.19
356.399	203.19
356.626	197.19
356.853	197.19
357.08	193.19
357.307	217.19
357.534	265.19
357.761	334.19
357.988	349.19
358.215	273.19
358.441	241.19
358.668	255.19
358.895	241.19
359.122	265.19
359.349	308.19
359.576	292.19
359.802	242.19
360.029	219.19
360.256	264.19
360.483	295.19
360.709	302.19
360.936	229.19
361.163	199.19
361.39	194.19
361.616	192.19
361.843	202.19
362.07	177.19
362.296	186.19
362.523	193.19
362.749	189.19
362.976	199.19
363.203	217.19
363.429	203.19
363.656	221.19
363.882	228.19
364.109	209.19
364.335	210.19
364.562	199.19
364.788	191.19
365.015	208.19
365.241	211.19
365.468	203.19
365.694	207.19
365.92	202.19
366.147	187.19
366.373	201.19
366.599	204.19
366.826	191.19
367.052	189.19
367.278	178.19
367.505	200.19
367.731	220.19
367.957	207.19
368.184	201.19
368.41	188.19
368.636	201.19
368.862	187.19
369.089	204.19
369.315	186.19
369.541	181.19
369.767	188.19
369.993	181.19
370.219	168.19
370.445	194.19
370.672	180.19
370.898	181.19
371.124	207.19
371.35	207.19
371.576	213.19
371.802	207.19
372.028	180.19
372.254	189.19
372.48	168.19
372.706	171.19
372.932	187.19
373.158	188.19
373.384	197.19
373.61	190.19
373.835	183.19
374.061	216.19
374.287	238.19
374.513	244.19
374.739	213.19
374.965	209.19
375.191	194.19
375.416	193.19
375.642	198.19
375.868	200.19
376.094	197.19
376.319	182.19
376.545	192.19
376.771	186.19
376.997	189.19
377.222	197.19
377.448	190.19
377.674	188.19
377.899	183.19
378.125	175.19
378.35	182.19
378.576	191.19
378.802	188.19
379.027	193.19
379.253	189.19
379.478	197.19
379.704	195.19
379.929	207.19
380.155	188.19
380.38	196.19
380.606	208.19
380.831	186.19
381.057	193.19
381.282	211.19
381.507	207.19
381.733	212.19
381.958	211.19
382.184	215.19
382.409	198.19
382.634	191.19
382.86	209.19
383.085	215.19
383.31	209.19
383.535	191.19
383.761	204.19
383.986	227.19
384.211	190.19
384.436	218.19
384.662	230.19
384.887	223.19
385.112	241.19
385.337	232.19
385.562	220.19
385.787	227.19
386.013	237.19
386.238	219.19
386.463	239.19
386.688	228.19
386.913	217.19
387.138	213.19
387.363	222.19
387.588	216.19
387.813	221.19
388.038	211.19
388.263	226.19
388.488	230.19
388.713	218.19
388.938	210.19
389.163	213.19
389.387	214.19
389.612	203.19
389.837	200.19
390.062	193.19
390.287	221.19
390.512	207.19
390.736	202.19
390.961	210.19
391.186	184.19
391.411	200.19
391.636	199.19
391.86	247.19
392.085	229.19
392.31	212.19
392.534	189.19
392.759	197.19
392.984	215.19
393.208	217.19
393.433	196.19
393.658	199.19
393.882	202.19
394.107	199.19
394.331	213.19
394.556	189.19
394.78	205.19
395.005	198.19
395.229	178.19
395.454	222.19
395.678	215.19
395.903	215.19
396.127	236.19
396.352	220.19
396.576	266.19
396.801	250.19
397.025	273.19
397.249	254.19
397.474	251.19
397.698	247.19
397.922	256.19
398.147	259.19
398.371	244.19
398.595	247.19
398.82	240.19
399.044	262.19
399.268	239.19
399.492	274.19
399.717	239.19
399.941	257.19
400.165	249.19
400.389	237.19
400.613	217.19
400.837	233.19
401.062	234.19
401.286	219.19
401.51	213.19
401.734	221.19
401.958	205.19
402.182	214.19
402.406	239.19
402.63	231.19
402.854	225.19
403.078	224.19
403.302	221.19
403.526	233.19
403.75	215.19
403.974	237.19
404.198	249.19
404.422	217.19
404.645	249.19
404.869	220.19
405.093	214.19
405.317	233.19
405.541	219.19
405.765	203.19
405.988	233.19
406.212	230.19
406.436	233.19
406.66	235.19
406.883	227.19
407.107	237.19
407.331	226.19
407.555	241.19
407.778	233.19
408.002	219.19
408.226	239.19
408.449	226.19
408.673	201.19
408.896	234.19
409.12	230.19
409.344	218.19
409.567	208.19
409.791	215.19
410.014	233.19
410.238	215.19
410.461	205.19
410.685	230.19
410.908	217.19
411.132	236.19
411.355	245.19
411.578	241.19
411.802	228.19
412.025	235.19
412.249	220.19
412.472	248.19
412.695	222.19
412.919	237.19
413.142	235.19
413.365	228.19
413.589	222.19
413.812	232.19
414.035	209.19
414.258	206.19
414.482	217.19
414.705	218.19
414.928	206.19
415.151	218.19
415.374	218.19
415.597	200.19
415.821	202.19
416.044	210.19
416.267	200.19
416.49	231.19
416.713	226.19
416.936	232.19
417.159	201.19
417.382	212.19
417.605	201.19
417.828	235.19
418.051	225.19
418.274	218.19
418.497	217.19
418.72	222.19
418.943	218.19
419.166	231.19
419.389	229.19
419.611	241.19
419.834	214.19
420.057	222.19
420.28	209.19
420.503	215.19
420.726	208.19
420.948	220.19
421.171	221.19
421.394	211.19
421.617	222.19
421.839	220.19
422.062	218.19
422.285	212.19
422.507	204.19
422.73	214.19
422.953	205.19
423.175	229.19
423.398	207.19
423.621	234.19
423.843	230.19
424.066	218.19
424.288	224.19
424.511	220.19
424.733	221.19
424.956	216.19
425.178	254.19
425.401	320.19
425.623	373.19
425.846	259.19
426.068	246.19
426.291	231.19
426.513	229.19
426.735	243.19
426.958	245.19
427.18	273.19
427.402	314.19
427.625	377.19
427.847	302.19
428.069	239.19
428.292	219.19
428.514	213.19
428.736	243.19
428.958	298.19
429.181	301.19
429.403	254.19
429.625	215.19
429.847	233.19
430.069	221.19
430.292	221.19
430.514	218.19
430.736	220.19
430.958	218.19
431.18	222.19
431.402	194.19
431.624	200.19
431.846	206.19
432.068	201.19
432.29	202.19
432.512	206.19
432.734	191.19
432.956	189.19
433.178	199.19
433.4	211.19
433.622	229.19
433.844	255.19
434.066	278.19
434.287	240.19
434.509	259.19
434.731	258.19
434.953	218.19
435.175	258.19
435.397	269.19
435.618	213.19
435.84	202.19
436.062	233.19
436.284	241.19
436.505	206.19
436.727	212.19
436.949	201.19
437.17	229.19
437.392	219.19
437.614	217.19
437.835	203.19
438.057	196.19
438.278	203.19
438.5	220.19
438.721	203.19
438.943	197.19
439.165	186.19
439.386	204.19
439.608	203.19
439.829	190.19
440.05	201.19
440.272	200.19
440.493	197.19
440.715	208.19
440.936	201.19
441.158	205.19
441.379	200.19
441.6	221.19
441.822	218.19
442.043	213.19
442.264	219.19
442.486	213.19
442.707	227.19
442.928	209.19
443.149	207.19
443.371	215.19
443.592	213.19
443.813	209.19
444.034	202.19
444.255	222.19
444.476	220.19
444.698	220.19
444.919	214.19
445.14	280.19
445.361	267.19
445.582	214.19
445.803	226.19
446.024	226.19
446.245	221.19
446.466	227.19
446.687	199.19
446.908	204.19
447.129	211.19
447.35	197.19
447.571	206.19
447.792	219.19
448.013	197.19
448.234	197.19
448.455	197.19
448.675	201.19
448.896	200.19
449.117	221.19
449.338	204.19
449.559	223.19
449.779	235.19
450	232.19
450.221	212.19
450.442	189.19
450.662	190.19
450.883	200.19
451.104	210.19
451.324	201.19
451.545	214.19
451.766	198.19
451.986	219.19
452.207	199.19
452.428	212.19
452.648	218.19
452.869	227.19
453.089	214.19
453.31	215.19
453.53	207.19
453.751	203.19
453.971	204.19
454.192	213.19
454.412	207.19
454.633	208.19
454.853	206.19
455.073	194.19
455.294	191.19
455.514	190.19
455.734	210.19
455.955	219.19
456.175	228.19
456.395	213.19
456.616	209.19
456.836	218.19
457.056	207.19
457.276	207.19
457.497	199.19
457.717	189.19
457.937	203.19
458.157	200.19
458.377	211.19
458.598	199.19
458.818	230.19
459.038	217.19
459.258	235.19
459.478	220.19
459.698	232.19
459.918	230.19
460.138	234.19
460.358	228.19
460.578	215.19
460.798	215.19
461.018	217.19
461.238	219.19
461.458	234.19
461.678	237.19
461.898	260.19
462.118	251.19
462.338	254.19
462.558	243.19
462.777	235.19
462.997	239.19
463.217	254.19
463.437	257.19
463.657	222.19
463.876	235.19
464.096	239.19
464.316	234.19
464.536	259.19
464.755	261.19
464.975	253.19
465.195	269.19
465.414	246.19
465.634	226.19
465.854	213.19
466.073	210.19
466.293	208.19
466.512	218.19
466.732	210.19
466.951	221.19
467.171	219.19
467.391	196.19
467.61	206.19
467.829	191.19
468.049	202.19
468.268	187.19
468.488	181.19
468.707	193.19
468.927	207.19
469.146	198.19
469.365	227.19
469.585	197.19
469.804	214.19
470.023	208.19
470.243	214.19
470.462	210.19
470.681	205.19
470.901	233.19
471.12	211.19
471.339	197.19
471.558	201.19
471.777	203.19
471.997	215.19
472.216	211.19
472.435	198.19
472.654	195.19
472.873	206.19
473.092	213.19
473.311	199.19
473.53	192.19
473.749	214.19
473.968	206.19
474.187	198.19
474.406	198.19
474.625	189.19
474.844	206.19
475.063	209.19
475.282	219.19
475.501	223.19
475.72	237.19
475.939	220.19
476.158	205.19
476.377	219.19
476.596	206.19
476.814	205.19
477.033	207.19
477.252	201.19
477.471	227.19
477.69	212.19
477.908	197.19
478.127	210.19
478.346	219.19
478.564	222.19
478.783	205.19
479.002	237.19
479.22	251.19
479.439	222.19
479.658	243.19
479.876	239.19
480.095	230.19
480.313	235.19
480.532	237.19
480.751	227.19
480.969	224.19
481.188	212.19
481.406	220.19
481.624	228.19
481.843	222.19
482.061	210.19
482.28	233.19
482.498	244.19
482.717	232.19
482.935	241.19
483.153	229.19
483.372	225.19
483.59	229.19
483.808	233.19
484.027	220.19
484.245	217.19
484.463	210.19
484.681	227.19
484.9	241.19
485.118	240.19
485.336	228.19
485.554	231.19
485.772	234.19
485.99	240.19
486.209	230.19
486.427	233.19
486.645	237.19
486.863	231.19
487.081	259.19
487.299	246.19
487.517	225.19
487.735	227.19
487.953	235.19
488.171	241.19
488.389	220.19
488.607	255.19
488.825	267.19
489.043	254.19
489.261	227.19
489.479	233.19
489.696	251.19
489.914	221.19
490.132	232.19
490.35	242.19
490.568	238.19
490.786	228.19
491.003	221.19
491.221	242.19
491.439	235.19
491.657	239.19
491.874	241.19
492.092	256.19
492.31	309.19
492.527	282.19
492.745	252.19
492.963	260.19
493.18	264.19
493.398	253.19
493.615	245.19
493.833	248.19
494.05	239.19
494.268	255.19
494.485	246.19
494.703	237.19
494.92	223.19
495.138	229.19
495.355	229.19
495.573	271.19
495.79	267.19
496.008	237.19
496.225	241.19
496.442	241.19
496.66	255.19
496.877	250.19
497.094	264.19
497.312	276.19
497.529	249.19
497.746	280.19
497.963	243.19
498.181	264.19
498.398	283.19
498.615	274.19
498.832	299.19
499.049	305.19
499.267	311.19
499.484	309.19
499.701	325.19
499.918	331.19
500.135	367.19
500.352	373.19
500.569	353.19
500.786	363.19
501.003	343.19
501.22	344.19
501.437	339.19
501.654	322.19
501.871	309.19
502.088	298.19
502.305	283.19
502.522	289.19
502.739	280.19
502.956	272.19
503.172	267.19
503.389	269.19
503.606	251.19
