Data from StA_HRD10591_053.txt Node
Date: Fri May 16 15:19:10 EDT 2025
User: Yrep
Spectrometer: HR+D1059
Trigger mode: 1
Integration Time (sec): 1.000000E-1
Scans to average: 1
Electric dark correction enabled: true
Nonlinearity correction enabled: false
Boxcar width: 0
XAxis mode: Wavelengths
Number of Pixels in Spectrum: 2048
>>>>>Begin Spectral Data<<<<<
223.165	-28.62
223.4	-28.62
223.635	-28.62
223.869	-10.62
224.104	-11.62
224.338	-17.62
224.573	-11.62
224.808	-14.62
225.042	-0.62
225.277	-22.62
225.511	-2.62
225.746	8.38
225.98	14.38
226.215	1.38
226.449	26.38
226.683	17.38
226.918	21.38
227.152	31.38
227.387	32.38
227.621	32.38
227.856	46.38
228.09	49.38
228.324	41.38
228.559	50.38
228.793	59.38
229.027	70.38
229.262	73.38
229.496	71.38
229.73	72.38
229.964	83.38
230.199	69.38
230.433	83.38
230.667	88.38
230.901	86.38
231.136	88.38
231.37	91.38
231.604	87.38
231.838	90.38
232.072	83.38
232.306	95.38
232.541	93.38
232.775	91.38
233.009	112.38
233.243	104.38
233.477	92.38
233.711	97.38
233.945	69.38
234.179	83.38
234.413	91.38
234.647	99.38
234.881	95.38
235.115	91.38
235.349	86.38
235.583	76.38
235.817	83.38
236.051	84.38
236.285	93.38
236.519	89.38
236.753	93.38
236.987	93.38
237.221	95.38
237.455	89.38
237.689	84.38
237.922	100.38
238.156	85.38
238.39	87.38
238.624	92.38
238.858	97.38
239.091	88.38
239.325	101.38
239.559	86.38
239.793	100.38
240.027	88.38
240.26	91.38
240.494	86.38
240.728	92.38
240.961	77.38
241.195	72.38
241.429	90.38
241.662	81.38
241.896	86.38
242.13	93.38
242.363	100.38
242.597	88.38
242.83	87.38
243.064	109.38
243.298	92.38
243.531	89.38
243.765	88.38
243.998	100.38
244.232	85.38
244.465	93.38
244.699	97.38
244.932	88.38
245.166	96.38
245.399	110.38
245.633	107.38
245.866	109.38
246.099	93.38
246.333	100.38
246.566	107.38
246.8	93.38
247.033	107.38
247.266	109.38
247.5	111.38
247.733	115.38
247.966	107.38
248.2	101.38
248.433	135.38
248.666	124.38
248.899	120.38
249.133	129.38
249.366	140.38
249.599	135.38
249.832	125.38
250.066	131.38
250.299	136.38
250.532	110.38
250.765	111.38
250.998	112.38
251.231	117.38
251.465	122.38
251.698	121.38
251.931	150.38
252.164	150.38
252.397	151.38
252.63	157.38
252.863	158.38
253.096	141.38
253.329	142.38
253.562	152.38
253.795	140.38
254.028	144.38
254.261	149.38
254.494	143.38
254.727	139.38
254.96	134.38
255.193	158.38
255.426	138.38
255.659	123.38
255.892	132.38
256.124	135.38
256.357	163.38
256.59	176.38
256.823	147.38
257.056	140.38
257.289	165.38
257.521	154.38
257.754	173.38
257.987	147.38
258.22	147.38
258.452	160.38
258.685	169.38
258.918	153.38
259.151	173.38
259.383	169.38
259.616	163.38
259.849	159.38
260.081	150.38
260.314	169.38
260.547	194.38
260.779	183.38
261.012	177.38
261.244	190.38
261.477	166.38
261.71	168.38
261.942	182.38
262.175	189.38
262.407	189.38
262.64	173.38
262.872	181.38
263.105	182.38
263.337	198.38
263.57	187.38
263.802	182.38
264.035	187.38
264.267	174.38
264.499	157.38
264.732	158.38
264.964	177.38
265.197	190.38
265.429	193.38
265.661	222.38
265.894	233.38
266.126	247.38
266.358	292.38
266.591	291.38
266.823	305.38
267.055	313.38
267.287	316.38
267.52	318.38
267.752	351.38
267.984	360.38
268.216	282.38
268.448	233.38
268.681	246.38
268.913	278.38
269.145	273.38
269.377	267.38
269.609	264.38
269.841	279.38
270.073	295.38
270.306	280.38
270.538	243.38
270.77	247.38
271.002	241.38
271.234	243.38
271.466	249.38
271.698	201.38
271.93	232.38
272.162	245.38
272.394	253.38
272.626	255.38
272.858	225.38
273.09	198.38
273.322	196.38
273.553	177.38
273.785	209.38
274.017	237.38
274.249	273.38
274.481	299.38
274.713	313.38
274.945	333.38
275.176	363.38
275.408	348.38
275.64	333.38
275.872	383.38
276.104	421.38
276.335	409.38
276.567	390.38
276.799	411.38
277.031	353.38
277.262	271.38
277.494	255.38
277.726	257.38
277.957	317.38
278.189	319.38
278.421	300.38
278.652	288.38
278.884	291.38
279.115	267.38
279.347	267.38
279.579	254.38
279.81	261.38
280.042	265.38
280.273	281.38
280.505	257.38
280.736	220.38
280.968	227.38
281.199	305.38
281.431	301.38
281.662	295.38
281.894	327.38
282.125	346.38
282.356	369.38
282.588	350.38
282.819	338.38
283.051	375.38
283.282	474.38
283.513	545.38
283.745	559.38
283.976	514.38
284.207	517.38
284.439	501.38
284.67	491.38
284.901	471.38
285.132	523.38
285.364	511.38
285.595	476.38
285.826	511.38
286.057	507.38
286.288	502.38
286.52	538.38
286.751	577.38
286.982	509.38
287.213	438.38
287.444	447.38
287.675	469.38
287.906	435.38
288.138	343.38
288.369	334.38
288.6	307.38
288.831	343.38
289.062	380.38
289.293	416.38
289.524	415.38
289.755	412.38
289.986	399.38
290.217	326.38
290.448	284.38
290.679	258.38
290.91	259.38
291.141	268.38
291.371	255.38
291.602	261.38
291.833	285.38
292.064	295.38
292.295	343.38
292.526	384.38
292.757	401.38
292.987	389.38
293.218	360.38
293.449	345.38
293.68	339.38
293.91	286.38
294.141	272.38
294.372	269.38
294.603	278.38
294.833	275.38
295.064	279.38
295.295	249.38
295.525	275.38
295.756	243.38
295.987	243.38
296.217	239.38
296.448	231.38
296.679	263.38
296.909	297.38
297.14	325.38
297.37	353.38
297.601	307.38
297.831	307.38
298.062	343.38
298.292	337.38
298.523	352.38
298.753	376.38
298.984	350.38
299.214	308.38
299.445	257.38
299.675	243.38
299.905	229.38
300.136	237.38
300.366	231.38
300.597	201.38
300.827	212.38
301.057	218.38
301.288	264.38
301.518	267.38
301.748	297.38
301.979	291.38
302.209	279.38
302.439	281.38
302.669	303.38
302.9	296.38
303.13	273.38
303.36	263.38
303.59	254.38
303.82	280.38
304.051	293.38
304.281	357.38
304.511	308.38
304.741	303.38
304.971	311.38
305.201	322.38
305.431	281.38
305.661	231.38
305.891	227.38
306.121	220.38
306.352	206.38
306.582	183.38
306.812	208.38
307.042	177.38
307.272	208.38
307.502	208.38
307.731	200.38
307.961	200.38
308.191	202.38
308.421	188.38
308.651	175.38
308.881	212.38
309.111	223.38
309.341	231.38
309.571	224.38
309.8	233.38
310.03	216.38
310.26	206.38
310.49	226.38
310.72	224.38
310.949	260.38
311.179	231.38
311.409	295.38
311.639	367.38
311.868	454.38
312.098	557.38
312.328	538.38
312.557	545.38
312.787	506.38
313.017	491.38
313.246	526.38
313.476	486.38
313.706	405.38
313.935	335.38
314.165	271.38
314.394	281.38
314.624	269.38
314.853	287.38
315.083	276.38
315.312	233.38
315.542	224.38
315.771	221.38
316.001	215.38
316.23	200.38
316.46	203.38
316.689	198.38
316.919	216.38
317.148	228.38
317.377	192.38
317.607	224.38
317.836	241.38
318.065	310.38
318.295	299.38
318.524	268.38
318.753	235.38
318.983	210.38
319.212	211.38
319.441	234.38
319.67	249.38
319.9	271.38
320.129	251.38
320.358	224.38
320.587	235.38
320.816	261.38
321.046	277.38
321.275	257.38
321.504	248.38
321.733	272.38
321.962	248.38
322.191	205.38
322.42	207.38
322.649	208.38
322.878	204.38
323.108	223.38
323.337	229.38
323.566	241.38
323.795	257.38
324.024	228.38
324.253	206.38
324.482	194.38
324.71	190.38
324.939	191.38
325.168	187.38
325.397	187.38
325.626	194.38
325.855	215.38
326.084	211.38
326.313	197.38
326.542	201.38
326.77	214.38
326.999	213.38
327.228	214.38
327.457	187.38
327.686	179.38
327.914	179.38
328.143	188.38
328.372	182.38
328.6	205.38
328.829	194.38
329.058	205.38
329.287	211.38
329.515	223.38
329.744	214.38
329.972	215.38
330.201	217.38
330.43	207.38
330.658	237.38
330.887	255.38
331.115	272.38
331.344	260.38
331.572	242.38
331.801	210.38
332.03	238.38
332.258	244.38
332.486	266.38
332.715	257.38
332.943	237.38
333.172	241.38
333.4	280.38
333.629	284.38
333.857	307.38
334.085	309.38
334.314	311.38
334.542	275.38
334.771	263.38
334.999	271.38
335.227	246.38
335.455	284.38
335.684	325.38
335.912	351.38
336.14	371.38
336.369	339.38
336.597	356.38
336.825	389.38
337.053	341.38
337.281	284.38
337.51	262.38
337.738	292.38
337.966	291.38
338.194	296.38
338.422	267.38
338.65	229.38
338.878	207.38
339.106	239.38
339.334	255.38
339.562	244.38
339.79	241.38
340.018	246.38
340.246	286.38
340.474	314.38
340.702	313.38
340.93	333.38
341.158	278.38
341.386	218.38
341.614	217.38
341.842	261.38
342.07	306.38
342.298	337.38
342.526	304.38
342.754	228.38
342.981	221.38
343.209	260.38
343.437	274.38
343.665	245.38
343.893	206.38
344.12	205.38
344.348	223.38
344.576	193.38
344.804	213.38
345.031	201.38
345.259	214.38
345.487	204.38
345.714	200.38
345.942	193.38
346.17	191.38
346.397	177.38
346.625	195.38
346.853	168.38
347.08	187.38
347.308	192.38
347.535	188.38
347.763	200.38
347.99	197.38
348.218	167.38
348.445	183.38
348.673	182.38
348.9	169.38
349.128	179.38
349.355	166.38
349.583	187.38
349.81	172.38
350.037	195.38
350.265	161.38
350.492	163.38
350.72	173.38
350.947	170.38
351.174	191.38
351.402	196.38
351.629	188.38
351.856	184.38
352.083	164.38
352.311	168.38
352.538	161.38
352.765	192.38
352.992	184.38
353.22	168.38
353.447	176.38
353.674	174.38
353.901	190.38
354.128	196.38
354.355	199.38
354.583	173.38
354.81	182.38
355.037	189.38
355.264	199.38
355.491	204.38
355.718	196.38
355.945	210.38
356.172	190.38
356.399	185.38
356.626	188.38
356.853	205.38
357.08	200.38
357.307	211.38
357.534	251.38
357.761	307.38
357.988	326.38
358.215	280.38
358.441	264.38
358.668	262.38
358.895	227.38
359.122	254.38
359.349	299.38
359.576	293.38
359.802	235.38
360.029	215.38
360.256	261.38
360.483	295.38
360.709	311.38
360.936	235.38
361.163	199.38
361.39	173.38
361.616	200.38
361.843	171.38
362.07	167.38
362.296	188.38
362.523	186.38
362.749	205.38
362.976	193.38
363.203	206.38
363.429	199.38
363.656	209.38
363.882	213.38
364.109	230.38
364.335	208.38
364.562	200.38
364.788	195.38
365.015	206.38
365.241	215.38
365.468	204.38
365.694	160.38
365.92	187.38
366.147	180.38
366.373	197.38
366.599	195.38
366.826	184.38
367.052	180.38
367.278	183.38
367.505	191.38
367.731	211.38
367.957	201.38
368.184	187.38
368.41	184.38
368.636	187.38
368.862	211.38
369.089	185.38
369.315	159.38
369.541	188.38
369.767	181.38
369.993	188.38
370.219	170.38
370.445	182.38
370.672	177.38
370.898	202.38
371.124	205.38
371.35	213.38
371.576	206.38
371.802	194.38
372.028	191.38
372.254	190.38
372.48	175.38
372.706	187.38
372.932	173.38
373.158	199.38
373.384	192.38
373.61	185.38
373.835	203.38
374.061	211.38
374.287	238.38
374.513	243.38
374.739	199.38
374.965	209.38
375.191	202.38
375.416	202.38
375.642	181.38
375.868	201.38
376.094	197.38
376.319	211.38
376.545	194.38
376.771	175.38
376.997	197.38
377.222	187.38
377.448	181.38
377.674	168.38
377.899	185.38
378.125	174.38
378.35	175.38
378.576	193.38
378.802	166.38
379.027	207.38
379.253	216.38
379.478	214.38
379.704	185.38
379.929	189.38
380.155	176.38
380.38	197.38
380.606	219.38
380.831	188.38
381.057	200.38
381.282	194.38
381.507	191.38
381.733	211.38
381.958	208.38
382.184	197.38
382.409	203.38
382.634	214.38
382.86	205.38
383.085	197.38
383.31	221.38
383.535	202.38
383.761	213.38
383.986	220.38
384.211	221.38
384.436	208.38
384.662	207.38
384.887	225.38
385.112	240.38
385.337	231.38
385.562	228.38
385.787	221.38
386.013	218.38
386.238	220.38
386.463	203.38
386.688	232.38
386.913	207.38
387.138	213.38
387.363	204.38
387.588	222.38
387.813	199.38
388.038	223.38
388.263	217.38
388.488	230.38
388.713	230.38
388.938	208.38
389.163	208.38
389.387	194.38
389.612	201.38
389.837	199.38
390.062	190.38
390.287	204.38
390.512	215.38
390.736	219.38
390.961	233.38
391.186	199.38
391.411	212.38
391.636	228.38
391.86	224.38
392.085	238.38
392.31	219.38
392.534	217.38
392.759	212.38
392.984	205.38
393.208	185.38
393.433	198.38
393.658	190.38
393.882	204.38
394.107	205.38
394.331	209.38
394.556	192.38
394.78	196.38
395.005	203.38
395.229	194.38
395.454	210.38
395.678	207.38
395.903	199.38
396.127	214.38
396.352	237.38
396.576	235.38
396.801	232.38
397.025	235.38
397.249	237.38
397.474	221.38
397.698	236.38
397.922	244.38
398.147	231.38
398.371	263.38
398.595	245.38
398.82	247.38
399.044	261.38
399.268	264.38
399.492	255.38
399.717	247.38
399.941	265.38
400.165	241.38
400.389	244.38
400.613	241.38
400.837	218.38
401.062	230.38
401.286	231.38
401.51	246.38
401.734	229.38
401.958	230.38
402.182	248.38
402.406	231.38
402.63	230.38
402.854	234.38
403.078	222.38
403.302	204.38
403.526	208.38
403.75	221.38
403.974	221.38
404.198	230.38
404.422	221.38
404.645	224.38
404.869	238.38
405.093	234.38
405.317	233.38
405.541	229.38
405.765	241.38
405.988	236.38
406.212	211.38
406.436	207.38
406.66	217.38
406.883	227.38
407.107	227.38
407.331	243.38
407.555	242.38
407.778	242.38
408.002	241.38
408.226	222.38
408.449	239.38
408.673	222.38
408.896	233.38
409.12	217.38
409.344	232.38
409.567	227.38
409.791	233.38
410.014	222.38
410.238	229.38
410.461	224.38
410.685	219.38
410.908	235.38
411.132	239.38
411.355	231.38
411.578	219.38
411.802	215.38
412.025	224.38
412.249	238.38
412.472	233.38
412.695	243.38
412.919	231.38
413.142	235.38
413.365	230.38
413.589	210.38
413.812	205.38
414.035	223.38
414.258	213.38
414.482	221.38
414.705	211.38
414.928	237.38
415.151	217.38
415.374	212.38
415.597	218.38
415.821	214.38
416.044	201.38
416.267	200.38
416.49	222.38
416.713	214.38
416.936	205.38
417.159	215.38
417.382	229.38
417.605	219.38
417.828	203.38
418.051	239.38
418.274	218.38
418.497	215.38
418.72	219.38
418.943	211.38
419.166	216.38
419.389	228.38
419.611	225.38
419.834	227.38
420.057	218.38
420.28	215.38
420.503	222.38
420.726	207.38
420.948	216.38
421.171	213.38
421.394	232.38
421.617	205.38
421.839	211.38
422.062	224.38
422.285	229.38
422.507	221.38
422.73	222.38
422.953	220.38
423.175	213.38
423.398	213.38
423.621	230.38
423.843	197.38
424.066	231.38
424.288	237.38
424.511	233.38
424.733	231.38
424.956	244.38
425.178	249.38
425.401	333.38
425.623	363.38
425.846	277.38
426.068	233.38
426.291	255.38
426.513	230.38
426.735	221.38
426.958	246.38
427.18	264.38
427.402	287.38
427.625	345.38
427.847	277.38
428.069	243.38
428.292	231.38
428.514	229.38
428.736	230.38
428.958	286.38
429.181	298.38
429.403	238.38
429.625	216.38
429.847	227.38
430.069	225.38
430.292	254.38
430.514	217.38
430.736	198.38
430.958	195.38
431.18	202.38
431.402	212.38
431.624	200.38
431.846	206.38
432.068	207.38
432.29	199.38
432.512	196.38
432.734	188.38
432.956	215.38
433.178	212.38
433.4	203.38
433.622	223.38
433.844	263.38
434.066	277.38
434.287	263.38
434.509	261.38
434.731	250.38
434.953	227.38
435.175	255.38
435.397	257.38
435.618	228.38
435.84	228.38
436.062	220.38
436.284	225.38
436.505	201.38
436.727	204.38
436.949	211.38
437.17	225.38
437.392	240.38
437.614	225.38
437.835	202.38
438.057	208.38
438.278	208.38
438.5	201.38
438.721	212.38
438.943	205.38
439.165	197.38
439.386	212.38
439.608	202.38
439.829	191.38
440.05	187.38
440.272	207.38
440.493	213.38
440.715	207.38
440.936	211.38
441.158	212.38
441.379	192.38
441.6	202.38
441.822	199.38
442.043	212.38
442.264	199.38
442.486	218.38
442.707	226.38
442.928	205.38
443.149	222.38
443.371	209.38
443.592	205.38
443.813	213.38
444.034	216.38
444.255	234.38
444.476	218.38
444.698	212.38
444.919	223.38
445.14	307.38
445.361	255.38
445.582	219.38
445.803	217.38
446.024	227.38
446.245	206.38
446.466	211.38
446.687	219.38
446.908	204.38
447.129	199.38
447.35	192.38
447.571	194.38
447.792	196.38
448.013	198.38
448.234	198.38
448.455	187.38
448.675	207.38
448.896	200.38
449.117	200.38
449.338	224.38
449.559	214.38
449.779	217.38
450	216.38
450.221	212.38
450.442	175.38
450.662	208.38
450.883	203.38
451.104	193.38
451.324	189.38
451.545	204.38
451.766	216.38
451.986	208.38
452.207	211.38
452.428	194.38
452.648	203.38
452.869	217.38
453.089	203.38
453.31	207.38
453.53	205.38
453.751	212.38
453.971	204.38
454.192	225.38
454.412	205.38
454.633	216.38
454.853	211.38
455.073	202.38
455.294	188.38
455.514	204.38
455.734	233.38
455.955	220.38
456.175	208.38
456.395	201.38
456.616	207.38
456.836	193.38
457.056	196.38
457.276	192.38
457.497	178.38
457.717	191.38
457.937	193.38
458.157	204.38
458.377	191.38
458.598	193.38
458.818	201.38
459.038	216.38
459.258	217.38
459.478	229.38
459.698	203.38
459.918	229.38
460.138	223.38
460.358	237.38
460.578	203.38
460.798	223.38
461.018	224.38
461.238	228.38
461.458	256.38
461.678	244.38
461.898	247.38
462.118	261.38
462.338	257.38
462.558	255.38
462.777	260.38
462.997	261.38
463.217	246.38
463.437	227.38
463.657	252.38
463.876	225.38
464.096	234.38
464.316	223.38
464.536	250.38
464.755	269.38
464.975	237.38
465.195	267.38
465.414	254.38
465.634	219.38
465.854	197.38
466.073	213.38
466.293	208.38
466.512	223.38
466.732	230.38
466.951	205.38
467.171	204.38
467.391	192.38
467.61	211.38
467.829	201.38
468.049	203.38
468.268	197.38
468.488	188.38
468.707	186.38
468.927	203.38
469.146	215.38
469.365	209.38
469.585	222.38
469.804	217.38
470.023	214.38
470.243	209.38
470.462	197.38
470.681	193.38
470.901	203.38
471.12	215.38
471.339	213.38
471.558	212.38
471.777	208.38
471.997	214.38
472.216	214.38
472.435	218.38
472.654	194.38
472.873	212.38
473.092	213.38
473.311	200.38
473.53	199.38
473.749	200.38
473.968	215.38
474.187	194.38
474.406	189.38
474.625	187.38
474.844	185.38
475.063	201.38
475.282	216.38
475.501	221.38
475.72	231.38
475.939	223.38
476.158	218.38
476.377	203.38
476.596	217.38
476.814	203.38
477.033	215.38
477.252	222.38
477.471	214.38
477.69	206.38
477.908	203.38
478.127	216.38
478.346	208.38
478.564	216.38
478.783	227.38
479.002	250.38
479.22	243.38
479.439	235.38
479.658	231.38
479.876	233.38
480.095	222.38
480.313	225.38
480.532	241.38
480.751	225.38
480.969	228.38
481.188	205.38
481.406	213.38
481.624	224.38
481.843	212.38
482.061	216.38
482.28	235.38
482.498	218.38
482.717	241.38
482.935	223.38
483.153	232.38
483.372	227.38
483.59	216.38
483.808	216.38
484.027	228.38
484.245	219.38
484.463	220.38
484.681	228.38
484.9	242.38
485.118	252.38
485.336	224.38
485.554	229.38
485.772	233.38
485.99	230.38
486.209	270.38
486.427	252.38
486.645	224.38
486.863	221.38
487.081	234.38
487.299	250.38
487.517	216.38
487.735	261.38
487.953	240.38
488.171	229.38
488.389	232.38
488.607	237.38
488.825	262.38
489.043	250.38
489.261	254.38
489.479	216.38
489.696	215.38
489.914	235.38
490.132	238.38
490.35	234.38
490.568	232.38
490.786	239.38
491.003	231.38
491.221	222.38
491.439	240.38
491.657	239.38
491.874	230.38
492.092	246.38
492.31	283.38
492.527	283.38
492.745	246.38
492.963	248.38
493.18	243.38
493.398	244.38
493.615	235.38
493.833	261.38
494.05	247.38
494.268	233.38
494.485	253.38
494.703	242.38
494.92	234.38
495.138	235.38
495.355	261.38
495.573	247.38
495.79	257.38
496.008	240.38
496.225	246.38
496.442	246.38
496.66	249.38
496.877	255.38
497.094	279.38
497.312	238.38
497.529	278.38
497.746	258.38
497.963	263.38
498.181	276.38
498.398	295.38
498.615	271.38
498.832	303.38
499.049	303.38
499.267	320.38
499.484	314.38
499.701	340.38
499.918	355.38
500.135	349.38
500.352	393.38
500.569	369.38
500.786	373.38
501.003	341.38
501.22	358.38
501.437	327.38
501.654	325.38
501.871	314.38
502.088	301.38
502.305	278.38
502.522	258.38
502.739	277.38
502.956	285.38
503.172	284.38
503.389	272.38
503.606	267.38
