Data from StA_HRD10591_007.txt Node
Date: Fri May 16 15:18:48 EDT 2025
User: Yrep
Spectrometer: HR+D1059
Trigger mode: 1
Integration Time (sec): 1.000000E-1
Scans to average: 1
Electric dark correction enabled: true
Nonlinearity correction enabled: false
Boxcar width: 0
XAxis mode: Wavelengths
Number of Pixels in Spectrum: 2048
>>>>>Begin Spectral Data<<<<<
223.165	-27.56
223.4	-27.56
223.635	-27.56
223.869	-14.56
224.104	-26.56
224.338	-22.56
224.573	-7.56
224.808	-12.56
225.042	-13.56
225.277	3.44
225.511	-8.56
225.746	0.44
225.98	16.44
226.215	19.44
226.449	17.44
226.683	24.44
226.918	17.44
227.152	34.44
227.387	40.44
227.621	27.44
227.856	36.44
228.09	44.44
228.324	55.44
228.559	40.44
228.793	51.44
229.027	81.44
229.262	89.44
229.496	73.44
229.73	66.44
229.964	76.44
230.199	87.44
230.433	82.44
230.667	81.44
230.901	86.44
231.136	91.44
231.37	90.44
231.604	100.44
231.838	91.44
232.072	93.44
232.306	83.44
232.541	106.44
232.775	92.44
233.009	91.44
233.243	86.44
233.477	91.44
233.711	69.44
233.945	87.44
234.179	87.44
234.413	87.44
234.647	92.44
234.881	92.44
235.115	81.44
235.349	85.44
235.583	109.44
235.817	94.44
236.051	85.44
236.285	71.44
236.519	93.44
236.753	87.44
236.987	100.44
237.221	87.44
237.455	84.44
237.689	86.44
237.922	89.44
238.156	92.44
238.39	90.44
238.624	81.44
238.858	95.44
239.091	89.44
239.325	83.44
239.559	90.44
239.793	98.44
240.027	93.44
240.26	78.44
240.494	91.44
240.728	94.44
240.961	100.44
241.195	103.44
241.429	91.44
241.662	77.44
241.896	91.44
242.13	79.44
242.363	101.44
242.597	91.44
242.83	95.44
243.064	92.44
243.298	97.44
243.531	90.44
243.765	76.44
243.998	92.44
244.232	86.44
244.465	95.44
244.699	106.44
244.932	114.44
245.166	111.44
245.399	110.44
245.633	117.44
245.866	101.44
246.099	101.44
246.333	110.44
246.566	106.44
246.8	109.44
247.033	105.44
247.266	121.44
247.5	97.44
247.733	116.44
247.966	92.44
248.2	111.44
248.433	116.44
248.666	113.44
248.899	120.44
249.133	120.44
249.366	122.44
249.599	124.44
249.832	125.44
250.066	119.44
250.299	125.44
250.532	113.44
250.765	115.44
250.998	105.44
251.231	117.44
251.465	126.44
251.698	128.44
251.931	118.44
252.164	142.44
252.397	142.44
252.63	144.44
252.863	132.44
253.096	153.44
253.329	133.44
253.562	138.44
253.795	137.44
254.028	148.44
254.261	141.44
254.494	148.44
254.727	138.44
254.96	122.44
255.193	141.44
255.426	140.44
255.659	127.44
255.892	141.44
256.124	155.44
256.357	150.44
256.59	157.44
256.823	154.44
257.056	134.44
257.289	154.44
257.521	156.44
257.754	142.44
257.987	138.44
258.22	137.44
258.452	155.44
258.685	168.44
258.918	158.44
259.151	155.44
259.383	163.44
259.616	145.44
259.849	150.44
260.081	146.44
260.314	152.44
260.547	143.44
260.779	153.44
261.012	157.44
261.244	178.44
261.477	183.44
261.71	155.44
261.942	164.44
262.175	163.44
262.407	165.44
262.64	171.44
262.872	187.44
263.105	189.44
263.337	167.44
263.57	165.44
263.802	149.44
264.035	161.44
264.267	181.44
264.499	171.44
264.732	148.44
264.964	159.44
265.197	196.44
265.429	183.44
265.661	204.44
265.894	207.44
266.126	242.44
266.358	257.44
266.591	284.44
266.823	280.44
267.055	268.44
267.287	269.44
267.52	300.44
267.752	323.44
267.984	333.44
268.216	259.44
268.448	201.44
268.681	217.44
268.913	241.44
269.145	249.44
269.377	254.44
269.609	243.44
269.841	270.44
270.073	281.44
270.306	249.44
270.538	231.44
270.77	222.44
271.002	218.44
271.234	233.44
271.466	230.44
271.698	215.44
271.93	219.44
272.162	249.44
272.394	239.44
272.626	240.44
272.858	209.44
273.09	191.44
273.322	173.44
273.553	185.44
273.785	201.44
274.017	227.44
274.249	257.44
274.481	277.44
274.713	284.44
274.945	320.44
275.176	341.44
275.408	323.44
275.64	315.44
275.872	331.44
276.104	385.44
276.335	398.44
276.567	404.44
276.799	367.44
277.031	341.44
277.262	266.44
277.494	244.44
277.726	254.44
277.957	279.44
278.189	291.44
278.421	263.44
278.652	257.44
278.884	280.44
279.115	277.44
279.347	262.44
279.579	243.44
279.81	234.44
280.042	267.44
280.273	255.44
280.505	265.44
280.736	221.44
280.968	250.44
281.199	286.44
281.431	299.44
281.662	265.44
281.894	298.44
282.125	341.44
282.356	350.44
282.588	326.44
282.819	319.44
283.051	368.44
283.282	427.44
283.513	475.44
283.745	505.44
283.976	461.44
284.207	471.44
284.439	465.44
284.67	451.44
284.901	422.44
285.132	474.44
285.364	453.44
285.595	438.44
285.826	457.44
286.057	461.44
286.288	482.44
286.52	469.44
286.751	515.44
286.982	454.44
287.213	399.44
287.444	414.44
287.675	422.44
287.906	378.44
288.138	334.44
288.369	297.44
288.6	280.44
288.831	319.44
289.062	394.44
289.293	379.44
289.524	393.44
289.755	393.44
289.986	379.44
290.217	309.44
290.448	265.44
290.679	240.44
290.91	244.44
291.141	254.44
291.371	261.44
291.602	255.44
291.833	271.44
292.064	279.44
292.295	342.44
292.526	349.44
292.757	371.44
292.987	367.44
293.218	330.44
293.449	342.44
293.68	318.44
293.91	282.44
294.141	249.44
294.372	251.44
294.603	254.44
294.833	245.44
295.064	250.44
295.295	247.44
295.525	235.44
295.756	236.44
295.987	218.44
296.217	221.44
296.448	235.44
296.679	235.44
296.909	251.44
297.14	293.44
297.37	332.44
297.601	306.44
297.831	299.44
298.062	315.44
298.292	327.44
298.523	328.44
298.753	339.44
298.984	319.44
299.214	280.44
299.445	247.44
299.675	220.44
299.905	221.44
300.136	207.44
300.366	201.44
300.597	200.44
300.827	202.44
301.057	212.44
301.288	226.44
301.518	269.44
301.748	309.44
301.979	277.44
302.209	258.44
302.439	261.44
302.669	252.44
302.9	289.44
303.13	260.44
303.36	243.44
303.59	238.44
303.82	245.44
304.051	283.44
304.281	312.44
304.511	290.44
304.741	271.44
304.971	291.44
305.201	312.44
305.431	258.44
305.661	222.44
305.891	202.44
306.121	210.44
306.352	197.44
306.582	184.44
306.812	179.44
307.042	189.44
307.272	194.44
307.502	192.44
307.731	184.44
307.961	210.44
308.191	188.44
308.421	205.44
308.651	185.44
308.881	197.44
309.111	204.44
309.341	203.44
309.571	238.44
309.8	225.44
310.03	201.44
310.26	200.44
310.49	203.44
310.72	229.44
310.949	237.44
311.179	230.44
311.409	278.44
311.639	334.44
311.868	435.44
312.098	500.44
312.328	503.44
312.557	511.44
312.787	481.44
313.017	454.44
313.246	493.44
313.476	479.44
313.706	361.44
313.935	305.44
314.165	268.44
314.394	262.44
314.624	257.44
314.853	268.44
315.083	263.44
315.312	253.44
315.542	224.44
315.771	199.44
316.001	209.44
316.23	194.44
316.46	188.44
316.689	197.44
316.919	180.44
317.148	205.44
317.377	213.44
317.607	227.44
317.836	241.44
318.065	266.44
318.295	289.44
318.524	245.44
318.753	193.44
318.983	206.44
319.212	209.44
319.441	236.44
319.67	263.44
319.9	262.44
320.129	253.44
320.358	212.44
320.587	229.44
320.816	245.44
321.046	250.44
321.275	261.44
321.504	231.44
321.733	244.44
321.962	238.44
322.191	202.44
322.42	192.44
322.649	230.44
322.878	209.44
323.108	192.44
323.337	222.44
323.566	247.44
323.795	218.44
324.024	207.44
324.253	212.44
324.482	192.44
324.71	184.44
324.939	189.44
325.168	183.44
325.397	179.44
325.626	212.44
325.855	177.44
326.084	184.44
326.313	208.44
326.542	201.44
326.77	202.44
326.999	205.44
327.228	214.44
327.457	197.44
327.686	168.44
327.914	195.44
328.143	181.44
328.372	197.44
328.6	190.44
328.829	183.44
329.058	185.44
329.287	219.44
329.515	215.44
329.744	209.44
329.972	200.44
330.201	207.44
330.43	214.44
330.658	224.44
330.887	256.44
331.115	233.44
331.344	259.44
331.572	231.44
331.801	215.44
332.03	216.44
332.258	241.44
332.486	227.44
332.715	247.44
332.943	236.44
333.172	233.44
333.4	239.44
333.629	292.44
333.857	281.44
334.085	279.44
334.314	274.44
334.542	260.44
334.771	231.44
334.999	247.44
335.227	247.44
335.455	270.44
335.684	276.44
335.912	325.44
336.14	341.44
336.369	297.44
336.597	319.44
336.825	365.44
337.053	343.44
337.281	268.44
337.51	233.44
337.738	259.44
337.966	282.44
338.194	265.44
338.422	235.44
338.65	215.44
338.878	212.44
339.106	226.44
339.334	238.44
339.562	251.44
339.79	230.44
340.018	242.44
340.246	276.44
340.474	297.44
340.702	279.44
340.93	293.44
341.158	273.44
341.386	213.44
341.614	221.44
341.842	252.44
342.07	304.44
342.298	333.44
342.526	268.44
342.754	211.44
342.981	223.44
343.209	232.44
343.437	262.44
343.665	217.44
343.893	209.44
344.12	208.44
344.348	213.44
344.576	201.44
344.804	202.44
345.031	187.44
345.259	194.44
345.487	203.44
345.714	205.44
345.942	185.44
346.17	193.44
346.397	197.44
346.625	180.44
346.853	178.44
347.08	188.44
347.308	190.44
347.535	180.44
347.763	177.44
347.99	164.44
348.218	170.44
348.445	154.44
348.673	188.44
348.9	176.44
349.128	173.44
349.355	187.44
349.583	187.44
349.81	196.44
350.037	169.44
350.265	159.44
350.492	163.44
350.72	173.44
350.947	180.44
351.174	167.44
351.402	198.44
351.629	165.44
351.856	195.44
352.083	176.44
352.311	165.44
352.538	189.44
352.765	188.44
352.992	178.44
353.22	179.44
353.447	188.44
353.674	183.44
353.901	177.44
354.128	186.44
354.355	170.44
354.583	188.44
354.81	181.44
355.037	196.44
355.264	186.44
355.491	193.44
355.718	158.44
355.945	199.44
356.172	194.44
356.399	217.44
356.626	201.44
356.853	207.44
357.08	191.44
357.307	209.44
357.534	233.44
357.761	269.44
357.988	319.44
358.215	263.44
358.441	240.44
358.668	247.44
358.895	239.44
359.122	249.44
359.349	288.44
359.576	279.44
359.802	220.44
360.029	206.44
360.256	241.44
360.483	267.44
360.709	270.44
360.936	221.44
361.163	195.44
361.39	189.44
361.616	171.44
361.843	159.44
362.07	189.44
362.296	184.44
362.523	175.44
362.749	181.44
362.976	181.44
363.203	196.44
363.429	218.44
363.656	187.44
363.882	198.44
364.109	233.44
364.335	208.44
364.562	177.44
364.788	205.44
365.015	201.44
365.241	189.44
365.468	187.44
365.694	199.44
365.92	198.44
366.147	171.44
366.373	204.44
366.599	189.44
366.826	191.44
367.052	179.44
367.278	168.44
367.505	195.44
367.731	197.44
367.957	192.44
368.184	185.44
368.41	203.44
368.636	169.44
368.862	199.44
369.089	169.44
369.315	173.44
369.541	172.44
369.767	181.44
369.993	186.44
370.219	170.44
370.445	178.44
370.672	195.44
370.898	197.44
371.124	179.44
371.35	184.44
371.576	199.44
371.802	189.44
372.028	171.44
372.254	196.44
372.48	196.44
372.706	186.44
372.932	179.44
373.158	181.44
373.384	170.44
373.61	177.44
373.835	181.44
374.061	182.44
374.287	210.44
374.513	213.44
374.739	212.44
374.965	205.44
375.191	192.44
375.416	189.44
375.642	179.44
375.868	190.44
376.094	195.44
376.319	183.44
376.545	175.44
376.771	190.44
376.997	195.44
377.222	184.44
377.448	183.44
377.674	187.44
377.899	179.44
378.125	188.44
378.35	179.44
378.576	178.44
378.802	189.44
379.027	197.44
379.253	185.44
379.478	188.44
379.704	191.44
379.929	181.44
380.155	190.44
380.38	180.44
380.606	206.44
380.831	173.44
381.057	196.44
381.282	172.44
381.507	196.44
381.733	187.44
381.958	199.44
382.184	207.44
382.409	197.44
382.634	202.44
382.86	184.44
383.085	205.44
383.31	195.44
383.535	198.44
383.761	207.44
383.986	201.44
384.211	212.44
384.436	205.44
384.662	203.44
384.887	214.44
385.112	221.44
385.337	223.44
385.562	215.44
385.787	238.44
386.013	232.44
386.238	213.44
386.463	202.44
386.688	220.44
386.913	202.44
387.138	204.44
387.363	211.44
387.588	216.44
387.813	192.44
388.038	214.44
388.263	209.44
388.488	215.44
388.713	222.44
388.938	203.44
389.163	197.44
389.387	211.44
389.612	202.44
389.837	211.44
390.062	212.44
390.287	187.44
390.512	213.44
390.736	198.44
390.961	209.44
391.186	222.44
391.411	213.44
391.636	208.44
391.86	231.44
392.085	215.44
392.31	203.44
392.534	220.44
392.759	208.44
392.984	198.44
393.208	215.44
393.433	201.44
393.658	205.44
393.882	211.44
394.107	212.44
394.331	201.44
394.556	190.44
394.78	200.44
395.005	195.44
395.229	199.44
395.454	214.44
395.678	188.44
395.903	206.44
396.127	220.44
396.352	235.44
396.576	229.44
396.801	227.44
397.025	255.44
397.249	219.44
397.474	223.44
397.698	237.44
397.922	225.44
398.147	233.44
398.371	233.44
398.595	249.44
398.82	253.44
399.044	237.44
399.268	262.44
399.492	247.44
399.717	260.44
399.941	242.44
400.165	234.44
400.389	243.44
400.613	231.44
400.837	228.44
401.062	209.44
401.286	221.44
401.51	214.44
401.734	210.44
401.958	197.44
402.182	204.44
402.406	234.44
402.63	212.44
402.854	205.44
403.078	213.44
403.302	207.44
403.526	210.44
403.75	218.44
403.974	254.44
404.198	214.44
404.422	223.44
404.645	225.44
404.869	222.44
405.093	229.44
405.317	222.44
405.541	230.44
405.765	237.44
405.988	232.44
406.212	222.44
406.436	222.44
406.66	216.44
406.883	238.44
407.107	229.44
407.331	225.44
407.555	234.44
407.778	261.44
408.002	226.44
408.226	216.44
408.449	233.44
408.673	217.44
408.896	215.44
409.12	220.44
409.344	227.44
409.567	207.44
409.791	202.44
410.014	229.44
410.238	229.44
410.461	213.44
410.685	218.44
410.908	233.44
411.132	216.44
411.355	230.44
411.578	231.44
411.802	210.44
412.025	202.44
412.249	236.44
412.472	238.44
412.695	241.44
412.919	242.44
413.142	222.44
413.365	213.44
413.589	209.44
413.812	213.44
414.035	205.44
414.258	206.44
414.482	219.44
414.705	216.44
414.928	212.44
415.151	192.44
415.374	213.44
415.597	218.44
415.821	213.44
416.044	199.44
416.267	218.44
416.49	216.44
416.713	203.44
416.936	195.44
417.159	213.44
417.382	191.44
417.605	213.44
417.828	217.44
418.051	215.44
418.274	201.44
418.497	201.44
418.72	194.44
418.943	209.44
419.166	226.44
419.389	229.44
419.611	230.44
419.834	221.44
420.057	211.44
420.28	206.44
420.503	204.44
420.726	203.44
420.948	213.44
421.171	220.44
421.394	199.44
421.617	205.44
421.839	208.44
422.062	217.44
422.285	217.44
422.507	199.44
422.73	217.44
422.953	233.44
423.175	199.44
423.398	205.44
423.621	212.44
423.843	203.44
424.066	208.44
424.288	215.44
424.511	214.44
424.733	225.44
424.956	216.44
425.178	256.44
425.401	309.44
425.623	339.44
425.846	261.44
426.068	226.44
426.291	223.44
426.513	238.44
426.735	232.44
426.958	235.44
427.18	251.44
427.402	308.44
427.625	333.44
427.847	266.44
428.069	219.44
428.292	210.44
428.514	216.44
428.736	229.44
428.958	289.44
429.181	301.44
429.403	236.44
429.625	231.44
429.847	214.44
430.069	211.44
430.292	217.44
430.514	224.44
430.736	218.44
430.958	199.44
431.18	201.44
431.402	199.44
431.624	197.44
431.846	204.44
432.068	204.44
432.29	217.44
432.512	201.44
432.734	214.44
432.956	213.44
433.178	187.44
433.4	194.44
433.622	217.44
433.844	247.44
434.066	293.44
434.287	235.44
434.509	263.44
434.731	255.44
434.953	233.44
435.175	252.44
435.397	253.44
435.618	213.44
435.84	213.44
436.062	210.44
436.284	205.44
436.505	211.44
436.727	204.44
436.949	214.44
437.17	203.44
437.392	225.44
437.614	209.44
437.835	211.44
438.057	188.44
438.278	201.44
438.5	231.44
438.721	231.44
438.943	205.44
439.165	183.44
439.386	194.44
439.608	197.44
439.829	195.44
440.05	213.44
440.272	203.44
440.493	192.44
440.715	201.44
440.936	216.44
441.158	208.44
441.379	202.44
441.6	231.44
441.822	207.44
442.043	213.44
442.264	212.44
442.486	227.44
442.707	221.44
442.928	225.44
443.149	222.44
443.371	212.44
443.592	209.44
443.813	206.44
444.034	213.44
444.255	218.44
444.476	235.44
444.698	218.44
444.919	213.44
445.14	309.44
445.361	257.44
445.582	225.44
445.803	223.44
446.024	209.44
446.245	221.44
446.466	210.44
446.687	204.44
446.908	203.44
447.129	213.44
447.35	193.44
447.571	204.44
447.792	192.44
448.013	197.44
448.234	200.44
448.455	199.44
448.675	206.44
448.896	201.44
449.117	197.44
449.338	197.44
449.559	195.44
449.779	229.44
450	232.44
450.221	215.44
450.442	198.44
450.662	196.44
450.883	195.44
451.104	209.44
451.324	207.44
451.545	202.44
451.766	199.44
451.986	211.44
452.207	185.44
452.428	189.44
452.648	201.44
452.869	198.44
453.089	202.44
453.31	219.44
453.53	210.44
453.751	200.44
453.971	189.44
454.192	213.44
454.412	186.44
454.633	197.44
454.853	197.44
455.073	193.44
455.294	206.44
455.514	189.44
455.734	202.44
455.955	219.44
456.175	204.44
456.395	202.44
456.616	212.44
456.836	179.44
457.056	183.44
457.276	198.44
457.497	188.44
457.717	201.44
457.937	205.44
458.157	202.44
458.377	209.44
458.598	202.44
458.818	202.44
459.038	204.44
459.258	234.44
459.478	212.44
459.698	225.44
459.918	202.44
460.138	214.44
460.358	209.44
460.578	210.44
460.798	212.44
461.018	205.44
461.238	231.44
461.458	245.44
461.678	245.44
461.898	255.44
462.118	260.44
462.338	232.44
462.558	257.44
462.777	255.44
462.997	246.44
463.217	254.44
463.437	230.44
463.657	218.44
463.876	248.44
464.096	241.44
464.316	235.44
464.536	228.44
464.755	243.44
464.975	243.44
465.195	266.44
465.414	249.44
465.634	209.44
465.854	205.44
466.073	202.44
466.293	208.44
466.512	201.44
466.732	207.44
466.951	206.44
467.171	189.44
467.391	205.44
467.61	195.44
467.829	186.44
468.049	194.44
468.268	190.44
468.488	177.44
468.707	183.44
468.927	194.44
469.146	206.44
469.365	203.44
469.585	193.44
469.804	190.44
470.023	215.44
470.243	198.44
470.462	205.44
470.681	212.44
470.901	204.44
471.12	204.44
471.339	195.44
471.558	204.44
471.777	205.44
471.997	203.44
472.216	197.44
472.435	197.44
472.654	208.44
472.873	204.44
473.092	208.44
473.311	207.44
473.53	215.44
473.749	206.44
473.968	203.44
474.187	203.44
474.406	189.44
474.625	191.44
474.844	202.44
475.063	209.44
475.282	217.44
475.501	211.44
475.72	221.44
475.939	212.44
476.158	196.44
476.377	216.44
476.596	215.44
476.814	216.44
477.033	200.44
477.252	203.44
477.471	188.44
477.69	223.44
477.908	202.44
478.127	231.44
478.346	213.44
478.564	221.44
478.783	218.44
479.002	231.44
479.22	241.44
479.439	247.44
479.658	225.44
479.876	203.44
480.095	217.44
480.313	243.44
480.532	217.44
480.751	220.44
480.969	223.44
481.188	204.44
481.406	214.44
481.624	222.44
481.843	210.44
482.061	217.44
482.28	217.44
482.498	235.44
482.717	232.44
482.935	226.44
483.153	233.44
483.372	233.44
483.59	245.44
483.808	224.44
484.027	199.44
484.245	211.44
484.463	219.44
484.681	210.44
484.9	218.44
485.118	210.44
485.336	223.44
485.554	232.44
485.772	216.44
485.99	226.44
486.209	230.44
486.427	239.44
486.645	236.44
486.863	239.44
487.081	247.44
487.299	245.44
487.517	233.44
487.735	215.44
487.953	208.44
488.171	227.44
488.389	225.44
488.607	238.44
488.825	253.44
489.043	245.44
489.261	234.44
489.479	234.44
489.696	229.44
489.914	231.44
490.132	236.44
490.35	230.44
490.568	229.44
490.786	221.44
491.003	248.44
491.221	239.44
491.439	235.44
491.657	245.44
491.874	227.44
492.092	243.44
492.31	279.44
492.527	246.44
492.745	220.44
492.963	240.44
493.18	237.44
493.398	238.44
493.615	242.44
493.833	254.44
494.05	239.44
494.268	232.44
494.485	233.44
494.703	238.44
494.92	242.44
495.138	240.44
495.355	233.44
495.573	261.44
495.79	247.44
496.008	245.44
496.225	252.44
496.442	243.44
496.66	263.44
496.877	252.44
497.094	263.44
497.312	258.44
497.529	250.44
497.746	244.44
497.963	266.44
498.181	271.44
498.398	267.44
498.615	292.44
498.832	295.44
499.049	301.44
499.267	303.44
499.484	315.44
499.701	345.44
499.918	346.44
500.135	368.44
500.352	385.44
500.569	383.44
500.786	373.44
501.003	365.44
501.22	325.44
501.437	336.44
501.654	323.44
501.871	296.44
502.088	275.44
502.305	275.44
502.522	273.44
502.739	277.44
502.956	291.44
503.172	267.44
503.389	280.44
503.606	269.44
