Data from StA_HRD10591_025.txt Node
Date: Fri May 16 15:18:56 EDT 2025
User: Yrep
Spectrometer: HR+D1059
Trigger mode: 1
Integration Time (sec): 1.000000E-1
Scans to average: 1
Electric dark correction enabled: true
Nonlinearity correction enabled: false
Boxcar width: 0
XAxis mode: Wavelengths
Number of Pixels in Spectrum: 2048
>>>>>Begin Spectral Data<<<<<
223.165	-7.25
223.4	-7.25
223.635	-7.25
223.869	-27.25
224.104	-10.25
224.338	-16.25
224.573	-23.25
224.808	5.75
225.042	-15.25
225.277	-22.25
225.511	-2.25
225.746	9.75
225.98	-5.25
226.215	9.75
226.449	22.75
226.683	20.75
226.918	29.75
227.152	30.75
227.387	33.75
227.621	21.75
227.856	49.75
228.09	45.75
228.324	52.75
228.559	43.75
228.793	55.75
229.027	54.75
229.262	68.75
229.496	72.75
229.73	69.75
229.964	71.75
230.199	72.75
230.433	66.75
230.667	84.75
230.901	73.75
231.136	76.75
231.37	70.75
231.604	89.75
231.838	102.75
232.072	88.75
232.306	84.75
232.541	69.75
232.775	72.75
233.009	75.75
233.243	88.75
233.477	85.75
233.711	71.75
233.945	76.75
234.179	86.75
234.413	84.75
234.647	83.75
234.881	73.75
235.115	69.75
235.349	86.75
235.583	81.75
235.817	69.75
236.051	69.75
236.285	74.75
236.519	76.75
236.753	74.75
236.987	74.75
237.221	71.75
237.455	81.75
237.689	72.75
237.922	88.75
238.156	72.75
238.39	68.75
238.624	72.75
238.858	72.75
239.091	65.75
239.325	63.75
239.559	91.75
239.793	75.75
240.027	80.75
240.26	77.75
240.494	81.75
240.728	66.75
240.961	69.75
241.195	89.75
241.429	74.75
241.662	78.75
241.896	65.75
242.13	77.75
242.363	66.75
242.597	76.75
242.83	76.75
243.064	71.75
243.298	66.75
243.531	72.75
243.765	79.75
243.998	82.75
244.232	74.75
244.465	73.75
244.699	71.75
244.932	75.75
245.166	89.75
245.399	90.75
245.633	72.75
245.866	88.75
246.099	78.75
246.333	74.75
246.566	74.75
246.8	84.75
247.033	62.75
247.266	80.75
247.5	70.75
247.733	74.75
247.966	78.75
248.2	84.75
248.433	90.75
248.666	81.75
248.899	92.75
249.133	60.75
249.366	88.75
249.599	75.75
249.832	70.75
250.066	82.75
250.299	83.75
250.532	82.75
250.765	70.75
250.998	75.75
251.231	66.75
251.465	78.75
251.698	79.75
251.931	89.75
252.164	78.75
252.397	80.75
252.63	75.75
252.863	72.75
253.096	76.75
253.329	75.75
253.562	90.75
253.795	79.75
254.028	78.75
254.261	64.75
254.494	78.75
254.727	70.75
254.96	64.75
255.193	84.75
255.426	87.75
255.659	82.75
255.892	82.75
256.124	77.75
256.357	68.75
256.59	72.75
256.823	86.75
257.056	68.75
257.289	88.75
257.521	82.75
257.754	78.75
257.987	84.75
258.22	76.75
258.452	81.75
258.685	88.75
258.918	77.75
259.151	78.75
259.383	86.75
259.616	85.75
259.849	81.75
260.081	89.75
260.314	98.75
260.547	80.75
260.779	64.75
261.012	89.75
261.244	73.75
261.477	98.75
261.71	82.75
261.942	70.75
262.175	77.75
262.407	82.75
262.64	87.75
262.872	80.75
263.105	76.75
263.337	84.75
263.57	75.75
263.802	62.75
264.035	81.75
264.267	70.75
264.499	100.75
264.732	87.75
264.964	85.75
265.197	80.75
265.429	76.75
265.661	74.75
265.894	83.75
266.126	86.75
266.358	81.75
266.591	89.75
266.823	82.75
267.055	79.75
267.287	89.75
267.52	85.75
267.752	90.75
267.984	88.75
268.216	82.75
268.448	80.75
268.681	90.75
268.913	86.75
269.145	84.75
269.377	90.75
269.609	89.75
269.841	81.75
270.073	89.75
270.306	73.75
270.538	79.75
270.77	81.75
271.002	89.75
271.234	76.75
271.466	81.75
271.698	84.75
271.93	88.75
272.162	74.75
272.394	85.75
272.626	73.75
272.858	84.75
273.09	79.75
273.322	85.75
273.553	85.75
273.785	95.75
274.017	91.75
274.249	70.75
274.481	85.75
274.713	81.75
274.945	96.75
275.176	81.75
275.408	81.75
275.64	82.75
275.872	100.75
276.104	84.75
276.335	92.75
276.567	99.75
276.799	77.75
277.031	86.75
277.262	85.75
277.494	80.75
277.726	76.75
277.957	79.75
278.189	86.75
278.421	89.75
278.652	87.75
278.884	73.75
279.115	97.75
279.347	88.75
279.579	83.75
279.81	84.75
280.042	90.75
280.273	94.75
280.505	89.75
280.736	81.75
280.968	98.75
281.199	86.75
281.431	81.75
281.662	84.75
281.894	94.75
282.125	74.75
282.356	70.75
282.588	80.75
282.819	100.75
283.051	94.75
283.282	93.75
283.513	90.75
283.745	65.75
283.976	86.75
284.207	100.75
284.439	89.75
284.67	95.75
284.901	86.75
285.132	80.75
285.364	82.75
285.595	88.75
285.826	97.75
286.057	86.75
286.288	92.75
286.52	89.75
286.751	94.75
286.982	82.75
287.213	79.75
287.444	97.75
287.675	100.75
287.906	97.75
288.138	89.75
288.369	92.75
288.6	80.75
288.831	83.75
289.062	96.75
289.293	102.75
289.524	95.75
289.755	89.75
289.986	84.75
290.217	81.75
290.448	91.75
290.679	108.75
290.91	98.75
291.141	84.75
291.371	93.75
291.602	94.75
291.833	70.75
292.064	89.75
292.295	86.75
292.526	84.75
292.757	99.75
292.987	88.75
293.218	88.75
293.449	93.75
293.68	86.75
293.91	87.75
294.141	82.75
294.372	90.75
294.603	80.75
294.833	86.75
295.064	84.75
295.295	72.75
295.525	88.75
295.756	85.75
295.987	88.75
296.217	80.75
296.448	84.75
296.679	75.75
296.909	76.75
297.14	76.75
297.37	94.75
297.601	93.75
297.831	84.75
298.062	87.75
298.292	89.75
298.523	92.75
298.753	90.75
298.984	97.75
299.214	81.75
299.445	83.75
299.675	92.75
299.905	102.75
300.136	91.75
300.366	80.75
300.597	93.75
300.827	82.75
301.057	94.75
301.288	92.75
301.518	92.75
301.748	98.75
301.979	104.75
302.209	83.75
302.439	90.75
302.669	86.75
302.9	88.75
303.13	103.75
303.36	92.75
303.59	91.75
303.82	107.75
304.051	91.75
304.281	107.75
304.511	85.75
304.741	94.75
304.971	85.75
305.201	88.75
305.431	89.75
305.661	95.75
305.891	93.75
306.121	88.75
306.352	84.75
306.582	75.75
306.812	75.75
307.042	87.75
307.272	78.75
307.502	89.75
307.731	86.75
307.961	80.75
308.191	81.75
308.421	81.75
308.651	86.75
308.881	79.75
309.111	85.75
309.341	95.75
309.571	84.75
309.8	86.75
310.03	71.75
310.26	72.75
310.49	83.75
310.72	82.75
310.949	78.75
311.179	85.75
311.409	79.75
311.639	86.75
311.868	88.75
312.098	85.75
312.328	73.75
312.557	90.75
312.787	92.75
313.017	85.75
313.246	105.75
313.476	96.75
313.706	85.75
313.935	69.75
314.165	91.75
314.394	85.75
314.624	93.75
314.853	79.75
315.083	88.75
315.312	85.75
315.542	83.75
315.771	88.75
316.001	84.75
316.23	73.75
316.46	82.75
316.689	87.75
316.919	92.75
317.148	86.75
317.377	92.75
317.607	104.75
317.836	76.75
318.065	100.75
318.295	86.75
318.524	83.75
318.753	95.75
318.983	76.75
319.212	86.75
319.441	96.75
319.67	81.75
319.9	88.75
320.129	88.75
320.358	96.75
320.587	86.75
320.816	80.75
321.046	95.75
321.275	94.75
321.504	85.75
321.733	81.75
321.962	84.75
322.191	88.75
322.42	70.75
322.649	90.75
322.878	91.75
323.108	85.75
323.337	86.75
323.566	86.75
323.795	80.75
324.024	84.75
324.253	81.75
324.482	79.75
324.71	76.75
324.939	89.75
325.168	82.75
325.397	76.75
325.626	81.75
325.855	83.75
326.084	89.75
326.313	93.75
326.542	102.75
326.77	84.75
326.999	77.75
327.228	85.75
327.457	90.75
327.686	94.75
327.914	82.75
328.143	96.75
328.372	83.75
328.6	104.75
328.829	94.75
329.058	88.75
329.287	77.75
329.515	86.75
329.744	71.75
329.972	91.75
330.201	78.75
330.43	90.75
330.658	88.75
330.887	78.75
331.115	87.75
331.344	81.75
331.572	84.75
331.801	81.75
332.03	92.75
332.258	93.75
332.486	80.75
332.715	77.75
332.943	78.75
333.172	96.75
333.4	83.75
333.629	87.75
333.857	97.75
334.085	95.75
334.314	79.75
334.542	96.75
334.771	95.75
334.999	79.75
335.227	80.75
335.455	74.75
335.684	98.75
335.912	97.75
336.14	101.75
336.369	97.75
336.597	83.75
336.825	78.75
337.053	71.75
337.281	78.75
337.51	106.75
337.738	95.75
337.966	89.75
338.194	86.75
338.422	78.75
338.65	86.75
338.878	89.75
339.106	82.75
339.334	85.75
339.562	91.75
339.79	82.75
340.018	82.75
340.246	86.75
340.474	100.75
340.702	86.75
340.93	81.75
341.158	88.75
341.386	91.75
341.614	81.75
341.842	78.75
342.07	79.75
342.298	87.75
342.526	76.75
342.754	75.75
342.981	84.75
343.209	94.75
343.437	94.75
343.665	92.75
343.893	83.75
344.12	80.75
344.348	86.75
344.576	87.75
344.804	85.75
345.031	88.75
345.259	80.75
345.487	80.75
345.714	82.75
345.942	81.75
346.17	87.75
346.397	91.75
346.625	88.75
346.853	92.75
347.08	87.75
347.308	79.75
347.535	91.75
347.763	73.75
347.99	81.75
348.218	76.75
348.445	79.75
348.673	93.75
348.9	84.75
349.128	84.75
349.355	85.75
349.583	78.75
349.81	75.75
350.037	74.75
350.265	84.75
350.492	77.75
350.72	83.75
350.947	90.75
351.174	72.75
351.402	84.75
351.629	88.75
351.856	88.75
352.083	81.75
352.311	86.75
352.538	85.75
352.765	77.75
352.992	88.75
353.22	80.75
353.447	79.75
353.674	82.75
353.901	92.75
354.128	85.75
354.355	82.75
354.583	88.75
354.81	88.75
355.037	92.75
355.264	96.75
355.491	84.75
355.718	87.75
355.945	75.75
356.172	84.75
356.399	89.75
356.626	83.75
356.853	87.75
357.08	80.75
357.307	81.75
357.534	95.75
357.761	112.75
357.988	125.75
358.215	106.75
358.441	85.75
358.668	89.75
358.895	93.75
359.122	100.75
359.349	100.75
359.576	97.75
359.802	70.75
360.029	96.75
360.256	99.75
360.483	118.75
360.709	120.75
360.936	92.75
361.163	90.75
361.39	86.75
361.616	83.75
361.843	77.75
362.07	80.75
362.296	85.75
362.523	95.75
362.749	85.75
362.976	84.75
363.203	96.75
363.429	77.75
363.656	86.75
363.882	100.75
364.109	97.75
364.335	93.75
364.562	69.75
364.788	82.75
365.015	68.75
365.241	95.75
365.468	72.75
365.694	77.75
365.92	87.75
366.147	98.75
366.373	71.75
366.599	75.75
366.826	89.75
367.052	77.75
367.278	80.75
367.505	62.75
367.731	86.75
367.957	90.75
368.184	80.75
368.41	81.75
368.636	83.75
368.862	77.75
369.089	80.75
369.315	80.75
369.541	76.75
369.767	91.75
369.993	77.75
370.219	76.75
370.445	91.75
370.672	86.75
370.898	94.75
371.124	81.75
371.35	91.75
371.576	85.75
371.802	83.75
372.028	85.75
372.254	89.75
372.48	86.75
372.706	71.75
372.932	80.75
373.158	94.75
373.384	84.75
373.61	90.75
373.835	84.75
374.061	101.75
374.287	94.75
374.513	104.75
374.739	84.75
374.965	104.75
375.191	88.75
375.416	67.75
375.642	81.75
375.868	92.75
376.094	86.75
376.319	85.75
376.545	78.75
376.771	92.75
376.997	90.75
377.222	103.75
377.448	86.75
377.674	86.75
377.899	80.75
378.125	84.75
378.35	83.75
378.576	85.75
378.802	93.75
379.027	88.75
379.253	81.75
379.478	78.75
379.704	94.75
379.929	76.75
380.155	84.75
380.38	82.75
380.606	88.75
380.831	78.75
381.057	79.75
381.282	77.75
381.507	90.75
381.733	90.75
381.958	79.75
382.184	78.75
382.409	98.75
382.634	95.75
382.86	85.75
383.085	96.75
383.31	93.75
383.535	93.75
383.761	84.75
383.986	100.75
384.211	91.75
384.436	84.75
384.662	91.75
384.887	66.75
385.112	84.75
385.337	100.75
385.562	86.75
385.787	89.75
386.013	85.75
386.238	78.75
386.463	95.75
386.688	81.75
386.913	86.75
387.138	84.75
387.363	83.75
387.588	89.75
387.813	88.75
388.038	72.75
388.263	85.75
388.488	89.75
388.713	76.75
388.938	80.75
389.163	88.75
389.387	98.75
389.612	84.75
389.837	82.75
390.062	70.75
390.287	97.75
390.512	88.75
390.736	99.75
390.961	92.75
391.186	86.75
391.411	88.75
391.636	85.75
391.86	85.75
392.085	87.75
392.31	84.75
392.534	87.75
392.759	83.75
392.984	91.75
393.208	97.75
393.433	82.75
393.658	70.75
393.882	91.75
394.107	81.75
394.331	86.75
394.556	88.75
394.78	80.75
395.005	87.75
395.229	70.75
395.454	88.75
395.678	78.75
395.903	80.75
396.127	95.75
396.352	91.75
396.576	104.75
396.801	81.75
397.025	87.75
397.249	96.75
397.474	98.75
397.698	93.75
397.922	87.75
398.147	89.75
398.371	86.75
398.595	96.75
398.82	75.75
399.044	81.75
399.268	84.75
399.492	94.75
399.717	85.75
399.941	90.75
400.165	101.75
400.389	88.75
400.613	92.75
400.837	77.75
401.062	88.75
401.286	66.75
401.51	71.75
401.734	77.75
401.958	70.75
402.182	85.75
402.406	82.75
402.63	85.75
402.854	84.75
403.078	77.75
403.302	85.75
403.526	92.75
403.75	85.75
403.974	90.75
404.198	79.75
404.422	86.75
404.645	79.75
404.869	82.75
405.093	92.75
405.317	69.75
405.541	81.75
405.765	88.75
405.988	70.75
406.212	95.75
406.436	78.75
406.66	85.75
406.883	95.75
407.107	71.75
407.331	74.75
407.555	88.75
407.778	72.75
408.002	76.75
408.226	83.75
408.449	84.75
408.673	80.75
408.896	65.75
409.12	79.75
409.344	77.75
409.567	82.75
409.791	72.75
410.014	77.75
410.238	88.75
410.461	77.75
410.685	74.75
410.908	82.75
411.132	93.75
411.355	92.75
411.578	80.75
411.802	86.75
412.025	86.75
412.249	84.75
412.472	86.75
412.695	80.75
412.919	82.75
413.142	71.75
413.365	94.75
413.589	79.75
413.812	75.75
414.035	88.75
414.258	83.75
414.482	68.75
414.705	80.75
414.928	88.75
415.151	75.75
415.374	81.75
415.597	87.75
415.821	83.75
416.044	77.75
416.267	84.75
416.49	89.75
416.713	80.75
416.936	73.75
417.159	100.75
417.382	76.75
417.605	79.75
417.828	76.75
418.051	85.75
418.274	89.75
418.497	92.75
418.72	70.75
418.943	74.75
419.166	80.75
419.389	86.75
419.611	91.75
419.834	77.75
420.057	79.75
420.28	85.75
420.503	84.75
420.726	87.75
420.948	76.75
421.171	71.75
421.394	72.75
421.617	81.75
421.839	85.75
422.062	84.75
422.285	71.75
422.507	76.75
422.73	76.75
422.953	84.75
423.175	70.75
423.398	78.75
423.621	79.75
423.843	92.75
424.066	82.75
424.288	83.75
424.511	76.75
424.733	80.75
424.956	93.75
425.178	113.75
425.401	132.75
425.623	141.75
425.846	86.75
426.068	84.75
426.291	92.75
426.513	86.75
426.735	98.75
426.958	84.75
427.18	93.75
427.402	110.75
427.625	137.75
427.847	111.75
428.069	92.75
428.292	76.75
428.514	81.75
428.736	97.75
428.958	113.75
429.181	116.75
429.403	77.75
429.625	77.75
429.847	81.75
430.069	80.75
430.292	92.75
430.514	73.75
430.736	74.75
430.958	73.75
431.18	94.75
431.402	80.75
431.624	84.75
431.846	72.75
432.068	85.75
432.29	88.75
432.512	79.75
432.734	89.75
432.956	80.75
433.178	92.75
433.4	83.75
433.622	97.75
433.844	127.75
434.066	102.75
434.287	101.75
434.509	103.75
434.731	103.75
434.953	83.75
435.175	109.75
435.397	113.75
435.618	84.75
435.84	89.75
436.062	88.75
436.284	74.75
436.505	80.75
436.727	77.75
436.949	93.75
437.17	93.75
437.392	94.75
437.614	89.75
437.835	85.75
438.057	88.75
438.278	85.75
438.5	81.75
438.721	84.75
438.943	93.75
439.165	70.75
439.386	87.75
439.608	89.75
439.829	87.75
440.05	73.75
440.272	84.75
440.493	64.75
440.715	85.75
440.936	72.75
441.158	84.75
441.379	100.75
441.6	69.75
441.822	92.75
442.043	81.75
442.264	78.75
442.486	87.75
442.707	64.75
442.928	86.75
443.149	81.75
443.371	75.75
443.592	70.75
443.813	103.75
444.034	90.75
444.255	75.75
444.476	79.75
444.698	92.75
444.919	77.75
445.14	156.75
445.361	111.75
445.582	70.75
445.803	86.75
446.024	78.75
446.245	75.75
446.466	66.75
446.687	72.75
446.908	79.75
447.129	79.75
447.35	69.75
447.571	78.75
447.792	77.75
448.013	76.75
448.234	69.75
448.455	96.75
448.675	84.75
448.896	87.75
449.117	82.75
449.338	74.75
449.559	74.75
449.779	94.75
450	88.75
450.221	74.75
450.442	80.75
450.662	89.75
450.883	80.75
451.104	93.75
451.324	92.75
451.545	91.75
451.766	79.75
451.986	77.75
452.207	77.75
452.428	92.75
452.648	102.75
452.869	84.75
453.089	79.75
453.31	84.75
453.53	80.75
453.751	88.75
453.971	96.75
454.192	83.75
454.412	93.75
454.633	95.75
454.853	89.75
455.073	78.75
455.294	65.75
455.514	81.75
455.734	92.75
455.955	86.75
456.175	77.75
456.395	77.75
456.616	81.75
456.836	73.75
457.056	82.75
457.276	91.75
457.497	87.75
457.717	79.75
457.937	92.75
458.157	81.75
458.377	82.75
458.598	84.75
458.818	84.75
459.038	80.75
459.258	74.75
459.478	86.75
459.698	84.75
459.918	81.75
460.138	89.75
460.358	102.75
460.578	90.75
460.798	76.75
461.018	74.75
461.238	86.75
461.458	91.75
461.678	81.75
461.898	109.75
462.118	87.75
462.338	89.75
462.558	84.75
462.777	89.75
462.997	88.75
463.217	82.75
463.437	96.75
463.657	85.75
463.876	95.75
464.096	79.75
464.316	79.75
464.536	91.75
464.755	102.75
464.975	105.75
465.195	100.75
465.414	112.75
465.634	85.75
465.854	78.75
466.073	63.75
466.293	84.75
466.512	85.75
466.732	85.75
466.951	86.75
467.171	81.75
467.391	88.75
467.61	86.75
467.829	86.75
468.049	86.75
468.268	82.75
468.488	79.75
468.707	78.75
468.927	78.75
469.146	87.75
469.365	83.75
469.585	76.75
469.804	97.75
470.023	88.75
470.243	81.75
470.462	95.75
470.681	92.75
470.901	89.75
471.12	80.75
471.339	87.75
471.558	81.75
471.777	88.75
471.997	102.75
472.216	76.75
472.435	78.75
472.654	64.75
472.873	93.75
473.092	91.75
473.311	92.75
473.53	78.75
473.749	84.75
473.968	88.75
474.187	95.75
474.406	82.75
474.625	81.75
474.844	70.75
475.063	90.75
475.282	94.75
475.501	101.75
475.72	98.75
475.939	98.75
476.158	70.75
476.377	85.75
476.596	72.75
476.814	81.75
477.033	80.75
477.252	85.75
477.471	88.75
477.69	94.75
477.908	85.75
478.127	92.75
478.346	89.75
478.564	80.75
478.783	85.75
479.002	93.75
479.22	78.75
479.439	78.75
479.658	88.75
479.876	78.75
480.095	82.75
480.313	84.75
480.532	85.75
480.751	82.75
480.969	87.75
481.188	84.75
481.406	74.75
481.624	69.75
481.843	81.75
482.061	80.75
482.28	78.75
482.498	77.75
482.717	88.75
482.935	84.75
483.153	76.75
483.372	91.75
483.59	88.75
483.808	81.75
484.027	73.75
484.245	79.75
484.463	79.75
484.681	83.75
484.9	74.75
485.118	79.75
485.336	74.75
485.554	83.75
485.772	76.75
485.99	78.75
486.209	68.75
486.427	80.75
486.645	86.75
486.863	77.75
487.081	107.75
487.299	82.75
487.517	85.75
487.735	76.75
487.953	89.75
488.171	70.75
488.389	83.75
488.607	101.75
488.825	98.75
489.043	112.75
489.261	85.75
489.479	74.75
489.696	84.75
489.914	83.75
490.132	88.75
490.35	78.75
490.568	80.75
490.786	75.75
491.003	84.75
491.221	89.75
491.439	92.75
491.657	93.75
491.874	95.75
492.092	91.75
492.31	95.75
492.527	103.75
492.745	94.75
492.963	102.75
493.18	76.75
493.398	86.75
493.615	86.75
493.833	92.75
494.05	93.75
494.268	83.75
494.485	91.75
494.703	78.75
494.92	88.75
495.138	90.75
495.355	79.75
495.573	104.75
495.79	84.75
496.008	87.75
496.225	75.75
496.442	82.75
496.66	85.75
496.877	87.75
497.094	86.75
497.312	90.75
497.529	89.75
497.746	80.75
497.963	86.75
498.181	79.75
498.398	89.75
498.615	81.75
498.832	89.75
499.049	71.75
499.267	89.75
499.484	77.75
499.701	85.75
499.918	88.75
500.135	71.75
500.352	78.75
500.569	70.75
500.786	80.75
501.003	74.75
501.22	84.75
501.437	94.75
501.654	78.75
501.871	78.75
502.088	70.75
502.305	90.75
502.522	92.75
502.739	96.75
502.956	96.75
503.172	102.75
503.389	82.75
503.606	87.75
503.823	89.75
504.04	75.75
504.256	92.75
504.473	74.75
504.69	76.75
504.907	90.75
505.123	78.75
505.34	75.75
505.557	75.75
505.773	82.75
505.99	74.75
506.207	76.75
506.423	82.75
506.64	79.75
506.856	76.75
507.073	85.75
507.289	93.75
507.506	86.75
507.722	99.75
507.939	79.75
508.155	74.75
508.372	70.75
508.588	85.75
508.805	82.75
509.021	96.75
509.238	80.75
509.454	81.75
509.67	80.75
509.887	72.75
510.103	81.75
510.319	80.75
510.536	87.75
510.752	97.75
510.968	80.75
511.184	81.75
511.401	85.75
511.617	78.75
511.833	71.75
512.049	77.75
512.265	80.75
512.481	98.75
512.698	76.75
512.914	87.75
513.13	79.75
513.346	76.75
513.562	85.75
513.778	80.75
513.994	87.75
514.21	76.75
514.426	91.75
514.642	84.75
514.858	85.75
515.074	87.75
515.29	85.75
515.506	84.75
515.721	90.75
515.937	85.75
516.153	70.75
516.369	90.75
516.585	85.75
516.801	83.75
517.016	87.75
517.232	86.75
517.448	84.75
517.664	95.75
517.879	87.75
518.095	90.75
518.311	91.75
518.527	87.75
518.742	77.75
518.958	95.75
519.173	84.75
519.389	86.75
