Data from StA_HRD10591_093.txt Node
Date: Fri May 16 15:19:29 EDT 2025
User: Yrep
Spectrometer: HR+D1059
Trigger mode: 1
Integration Time (sec): 1.000000E-1
Scans to average: 1
Electric dark correction enabled: true
Nonlinearity correction enabled: false
Boxcar width: 0
XAxis mode: Wavelengths
Number of Pixels in Spectrum: 2048
>>>>>Begin Spectral Data<<<<<
223.165	-21.06
223.4	-21.06
223.635	-21.06
223.869	-16.06
224.104	-24.06
224.338	-15.06
224.573	-16.06
224.808	-10.06
225.042	-13.06
225.277	-1.06
225.511	-6.06
225.746	6.94
225.98	5.94
226.215	7.94
226.449	13.94
226.683	22.94
226.918	20.94
227.152	43.94
227.387	29.94
227.621	46.94
227.856	50.94
228.09	56.94
228.324	62.94
228.559	69.94
228.793	48.94
229.027	64.94
229.262	59.94
229.496	74.94
229.73	70.94
229.964	85.94
230.199	62.94
230.433	73.94
230.667	83.94
230.901	91.94
231.136	78.94
231.37	82.94
231.604	72.94
231.838	73.94
232.072	90.94
232.306	70.94
232.541	71.94
232.775	75.94
233.009	79.94
233.243	77.94
233.477	89.94
233.711	79.94
233.945	66.94
234.179	82.94
234.413	87.94
234.647	84.94
234.881	70.94
235.115	80.94
235.349	81.94
235.583	73.94
235.817	69.94
236.051	72.94
236.285	76.94
236.519	66.94
236.753	78.94
236.987	58.94
237.221	72.94
237.455	68.94
237.689	75.94
237.922	79.94
238.156	75.94
238.39	79.94
238.624	83.94
238.858	76.94
239.091	82.94
239.325	77.94
239.559	71.94
239.793	73.94
240.027	82.94
240.26	74.94
240.494	90.94
240.728	63.94
240.961	61.94
241.195	68.94
241.429	74.94
241.662	68.94
241.896	57.94
242.13	77.94
242.363	84.94
242.597	83.94
242.83	89.94
243.064	72.94
243.298	72.94
243.531	82.94
243.765	70.94
243.998	68.94
244.232	89.94
244.465	66.94
244.699	75.94
244.932	72.94
245.166	79.94
245.399	70.94
245.633	86.94
245.866	84.94
246.099	77.94
246.333	80.94
246.566	90.94
246.8	75.94
247.033	76.94
247.266	67.94
247.5	72.94
247.733	82.94
247.966	65.94
248.2	68.94
248.433	90.94
248.666	74.94
248.899	78.94
249.133	73.94
249.366	74.94
249.599	71.94
249.832	84.94
250.066	77.94
250.299	81.94
250.532	72.94
250.765	79.94
250.998	75.94
251.231	77.94
251.465	96.94
251.698	78.94
251.931	78.94
252.164	94.94
252.397	71.94
252.63	78.94
252.863	87.94
253.096	96.94
253.329	75.94
253.562	86.94
253.795	82.94
254.028	76.94
254.261	70.94
254.494	82.94
254.727	70.94
254.96	78.94
255.193	77.94
255.426	73.94
255.659	84.94
255.892	66.94
256.124	65.94
256.357	75.94
256.59	67.94
256.823	67.94
257.056	71.94
257.289	80.94
257.521	71.94
257.754	74.94
257.987	75.94
258.22	85.94
258.452	63.94
258.685	73.94
258.918	78.94
259.151	83.94
259.383	72.94
259.616	76.94
259.849	78.94
260.081	90.94
260.314	70.94
260.547	60.94
260.779	64.94
261.012	88.94
261.244	74.94
261.477	86.94
261.71	70.94
261.942	81.94
262.175	70.94
262.407	84.94
262.64	79.94
262.872	84.94
263.105	79.94
263.337	76.94
263.57	73.94
263.802	82.94
264.035	84.94
264.267	80.94
264.499	75.94
264.732	88.94
264.964	86.94
265.197	87.94
265.429	83.94
265.661	80.94
265.894	78.94
266.126	89.94
266.358	75.94
266.591	73.94
266.823	78.94
267.055	91.94
267.287	93.94
267.52	81.94
267.752	69.94
267.984	86.94
268.216	76.94
268.448	71.94
268.681	74.94
268.913	90.94
269.145	78.94
269.377	95.94
269.609	74.94
269.841	84.94
270.073	95.94
270.306	84.94
270.538	85.94
270.77	77.94
271.002	91.94
271.234	90.94
271.466	78.94
271.698	84.94
271.93	90.94
272.162	84.94
272.394	87.94
272.626	81.94
272.858	91.94
273.09	88.94
273.322	80.94
273.553	89.94
273.785	90.94
274.017	78.94
274.249	82.94
274.481	96.94
274.713	64.94
274.945	73.94
275.176	100.94
275.408	82.94
275.64	85.94
275.872	86.94
276.104	88.94
276.335	81.94
276.567	87.94
276.799	70.94
277.031	83.94
277.262	100.94
277.494	89.94
277.726	70.94
277.957	75.94
278.189	73.94
278.421	71.94
278.652	80.94
278.884	70.94
279.115	75.94
279.347	84.94
279.579	79.94
279.81	91.94
280.042	102.94
280.273	67.94
280.505	73.94
280.736	76.94
280.968	78.94
281.199	80.94
281.431	69.94
281.662	76.94
281.894	80.94
282.125	77.94
282.356	76.94
282.588	91.94
282.819	90.94
283.051	72.94
283.282	72.94
283.513	89.94
283.745	84.94
283.976	93.94
284.207	95.94
284.439	78.94
284.67	76.94
284.901	92.94
285.132	86.94
285.364	91.94
285.595	105.94
285.826	102.94
286.057	87.94
286.288	83.94
286.52	81.94
286.751	101.94
286.982	83.94
287.213	63.94
287.444	78.94
287.675	92.94
287.906	84.94
288.138	88.94
288.369	88.94
288.6	88.94
288.831	84.94
289.062	87.94
289.293	77.94
289.524	85.94
289.755	86.94
289.986	76.94
290.217	86.94
290.448	89.94
290.679	83.94
290.91	96.94
291.141	85.94
291.371	78.94
291.602	80.94
291.833	82.94
292.064	83.94
292.295	91.94
292.526	88.94
292.757	91.94
292.987	76.94
293.218	89.94
293.449	76.94
293.68	77.94
293.91	75.94
294.141	86.94
294.372	90.94
294.603	81.94
294.833	83.94
295.064	82.94
295.295	81.94
295.525	83.94
295.756	81.94
295.987	91.94
296.217	78.94
296.448	79.94
296.679	91.94
296.909	75.94
297.14	87.94
297.37	89.94
297.601	78.94
297.831	87.94
298.062	101.94
298.292	92.94
298.523	98.94
298.753	100.94
298.984	90.94
299.214	90.94
299.445	84.94
299.675	90.94
299.905	92.94
300.136	80.94
300.366	80.94
300.597	83.94
300.827	78.94
301.057	89.94
301.288	90.94
301.518	96.94
301.748	103.94
301.979	99.94
302.209	90.94
302.439	91.94
302.669	87.94
302.9	89.94
303.13	99.94
303.36	95.94
303.59	77.94
303.82	92.94
304.051	87.94
304.281	68.94
304.511	80.94
304.741	96.94
304.971	80.94
305.201	94.94
305.431	92.94
305.661	90.94
305.891	80.94
306.121	85.94
306.352	96.94
306.582	86.94
306.812	84.94
307.042	80.94
307.272	76.94
307.502	93.94
307.731	70.94
307.961	92.94
308.191	81.94
308.421	93.94
308.651	86.94
308.881	82.94
309.111	81.94
309.341	65.94
309.571	67.94
309.8	85.94
310.03	86.94
310.26	81.94
310.49	93.94
310.72	71.94
310.949	85.94
311.179	96.94
311.409	84.94
311.639	72.94
311.868	87.94
312.098	102.94
312.328	89.94
312.557	94.94
312.787	91.94
313.017	98.94
313.246	82.94
313.476	89.94
313.706	89.94
313.935	83.94
314.165	95.94
314.394	95.94
314.624	85.94
314.853	88.94
315.083	89.94
315.312	64.94
315.542	76.94
315.771	78.94
316.001	93.94
316.23	84.94
316.46	80.94
316.689	85.94
316.919	96.94
317.148	100.94
317.377	90.94
317.607	92.94
317.836	83.94
318.065	90.94
318.295	102.94
318.524	76.94
318.753	98.94
318.983	87.94
319.212	82.94
319.441	105.94
319.67	72.94
319.9	79.94
320.129	75.94
320.358	68.94
320.587	96.94
320.816	83.94
321.046	86.94
321.275	97.94
321.504	82.94
321.733	94.94
321.962	76.94
322.191	95.94
322.42	77.94
322.649	92.94
322.878	80.94
323.108	85.94
323.337	102.94
323.566	85.94
323.795	79.94
324.024	86.94
324.253	86.94
324.482	93.94
324.71	78.94
324.939	80.94
325.168	96.94
325.397	88.94
325.626	94.94
325.855	73.94
326.084	79.94
326.313	84.94
326.542	74.94
326.77	82.94
326.999	94.94
327.228	86.94
327.457	89.94
327.686	86.94
327.914	84.94
328.143	78.94
328.372	87.94
328.6	80.94
328.829	87.94
329.058	87.94
329.287	75.94
329.515	82.94
329.744	78.94
329.972	92.94
330.201	71.94
330.43	73.94
330.658	85.94
330.887	79.94
331.115	86.94
331.344	89.94
331.572	94.94
331.801	91.94
332.03	87.94
332.258	75.94
332.486	84.94
332.715	93.94
332.943	71.94
333.172	82.94
333.4	79.94
333.629	85.94
333.857	102.94
334.085	85.94
334.314	78.94
334.542	77.94
334.771	75.94
334.999	89.94
335.227	66.94
335.455	72.94
335.684	95.94
335.912	88.94
336.14	90.94
336.369	82.94
336.597	88.94
336.825	81.94
337.053	100.94
337.281	79.94
337.51	92.94
337.738	92.94
337.966	86.94
338.194	84.94
338.422	86.94
338.65	72.94
338.878	84.94
339.106	75.94
339.334	77.94
339.562	90.94
339.79	66.94
340.018	80.94
340.246	93.94
340.474	98.94
340.702	83.94
340.93	90.94
341.158	84.94
341.386	80.94
341.614	82.94
341.842	84.94
342.07	83.94
342.298	102.94
342.526	79.94
342.754	91.94
342.981	97.94
343.209	92.94
343.437	95.94
343.665	78.94
343.893	87.94
344.12	81.94
344.348	77.94
344.576	74.94
344.804	84.94
345.031	78.94
345.259	85.94
345.487	83.94
345.714	86.94
345.942	83.94
346.17	82.94
346.397	87.94
346.625	81.94
346.853	79.94
347.08	70.94
347.308	80.94
347.535	80.94
347.763	87.94
347.99	78.94
348.218	73.94
348.445	102.94
348.673	79.94
348.9	85.94
349.128	93.94
349.355	79.94
349.583	84.94
349.81	80.94
350.037	82.94
350.265	84.94
350.492	83.94
350.72	75.94
350.947	73.94
351.174	96.94
351.402	84.94
351.629	88.94
351.856	82.94
352.083	93.94
352.311	68.94
352.538	71.94
352.765	89.94
352.992	100.94
353.22	79.94
353.447	80.94
353.674	73.94
353.901	76.94
354.128	76.94
354.355	89.94
354.583	82.94
354.81	80.94
355.037	86.94
355.264	95.94
355.491	82.94
355.718	86.94
355.945	98.94
356.172	82.94
356.399	79.94
356.626	101.94
356.853	91.94
357.08	88.94
357.307	100.94
357.534	105.94
357.761	100.94
357.988	110.94
358.215	100.94
358.441	94.94
358.668	74.94
358.895	88.94
359.122	103.94
359.349	108.94
359.576	109.94
359.802	83.94
360.029	95.94
360.256	104.94
360.483	100.94
360.709	114.94
360.936	98.94
361.163	89.94
361.39	82.94
361.616	76.94
361.843	84.94
362.07	81.94
362.296	80.94
362.523	85.94
362.749	75.94
362.976	82.94
363.203	74.94
363.429	75.94
363.656	95.94
363.882	91.94
364.109	111.94
364.335	100.94
364.562	74.94
364.788	89.94
365.015	81.94
365.241	86.94
365.468	79.94
365.694	87.94
365.92	85.94
366.147	72.94
366.373	97.94
366.599	70.94
366.826	92.94
367.052	83.94
367.278	92.94
367.505	85.94
367.731	100.94
367.957	71.94
368.184	88.94
368.41	88.94
368.636	71.94
368.862	81.94
369.089	88.94
369.315	80.94
369.541	85.94
369.767	86.94
369.993	86.94
370.219	74.94
370.445	76.94
370.672	63.94
370.898	81.94
371.124	68.94
371.35	71.94
371.576	76.94
371.802	82.94
372.028	76.94
372.254	80.94
372.48	87.94
372.706	73.94
372.932	82.94
373.158	87.94
373.384	80.94
373.61	64.94
373.835	82.94
374.061	78.94
374.287	92.94
374.513	90.94
374.739	80.94
374.965	79.94
375.191	94.94
375.416	83.94
375.642	95.94
375.868	93.94
376.094	93.94
376.319	69.94
376.545	95.94
376.771	78.94
376.997	79.94
377.222	78.94
377.448	90.94
377.674	93.94
377.899	87.94
378.125	78.94
378.35	83.94
378.576	75.94
378.802	91.94
379.027	76.94
379.253	80.94
379.478	82.94
379.704	82.94
379.929	71.94
380.155	81.94
380.38	87.94
380.606	77.94
380.831	75.94
381.057	74.94
381.282	105.94
381.507	95.94
381.733	81.94
381.958	91.94
382.184	69.94
382.409	109.94
382.634	84.94
382.86	75.94
383.085	78.94
383.31	92.94
383.535	79.94
383.761	95.94
383.986	84.94
384.211	87.94
384.436	78.94
384.662	92.94
384.887	98.94
385.112	90.94
385.337	87.94
385.562	91.94
385.787	83.94
386.013	80.94
386.238	81.94
386.463	92.94
386.688	83.94
386.913	83.94
387.138	81.94
387.363	84.94
387.588	89.94
387.813	68.94
388.038	94.94
388.263	96.94
388.488	110.94
388.713	72.94
388.938	91.94
389.163	87.94
389.387	75.94
389.612	76.94
389.837	84.94
390.062	80.94
390.287	79.94
390.512	98.94
390.736	87.94
390.961	86.94
391.186	94.94
391.411	87.94
391.636	98.94
391.86	86.94
392.085	95.94
392.31	91.94
392.534	87.94
392.759	91.94
392.984	90.94
393.208	92.94
393.433	92.94
393.658	92.94
393.882	79.94
394.107	79.94
394.331	73.94
394.556	76.94
394.78	100.94
395.005	76.94
395.229	92.94
395.454	90.94
395.678	72.94
395.903	87.94
396.127	83.94
396.352	83.94
396.576	86.94
396.801	92.94
397.025	103.94
397.249	95.94
397.474	95.94
397.698	85.94
397.922	86.94
398.147	79.94
398.371	99.94
398.595	90.94
398.82	80.94
399.044	99.94
399.268	95.94
399.492	81.94
399.717	89.94
399.941	79.94
400.165	83.94
400.389	84.94
400.613	68.94
400.837	79.94
401.062	84.94
401.286	88.94
401.51	79.94
401.734	82.94
401.958	84.94
402.182	74.94
402.406	76.94
402.63	71.94
402.854	91.94
403.078	88.94
403.302	78.94
403.526	83.94
403.75	80.94
403.974	78.94
404.198	76.94
404.422	71.94
404.645	76.94
404.869	86.94
405.093	76.94
405.317	70.94
405.541	77.94
405.765	86.94
405.988	64.94
406.212	76.94
406.436	77.94
406.66	62.94
406.883	78.94
407.107	78.94
407.331	83.94
407.555	88.94
407.778	83.94
408.002	75.94
408.226	77.94
408.449	82.94
408.673	79.94
408.896	80.94
409.12	84.94
409.344	81.94
409.567	85.94
409.791	85.94
410.014	79.94
410.238	89.94
410.461	85.94
410.685	79.94
410.908	88.94
411.132	82.94
411.355	82.94
411.578	87.94
411.802	98.94
412.025	71.94
412.249	70.94
412.472	68.94
412.695	70.94
412.919	78.94
413.142	86.94
413.365	73.94
413.589	61.94
413.812	91.94
414.035	75.94
414.258	84.94
414.482	88.94
414.705	83.94
414.928	81.94
415.151	90.94
415.374	93.94
415.597	77.94
415.821	85.94
416.044	83.94
416.267	89.94
416.49	90.94
416.713	81.94
416.936	84.94
417.159	86.94
417.382	79.94
417.605	80.94
417.828	87.94
418.051	102.94
418.274	87.94
418.497	78.94
418.72	70.94
418.943	80.94
419.166	94.94
419.389	82.94
419.611	81.94
419.834	91.94
420.057	89.94
420.28	78.94
420.503	88.94
420.726	79.94
420.948	79.94
421.171	85.94
421.394	88.94
421.617	76.94
421.839	71.94
422.062	89.94
422.285	70.94
422.507	93.94
422.73	70.94
422.953	92.94
423.175	81.94
423.398	78.94
423.621	88.94
423.843	81.94
424.066	90.94
424.288	78.94
424.511	77.94
424.733	92.94
424.956	90.94
425.178	102.94
425.401	116.94
425.623	123.94
425.846	99.94
426.068	98.94
426.291	82.94
426.513	92.94
426.735	85.94
426.958	79.94
427.18	100.94
427.402	113.94
427.625	147.94
427.847	114.94
428.069	94.94
428.292	96.94
428.514	83.94
428.736	85.94
428.958	118.94
429.181	105.94
429.403	102.94
429.625	81.94
429.847	90.94
430.069	86.94
430.292	82.94
430.514	70.94
430.736	84.94
430.958	88.94
431.18	98.94
431.402	84.94
431.624	77.94
431.846	82.94
432.068	67.94
432.29	78.94
432.512	89.94
432.734	85.94
432.956	82.94
433.178	96.94
433.4	87.94
433.622	84.94
433.844	104.94
434.066	110.94
434.287	104.94
434.509	107.94
434.731	109.94
434.953	99.94
435.175	121.94
435.397	106.94
435.618	80.94
435.84	86.94
436.062	86.94
436.284	83.94
436.505	84.94
436.727	79.94
436.949	87.94
437.17	83.94
437.392	95.94
437.614	82.94
437.835	77.94
438.057	76.94
438.278	90.94
438.5	98.94
438.721	84.94
438.943	85.94
439.165	86.94
439.386	93.94
439.608	70.94
439.829	77.94
440.05	79.94
440.272	82.94
440.493	63.94
440.715	83.94
440.936	76.94
441.158	78.94
441.379	86.94
441.6	97.94
441.822	85.94
442.043	77.94
442.264	86.94
442.486	102.94
442.707	82.94
442.928	91.94
443.149	82.94
443.371	77.94
443.592	77.94
443.813	74.94
444.034	91.94
444.255	78.94
444.476	74.94
444.698	92.94
444.919	85.94
445.14	156.94
445.361	112.94
445.582	72.94
445.803	78.94
446.024	72.94
446.245	76.94
446.466	81.94
446.687	94.94
446.908	89.94
447.129	78.94
447.35	81.94
447.571	84.94
447.792	71.94
448.013	75.94
448.234	95.94
448.455	79.94
448.675	60.94
448.896	78.94
449.117	76.94
449.338	91.94
449.559	85.94
449.779	103.94
450	81.94
450.221	82.94
450.442	83.94
450.662	79.94
450.883	87.94
451.104	81.94
451.324	80.94
451.545	92.94
451.766	83.94
451.986	88.94
452.207	80.94
452.428	79.94
452.648	89.94
452.869	77.94
453.089	104.94
453.31	88.94
453.53	86.94
453.751	90.94
453.971	85.94
454.192	92.94
454.412	86.94
454.633	102.94
454.853	98.94
455.073	85.94
455.294	76.94
455.514	98.94
455.734	84.94
455.955	80.94
456.175	71.94
456.395	68.94
456.616	78.94
456.836	93.94
457.056	77.94
457.276	82.94
457.497	75.94
457.717	80.94
457.937	79.94
458.157	92.94
458.377	86.94
458.598	95.94
458.818	92.94
459.038	74.94
459.258	74.94
459.478	79.94
459.698	73.94
459.918	90.94
460.138	89.94
460.358	100.94
460.578	86.94
460.798	62.94
461.018	78.94
461.238	80.94
461.458	99.94
461.678	86.94
461.898	92.94
462.118	104.94
462.338	91.94
462.558	93.94
462.777	83.94
462.997	91.94
463.217	83.94
463.437	83.94
463.657	68.94
463.876	95.94
464.096	103.94
464.316	90.94
464.536	93.94
464.755	101.94
464.975	101.94
465.195	109.94
465.414	99.94
465.634	85.94
465.854	81.94
466.073	87.94
466.293	80.94
466.512	85.94
466.732	108.94
466.951	100.94
467.171	90.94
467.391	76.94
467.61	87.94
467.829	95.94
468.049	81.94
468.268	72.94
468.488	88.94
468.707	74.94
468.927	77.94
469.146	86.94
469.365	80.94
469.585	72.94
469.804	84.94
470.023	88.94
470.243	80.94
470.462	74.94
470.681	80.94
470.901	101.94
471.12	85.94
471.339	83.94
471.558	89.94
471.777	72.94
471.997	90.94
472.216	84.94
472.435	77.94
472.654	76.94
472.873	94.94
473.092	83.94
473.311	82.94
473.53	71.94
473.749	84.94
473.968	90.94
474.187	76.94
474.406	92.94
474.625	96.94
474.844	89.94
475.063	75.94
475.282	87.94
475.501	79.94
475.72	98.94
475.939	82.94
476.158	90.94
476.377	85.94
476.596	88.94
476.814	70.94
477.033	77.94
477.252	76.94
477.471	73.94
477.69	77.94
477.908	83.94
478.127	108.94
478.346	84.94
478.564	82.94
478.783	82.94
479.002	84.94
479.22	82.94
479.439	94.94
479.658	76.94
479.876	79.94
480.095	66.94
480.313	87.94
480.532	85.94
480.751	82.94
480.969	78.94
481.188	73.94
481.406	81.94
481.624	89.94
481.843	86.94
482.061	81.94
482.28	80.94
482.498	87.94
482.717	64.94
482.935	68.94
483.153	106.94
483.372	96.94
483.59	89.94
483.808	92.94
484.027	91.94
484.245	76.94
484.463	100.94
484.681	92.94
484.9	80.94
485.118	79.94
485.336	76.94
485.554	83.94
485.772	99.94
485.99	87.94
486.209	100.94
486.427	85.94
486.645	103.94
486.863	100.94
487.081	88.94
487.299	81.94
487.517	77.94
487.735	79.94
487.953	74.94
488.171	81.94
488.389	84.94
488.607	101.94
488.825	100.94
489.043	78.94
489.261	102.94
489.479	90.94
489.696	77.94
489.914	90.94
490.132	93.94
490.35	79.94
490.568	71.94
490.786	91.94
491.003	101.94
491.221	82.94
491.439	79.94
491.657	87.94
491.874	90.94
492.092	86.94
492.31	111.94
492.527	75.94
492.745	80.94
492.963	88.94
493.18	87.94
493.398	93.94
493.615	87.94
493.833	81.94
494.05	87.94
494.268	90.94
494.485	92.94
494.703	97.94
494.92	89.94
495.138	80.94
495.355	89.94
495.573	86.94
495.79	94.94
496.008	82.94
496.225	72.94
496.442	83.94
496.66	87.94
496.877	83.94
497.094	85.94
497.312	82.94
497.529	76.94
497.746	86.94
497.963	87.94
498.181	82.94
498.398	78.94
498.615	87.94
498.832	78.94
499.049	84.94
499.267	82.94
499.484	80.94
499.701	88.94
499.918	82.94
500.135	82.94
500.352	64.94
500.569	88.94
500.786	87.94
501.003	88.94
501.22	81.94
501.437	83.94
501.654	74.94
501.871	93.94
502.088	87.94
502.305	87.94
502.522	80.94
502.739	74.94
502.956	79.94
503.172	67.94
503.389	87.94
503.606	86.94
503.823	82.94
504.04	77.94
504.256	94.94
504.473	98.94
504.69	90.94
504.907	100.94
505.123	88.94
505.34	100.94
505.557	88.94
505.773	83.94
505.99	89.94
506.207	82.94
506.423	91.94
506.64	94.94
506.856	98.94
507.073	85.94
507.289	89.94
507.506	88.94
507.722	76.94
507.939	104.94
508.155	81.94
508.372	77.94
508.588	76.94
508.805	98.94
509.021	78.94
509.238	85.94
509.454	94.94
509.67	69.94
509.887	84.94
510.103	78.94
510.319	78.94
510.536	76.94
510.752	92.94
510.968	93.94
511.184	90.94
511.401	85.94
511.617	92.94
511.833	69.94
512.049	82.94
512.265	79.94
512.481	82.94
512.698	80.94
512.914	75.94
513.13	84.94
513.346	81.94
513.562	91.94
513.778	82.94
513.994	94.94
514.21	64.94
514.426	99.94
514.642	86.94
514.858	81.94
515.074	89.94
515.29	86.94
515.506	70.94
515.721	93.94
515.937	88.94
516.153	91.94
516.369	79.94
516.585	100.94
516.801	72.94
517.016	77.94
517.232	86.94
517.448	76.94
517.664	84.94
517.879	79.94
518.095	74.94
518.311	90.94
518.527	91.94
518.742	75.94
518.958	76.94
519.173	93.94
