Data from StA_HRD10591_064.txt Node
Date: Fri May 16 15:19:15 EDT 2025
User: Yrep
Spectrometer: HR+D1059
Trigger mode: 1
Integration Time (sec): 1.000000E-1
Scans to average: 1
Electric dark correction enabled: true
Nonlinearity correction enabled: false
Boxcar width: 0
XAxis mode: Wavelengths
Number of Pixels in Spectrum: 2048
>>>>>Begin Spectral Data<<<<<
223.165	-28.12
223.4	-28.12
223.635	-28.12
223.869	-24.12
224.104	-18.12
224.338	-8.12
224.573	-28.12
224.808	-15.12
225.042	-12.12
225.277	2.88
225.511	-6.12
225.746	8.88
225.98	10.88
226.215	2.88
226.449	21.88
226.683	32.88
226.918	31.88
227.152	27.88
227.387	26.88
227.621	47.88
227.856	42.88
228.09	37.88
228.324	47.88
228.559	46.88
228.793	58.88
229.027	66.88
229.262	55.88
229.496	71.88
229.73	59.88
229.964	71.88
230.199	65.88
230.433	71.88
230.667	73.88
230.901	78.88
231.136	81.88
231.37	72.88
231.604	75.88
231.838	77.88
232.072	82.88
232.306	62.88
232.541	82.88
232.775	87.88
233.009	74.88
233.243	89.88
233.477	79.88
233.711	79.88
233.945	56.88
234.179	65.88
234.413	75.88
234.647	81.88
234.881	75.88
235.115	79.88
235.349	76.88
235.583	54.88
235.817	71.88
236.051	79.88
236.285	60.88
236.519	83.88
236.753	73.88
236.987	75.88
237.221	70.88
237.455	69.88
237.689	87.88
237.922	75.88
238.156	63.88
238.39	95.88
238.624	63.88
238.858	59.88
239.091	77.88
239.325	60.88
239.559	74.88
239.793	61.88
240.027	74.88
240.26	69.88
240.494	83.88
240.728	66.88
240.961	65.88
241.195	83.88
241.429	80.88
241.662	69.88
241.896	67.88
242.13	64.88
242.363	69.88
242.597	61.88
242.83	75.88
243.064	54.88
243.298	64.88
243.531	62.88
243.765	80.88
243.998	73.88
244.232	80.88
244.465	77.88
244.699	66.88
244.932	72.88
245.166	64.88
245.399	59.88
245.633	76.88
245.866	73.88
246.099	59.88
246.333	59.88
246.566	66.88
246.8	83.88
247.033	74.88
247.266	74.88
247.5	83.88
247.733	93.88
247.966	94.88
248.2	81.88
248.433	83.88
248.666	64.88
248.899	71.88
249.133	76.88
249.366	67.88
249.599	85.88
249.832	90.88
250.066	67.88
250.299	65.88
250.532	75.88
250.765	79.88
250.998	79.88
251.231	71.88
251.465	82.88
251.698	75.88
251.931	84.88
252.164	82.88
252.397	75.88
252.63	75.88
252.863	81.88
253.096	71.88
253.329	63.88
253.562	78.88
253.795	79.88
254.028	87.88
254.261	76.88
254.494	62.88
254.727	72.88
254.96	71.88
255.193	84.88
255.426	79.88
255.659	69.88
255.892	86.88
256.124	79.88
256.357	68.88
256.59	86.88
256.823	73.88
257.056	71.88
257.289	92.88
257.521	82.88
257.754	67.88
257.987	87.88
258.22	83.88
258.452	84.88
258.685	73.88
258.918	81.88
259.151	83.88
259.383	71.88
259.616	73.88
259.849	76.88
260.081	64.88
260.314	87.88
260.547	77.88
260.779	71.88
261.012	74.88
261.244	78.88
261.477	85.88
261.71	84.88
261.942	66.88
262.175	81.88
262.407	82.88
262.64	81.88
262.872	69.88
263.105	78.88
263.337	71.88
263.57	80.88
263.802	77.88
264.035	83.88
264.267	66.88
264.499	73.88
264.732	78.88
264.964	82.88
265.197	75.88
265.429	90.88
265.661	76.88
265.894	86.88
266.126	77.88
266.358	76.88
266.591	89.88
266.823	85.88
267.055	81.88
267.287	69.88
267.52	84.88
267.752	91.88
267.984	90.88
268.216	81.88
268.448	79.88
268.681	76.88
268.913	86.88
269.145	73.88
269.377	71.88
269.609	84.88
269.841	88.88
270.073	67.88
270.306	81.88
270.538	97.88
270.77	78.88
271.002	79.88
271.234	70.88
271.466	73.88
271.698	73.88
271.93	80.88
272.162	81.88
272.394	85.88
272.626	72.88
272.858	84.88
273.09	82.88
273.322	88.88
273.553	82.88
273.785	74.88
274.017	60.88
274.249	84.88
274.481	96.88
274.713	84.88
274.945	84.88
275.176	83.88
275.408	83.88
275.64	75.88
275.872	69.88
276.104	87.88
276.335	83.88
276.567	85.88
276.799	76.88
277.031	88.88
277.262	75.88
277.494	95.88
277.726	82.88
277.957	84.88
278.189	96.88
278.421	83.88
278.652	79.88
278.884	70.88
279.115	89.88
279.347	85.88
279.579	76.88
279.81	75.88
280.042	89.88
280.273	79.88
280.505	69.88
280.736	75.88
280.968	70.88
281.199	76.88
281.431	78.88
281.662	73.88
281.894	65.88
282.125	86.88
282.356	79.88
282.588	82.88
282.819	70.88
283.051	75.88
283.282	67.88
283.513	97.88
283.745	90.88
283.976	74.88
284.207	84.88
284.439	89.88
284.67	85.88
284.901	67.88
285.132	84.88
285.364	73.88
285.595	84.88
285.826	93.88
286.057	99.88
286.288	91.88
286.52	104.88
286.751	83.88
286.982	95.88
287.213	93.88
287.444	88.88
287.675	90.88
287.906	88.88
288.138	88.88
288.369	77.88
288.6	86.88
288.831	80.88
289.062	84.88
289.293	83.88
289.524	79.88
289.755	74.88
289.986	74.88
290.217	80.88
290.448	81.88
290.679	80.88
290.91	83.88
291.141	79.88
291.371	83.88
291.602	81.88
291.833	84.88
292.064	68.88
292.295	73.88
292.526	81.88
292.757	79.88
292.987	83.88
293.218	79.88
293.449	76.88
293.68	79.88
293.91	79.88
294.141	89.88
294.372	97.88
294.603	80.88
294.833	79.88
295.064	74.88
295.295	75.88
295.525	100.88
295.756	93.88
295.987	76.88
296.217	92.88
296.448	76.88
296.679	84.88
296.909	84.88
297.14	80.88
297.37	87.88
297.601	79.88
297.831	82.88
298.062	87.88
298.292	88.88
298.523	84.88
298.753	97.88
298.984	96.88
299.214	94.88
299.445	86.88
299.675	88.88
299.905	70.88
300.136	90.88
300.366	88.88
300.597	85.88
300.827	97.88
301.057	108.88
301.288	89.88
301.518	99.88
301.748	93.88
301.979	92.88
302.209	91.88
302.439	89.88
302.669	89.88
302.9	84.88
303.13	84.88
303.36	88.88
303.59	80.88
303.82	83.88
304.051	79.88
304.281	81.88
304.511	85.88
304.741	81.88
304.971	79.88
305.201	83.88
305.431	79.88
305.661	88.88
305.891	83.88
306.121	76.88
306.352	89.88
306.582	68.88
306.812	82.88
307.042	69.88
307.272	80.88
307.502	92.88
307.731	67.88
307.961	92.88
308.191	87.88
308.421	85.88
308.651	87.88
308.881	76.88
309.111	81.88
309.341	79.88
309.571	88.88
309.8	86.88
310.03	80.88
310.26	52.88
310.49	87.88
310.72	89.88
310.949	78.88
311.179	76.88
311.409	78.88
311.639	95.88
311.868	90.88
312.098	88.88
312.328	87.88
312.557	87.88
312.787	79.88
313.017	99.88
313.246	91.88
313.476	95.88
313.706	72.88
313.935	84.88
314.165	88.88
314.394	79.88
314.624	75.88
314.853	86.88
315.083	85.88
315.312	89.88
315.542	95.88
315.771	81.88
316.001	84.88
316.23	69.88
316.46	71.88
316.689	71.88
316.919	83.88
317.148	84.88
317.377	80.88
317.607	85.88
317.836	79.88
318.065	87.88
318.295	96.88
318.524	88.88
318.753	75.88
318.983	74.88
319.212	77.88
319.441	69.88
319.67	76.88
319.9	86.88
320.129	79.88
320.358	79.88
320.587	82.88
320.816	77.88
321.046	69.88
321.275	71.88
321.504	86.88
321.733	83.88
321.962	70.88
322.191	80.88
322.42	83.88
322.649	69.88
322.878	68.88
323.108	91.88
323.337	86.88
323.566	89.88
323.795	75.88
324.024	73.88
324.253	78.88
324.482	73.88
324.71	69.88
324.939	77.88
325.168	99.88
325.397	99.88
325.626	79.88
325.855	75.88
326.084	72.88
326.313	85.88
326.542	73.88
326.77	83.88
326.999	86.88
327.228	71.88
327.457	80.88
327.686	83.88
327.914	96.88
328.143	103.88
328.372	87.88
328.6	87.88
328.829	72.88
329.058	90.88
329.287	82.88
329.515	70.88
329.744	84.88
329.972	75.88
330.201	83.88
330.43	75.88
330.658	80.88
330.887	79.88
331.115	86.88
331.344	89.88
331.572	91.88
331.801	89.88
332.03	73.88
332.258	80.88
332.486	90.88
332.715	72.88
332.943	78.88
333.172	82.88
333.4	80.88
333.629	83.88
333.857	88.88
334.085	79.88
334.314	96.88
334.542	85.88
334.771	71.88
334.999	87.88
335.227	71.88
335.455	92.88
335.684	92.88
335.912	66.88
336.14	86.88
336.369	77.88
336.597	79.88
336.825	74.88
337.053	81.88
337.281	75.88
337.51	79.88
337.738	82.88
337.966	84.88
338.194	91.88
338.422	91.88
338.65	80.88
338.878	89.88
339.106	75.88
339.334	82.88
339.562	87.88
339.79	82.88
340.018	83.88
340.246	90.88
340.474	75.88
340.702	81.88
340.93	90.88
341.158	74.88
341.386	78.88
341.614	83.88
341.842	88.88
342.07	87.88
342.298	72.88
342.526	85.88
342.754	78.88
342.981	76.88
343.209	77.88
343.437	90.88
343.665	80.88
343.893	77.88
344.12	92.88
344.348	88.88
344.576	80.88
344.804	84.88
345.031	82.88
345.259	80.88
345.487	72.88
345.714	92.88
345.942	82.88
346.17	72.88
346.397	83.88
346.625	79.88
346.853	77.88
347.08	88.88
347.308	76.88
347.535	76.88
347.763	80.88
347.99	85.88
348.218	88.88
348.445	93.88
348.673	71.88
348.9	67.88
349.128	91.88
349.355	67.88
349.583	89.88
349.81	83.88
350.037	89.88
350.265	74.88
350.492	77.88
350.72	75.88
350.947	99.88
351.174	80.88
351.402	76.88
351.629	73.88
351.856	72.88
352.083	80.88
352.311	75.88
352.538	87.88
352.765	81.88
352.992	73.88
353.22	67.88
353.447	76.88
353.674	71.88
353.901	95.88
354.128	70.88
354.355	76.88
354.583	84.88
354.81	80.88
355.037	78.88
355.264	83.88
355.491	99.88
355.718	88.88
355.945	87.88
356.172	79.88
356.399	77.88
356.626	85.88
356.853	76.88
357.08	86.88
357.307	88.88
357.534	99.88
357.761	113.88
357.988	132.88
358.215	88.88
358.441	74.88
358.668	82.88
358.895	93.88
359.122	108.88
359.349	119.88
359.576	105.88
359.802	72.88
360.029	83.88
360.256	99.88
360.483	116.88
360.709	106.88
360.936	95.88
361.163	81.88
361.39	74.88
361.616	76.88
361.843	84.88
362.07	77.88
362.296	81.88
362.523	77.88
362.749	71.88
362.976	76.88
363.203	79.88
363.429	81.88
363.656	74.88
363.882	90.88
364.109	90.88
364.335	71.88
364.562	65.88
364.788	75.88
365.015	84.88
365.241	73.88
365.468	83.88
365.694	85.88
365.92	80.88
366.147	86.88
366.373	82.88
366.599	74.88
366.826	69.88
367.052	61.88
367.278	70.88
367.505	83.88
367.731	90.88
367.957	86.88
368.184	84.88
368.41	74.88
368.636	80.88
368.862	87.88
369.089	78.88
369.315	76.88
369.541	77.88
369.767	75.88
369.993	81.88
370.219	64.88
370.445	81.88
370.672	75.88
370.898	74.88
371.124	77.88
371.35	83.88
371.576	95.88
371.802	75.88
372.028	83.88
372.254	87.88
372.48	90.88
372.706	71.88
372.932	68.88
373.158	67.88
373.384	81.88
373.61	92.88
373.835	80.88
374.061	85.88
374.287	84.88
374.513	100.88
374.739	92.88
374.965	67.88
375.191	95.88
375.416	79.88
375.642	76.88
375.868	93.88
376.094	72.88
376.319	60.88
376.545	80.88
376.771	85.88
376.997	76.88
377.222	79.88
377.448	79.88
377.674	77.88
377.899	76.88
378.125	82.88
378.35	72.88
378.576	88.88
378.802	95.88
379.027	79.88
379.253	68.88
379.478	76.88
379.704	73.88
379.929	85.88
380.155	91.88
380.38	86.88
380.606	87.88
380.831	71.88
381.057	74.88
381.282	91.88
381.507	93.88
381.733	93.88
381.958	81.88
382.184	82.88
382.409	72.88
382.634	81.88
382.86	88.88
383.085	92.88
383.31	77.88
383.535	82.88
383.761	85.88
383.986	78.88
384.211	78.88
384.436	79.88
384.662	75.88
384.887	72.88
385.112	80.88
385.337	98.88
385.562	89.88
385.787	61.88
386.013	88.88
386.238	99.88
386.463	91.88
386.688	93.88
386.913	71.88
387.138	74.88
387.363	87.88
387.588	79.88
387.813	83.88
388.038	75.88
388.263	98.88
388.488	87.88
388.713	95.88
388.938	88.88
389.163	67.88
389.387	76.88
389.612	73.88
389.837	69.88
390.062	96.88
390.287	84.88
390.512	81.88
390.736	99.88
390.961	76.88
391.186	71.88
391.411	81.88
391.636	69.88
391.86	92.88
392.085	97.88
392.31	80.88
392.534	76.88
392.759	88.88
392.984	84.88
393.208	67.88
393.433	80.88
393.658	88.88
393.882	84.88
394.107	82.88
394.331	73.88
394.556	73.88
394.78	80.88
395.005	75.88
395.229	74.88
395.454	90.88
395.678	69.88
395.903	84.88
396.127	75.88
396.352	97.88
396.576	79.88
396.801	78.88
397.025	85.88
397.249	98.88
397.474	88.88
397.698	71.88
397.922	87.88
398.147	88.88
398.371	79.88
398.595	76.88
398.82	93.88
399.044	92.88
399.268	89.88
399.492	82.88
399.717	73.88
399.941	88.88
400.165	92.88
400.389	99.88
400.613	70.88
400.837	67.88
401.062	79.88
401.286	70.88
401.51	81.88
401.734	75.88
401.958	84.88
402.182	73.88
402.406	66.88
402.63	82.88
402.854	79.88
403.078	77.88
403.302	83.88
403.526	77.88
403.75	64.88
403.974	79.88
404.198	85.88
404.422	90.88
404.645	67.88
404.869	70.88
405.093	65.88
405.317	72.88
405.541	90.88
405.765	76.88
405.988	89.88
406.212	76.88
406.436	76.88
406.66	67.88
406.883	78.88
407.107	83.88
407.331	70.88
407.555	93.88
407.778	73.88
408.002	89.88
408.226	80.88
408.449	71.88
408.673	83.88
408.896	83.88
409.12	84.88
409.344	67.88
409.567	69.88
409.791	91.88
410.014	67.88
410.238	81.88
410.461	75.88
410.685	89.88
410.908	72.88
411.132	85.88
411.355	82.88
411.578	78.88
411.802	84.88
412.025	84.88
412.249	81.88
412.472	75.88
412.695	68.88
412.919	74.88
413.142	79.88
413.365	77.88
413.589	74.88
413.812	88.88
414.035	81.88
414.258	98.88
414.482	90.88
414.705	67.88
414.928	84.88
415.151	76.88
415.374	69.88
415.597	71.88
415.821	81.88
416.044	72.88
416.267	75.88
416.49	73.88
416.713	88.88
416.936	69.88
417.159	82.88
417.382	85.88
417.605	71.88
417.828	89.88
418.051	83.88
418.274	79.88
418.497	73.88
418.72	92.88
418.943	70.88
419.166	74.88
419.389	67.88
419.611	77.88
419.834	89.88
420.057	87.88
420.28	83.88
420.503	91.88
420.726	95.88
420.948	69.88
421.171	80.88
421.394	87.88
421.617	88.88
421.839	67.88
422.062	88.88
422.285	79.88
422.507	72.88
422.73	73.88
422.953	79.88
423.175	78.88
423.398	79.88
423.621	69.88
423.843	79.88
424.066	74.88
424.288	72.88
424.511	79.88
424.733	82.88
424.956	89.88
425.178	102.88
425.401	120.88
425.623	151.88
425.846	101.88
426.068	86.88
426.291	81.88
426.513	93.88
426.735	85.88
426.958	83.88
427.18	88.88
427.402	114.88
427.625	136.88
427.847	93.88
428.069	74.88
428.292	87.88
428.514	68.88
428.736	95.88
428.958	105.88
429.181	113.88
429.403	97.88
429.625	84.88
429.847	75.88
430.069	82.88
430.292	80.88
430.514	81.88
430.736	82.88
430.958	77.88
431.18	89.88
431.402	77.88
431.624	72.88
431.846	74.88
432.068	76.88
432.29	82.88
432.512	83.88
432.734	82.88
432.956	70.88
433.178	93.88
433.4	86.88
433.622	97.88
433.844	97.88
434.066	101.88
434.287	99.88
434.509	96.88
434.731	101.88
434.953	91.88
435.175	103.88
435.397	108.88
435.618	78.88
435.84	77.88
436.062	75.88
436.284	77.88
436.505	85.88
436.727	70.88
436.949	73.88
437.17	98.88
437.392	84.88
437.614	87.88
437.835	68.88
438.057	87.88
438.278	92.88
438.5	69.88
438.721	76.88
438.943	72.88
439.165	80.88
439.386	69.88
439.608	71.88
439.829	82.88
440.05	75.88
440.272	86.88
440.493	75.88
440.715	85.88
440.936	81.88
441.158	88.88
441.379	69.88
441.6	93.88
441.822	85.88
442.043	69.88
442.264	83.88
442.486	91.88
442.707	91.88
442.928	69.88
443.149	88.88
443.371	82.88
443.592	83.88
443.813	73.88
444.034	99.88
444.255	71.88
444.476	78.88
444.698	87.88
444.919	79.88
445.14	157.88
445.361	124.88
445.582	76.88
445.803	77.88
446.024	84.88
446.245	82.88
446.466	81.88
446.687	75.88
446.908	69.88
447.129	80.88
447.35	87.88
447.571	70.88
447.792	85.88
448.013	77.88
448.234	75.88
448.455	73.88
448.675	70.88
448.896	81.88
449.117	72.88
449.338	84.88
449.559	81.88
449.779	86.88
450	74.88
450.221	76.88
450.442	79.88
450.662	74.88
450.883	80.88
451.104	74.88
451.324	79.88
451.545	97.88
451.766	89.88
451.986	97.88
452.207	85.88
452.428	66.88
452.648	80.88
452.869	89.88
453.089	87.88
453.31	89.88
453.53	75.88
453.751	89.88
453.971	99.88
454.192	95.88
454.412	78.88
454.633	85.88
454.853	88.88
455.073	79.88
455.294	91.88
455.514	82.88
455.734	71.88
455.955	80.88
456.175	76.88
456.395	100.88
456.616	82.88
456.836	85.88
457.056	77.88
457.276	76.88
457.497	71.88
457.717	85.88
457.937	82.88
458.157	85.88
458.377	71.88
458.598	69.88
458.818	80.88
459.038	75.88
459.258	88.88
459.478	98.88
459.698	75.88
459.918	83.88
460.138	84.88
460.358	72.88
460.578	90.88
460.798	71.88
461.018	79.88
461.238	91.88
461.458	85.88
461.678	79.88
461.898	82.88
462.118	83.88
462.338	84.88
462.558	75.88
462.777	86.88
462.997	97.88
463.217	85.88
463.437	75.88
463.657	78.88
463.876	70.88
464.096	74.88
464.316	76.88
464.536	99.88
464.755	112.88
464.975	80.88
465.195	101.88
465.414	97.88
465.634	88.88
465.854	65.88
466.073	88.88
466.293	71.88
466.512	95.88
466.732	79.88
466.951	81.88
467.171	84.88
467.391	86.88
467.61	72.88
467.829	83.88
468.049	64.88
468.268	68.88
468.488	87.88
468.707	82.88
468.927	83.88
469.146	82.88
469.365	79.88
469.585	72.88
469.804	71.88
470.023	90.88
470.243	85.88
470.462	68.88
470.681	84.88
470.901	81.88
471.12	77.88
471.339	77.88
471.558	80.88
471.777	85.88
471.997	90.88
472.216	91.88
472.435	82.88
472.654	72.88
472.873	75.88
473.092	76.88
473.311	97.88
473.53	82.88
473.749	73.88
473.968	77.88
474.187	80.88
474.406	79.88
474.625	84.88
474.844	63.88
475.063	82.88
475.282	86.88
475.501	79.88
475.72	103.88
475.939	85.88
476.158	81.88
476.377	77.88
476.596	75.88
476.814	80.88
477.033	76.88
477.252	82.88
477.471	71.88
477.69	78.88
477.908	83.88
478.127	88.88
478.346	79.88
478.564	77.88
478.783	61.88
479.002	76.88
479.22	80.88
479.439	77.88
479.658	82.88
479.876	76.88
480.095	72.88
480.313	75.88
480.532	83.88
480.751	74.88
480.969	85.88
481.188	69.88
481.406	78.88
481.624	82.88
481.843	92.88
482.061	78.88
482.28	73.88
482.498	80.88
482.717	73.88
482.935	97.88
483.153	74.88
483.372	89.88
483.59	73.88
483.808	79.88
484.027	69.88
484.245	79.88
484.463	68.88
484.681	75.88
484.9	69.88
485.118	91.88
485.336	74.88
485.554	81.88
485.772	92.88
485.99	80.88
486.209	71.88
486.427	73.88
486.645	91.88
486.863	81.88
487.081	83.88
487.299	89.88
487.517	75.88
487.735	95.88
487.953	88.88
488.171	91.88
488.389	92.88
488.607	85.88
488.825	83.88
489.043	79.88
489.261	77.88
489.479	80.88
489.696	87.88
489.914	73.88
490.132	76.88
490.35	71.88
490.568	79.88
490.786	81.88
491.003	81.88
491.221	80.88
491.439	85.88
491.657	80.88
491.874	97.88
492.092	87.88
492.31	88.88
492.527	105.88
492.745	79.88
492.963	82.88
493.18	91.88
493.398	80.88
493.615	71.88
493.833	81.88
494.05	79.88
494.268	81.88
494.485	97.88
494.703	88.88
494.92	78.88
495.138	83.88
495.355	92.88
495.573	86.88
495.79	88.88
496.008	76.88
496.225	91.88
496.442	91.88
496.66	92.88
496.877	81.88
497.094	77.88
497.312	87.88
497.529	84.88
497.746	68.88
497.963	76.88
498.181	98.88
498.398	82.88
498.615	82.88
498.832	89.88
499.049	70.88
499.267	85.88
499.484	83.88
499.701	82.88
499.918	77.88
500.135	80.88
500.352	80.88
500.569	70.88
500.786	90.88
501.003	80.88
501.22	76.88
501.437	77.88
501.654	72.88
501.871	80.88
502.088	91.88
502.305	79.88
502.522	75.88
502.739	74.88
502.956	83.88
503.172	90.88
503.389	82.88
503.606	75.88
503.823	77.88
504.04	73.88
504.256	66.88
504.473	59.88
504.69	84.88
504.907	89.88
505.123	76.88
505.34	83.88
505.557	79.88
505.773	81.88
505.99	72.88
506.207	80.88
506.423	83.88
506.64	95.88
506.856	77.88
507.073	65.88
507.289	73.88
507.506	85.88
507.722	84.88
507.939	85.88
508.155	83.88
508.372	94.88
508.588	74.88
508.805	73.88
509.021	67.88
509.238	60.88
509.454	75.88
509.67	79.88
509.887	83.88
510.103	77.88
510.319	68.88
510.536	83.88
510.752	74.88
510.968	72.88
511.184	81.88
511.401	85.88
511.617	73.88
511.833	78.88
512.049	79.88
512.265	72.88
512.481	70.88
512.698	79.88
512.914	69.88
513.13	87.88
513.346	70.88
513.562	82.88
513.778	85.88
513.994	85.88
514.21	81.88
514.426	84.88
514.642	89.88
514.858	72.88
515.074	59.88
515.29	77.88
515.506	92.88
515.721	91.88
515.937	91.88
516.153	74.88
516.369	85.88
516.585	75.88
516.801	98.88
517.016	89.88
517.232	80.88
517.448	75.88
517.664	86.88
517.879	77.88
518.095	89.88
518.311	70.88
518.527	86.88
518.742	83.88
518.958	95.88
519.173	87.88
519.389	81.88
519.605	81.88
519.82	98.88
520.036	92.88
