Data from StA_HRD10591_091.txt Node
Date: Fri May 16 15:19:28 EDT 2025
User: Yrep
Spectrometer: HR+D1059
Trigger mode: 1
Integration Time (sec): 1.000000E-1
Scans to average: 1
Electric dark correction enabled: true
Nonlinearity correction enabled: false
Boxcar width: 0
XAxis mode: Wavelengths
Number of Pixels in Spectrum: 2048
>>>>>Begin Spectral Data<<<<<
223.165	-11.31
223.4	-11.31
223.635	-11.31
223.869	-21.31
224.104	-24.31
224.338	-16.31
224.573	-20.31
224.808	-22.31
225.042	-4.31
225.277	-5.31
225.511	-2.31
225.746	2.69
225.98	15.69
226.215	4.69
226.449	18.69
226.683	23.69
226.918	34.69
227.152	27.69
227.387	33.69
227.621	26.69
227.856	54.69
228.09	48.69
228.324	56.69
228.559	59.69
228.793	51.69
229.027	66.69
229.262	74.69
229.496	62.69
229.73	83.69
229.964	62.69
230.199	69.69
230.433	75.69
230.667	71.69
230.901	82.69
231.136	85.69
231.37	72.69
231.604	71.69
231.838	88.69
232.072	89.69
232.306	79.69
232.541	79.69
232.775	76.69
233.009	82.69
233.243	69.69
233.477	78.69
233.711	81.69
233.945	77.69
234.179	89.69
234.413	67.69
234.647	90.69
234.881	60.69
235.115	83.69
235.349	78.69
235.583	74.69
235.817	73.69
236.051	68.69
236.285	78.69
236.519	61.69
236.753	67.69
236.987	86.69
237.221	69.69
237.455	74.69
237.689	67.69
237.922	74.69
238.156	70.69
238.39	70.69
238.624	83.69
238.858	70.69
239.091	83.69
239.325	76.69
239.559	82.69
239.793	72.69
240.027	61.69
240.26	72.69
240.494	74.69
240.728	72.69
240.961	89.69
241.195	69.69
241.429	72.69
241.662	74.69
241.896	83.69
242.13	69.69
242.363	79.69
242.597	70.69
242.83	85.69
243.064	74.69
243.298	75.69
243.531	72.69
243.765	81.69
243.998	64.69
244.232	77.69
244.465	65.69
244.699	85.69
244.932	74.69
245.166	63.69
245.399	73.69
245.633	76.69
245.866	82.69
246.099	80.69
246.333	87.69
246.566	67.69
246.8	78.69
247.033	66.69
247.266	74.69
247.5	88.69
247.733	75.69
247.966	75.69
248.2	75.69
248.433	70.69
248.666	69.69
248.899	65.69
249.133	79.69
249.366	69.69
249.599	61.69
249.832	78.69
250.066	78.69
250.299	74.69
250.532	78.69
250.765	65.69
250.998	71.69
251.231	66.69
251.465	67.69
251.698	77.69
251.931	83.69
252.164	84.69
252.397	91.69
252.63	85.69
252.863	84.69
253.096	73.69
253.329	89.69
253.562	80.69
253.795	75.69
254.028	73.69
254.261	81.69
254.494	84.69
254.727	79.69
254.96	66.69
255.193	77.69
255.426	68.69
255.659	71.69
255.892	86.69
256.124	92.69
256.357	74.69
256.59	81.69
256.823	78.69
257.056	83.69
257.289	80.69
257.521	87.69
257.754	69.69
257.987	66.69
258.22	76.69
258.452	77.69
258.685	80.69
258.918	74.69
259.151	73.69
259.383	88.69
259.616	70.69
259.849	69.69
260.081	80.69
260.314	77.69
260.547	81.69
260.779	80.69
261.012	75.69
261.244	74.69
261.477	69.69
261.71	66.69
261.942	65.69
262.175	83.69
262.407	68.69
262.64	72.69
262.872	76.69
263.105	86.69
263.337	74.69
263.57	85.69
263.802	74.69
264.035	68.69
264.267	78.69
264.499	86.69
264.732	63.69
264.964	83.69
265.197	65.69
265.429	75.69
265.661	77.69
265.894	63.69
266.126	73.69
266.358	81.69
266.591	87.69
266.823	79.69
267.055	75.69
267.287	86.69
267.52	84.69
267.752	98.69
267.984	85.69
268.216	73.69
268.448	78.69
268.681	73.69
268.913	82.69
269.145	77.69
269.377	75.69
269.609	78.69
269.841	100.69
270.073	75.69
270.306	79.69
270.538	88.69
270.77	79.69
271.002	91.69
271.234	89.69
271.466	90.69
271.698	76.69
271.93	84.69
272.162	84.69
272.394	81.69
272.626	78.69
272.858	78.69
273.09	87.69
273.322	82.69
273.553	76.69
273.785	88.69
274.017	93.69
274.249	79.69
274.481	87.69
274.713	74.69
274.945	80.69
275.176	78.69
275.408	85.69
275.64	83.69
275.872	79.69
276.104	97.69
276.335	77.69
276.567	89.69
276.799	86.69
277.031	75.69
277.262	78.69
277.494	81.69
277.726	71.69
277.957	74.69
278.189	85.69
278.421	79.69
278.652	69.69
278.884	82.69
279.115	84.69
279.347	61.69
279.579	71.69
279.81	75.69
280.042	84.69
280.273	65.69
280.505	63.69
280.736	67.69
280.968	85.69
281.199	89.69
281.431	85.69
281.662	74.69
281.894	86.69
282.125	68.69
282.356	81.69
282.588	79.69
282.819	70.69
283.051	72.69
283.282	86.69
283.513	75.69
283.745	98.69
283.976	83.69
284.207	88.69
284.439	77.69
284.67	82.69
284.901	69.69
285.132	83.69
285.364	100.69
285.595	84.69
285.826	83.69
286.057	89.69
286.288	88.69
286.52	84.69
286.751	66.69
286.982	77.69
287.213	73.69
287.444	89.69
287.675	76.69
287.906	86.69
288.138	78.69
288.369	69.69
288.6	76.69
288.831	94.69
289.062	86.69
289.293	78.69
289.524	73.69
289.755	79.69
289.986	81.69
290.217	77.69
290.448	86.69
290.679	90.69
290.91	78.69
291.141	84.69
291.371	75.69
291.602	68.69
291.833	83.69
292.064	93.69
292.295	83.69
292.526	71.69
292.757	78.69
292.987	99.69
293.218	85.69
293.449	92.69
293.68	74.69
293.91	75.69
294.141	77.69
294.372	75.69
294.603	79.69
294.833	73.69
295.064	82.69
295.295	73.69
295.525	91.69
295.756	83.69
295.987	77.69
296.217	74.69
296.448	77.69
296.679	81.69
296.909	91.69
297.14	87.69
297.37	92.69
297.601	89.69
297.831	87.69
298.062	84.69
298.292	102.69
298.523	86.69
298.753	84.69
298.984	88.69
299.214	98.69
299.445	80.69
299.675	75.69
299.905	86.69
300.136	90.69
300.366	88.69
300.597	85.69
300.827	74.69
301.057	76.69
301.288	90.69
301.518	92.69
301.748	90.69
301.979	116.69
302.209	95.69
302.439	90.69
302.669	87.69
302.9	67.69
303.13	90.69
303.36	84.69
303.59	98.69
303.82	88.69
304.051	78.69
304.281	92.69
304.511	85.69
304.741	81.69
304.971	75.69
305.201	91.69
305.431	94.69
305.661	85.69
305.891	75.69
306.121	87.69
306.352	81.69
306.582	77.69
306.812	85.69
307.042	77.69
307.272	90.69
307.502	78.69
307.731	69.69
307.961	89.69
308.191	86.69
308.421	79.69
308.651	91.69
308.881	76.69
309.111	81.69
309.341	77.69
309.571	83.69
309.8	77.69
310.03	79.69
310.26	72.69
310.49	73.69
310.72	93.69
310.949	89.69
311.179	72.69
311.409	85.69
311.639	87.69
311.868	92.69
312.098	98.69
312.328	83.69
312.557	79.69
312.787	72.69
313.017	89.69
313.246	97.69
313.476	85.69
313.706	78.69
313.935	70.69
314.165	82.69
314.394	87.69
314.624	94.69
314.853	82.69
315.083	85.69
315.312	76.69
315.542	75.69
315.771	84.69
316.001	91.69
316.23	77.69
316.46	88.69
316.689	82.69
316.919	77.69
317.148	84.69
317.377	77.69
317.607	78.69
317.836	81.69
318.065	91.69
318.295	98.69
318.524	95.69
318.753	73.69
318.983	83.69
319.212	82.69
319.441	86.69
319.67	85.69
319.9	85.69
320.129	92.69
320.358	79.69
320.587	95.69
320.816	91.69
321.046	92.69
321.275	87.69
321.504	73.69
321.733	87.69
321.962	90.69
322.191	99.69
322.42	81.69
322.649	69.69
322.878	101.69
323.108	92.69
323.337	77.69
323.566	81.69
323.795	82.69
324.024	99.69
324.253	83.69
324.482	71.69
324.71	87.69
324.939	90.69
325.168	85.69
325.397	90.69
325.626	73.69
325.855	79.69
326.084	84.69
326.313	78.69
326.542	74.69
326.77	86.69
326.999	76.69
327.228	74.69
327.457	78.69
327.686	86.69
327.914	87.69
328.143	89.69
328.372	76.69
328.6	79.69
328.829	83.69
329.058	84.69
329.287	85.69
329.515	84.69
329.744	80.69
329.972	74.69
330.201	87.69
330.43	79.69
330.658	80.69
330.887	76.69
331.115	77.69
331.344	89.69
331.572	93.69
331.801	82.69
332.03	67.69
332.258	72.69
332.486	86.69
332.715	79.69
332.943	85.69
333.172	87.69
333.4	75.69
333.629	91.69
333.857	77.69
334.085	75.69
334.314	86.69
334.542	89.69
334.771	89.69
334.999	83.69
335.227	93.69
335.455	71.69
335.684	97.69
335.912	82.69
336.14	81.69
336.369	81.69
336.597	85.69
336.825	83.69
337.053	74.69
337.281	81.69
337.51	69.69
337.738	83.69
337.966	87.69
338.194	82.69
338.422	82.69
338.65	70.69
338.878	73.69
339.106	97.69
339.334	78.69
339.562	82.69
339.79	65.69
340.018	81.69
340.246	67.69
340.474	92.69
340.702	92.69
340.93	81.69
341.158	78.69
341.386	75.69
341.614	88.69
341.842	83.69
342.07	85.69
342.298	82.69
342.526	85.69
342.754	82.69
342.981	78.69
343.209	74.69
343.437	93.69
343.665	92.69
343.893	84.69
344.12	97.69
344.348	77.69
344.576	70.69
344.804	87.69
345.031	84.69
345.259	94.69
345.487	79.69
345.714	79.69
345.942	77.69
346.17	75.69
346.397	76.69
346.625	90.69
346.853	100.69
347.08	90.69
347.308	101.69
347.535	94.69
347.763	75.69
347.99	81.69
348.218	87.69
348.445	83.69
348.673	81.69
348.9	85.69
349.128	81.69
349.355	79.69
349.583	75.69
349.81	81.69
350.037	72.69
350.265	86.69
350.492	84.69
350.72	85.69
350.947	71.69
351.174	95.69
351.402	77.69
351.629	74.69
351.856	79.69
352.083	83.69
352.311	84.69
352.538	63.69
352.765	86.69
352.992	94.69
353.22	78.69
353.447	97.69
353.674	82.69
353.901	71.69
354.128	73.69
354.355	67.69
354.583	67.69
354.81	75.69
355.037	83.69
355.264	81.69
355.491	79.69
355.718	92.69
355.945	92.69
356.172	86.69
356.399	73.69
356.626	92.69
356.853	73.69
357.08	79.69
357.307	97.69
357.534	96.69
357.761	110.69
357.988	109.69
358.215	88.69
358.441	86.69
358.668	83.69
358.895	98.69
359.122	102.69
359.349	102.69
359.576	83.69
359.802	94.69
360.029	84.69
360.256	102.69
360.483	107.69
360.709	105.69
360.936	105.69
361.163	92.69
361.39	81.69
361.616	76.69
361.843	80.69
362.07	81.69
362.296	78.69
362.523	63.69
362.749	80.69
362.976	77.69
363.203	83.69
363.429	76.69
363.656	76.69
363.882	89.69
364.109	77.69
364.335	93.69
364.562	84.69
364.788	90.69
365.015	99.69
365.241	89.69
365.468	94.69
365.694	90.69
365.92	76.69
366.147	83.69
366.373	86.69
366.599	78.69
366.826	76.69
367.052	75.69
367.278	94.69
367.505	75.69
367.731	97.69
367.957	85.69
368.184	90.69
368.41	93.69
368.636	99.69
368.862	82.69
369.089	82.69
369.315	75.69
369.541	72.69
369.767	70.69
369.993	79.69
370.219	83.69
370.445	76.69
370.672	71.69
370.898	89.69
371.124	82.69
371.35	78.69
371.576	76.69
371.802	79.69
372.028	73.69
372.254	73.69
372.48	84.69
372.706	76.69
372.932	68.69
373.158	86.69
373.384	78.69
373.61	84.69
373.835	75.69
374.061	81.69
374.287	97.69
374.513	97.69
374.739	78.69
374.965	86.69
375.191	81.69
375.416	89.69
375.642	86.69
375.868	72.69
376.094	77.69
376.319	77.69
376.545	71.69
376.771	80.69
376.997	103.69
377.222	75.69
377.448	91.69
377.674	90.69
377.899	77.69
378.125	80.69
378.35	80.69
378.576	86.69
378.802	88.69
379.027	79.69
379.253	82.69
379.478	90.69
379.704	74.69
379.929	80.69
380.155	78.69
380.38	77.69
380.606	84.69
380.831	86.69
381.057	81.69
381.282	74.69
381.507	89.69
381.733	83.69
381.958	82.69
382.184	91.69
382.409	85.69
382.634	83.69
382.86	80.69
383.085	105.69
383.31	88.69
383.535	68.69
383.761	78.69
383.986	82.69
384.211	71.69
384.436	79.69
384.662	81.69
384.887	90.69
385.112	108.69
385.337	97.69
385.562	91.69
385.787	95.69
386.013	73.69
386.238	83.69
386.463	95.69
386.688	86.69
386.913	88.69
387.138	93.69
387.363	91.69
387.588	91.69
387.813	95.69
388.038	80.69
388.263	98.69
388.488	88.69
388.713	100.69
388.938	91.69
389.163	84.69
389.387	68.69
389.612	82.69
389.837	82.69
390.062	80.69
390.287	85.69
390.512	83.69
390.736	82.69
390.961	82.69
391.186	87.69
391.411	87.69
391.636	80.69
391.86	80.69
392.085	93.69
392.31	82.69
392.534	74.69
392.759	86.69
392.984	85.69
393.208	77.69
393.433	79.69
393.658	66.69
393.882	80.69
394.107	79.69
394.331	92.69
394.556	80.69
394.78	83.69
395.005	84.69
395.229	88.69
395.454	78.69
395.678	83.69
395.903	86.69
396.127	81.69
396.352	92.69
396.576	76.69
396.801	95.69
397.025	95.69
397.249	98.69
397.474	92.69
397.698	88.69
397.922	82.69
398.147	74.69
398.371	85.69
398.595	95.69
398.82	68.69
399.044	83.69
399.268	88.69
399.492	84.69
399.717	82.69
399.941	70.69
400.165	71.69
400.389	83.69
400.613	86.69
400.837	83.69
401.062	82.69
401.286	79.69
401.51	78.69
401.734	79.69
401.958	78.69
402.182	78.69
402.406	77.69
402.63	81.69
402.854	82.69
403.078	74.69
403.302	83.69
403.526	89.69
403.75	87.69
403.974	79.69
404.198	79.69
404.422	67.69
404.645	80.69
404.869	82.69
405.093	90.69
405.317	69.69
405.541	94.69
405.765	77.69
405.988	88.69
406.212	88.69
406.436	90.69
406.66	90.69
406.883	82.69
407.107	75.69
407.331	89.69
407.555	84.69
407.778	85.69
408.002	85.69
408.226	97.69
408.449	77.69
408.673	84.69
408.896	92.69
409.12	90.69
409.344	85.69
409.567	88.69
409.791	81.69
410.014	93.69
410.238	67.69
410.461	84.69
410.685	88.69
410.908	90.69
411.132	90.69
411.355	68.69
411.578	81.69
411.802	73.69
412.025	77.69
412.249	88.69
412.472	75.69
412.695	83.69
412.919	85.69
413.142	94.69
413.365	84.69
413.589	79.69
413.812	62.69
414.035	71.69
414.258	77.69
414.482	75.69
414.705	77.69
414.928	75.69
415.151	83.69
415.374	97.69
415.597	69.69
415.821	73.69
416.044	73.69
416.267	84.69
416.49	69.69
416.713	70.69
416.936	90.69
417.159	83.69
417.382	88.69
417.605	81.69
417.828	91.69
418.051	80.69
418.274	67.69
418.497	86.69
418.72	76.69
418.943	94.69
419.166	82.69
419.389	82.69
419.611	75.69
419.834	66.69
420.057	92.69
420.28	85.69
420.503	85.69
420.726	84.69
420.948	75.69
421.171	84.69
421.394	73.69
421.617	70.69
421.839	77.69
422.062	77.69
422.285	86.69
422.507	79.69
422.73	86.69
422.953	79.69
423.175	78.69
423.398	88.69
423.621	85.69
423.843	71.69
424.066	88.69
424.288	85.69
424.511	68.69
424.733	85.69
424.956	84.69
425.178	93.69
425.401	110.69
425.623	140.69
425.846	78.69
426.068	95.69
426.291	83.69
426.513	92.69
426.735	75.69
426.958	73.69
427.18	77.69
427.402	113.69
427.625	123.69
427.847	105.69
428.069	89.69
428.292	88.69
428.514	90.69
428.736	86.69
428.958	99.69
429.181	125.69
429.403	87.69
429.625	84.69
429.847	87.69
430.069	85.69
430.292	71.69
430.514	75.69
430.736	81.69
430.958	80.69
431.18	78.69
431.402	76.69
431.624	87.69
431.846	90.69
432.068	86.69
432.29	90.69
432.512	82.69
432.734	78.69
432.956	77.69
433.178	85.69
433.4	84.69
433.622	102.69
433.844	94.69
434.066	107.69
434.287	93.69
434.509	93.69
434.731	102.69
434.953	84.69
435.175	101.69
435.397	106.69
435.618	84.69
435.84	86.69
436.062	86.69
436.284	101.69
436.505	87.69
436.727	79.69
436.949	89.69
437.17	88.69
437.392	90.69
437.614	88.69
437.835	76.69
438.057	61.69
438.278	77.69
438.5	95.69
438.721	92.69
438.943	79.69
439.165	73.69
439.386	75.69
439.608	89.69
439.829	73.69
440.05	95.69
440.272	84.69
440.493	70.69
440.715	74.69
440.936	88.69
441.158	95.69
441.379	78.69
441.6	78.69
441.822	73.69
442.043	84.69
442.264	94.69
442.486	86.69
442.707	91.69
442.928	95.69
443.149	75.69
443.371	73.69
443.592	72.69
443.813	78.69
444.034	85.69
444.255	83.69
444.476	79.69
444.698	78.69
444.919	83.69
445.14	148.69
445.361	113.69
445.582	81.69
445.803	78.69
446.024	91.69
446.245	88.69
446.466	84.69
446.687	79.69
446.908	86.69
447.129	85.69
447.35	81.69
447.571	82.69
447.792	71.69
448.013	82.69
448.234	79.69
448.455	81.69
448.675	76.69
448.896	78.69
449.117	88.69
449.338	77.69
449.559	88.69
449.779	94.69
450	81.69
450.221	82.69
450.442	82.69
450.662	90.69
450.883	92.69
451.104	75.69
451.324	84.69
451.545	87.69
451.766	85.69
451.986	77.69
452.207	70.69
452.428	81.69
452.648	89.69
452.869	82.69
453.089	94.69
453.31	70.69
453.53	79.69
453.751	82.69
453.971	91.69
454.192	95.69
454.412	98.69
454.633	103.69
454.853	80.69
455.073	77.69
455.294	67.69
455.514	76.69
455.734	70.69
455.955	92.69
456.175	76.69
456.395	67.69
456.616	85.69
456.836	81.69
457.056	73.69
457.276	86.69
457.497	74.69
457.717	69.69
457.937	78.69
458.157	86.69
458.377	83.69
458.598	81.69
458.818	66.69
459.038	74.69
459.258	85.69
459.478	76.69
459.698	80.69
459.918	98.69
460.138	82.69
460.358	90.69
460.578	73.69
460.798	81.69
461.018	80.69
461.238	81.69
461.458	107.69
461.678	92.69
461.898	85.69
462.118	90.69
462.338	86.69
462.558	86.69
462.777	88.69
462.997	91.69
463.217	73.69
463.437	74.69
463.657	65.69
463.876	70.69
464.096	80.69
464.316	88.69
464.536	81.69
464.755	111.69
464.975	86.69
465.195	101.69
465.414	100.69
465.634	92.69
465.854	82.69
466.073	79.69
466.293	79.69
466.512	76.69
466.732	90.69
466.951	83.69
467.171	86.69
467.391	77.69
467.61	89.69
467.829	70.69
468.049	69.69
468.268	76.69
468.488	90.69
468.707	73.69
468.927	83.69
469.146	97.69
469.365	91.69
469.585	86.69
469.804	96.69
470.023	86.69
470.243	83.69
470.462	85.69
470.681	87.69
470.901	81.69
471.12	80.69
471.339	72.69
471.558	79.69
471.777	83.69
471.997	93.69
472.216	91.69
472.435	78.69
472.654	94.69
472.873	93.69
473.092	83.69
473.311	90.69
473.53	76.69
473.749	77.69
473.968	91.69
474.187	80.69
474.406	74.69
474.625	84.69
474.844	82.69
475.063	81.69
475.282	90.69
475.501	86.69
475.72	101.69
475.939	87.69
476.158	89.69
476.377	73.69
476.596	88.69
476.814	86.69
477.033	92.69
477.252	92.69
477.471	78.69
477.69	81.69
477.908	90.69
478.127	95.69
478.346	89.69
478.564	83.69
478.783	85.69
479.002	86.69
479.22	85.69
479.439	81.69
479.658	82.69
479.876	81.69
480.095	89.69
480.313	79.69
480.532	73.69
480.751	81.69
480.969	71.69
481.188	83.69
481.406	85.69
481.624	81.69
481.843	80.69
482.061	80.69
482.28	84.69
482.498	82.69
482.717	74.69
482.935	88.69
483.153	79.69
483.372	90.69
483.59	75.69
483.808	83.69
484.027	86.69
484.245	67.69
484.463	82.69
484.681	78.69
484.9	78.69
485.118	93.69
485.336	89.69
485.554	90.69
485.772	82.69
485.99	80.69
486.209	78.69
486.427	79.69
486.645	90.69
486.863	75.69
487.081	71.69
487.299	89.69
487.517	78.69
487.735	66.69
487.953	73.69
488.171	69.69
488.389	71.69
488.607	89.69
488.825	60.69
489.043	86.69
489.261	82.69
489.479	83.69
489.696	77.69
489.914	82.69
490.132	83.69
490.35	100.69
490.568	87.69
490.786	81.69
491.003	85.69
491.221	72.69
491.439	75.69
491.657	75.69
491.874	86.69
492.092	87.69
492.31	91.69
492.527	91.69
492.745	88.69
492.963	84.69
493.18	87.69
493.398	88.69
493.615	79.69
493.833	87.69
494.05	91.69
494.268	89.69
494.485	92.69
494.703	75.69
494.92	89.69
495.138	67.69
495.355	86.69
495.573	101.69
495.79	84.69
496.008	85.69
496.225	74.69
496.442	77.69
496.66	89.69
496.877	80.69
497.094	87.69
497.312	77.69
497.529	70.69
497.746	88.69
497.963	75.69
498.181	86.69
498.398	85.69
498.615	71.69
498.832	90.69
499.049	79.69
499.267	84.69
499.484	77.69
499.701	81.69
499.918	83.69
500.135	83.69
500.352	84.69
500.569	90.69
500.786	94.69
501.003	75.69
501.22	81.69
501.437	81.69
501.654	90.69
501.871	74.69
502.088	80.69
502.305	77.69
502.522	86.69
502.739	83.69
502.956	73.69
503.172	90.69
503.389	86.69
503.606	92.69
503.823	85.69
504.04	81.69
504.256	84.69
504.473	93.69
504.69	85.69
504.907	87.69
505.123	77.69
505.34	77.69
505.557	86.69
505.773	85.69
505.99	79.69
506.207	67.69
506.423	88.69
506.64	83.69
506.856	85.69
507.073	85.69
507.289	89.69
507.506	87.69
507.722	82.69
507.939	83.69
508.155	78.69
508.372	87.69
508.588	85.69
508.805	92.69
509.021	95.69
509.238	83.69
509.454	66.69
509.67	67.69
509.887	87.69
510.103	86.69
510.319	77.69
510.536	76.69
510.752	78.69
510.968	82.69
511.184	74.69
511.401	85.69
511.617	94.69
511.833	84.69
512.049	85.69
512.265	100.69
512.481	91.69
512.698	78.69
512.914	82.69
513.13	71.69
513.346	85.69
513.562	70.69
513.778	90.69
513.994	82.69
514.21	78.69
514.426	85.69
514.642	67.69
514.858	90.69
515.074	77.69
515.29	85.69
515.506	100.69
515.721	89.69
515.937	107.69
516.153	91.69
516.369	89.69
516.585	85.69
516.801	88.69
517.016	76.69
517.232	84.69
517.448	81.69
517.664	95.69
517.879	65.69
518.095	85.69
518.311	95.69
518.527	90.69
518.742	86.69
518.958	80.69
519.173	83.69
519.389	80.69
519.605	83.69
519.82	103.69
