Data from StA_HRD10591_045.txt Node
Date: Fri May 16 15:19:06 EDT 2025
User: Yrep
Spectrometer: HR+D1059
Trigger mode: 1
Integration Time (sec): 1.000000E-1
Scans to average: 1
Electric dark correction enabled: true
Nonlinearity correction enabled: false
Boxcar width: 0
XAxis mode: Wavelengths
Number of Pixels in Spectrum: 2048
>>>>>Begin Spectral Data<<<<<
223.165	-19.5
223.4	-19.5
223.635	-19.5
223.869	-13.5
224.104	-34.5
224.338	-16.5
224.573	-28.5
224.808	-15.5
225.042	1.5
225.277	-7.5
225.511	6.5
225.746	8.5
225.98	20.5
226.215	12.5
226.449	16.5
226.683	22.5
226.918	20.5
227.152	26.5
227.387	40.5
227.621	33.5
227.856	32.5
228.09	57.5
228.324	59.5
228.559	62.5
228.793	66.5
229.027	74.5
229.262	77.5
229.496	72.5
229.73	76.5
229.964	77.5
230.199	84.5
230.433	73.5
230.667	79.5
230.901	89.5
231.136	74.5
231.37	87.5
231.604	101.5
231.838	94.5
232.072	101.5
232.306	90.5
232.541	94.5
232.775	84.5
233.009	75.5
233.243	89.5
233.477	85.5
233.711	103.5
233.945	88.5
234.179	103.5
234.413	103.5
234.647	101.5
234.881	96.5
235.115	76.5
235.349	85.5
235.583	93.5
235.817	92.5
236.051	96.5
236.285	90.5
236.519	92.5
236.753	86.5
236.987	88.5
237.221	86.5
237.455	91.5
237.689	96.5
237.922	97.5
238.156	92.5
238.39	79.5
238.624	94.5
238.858	90.5
239.091	86.5
239.325	91.5
239.559	95.5
239.793	92.5
240.027	110.5
240.26	99.5
240.494	103.5
240.728	86.5
240.961	83.5
241.195	93.5
241.429	89.5
241.662	97.5
241.896	90.5
242.13	99.5
242.363	87.5
242.597	95.5
242.83	94.5
243.064	104.5
243.298	101.5
243.531	97.5
243.765	82.5
243.998	103.5
244.232	101.5
244.465	107.5
244.699	100.5
244.932	99.5
245.166	110.5
245.399	111.5
245.633	107.5
245.866	106.5
246.099	112.5
246.333	118.5
246.566	110.5
246.8	119.5
247.033	108.5
247.266	105.5
247.5	134.5
247.733	113.5
247.966	108.5
248.2	121.5
248.433	125.5
248.666	125.5
248.899	107.5
249.133	117.5
249.366	119.5
249.599	129.5
249.832	138.5
250.066	144.5
250.299	116.5
250.532	122.5
250.765	118.5
250.998	115.5
251.231	124.5
251.465	132.5
251.698	134.5
251.931	136.5
252.164	140.5
252.397	137.5
252.63	141.5
252.863	140.5
253.096	148.5
253.329	156.5
253.562	143.5
253.795	149.5
254.028	148.5
254.261	139.5
254.494	139.5
254.727	152.5
254.96	146.5
255.193	156.5
255.426	145.5
255.659	156.5
255.892	149.5
256.124	124.5
256.357	147.5
256.59	150.5
256.823	148.5
257.056	164.5
257.289	159.5
257.521	153.5
257.754	173.5
257.987	155.5
258.22	161.5
258.452	160.5
258.685	169.5
258.918	184.5
259.151	158.5
259.383	168.5
259.616	155.5
259.849	149.5
260.081	166.5
260.314	171.5
260.547	165.5
260.779	187.5
261.012	197.5
261.244	188.5
261.477	185.5
261.71	170.5
261.942	170.5
262.175	201.5
262.407	196.5
262.64	206.5
262.872	180.5
263.105	193.5
263.337	201.5
263.57	175.5
263.802	182.5
264.035	189.5
264.267	178.5
264.499	165.5
264.732	166.5
264.964	172.5
265.197	185.5
265.429	207.5
265.661	227.5
265.894	229.5
266.126	267.5
266.358	291.5
266.591	327.5
266.823	320.5
267.055	313.5
267.287	325.5
267.52	347.5
267.752	353.5
267.984	364.5
268.216	297.5
268.448	237.5
268.681	241.5
268.913	284.5
269.145	298.5
269.377	272.5
269.609	275.5
269.841	303.5
270.073	313.5
270.306	272.5
270.538	252.5
270.77	235.5
271.002	254.5
271.234	257.5
271.466	223.5
271.698	232.5
271.93	253.5
272.162	270.5
272.394	271.5
272.626	278.5
272.858	217.5
273.09	210.5
273.322	201.5
273.553	204.5
273.785	207.5
274.017	219.5
274.249	278.5
274.481	307.5
274.713	325.5
274.945	321.5
275.176	374.5
275.408	379.5
275.64	366.5
275.872	394.5
276.104	444.5
276.335	438.5
276.567	427.5
276.799	420.5
277.031	373.5
277.262	284.5
277.494	274.5
277.726	286.5
277.957	314.5
278.189	340.5
278.421	307.5
278.652	282.5
278.884	302.5
279.115	285.5
279.347	304.5
279.579	264.5
279.81	253.5
280.042	283.5
280.273	283.5
280.505	269.5
280.736	226.5
280.968	252.5
281.199	287.5
281.431	327.5
281.662	311.5
281.894	333.5
282.125	372.5
282.356	390.5
282.588	362.5
282.819	343.5
283.051	401.5
283.282	455.5
283.513	525.5
283.745	598.5
283.976	547.5
284.207	513.5
284.439	550.5
284.67	488.5
284.901	480.5
285.132	533.5
285.364	534.5
285.595	517.5
285.826	535.5
286.057	535.5
286.288	547.5
286.52	562.5
286.751	584.5
286.982	503.5
287.213	450.5
287.444	457.5
287.675	512.5
287.906	467.5
288.138	359.5
288.369	310.5
288.6	302.5
288.831	345.5
289.062	406.5
289.293	420.5
289.524	400.5
289.755	443.5
289.986	419.5
290.217	350.5
290.448	262.5
290.679	263.5
290.91	266.5
291.141	263.5
291.371	266.5
291.602	297.5
291.833	269.5
292.064	327.5
292.295	353.5
292.526	394.5
292.757	414.5
292.987	419.5
293.218	348.5
293.449	377.5
293.68	344.5
293.91	312.5
294.141	289.5
294.372	275.5
294.603	271.5
294.833	275.5
295.064	263.5
295.295	271.5
295.525	276.5
295.756	241.5
295.987	250.5
296.217	245.5
296.448	266.5
296.679	269.5
296.909	295.5
297.14	319.5
297.37	359.5
297.601	321.5
297.831	330.5
298.062	341.5
298.292	360.5
298.523	345.5
298.753	367.5
298.984	344.5
299.214	303.5
299.445	272.5
299.675	243.5
299.905	239.5
300.136	224.5
300.366	219.5
300.597	211.5
300.827	209.5
301.057	211.5
301.288	253.5
301.518	278.5
301.748	300.5
301.979	291.5
302.209	272.5
302.439	299.5
302.669	293.5
302.9	311.5
303.13	283.5
303.36	253.5
303.59	256.5
303.82	291.5
304.051	327.5
304.281	354.5
304.511	312.5
304.741	288.5
304.971	309.5
305.201	331.5
305.431	292.5
305.661	258.5
305.891	227.5
306.121	229.5
306.352	197.5
306.582	216.5
306.812	213.5
307.042	179.5
307.272	213.5
307.502	223.5
307.731	191.5
307.961	220.5
308.191	201.5
308.421	215.5
308.651	193.5
308.881	192.5
309.111	216.5
309.341	220.5
309.571	246.5
309.8	234.5
310.03	223.5
310.26	210.5
310.49	215.5
310.72	225.5
310.949	256.5
311.179	269.5
311.409	300.5
311.639	388.5
311.868	481.5
312.098	587.5
312.328	541.5
312.557	543.5
312.787	539.5
313.017	520.5
313.246	563.5
313.476	501.5
313.706	415.5
313.935	344.5
314.165	290.5
314.394	265.5
314.624	285.5
314.853	287.5
315.083	294.5
315.312	251.5
315.542	235.5
315.771	221.5
316.001	201.5
316.23	200.5
316.46	213.5
316.689	205.5
316.919	214.5
317.148	222.5
317.377	232.5
317.607	222.5
317.836	244.5
318.065	281.5
318.295	311.5
318.524	270.5
318.753	220.5
318.983	208.5
319.212	229.5
319.441	246.5
319.67	279.5
319.9	308.5
320.129	232.5
320.358	240.5
320.587	237.5
320.816	270.5
321.046	283.5
321.275	268.5
321.504	237.5
321.733	247.5
321.962	253.5
322.191	231.5
322.42	199.5
322.649	208.5
322.878	193.5
323.108	208.5
323.337	233.5
323.566	248.5
323.795	225.5
324.024	220.5
324.253	204.5
324.482	193.5
324.71	199.5
324.939	201.5
325.168	199.5
325.397	193.5
325.626	196.5
325.855	203.5
326.084	196.5
326.313	195.5
326.542	204.5
326.77	209.5
326.999	218.5
327.228	217.5
327.457	211.5
327.686	196.5
327.914	182.5
328.143	169.5
328.372	197.5
328.6	192.5
328.829	217.5
329.058	220.5
329.287	218.5
329.515	235.5
329.744	224.5
329.972	198.5
330.201	205.5
330.43	218.5
330.658	232.5
330.887	283.5
331.115	262.5
331.344	266.5
331.572	248.5
331.801	206.5
332.03	235.5
332.258	257.5
332.486	271.5
332.715	251.5
332.943	236.5
333.172	256.5
333.4	267.5
333.629	309.5
333.857	308.5
334.085	300.5
334.314	305.5
334.542	287.5
334.771	265.5
334.999	272.5
335.227	258.5
335.455	255.5
335.684	303.5
335.912	368.5
336.14	382.5
336.369	353.5
336.597	371.5
336.825	403.5
337.053	366.5
337.281	279.5
337.51	248.5
337.738	275.5
337.966	301.5
338.194	302.5
338.422	271.5
338.65	232.5
338.878	227.5
339.106	227.5
339.334	262.5
339.562	275.5
339.79	265.5
340.018	271.5
340.246	296.5
340.474	325.5
340.702	309.5
340.93	323.5
341.158	297.5
341.386	243.5
341.614	240.5
341.842	274.5
342.07	315.5
342.298	347.5
342.526	299.5
342.754	236.5
342.981	230.5
343.209	265.5
343.437	301.5
343.665	245.5
343.893	209.5
344.12	206.5
344.348	212.5
344.576	202.5
344.804	206.5
345.031	217.5
345.259	201.5
345.487	200.5
345.714	213.5
345.942	207.5
346.17	209.5
346.397	180.5
346.625	187.5
346.853	211.5
347.08	184.5
347.308	194.5
347.535	188.5
347.763	191.5
347.99	176.5
348.218	195.5
348.445	190.5
348.673	171.5
348.9	183.5
349.128	165.5
349.355	180.5
349.583	197.5
349.81	203.5
350.037	183.5
350.265	170.5
350.492	168.5
350.72	186.5
350.947	173.5
351.174	181.5
351.402	207.5
351.629	172.5
351.856	170.5
352.083	164.5
352.311	188.5
352.538	176.5
352.765	174.5
352.992	184.5
353.22	166.5
353.447	171.5
353.674	188.5
353.901	183.5
354.128	194.5
354.355	169.5
354.583	186.5
354.81	197.5
355.037	176.5
355.264	183.5
355.491	202.5
355.718	191.5
355.945	207.5
356.172	199.5
356.399	198.5
356.626	197.5
356.853	197.5
357.08	216.5
357.307	227.5
357.534	261.5
357.761	312.5
357.988	321.5
358.215	275.5
358.441	249.5
358.668	256.5
358.895	238.5
359.122	270.5
359.349	292.5
359.576	300.5
359.802	227.5
360.029	225.5
360.256	257.5
360.483	288.5
360.709	296.5
360.936	227.5
361.163	215.5
361.39	191.5
361.616	185.5
361.843	189.5
362.07	186.5
362.296	207.5
362.523	179.5
362.749	174.5
362.976	201.5
363.203	212.5
363.429	205.5
363.656	206.5
363.882	212.5
364.109	199.5
364.335	211.5
364.562	196.5
364.788	195.5
365.015	211.5
365.241	205.5
365.468	213.5
365.694	186.5
365.92	202.5
366.147	189.5
366.373	206.5
366.599	189.5
366.826	198.5
367.052	187.5
367.278	179.5
367.505	178.5
367.731	209.5
367.957	207.5
368.184	203.5
368.41	197.5
368.636	207.5
368.862	205.5
369.089	192.5
369.315	175.5
369.541	186.5
369.767	170.5
369.993	196.5
370.219	163.5
370.445	173.5
370.672	183.5
370.898	168.5
371.124	187.5
371.35	204.5
371.576	204.5
371.802	187.5
372.028	174.5
372.254	183.5
372.48	171.5
372.706	177.5
372.932	186.5
373.158	186.5
373.384	187.5
373.61	192.5
373.835	190.5
374.061	215.5
374.287	224.5
374.513	228.5
374.739	224.5
374.965	198.5
375.191	207.5
375.416	185.5
375.642	195.5
375.868	175.5
376.094	176.5
376.319	193.5
376.545	179.5
376.771	184.5
376.997	187.5
377.222	171.5
377.448	201.5
377.674	183.5
377.899	179.5
378.125	169.5
378.35	185.5
378.576	169.5
378.802	190.5
379.027	193.5
379.253	198.5
379.478	196.5
379.704	199.5
379.929	197.5
380.155	199.5
380.38	204.5
380.606	192.5
380.831	192.5
381.057	200.5
381.282	211.5
381.507	182.5
381.733	219.5
381.958	194.5
382.184	207.5
382.409	197.5
382.634	207.5
382.86	208.5
383.085	199.5
383.31	195.5
383.535	201.5
383.761	197.5
383.986	203.5
384.211	219.5
384.436	202.5
384.662	206.5
384.887	237.5
385.112	231.5
385.337	231.5
385.562	236.5
385.787	233.5
386.013	213.5
386.238	233.5
386.463	220.5
386.688	248.5
386.913	223.5
387.138	209.5
387.363	197.5
387.588	208.5
387.813	223.5
388.038	207.5
388.263	238.5
388.488	238.5
388.713	203.5
388.938	205.5
389.163	200.5
389.387	211.5
389.612	184.5
389.837	202.5
390.062	223.5
390.287	212.5
390.512	203.5
390.736	213.5
390.961	227.5
391.186	225.5
391.411	229.5
391.636	226.5
391.86	244.5
392.085	244.5
392.31	224.5
392.534	224.5
392.759	216.5
392.984	207.5
393.208	207.5
393.433	198.5
393.658	184.5
393.882	204.5
394.107	211.5
394.331	200.5
394.556	190.5
394.78	201.5
395.005	179.5
395.229	189.5
395.454	203.5
395.678	195.5
395.903	192.5
396.127	215.5
396.352	240.5
396.576	247.5
396.801	235.5
397.025	265.5
397.249	239.5
397.474	225.5
397.698	253.5
397.922	248.5
398.147	225.5
398.371	236.5
398.595	240.5
398.82	243.5
399.044	253.5
399.268	253.5
399.492	269.5
399.717	243.5
399.941	254.5
400.165	251.5
400.389	243.5
400.613	225.5
400.837	229.5
401.062	219.5
401.286	224.5
401.51	231.5
401.734	229.5
401.958	238.5
402.182	232.5
402.406	218.5
402.63	221.5
402.854	208.5
403.078	222.5
403.302	204.5
403.526	223.5
403.75	234.5
403.974	252.5
404.198	246.5
404.422	224.5
404.645	229.5
404.869	218.5
405.093	231.5
405.317	220.5
405.541	242.5
405.765	235.5
405.988	243.5
406.212	219.5
406.436	223.5
406.66	224.5
406.883	223.5
407.107	224.5
407.331	235.5
407.555	237.5
407.778	230.5
408.002	216.5
408.226	231.5
408.449	224.5
408.673	217.5
408.896	219.5
409.12	217.5
409.344	209.5
409.567	217.5
409.791	241.5
410.014	231.5
410.238	220.5
410.461	216.5
410.685	224.5
410.908	238.5
411.132	232.5
411.355	240.5
411.578	232.5
411.802	221.5
412.025	222.5
412.249	235.5
412.472	239.5
412.695	219.5
412.919	238.5
413.142	224.5
413.365	242.5
413.589	217.5
413.812	197.5
414.035	213.5
414.258	221.5
414.482	200.5
414.705	209.5
414.928	216.5
415.151	224.5
415.374	217.5
415.597	209.5
415.821	212.5
416.044	222.5
416.267	229.5
416.49	238.5
416.713	219.5
416.936	222.5
417.159	235.5
417.382	238.5
417.605	217.5
417.828	214.5
418.051	233.5
418.274	214.5
418.497	192.5
418.72	213.5
418.943	201.5
419.166	214.5
419.389	235.5
419.611	232.5
419.834	223.5
420.057	195.5
420.28	210.5
420.503	212.5
420.726	207.5
420.948	223.5
421.171	209.5
421.394	203.5
421.617	235.5
421.839	240.5
422.062	213.5
422.285	229.5
422.507	219.5
422.73	213.5
422.953	205.5
423.175	226.5
423.398	207.5
423.621	229.5
423.843	219.5
424.066	208.5
424.288	219.5
424.511	218.5
424.733	212.5
424.956	239.5
425.178	250.5
425.401	335.5
425.623	364.5
425.846	252.5
426.068	235.5
426.291	231.5
426.513	222.5
426.735	229.5
426.958	238.5
427.18	257.5
427.402	316.5
427.625	358.5
427.847	272.5
428.069	246.5
428.292	230.5
428.514	204.5
428.736	221.5
428.958	291.5
429.181	311.5
429.403	233.5
429.625	223.5
429.847	219.5
430.069	218.5
430.292	206.5
430.514	207.5
430.736	211.5
430.958	224.5
431.18	204.5
431.402	209.5
431.624	213.5
431.846	164.5
432.068	208.5
432.29	206.5
432.512	217.5
432.734	193.5
432.956	211.5
433.178	210.5
433.4	207.5
433.622	239.5
433.844	274.5
434.066	266.5
434.287	249.5
434.509	264.5
434.731	257.5
434.953	239.5
435.175	260.5
435.397	262.5
435.618	219.5
435.84	220.5
436.062	223.5
436.284	222.5
436.505	209.5
436.727	204.5
436.949	204.5
437.17	221.5
437.392	229.5
437.614	226.5
437.835	203.5
438.057	200.5
438.278	201.5
438.5	202.5
438.721	211.5
438.943	212.5
439.165	189.5
439.386	195.5
439.608	210.5
439.829	207.5
440.05	182.5
440.272	207.5
440.493	190.5
440.715	193.5
440.936	198.5
441.158	193.5
441.379	211.5
441.6	210.5
441.822	198.5
442.043	193.5
442.264	211.5
442.486	223.5
442.707	211.5
442.928	222.5
443.149	223.5
443.371	222.5
443.592	201.5
443.813	194.5
444.034	217.5
444.255	234.5
444.476	220.5
444.698	200.5
444.919	218.5
445.14	306.5
445.361	262.5
445.582	220.5
445.803	229.5
446.024	217.5
446.245	224.5
446.466	205.5
446.687	217.5
446.908	199.5
447.129	216.5
447.35	201.5
447.571	225.5
447.792	204.5
448.013	188.5
448.234	190.5
448.455	198.5
448.675	209.5
448.896	217.5
449.117	197.5
449.338	202.5
449.559	208.5
449.779	229.5
450	214.5
450.221	219.5
450.442	199.5
450.662	208.5
450.883	201.5
451.104	186.5
451.324	199.5
451.545	207.5
451.766	204.5
451.986	197.5
452.207	220.5
452.428	191.5
452.648	233.5
452.869	232.5
453.089	210.5
453.31	200.5
453.53	199.5
453.751	204.5
453.971	204.5
454.192	215.5
454.412	215.5
454.633	228.5
454.853	205.5
455.073	205.5
455.294	185.5
455.514	214.5
455.734	217.5
455.955	212.5
456.175	211.5
456.395	216.5
456.616	201.5
456.836	202.5
457.056	201.5
457.276	209.5
457.497	180.5
457.717	176.5
457.937	215.5
458.157	224.5
458.377	193.5
458.598	195.5
458.818	219.5
459.038	224.5
459.258	211.5
459.478	229.5
459.698	220.5
459.918	187.5
460.138	232.5
460.358	228.5
460.578	211.5
460.798	215.5
461.018	214.5
461.238	209.5
461.458	240.5
461.678	244.5
461.898	270.5
462.118	258.5
462.338	241.5
462.558	253.5
462.777	254.5
462.997	248.5
463.217	263.5
463.437	241.5
463.657	249.5
463.876	229.5
464.096	225.5
464.316	233.5
464.536	241.5
464.755	280.5
464.975	263.5
465.195	253.5
465.414	255.5
465.634	226.5
465.854	211.5
466.073	213.5
466.293	202.5
466.512	208.5
466.732	218.5
466.951	225.5
467.171	190.5
467.391	204.5
467.61	197.5
467.829	191.5
468.049	193.5
468.268	188.5
468.488	197.5
468.707	191.5
468.927	190.5
469.146	206.5
469.365	202.5
469.585	205.5
469.804	202.5
470.023	233.5
470.243	194.5
470.462	199.5
470.681	196.5
470.901	223.5
471.12	217.5
471.339	219.5
471.558	200.5
471.777	212.5
471.997	208.5
472.216	217.5
472.435	204.5
472.654	199.5
472.873	216.5
473.092	215.5
473.311	244.5
473.53	202.5
473.749	217.5
473.968	210.5
474.187	197.5
474.406	193.5
474.625	199.5
474.844	203.5
475.063	205.5
475.282	200.5
475.501	216.5
475.72	218.5
475.939	223.5
476.158	208.5
476.377	211.5
476.596	219.5
476.814	228.5
477.033	211.5
477.252	213.5
477.471	215.5
477.69	230.5
477.908	227.5
478.127	224.5
478.346	216.5
478.564	208.5
478.783	232.5
479.002	250.5
479.22	229.5
479.439	231.5
479.658	252.5
479.876	243.5
480.095	244.5
480.313	245.5
480.532	225.5
480.751	232.5
480.969	216.5
481.188	215.5
481.406	218.5
481.624	213.5
481.843	225.5
482.061	221.5
482.28	207.5
482.498	238.5
482.717	229.5
482.935	224.5
483.153	231.5
483.372	233.5
483.59	224.5
483.808	233.5
484.027	234.5
484.245	233.5
484.463	231.5
484.681	221.5
484.9	237.5
485.118	235.5
485.336	219.5
485.554	201.5
485.772	229.5
485.99	239.5
486.209	243.5
486.427	244.5
486.645	240.5
486.863	229.5
487.081	243.5
487.299	241.5
487.517	240.5
487.735	237.5
487.953	243.5
488.171	239.5
488.389	236.5
488.607	245.5
488.825	257.5
489.043	252.5
489.261	231.5
489.479	221.5
489.696	221.5
489.914	237.5
490.132	252.5
490.35	255.5
490.568	232.5
490.786	238.5
491.003	230.5
491.221	239.5
491.439	230.5
491.657	239.5
491.874	245.5
492.092	243.5
492.31	286.5
492.527	274.5
492.745	239.5
492.963	225.5
493.18	248.5
493.398	251.5
493.615	247.5
493.833	240.5
494.05	252.5
494.268	231.5
494.485	253.5
494.703	237.5
494.92	247.5
495.138	231.5
495.355	251.5
495.573	275.5
495.79	253.5
496.008	252.5
496.225	232.5
496.442	237.5
496.66	247.5
496.877	254.5
497.094	257.5
497.312	261.5
497.529	263.5
497.746	269.5
497.963	268.5
498.181	273.5
498.398	280.5
498.615	299.5
498.832	303.5
499.049	294.5
499.267	300.5
499.484	317.5
499.701	329.5
499.918	338.5
500.135	375.5
500.352	372.5
500.569	374.5
500.786	367.5
501.003	377.5
501.22	344.5
501.437	318.5
501.654	337.5
501.871	321.5
502.088	317.5
502.305	289.5
502.522	262.5
502.739	268.5
502.956	272.5
503.172	287.5
503.389	267.5
503.606	267.5
503.823	262.5
504.04	272.5
504.256	251.5
504.473	279.5
504.69	272.5
504.907	250.5
505.123	257.5
505.34	245.5
505.557	250.5
505.773	244.5
505.99	268.5
506.207	249.5
506.423	225.5
506.64	235.5
506.856	230.5
507.073	218.5
507.289	216.5
507.506	231.5
507.722	232.5
507.939	232.5
508.155	224.5
508.372	233.5
508.588	215.5
508.805	233.5
509.021	234.5
509.238	231.5
509.454	218.5
509.67	216.5
509.887	231.5
510.103	223.5
510.319	230.5
510.536	224.5
510.752	220.5
510.968	200.5
511.184	212.5
511.401	199.5
511.617	215.5
511.833	220.5
512.049	221.5
512.265	216.5
512.481	212.5
512.698	222.5
512.914	224.5
513.13	219.5
513.346	204.5
513.562	207.5
513.778	232.5
513.994	212.5
514.21	224.5
514.426	230.5
514.642	222.5
514.858	232.5
515.074	225.5
515.29	230.5
515.506	229.5
515.721	220.5
515.937	239.5
516.153	237.5
516.369	232.5
516.585	232.5
516.801	248.5
517.016	236.5
517.232	248.5
517.448	235.5
517.664	229.5
517.879	249.5
518.095	248.5
518.311	249.5
518.527	251.5
518.742	241.5
518.958	230.5
519.173	245.5
519.389	256.5
519.605	251.5
519.82	243.5
520.036	264.5
520.251	299.5
520.467	430.5
520.682	776.5
520.898	798.5
521.113	623.5
521.329	309.5
521.544	263.5
