Data from StA_HRD10591_003.txt Node
Date: Fri May 16 15:18:46 EDT 2025
User: Yrep
Spectrometer: HR+D1059
Trigger mode: 1
Integration Time (sec): 1.000000E-1
Scans to average: 1
Electric dark correction enabled: true
Nonlinearity correction enabled: false
Boxcar width: 0
XAxis mode: Wavelengths
Number of Pixels in Spectrum: 2048
>>>>>Begin Spectral Data<<<<<
223.165	-18.88
223.4	-18.88
223.635	-18.88
223.869	-16.88
224.104	-26.88
224.338	-7.88
224.573	-15.88
224.808	-13.88
225.042	-3.88
225.277	-2.88
225.511	-0.88
225.746	10.12
225.98	7.12
226.215	8.12
226.449	12.12
226.683	22.12
226.918	20.12
227.152	28.12
227.387	31.12
227.621	29.12
227.856	53.12
228.09	48.12
228.324	48.12
228.559	63.12
228.793	54.12
229.027	61.12
229.262	72.12
229.496	74.12
229.73	80.12
229.964	76.12
230.199	93.12
230.433	92.12
230.667	73.12
230.901	86.12
231.136	86.12
231.37	83.12
231.604	86.12
231.838	89.12
232.072	99.12
232.306	101.12
232.541	78.12
232.775	110.12
233.009	94.12
233.243	73.12
233.477	98.12
233.711	98.12
233.945	82.12
234.179	93.12
234.413	106.12
234.647	93.12
234.881	86.12
235.115	90.12
235.349	102.12
235.583	94.12
235.817	98.12
236.051	86.12
236.285	81.12
236.519	93.12
236.753	95.12
236.987	94.12
237.221	91.12
237.455	91.12
237.689	93.12
237.922	90.12
238.156	94.12
238.39	75.12
238.624	91.12
238.858	78.12
239.091	96.12
239.325	85.12
239.559	94.12
239.793	86.12
240.027	102.12
240.26	56.12
240.494	88.12
240.728	95.12
240.961	86.12
241.195	101.12
241.429	100.12
241.662	80.12
241.896	94.12
242.13	103.12
242.363	90.12
242.597	85.12
242.83	97.12
243.064	74.12
243.298	90.12
243.531	110.12
243.765	96.12
243.998	99.12
244.232	82.12
244.465	95.12
244.699	100.12
244.932	100.12
245.166	89.12
245.399	104.12
245.633	123.12
245.866	111.12
246.099	106.12
246.333	106.12
246.566	115.12
246.8	120.12
247.033	117.12
247.266	113.12
247.5	110.12
247.733	110.12
247.966	111.12
248.2	123.12
248.433	135.12
248.666	116.12
248.899	122.12
249.133	114.12
249.366	121.12
249.599	112.12
249.832	125.12
250.066	127.12
250.299	114.12
250.532	115.12
250.765	119.12
250.998	117.12
251.231	118.12
251.465	134.12
251.698	129.12
251.931	132.12
252.164	143.12
252.397	130.12
252.63	135.12
252.863	142.12
253.096	135.12
253.329	145.12
253.562	136.12
253.795	134.12
254.028	146.12
254.261	149.12
254.494	136.12
254.727	137.12
254.96	150.12
255.193	143.12
255.426	130.12
255.659	135.12
255.892	134.12
256.124	133.12
256.357	145.12
256.59	159.12
256.823	165.12
257.056	158.12
257.289	160.12
257.521	150.12
257.754	163.12
257.987	165.12
258.22	171.12
258.452	164.12
258.685	159.12
258.918	174.12
259.151	162.12
259.383	166.12
259.616	156.12
259.849	170.12
260.081	155.12
260.314	168.12
260.547	170.12
260.779	175.12
261.012	173.12
261.244	168.12
261.477	173.12
261.71	157.12
261.942	170.12
262.175	162.12
262.407	186.12
262.64	177.12
262.872	181.12
263.105	179.12
263.337	172.12
263.57	163.12
263.802	193.12
264.035	167.12
264.267	171.12
264.499	189.12
264.732	151.12
264.964	147.12
265.197	179.12
265.429	198.12
265.661	203.12
265.894	213.12
266.126	238.12
266.358	259.12
266.591	288.12
266.823	299.12
267.055	286.12
267.287	298.12
267.52	317.12
267.752	335.12
267.984	336.12
268.216	280.12
268.448	220.12
268.681	238.12
268.913	274.12
269.145	263.12
269.377	262.12
269.609	252.12
269.841	264.12
270.073	285.12
270.306	268.12
270.538	238.12
270.77	219.12
271.002	228.12
271.234	232.12
271.466	223.12
271.698	228.12
271.93	244.12
272.162	256.12
272.394	240.12
272.626	243.12
272.858	234.12
273.09	216.12
273.322	178.12
273.553	192.12
273.785	198.12
274.017	214.12
274.249	247.12
274.481	271.12
274.713	292.12
274.945	316.12
275.176	349.12
275.408	330.12
275.64	324.12
275.872	351.12
276.104	410.12
276.335	391.12
276.567	418.12
276.799	399.12
277.031	339.12
277.262	255.12
277.494	234.12
277.726	266.12
277.957	281.12
278.189	292.12
278.421	287.12
278.652	292.12
278.884	264.12
279.115	284.12
279.347	260.12
279.579	235.12
279.81	234.12
280.042	262.12
280.273	276.12
280.505	245.12
280.736	231.12
280.968	247.12
281.199	276.12
281.431	294.12
281.662	275.12
281.894	302.12
282.125	360.12
282.356	376.12
282.588	351.12
282.819	333.12
283.051	358.12
283.282	457.12
283.513	480.12
283.745	539.12
283.976	486.12
284.207	474.12
284.439	484.12
284.67	443.12
284.901	450.12
285.132	482.12
285.364	463.12
285.595	452.12
285.826	467.12
286.057	462.12
286.288	503.12
286.52	495.12
286.751	520.12
286.982	473.12
287.213	412.12
287.444	402.12
287.675	426.12
287.906	416.12
288.138	320.12
288.369	311.12
288.6	292.12
288.831	329.12
289.062	378.12
289.293	371.12
289.524	386.12
289.755	392.12
289.986	350.12
290.217	311.12
290.448	277.12
290.679	256.12
290.91	242.12
291.141	254.12
291.371	272.12
291.602	262.12
291.833	269.12
292.064	303.12
292.295	337.12
292.526	357.12
292.757	363.12
292.987	381.12
293.218	333.12
293.449	333.12
293.68	319.12
293.91	279.12
294.141	268.12
294.372	254.12
294.603	244.12
294.833	268.12
295.064	251.12
295.295	261.12
295.525	274.12
295.756	218.12
295.987	220.12
296.217	229.12
296.448	248.12
296.679	242.12
296.909	268.12
297.14	309.12
297.37	353.12
297.601	313.12
297.831	305.12
298.062	309.12
298.292	325.12
298.523	327.12
298.753	357.12
298.984	316.12
299.214	268.12
299.445	255.12
299.675	220.12
299.905	238.12
300.136	214.12
300.366	229.12
300.597	223.12
300.827	204.12
301.057	223.12
301.288	237.12
301.518	264.12
301.748	260.12
301.979	272.12
302.209	280.12
302.439	256.12
302.669	268.12
302.9	284.12
303.13	264.12
303.36	252.12
303.59	248.12
303.82	264.12
304.051	304.12
304.281	319.12
304.511	286.12
304.741	265.12
304.971	292.12
305.201	295.12
305.431	254.12
305.661	219.12
305.891	220.12
306.121	208.12
306.352	196.12
306.582	204.12
306.812	198.12
307.042	187.12
307.272	188.12
307.502	188.12
307.731	194.12
307.961	197.12
308.191	189.12
308.421	203.12
308.651	197.12
308.881	202.12
309.111	210.12
309.341	230.12
309.571	253.12
309.8	231.12
310.03	194.12
310.26	202.12
310.49	214.12
310.72	230.12
310.949	235.12
311.179	258.12
311.409	268.12
311.639	346.12
311.868	448.12
312.098	504.12
312.328	505.12
312.557	513.12
312.787	511.12
313.017	460.12
313.246	507.12
313.476	477.12
313.706	391.12
313.935	326.12
314.165	279.12
314.394	248.12
314.624	267.12
314.853	272.12
315.083	260.12
315.312	249.12
315.542	234.12
315.771	218.12
316.001	204.12
316.23	188.12
316.46	195.12
316.689	219.12
316.919	219.12
317.148	201.12
317.377	212.12
317.607	229.12
317.836	246.12
318.065	279.12
318.295	295.12
318.524	249.12
318.753	206.12
318.983	206.12
319.212	198.12
319.441	235.12
319.67	260.12
319.9	272.12
320.129	238.12
320.358	239.12
320.587	223.12
320.816	254.12
321.046	279.12
321.275	263.12
321.504	252.12
321.733	243.12
321.962	263.12
322.191	234.12
322.42	204.12
322.649	189.12
322.878	196.12
323.108	202.12
323.337	218.12
323.566	237.12
323.795	237.12
324.024	234.12
324.253	212.12
324.482	190.12
324.71	191.12
324.939	196.12
325.168	211.12
325.397	197.12
325.626	186.12
325.855	184.12
326.084	199.12
326.313	209.12
326.542	192.12
326.77	223.12
326.999	216.12
327.228	212.12
327.457	191.12
327.686	175.12
327.914	175.12
328.143	198.12
328.372	186.12
328.6	204.12
328.829	197.12
329.058	210.12
329.287	220.12
329.515	231.12
329.744	222.12
329.972	206.12
330.201	211.12
330.43	204.12
330.658	236.12
330.887	258.12
331.115	250.12
331.344	269.12
331.572	232.12
331.801	224.12
332.03	226.12
332.258	252.12
332.486	255.12
332.715	217.12
332.943	229.12
333.172	255.12
333.4	245.12
333.629	275.12
333.857	283.12
334.085	280.12
334.314	264.12
334.542	262.12
334.771	239.12
334.999	244.12
335.227	248.12
335.455	260.12
335.684	297.12
335.912	350.12
336.14	344.12
336.369	332.12
336.597	333.12
336.825	373.12
337.053	341.12
337.281	279.12
337.51	262.12
337.738	242.12
337.966	295.12
338.194	285.12
338.422	254.12
338.65	224.12
338.878	228.12
339.106	235.12
339.334	248.12
339.562	258.12
339.79	244.12
340.018	239.12
340.246	272.12
340.474	292.12
340.702	302.12
340.93	301.12
341.158	278.12
341.386	241.12
341.614	216.12
341.842	252.12
342.07	298.12
342.298	340.12
342.526	280.12
342.754	230.12
342.981	226.12
343.209	249.12
343.437	275.12
343.665	240.12
343.893	223.12
344.12	219.12
344.348	217.12
344.576	191.12
344.804	200.12
345.031	186.12
345.259	213.12
345.487	215.12
345.714	204.12
345.942	192.12
346.17	196.12
346.397	185.12
346.625	194.12
346.853	205.12
347.08	199.12
347.308	191.12
347.535	189.12
347.763	187.12
347.99	183.12
348.218	180.12
348.445	179.12
348.673	182.12
348.9	176.12
349.128	189.12
349.355	168.12
349.583	189.12
349.81	186.12
350.037	192.12
350.265	176.12
350.492	171.12
350.72	185.12
350.947	184.12
351.174	180.12
351.402	203.12
351.629	184.12
351.856	196.12
352.083	172.12
352.311	195.12
352.538	192.12
352.765	176.12
352.992	173.12
353.22	169.12
353.447	176.12
353.674	178.12
353.901	178.12
354.128	174.12
354.355	170.12
354.583	167.12
354.81	193.12
355.037	209.12
355.264	182.12
355.491	184.12
355.718	202.12
355.945	187.12
356.172	202.12
356.399	211.12
356.626	207.12
356.853	188.12
357.08	186.12
357.307	203.12
357.534	255.12
357.761	300.12
357.988	313.12
358.215	285.12
358.441	247.12
358.668	239.12
358.895	234.12
359.122	244.12
359.349	287.12
359.576	289.12
359.802	220.12
360.029	208.12
360.256	263.12
360.483	259.12
360.709	285.12
360.936	228.12
361.163	203.12
361.39	175.12
361.616	170.12
361.843	194.12
362.07	191.12
362.296	183.12
362.523	181.12
362.749	192.12
362.976	188.12
363.203	199.12
363.429	192.12
363.656	213.12
363.882	199.12
364.109	234.12
364.335	209.12
364.562	200.12
364.788	186.12
365.015	218.12
365.241	192.12
365.468	183.12
365.694	176.12
365.92	201.12
366.147	183.12
366.373	194.12
366.599	181.12
366.826	206.12
367.052	187.12
367.278	192.12
367.505	189.12
367.731	206.12
367.957	204.12
368.184	204.12
368.41	196.12
368.636	210.12
368.862	191.12
369.089	204.12
369.315	213.12
369.541	186.12
369.767	187.12
369.993	205.12
370.219	194.12
370.445	183.12
370.672	182.12
370.898	181.12
371.124	200.12
371.35	212.12
371.576	203.12
371.802	181.12
372.028	177.12
372.254	193.12
372.48	213.12
372.706	198.12
372.932	198.12
373.158	206.12
373.384	184.12
373.61	186.12
373.835	167.12
374.061	196.12
374.287	218.12
374.513	231.12
374.739	209.12
374.965	218.12
375.191	210.12
375.416	188.12
375.642	181.12
375.868	184.12
376.094	184.12
376.319	181.12
376.545	190.12
376.771	200.12
376.997	204.12
377.222	180.12
377.448	183.12
377.674	157.12
377.899	178.12
378.125	174.12
378.35	188.12
378.576	169.12
378.802	182.12
379.027	196.12
379.253	207.12
379.478	202.12
379.704	197.12
379.929	208.12
380.155	186.12
380.38	196.12
380.606	208.12
380.831	212.12
381.057	198.12
381.282	202.12
381.507	196.12
381.733	200.12
381.958	206.12
382.184	214.12
382.409	205.12
382.634	198.12
382.86	202.12
383.085	208.12
383.31	216.12
383.535	204.12
383.761	215.12
383.986	205.12
384.211	215.12
384.436	208.12
384.662	224.12
384.887	230.12
385.112	248.12
385.337	217.12
385.562	219.12
385.787	208.12
386.013	211.12
386.238	214.12
386.463	212.12
386.688	231.12
386.913	184.12
387.138	214.12
387.363	206.12
387.588	220.12
387.813	207.12
388.038	221.12
388.263	215.12
388.488	226.12
388.713	219.12
388.938	207.12
389.163	214.12
389.387	204.12
389.612	203.12
389.837	201.12
390.062	205.12
390.287	205.12
390.512	206.12
390.736	207.12
390.961	217.12
391.186	232.12
391.411	223.12
391.636	217.12
391.86	236.12
392.085	229.12
392.31	192.12
392.534	206.12
392.759	205.12
392.984	207.12
393.208	200.12
393.433	214.12
393.658	204.12
393.882	205.12
394.107	186.12
394.331	202.12
394.556	216.12
394.78	200.12
395.005	201.12
395.229	194.12
395.454	208.12
395.678	209.12
395.903	228.12
396.127	223.12
396.352	237.12
396.576	247.12
396.801	222.12
397.025	238.12
397.249	241.12
397.474	227.12
397.698	241.12
397.922	258.12
398.147	240.12
398.371	260.12
398.595	254.12
398.82	230.12
399.044	252.12
399.268	278.12
399.492	261.12
399.717	251.12
399.941	237.12
400.165	259.12
400.389	243.12
400.613	227.12
400.837	218.12
401.062	229.12
401.286	221.12
401.51	223.12
401.734	216.12
401.958	218.12
402.182	205.12
402.406	233.12
402.63	226.12
402.854	213.12
403.078	220.12
403.302	229.12
403.526	218.12
403.75	236.12
403.974	238.12
404.198	223.12
404.422	243.12
404.645	222.12
404.869	211.12
405.093	236.12
405.317	221.12
405.541	228.12
405.765	217.12
405.988	244.12
406.212	218.12
406.436	231.12
406.66	230.12
406.883	235.12
407.107	242.12
407.331	226.12
407.555	233.12
407.778	252.12
408.002	253.12
408.226	251.12
408.449	244.12
408.673	235.12
408.896	229.12
409.12	221.12
409.344	217.12
409.567	229.12
409.791	230.12
410.014	208.12
410.238	217.12
410.461	209.12
410.685	215.12
410.908	223.12
411.132	218.12
411.355	230.12
411.578	221.12
411.802	215.12
412.025	223.12
412.249	232.12
412.472	243.12
412.695	233.12
412.919	230.12
413.142	229.12
413.365	232.12
413.589	231.12
413.812	205.12
414.035	215.12
414.258	211.12
414.482	211.12
414.705	213.12
414.928	214.12
415.151	210.12
415.374	212.12
415.597	228.12
415.821	219.12
416.044	202.12
416.267	226.12
416.49	230.12
416.713	202.12
416.936	208.12
417.159	212.12
417.382	227.12
417.605	214.12
417.828	204.12
418.051	224.12
418.274	220.12
418.497	223.12
418.72	210.12
418.943	218.12
419.166	221.12
419.389	236.12
419.611	238.12
419.834	235.12
420.057	224.12
420.28	205.12
420.503	207.12
420.726	216.12
420.948	222.12
421.171	213.12
421.394	203.12
421.617	212.12
421.839	210.12
422.062	215.12
422.285	207.12
422.507	217.12
422.73	227.12
422.953	224.12
423.175	214.12
423.398	220.12
423.621	214.12
423.843	212.12
424.066	246.12
424.288	229.12
424.511	236.12
424.733	226.12
424.956	239.12
425.178	235.12
425.401	298.12
425.623	350.12
425.846	255.12
426.068	233.12
426.291	238.12
426.513	230.12
426.735	235.12
426.958	225.12
427.18	242.12
427.402	289.12
427.625	331.12
427.847	280.12
428.069	224.12
428.292	224.12
428.514	219.12
428.736	235.12
428.958	272.12
429.181	315.12
429.403	222.12
429.625	222.12
429.847	219.12
430.069	214.12
430.292	213.12
430.514	209.12
430.736	198.12
430.958	201.12
431.18	215.12
431.402	192.12
431.624	200.12
431.846	208.12
432.068	213.12
432.29	200.12
432.512	222.12
432.734	195.12
432.956	188.12
433.178	207.12
433.4	207.12
433.622	228.12
433.844	248.12
434.066	277.12
434.287	244.12
434.509	244.12
434.731	250.12
434.953	233.12
435.175	252.12
435.397	271.12
435.618	227.12
435.84	221.12
436.062	235.12
436.284	206.12
436.505	207.12
436.727	211.12
436.949	227.12
437.17	226.12
437.392	226.12
437.614	220.12
437.835	206.12
438.057	208.12
438.278	197.12
438.5	200.12
438.721	221.12
438.943	226.12
439.165	204.12
439.386	205.12
439.608	206.12
439.829	206.12
440.05	195.12
440.272	209.12
440.493	201.12
440.715	204.12
440.936	194.12
441.158	212.12
441.379	201.12
441.6	210.12
441.822	205.12
442.043	217.12
442.264	218.12
442.486	220.12
442.707	218.12
442.928	232.12
443.149	220.12
443.371	221.12
443.592	222.12
443.813	224.12
444.034	219.12
444.255	243.12
444.476	218.12
444.698	210.12
444.919	229.12
445.14	315.12
445.361	263.12
445.582	212.12
445.803	216.12
446.024	221.12
446.245	205.12
446.466	207.12
446.687	210.12
446.908	207.12
447.129	198.12
447.35	210.12
447.571	210.12
447.792	198.12
448.013	199.12
448.234	200.12
448.455	204.12
448.675	202.12
448.896	202.12
449.117	202.12
449.338	211.12
449.559	206.12
449.779	231.12
450	226.12
450.221	201.12
450.442	198.12
450.662	181.12
450.883	202.12
451.104	188.12
451.324	211.12
451.545	211.12
451.766	206.12
451.986	203.12
452.207	200.12
452.428	196.12
452.648	216.12
452.869	216.12
453.089	223.12
453.31	202.12
453.53	198.12
453.751	202.12
453.971	200.12
454.192	210.12
454.412	199.12
454.633	220.12
454.853	207.12
455.073	212.12
455.294	201.12
455.514	204.12
455.734	213.12
455.955	218.12
456.175	213.12
456.395	189.12
456.616	193.12
456.836	193.12
457.056	208.12
457.276	212.12
457.497	189.12
457.717	192.12
457.937	194.12
458.157	196.12
458.377	186.12
458.598	201.12
458.818	213.12
459.038	224.12
459.258	214.12
459.478	218.12
459.698	219.12
459.918	222.12
460.138	219.12
460.358	240.12
460.578	228.12
460.798	207.12
461.018	212.12
461.238	217.12
461.458	242.12
461.678	262.12
461.898	252.12
462.118	269.12
462.338	242.12
462.558	259.12
462.777	264.12
462.997	237.12
463.217	249.12
463.437	250.12
463.657	235.12
463.876	244.12
464.096	238.12
464.316	247.12
464.536	270.12
464.755	300.12
464.975	236.12
465.195	277.12
465.414	272.12
465.634	220.12
465.854	204.12
466.073	205.12
466.293	196.12
466.512	218.12
466.732	208.12
466.951	210.12
467.171	224.12
467.391	202.12
467.61	199.12
467.829	211.12
468.049	208.12
468.268	194.12
468.488	203.12
468.707	184.12
468.927	196.12
469.146	196.12
469.365	207.12
469.585	207.12
469.804	201.12
470.023	218.12
470.243	198.12
470.462	206.12
470.681	207.12
470.901	210.12
471.12	214.12
471.339	205.12
471.558	198.12
471.777	217.12
471.997	214.12
472.216	211.12
472.435	210.12
472.654	212.12
472.873	204.12
473.092	216.12
473.311	208.12
473.53	190.12
473.749	210.12
473.968	215.12
474.187	200.12
474.406	198.12
474.625	211.12
474.844	204.12
475.063	192.12
475.282	199.12
475.501	199.12
475.72	237.12
475.939	221.12
476.158	210.12
476.377	204.12
476.596	210.12
476.814	227.12
477.033	226.12
477.252	212.12
477.471	200.12
477.69	212.12
477.908	208.12
478.127	207.12
478.346	214.12
478.564	215.12
478.783	214.12
479.002	224.12
479.22	234.12
479.439	226.12
479.658	224.12
479.876	228.12
480.095	232.12
480.313	254.12
480.532	248.12
480.751	212.12
480.969	224.12
481.188	219.12
481.406	212.12
481.624	228.12
481.843	216.12
482.061	225.12
482.28	221.12
482.498	242.12
482.717	238.12
482.935	234.12
483.153	254.12
483.372	219.12
483.59	235.12
483.808	228.12
484.027	219.12
484.245	223.12
484.463	223.12
484.681	233.12
484.9	234.12
485.118	241.12
485.336	230.12
485.554	245.12
485.772	218.12
485.99	234.12
486.209	238.12
486.427	250.12
486.645	237.12
486.863	246.12
487.081	245.12
487.299	253.12
487.517	233.12
487.735	246.12
487.953	227.12
488.171	247.12
488.389	224.12
488.607	237.12
488.825	241.12
489.043	243.12
489.261	237.12
489.479	229.12
489.696	228.12
489.914	232.12
490.132	237.12
490.35	229.12
490.568	256.12
490.786	232.12
491.003	243.12
491.221	243.12
491.439	233.12
491.657	236.12
491.874	247.12
492.092	254.12
492.31	292.12
492.527	279.12
492.745	230.12
492.963	246.12
493.18	246.12
493.398	238.12
493.615	242.12
493.833	256.12
494.05	254.12
494.268	243.12
494.485	254.12
494.703	219.12
494.92	240.12
495.138	245.12
495.355	245.12
495.573	249.12
495.79	246.12
496.008	254.12
496.225	249.12
496.442	270.12
496.66	279.12
496.877	256.12
497.094	272.12
497.312	268.12
497.529	258.12
497.746	260.12
497.963	267.12
498.181	267.12
498.398	273.12
498.615	290.12
498.832	298.12
499.049	310.12
499.267	312.12
499.484	317.12
499.701	338.12
499.918	346.12
500.135	372.12
500.352	370.12
500.569	399.12
500.786	384.12
501.003	372.12
501.22	349.12
501.437	332.12
501.654	341.12
501.871	315.12
502.088	319.12
502.305	300.12
502.522	299.12
502.739	283.12
502.956	245.12
503.172	256.12
503.389	268.12
503.606	275.12
