Data from StA_HRD10591_059.txt Node
Date: Fri May 16 15:19:13 EDT 2025
User: Yrep
Spectrometer: HR+D1059
Trigger mode: 1
Integration Time (sec): 1.000000E-1
Scans to average: 1
Electric dark correction enabled: true
Nonlinearity correction enabled: false
Boxcar width: 0
XAxis mode: Wavelengths
Number of Pixels in Spectrum: 2048
>>>>>Begin Spectral Data<<<<<
223.165	-11.31
223.4	-11.31
223.635	-11.31
223.869	-20.31
224.104	-10.31
224.338	-15.31
224.573	-7.31
224.808	-14.31
225.042	-16.31
225.277	-11.31
225.511	-5.31
225.746	3.69
225.98	-5.31
226.215	19.69
226.449	22.69
226.683	20.69
226.918	24.69
227.152	25.69
227.387	36.69
227.621	25.69
227.856	46.69
228.09	52.69
228.324	51.69
228.559	62.69
228.793	67.69
229.027	66.69
229.262	68.69
229.496	68.69
229.73	83.69
229.964	83.69
230.199	91.69
230.433	87.69
230.667	74.69
230.901	98.69
231.136	82.69
231.37	86.69
231.604	107.69
231.838	91.69
232.072	99.69
232.306	111.69
232.541	90.69
232.775	86.69
233.009	83.69
233.243	94.69
233.477	76.69
233.711	82.69
233.945	76.69
234.179	91.69
234.413	88.69
234.647	100.69
234.881	92.69
235.115	89.69
235.349	89.69
235.583	89.69
235.817	87.69
236.051	83.69
236.285	90.69
236.519	107.69
236.753	74.69
236.987	91.69
237.221	91.69
237.455	72.69
237.689	95.69
237.922	94.69
238.156	81.69
238.39	84.69
238.624	83.69
238.858	92.69
239.091	102.69
239.325	74.69
239.559	97.69
239.793	98.69
240.027	95.69
240.26	93.69
240.494	107.69
240.728	109.69
240.961	111.69
241.195	94.69
241.429	90.69
241.662	82.69
241.896	91.69
242.13	87.69
242.363	108.69
242.597	82.69
242.83	100.69
243.064	93.69
243.298	102.69
243.531	104.69
243.765	77.69
243.998	93.69
244.232	107.69
244.465	100.69
244.699	100.69
244.932	96.69
245.166	104.69
245.399	101.69
245.633	119.69
245.866	98.69
246.099	100.69
246.333	101.69
246.566	113.69
246.8	98.69
247.033	118.69
247.266	98.69
247.5	119.69
247.733	114.69
247.966	110.69
248.2	121.69
248.433	128.69
248.666	127.69
248.899	138.69
249.133	134.69
249.366	131.69
249.599	111.69
249.832	139.69
250.066	126.69
250.299	128.69
250.532	119.69
250.765	123.69
250.998	128.69
251.231	143.69
251.465	131.69
251.698	135.69
251.931	144.69
252.164	164.69
252.397	164.69
252.63	155.69
252.863	159.69
253.096	144.69
253.329	173.69
253.562	138.69
253.795	141.69
254.028	164.69
254.261	155.69
254.494	146.69
254.727	155.69
254.96	150.69
255.193	148.69
255.426	152.69
255.659	131.69
255.892	147.69
256.124	143.69
256.357	136.69
256.59	170.69
256.823	164.69
257.056	154.69
257.289	164.69
257.521	174.69
257.754	165.69
257.987	169.69
258.22	184.69
258.452	163.69
258.685	177.69
258.918	163.69
259.151	176.69
259.383	169.69
259.616	168.69
259.849	168.69
260.081	179.69
260.314	160.69
260.547	185.69
260.779	160.69
261.012	184.69
261.244	189.69
261.477	187.69
261.71	176.69
261.942	179.69
262.175	190.69
262.407	207.69
262.64	192.69
262.872	210.69
263.105	184.69
263.337	201.69
263.57	186.69
263.802	176.69
264.035	180.69
264.267	168.69
264.499	179.69
264.732	179.69
264.964	168.69
265.197	195.69
265.429	221.69
265.661	226.69
265.894	244.69
266.126	282.69
266.358	295.69
266.591	325.69
266.823	341.69
267.055	326.69
267.287	342.69
267.52	341.69
267.752	367.69
267.984	382.69
268.216	303.69
268.448	253.69
268.681	251.69
268.913	278.69
269.145	314.69
269.377	300.69
269.609	287.69
269.841	319.69
270.073	327.69
270.306	306.69
270.538	270.69
270.77	262.69
271.002	251.69
271.234	254.69
271.466	268.69
271.698	222.69
271.93	248.69
272.162	285.69
272.394	279.69
272.626	265.69
272.858	262.69
273.09	207.69
273.322	197.69
273.553	185.69
273.785	211.69
274.017	239.69
274.249	291.69
274.481	351.69
274.713	357.69
274.945	388.69
275.176	396.69
275.408	422.69
275.64	368.69
275.872	416.69
276.104	496.69
276.335	454.69
276.567	458.69
276.799	442.69
277.031	369.69
277.262	305.69
277.494	282.69
277.726	300.69
277.957	318.69
278.189	338.69
278.421	326.69
278.652	324.69
278.884	318.69
279.115	298.69
279.347	292.69
279.579	269.69
279.81	264.69
280.042	283.69
280.273	293.69
280.505	244.69
280.736	270.69
280.968	279.69
281.199	322.69
281.431	351.69
281.662	337.69
281.894	343.69
282.125	367.69
282.356	403.69
282.588	382.69
282.819	357.69
283.051	406.69
283.282	498.69
283.513	588.69
283.745	588.69
283.976	558.69
284.207	549.69
284.439	559.69
284.67	509.69
284.901	509.69
285.132	569.69
285.364	566.69
285.595	548.69
285.826	565.69
286.057	560.69
286.288	586.69
286.52	590.69
286.751	638.69
286.982	553.69
287.213	461.69
287.444	454.69
287.675	493.69
287.906	487.69
288.138	374.69
288.369	342.69
288.6	311.69
288.831	380.69
289.062	413.69
289.293	440.69
289.524	454.69
289.755	463.69
289.986	444.69
290.217	343.69
290.448	295.69
290.679	266.69
290.91	280.69
291.141	305.69
291.371	274.69
291.602	285.69
291.833	302.69
292.064	338.69
292.295	409.69
292.526	408.69
292.757	414.69
292.987	437.69
293.218	396.69
293.449	370.69
293.68	367.69
293.91	334.69
294.141	296.69
294.372	288.69
294.603	284.69
294.833	300.69
295.064	303.69
295.295	300.69
295.525	283.69
295.756	260.69
295.987	237.69
296.217	242.69
296.448	260.69
296.679	261.69
296.909	272.69
297.14	342.69
297.37	380.69
297.601	354.69
297.831	339.69
298.062	365.69
298.292	372.69
298.523	376.69
298.753	410.69
298.984	353.69
299.214	320.69
299.445	275.69
299.675	244.69
299.905	223.69
300.136	238.69
300.366	238.69
300.597	229.69
300.827	238.69
301.057	249.69
301.288	267.69
301.518	295.69
301.748	320.69
301.979	330.69
302.209	284.69
302.439	291.69
302.669	308.69
302.9	324.69
303.13	272.69
303.36	256.69
303.59	284.69
303.82	308.69
304.051	324.69
304.281	374.69
304.511	335.69
304.741	308.69
304.971	347.69
305.201	333.69
305.431	295.69
305.661	258.69
305.891	221.69
306.121	230.69
306.352	216.69
306.582	210.69
306.812	204.69
307.042	217.69
307.272	216.69
307.502	207.69
307.731	210.69
307.961	222.69
308.191	204.69
308.421	205.69
308.651	218.69
308.881	217.69
309.111	214.69
309.341	236.69
309.571	262.69
309.8	257.69
310.03	217.69
310.26	222.69
310.49	214.69
310.72	223.69
310.949	260.69
311.179	275.69
311.409	301.69
311.639	383.69
311.868	533.69
312.098	626.69
312.328	616.69
312.557	583.69
312.787	583.69
313.017	532.69
313.246	584.69
313.476	532.69
313.706	423.69
313.935	366.69
314.165	282.69
314.394	298.69
314.624	302.69
314.853	299.69
315.083	295.69
315.312	268.69
315.542	234.69
315.771	226.69
316.001	205.69
316.23	216.69
316.46	225.69
316.689	214.69
316.919	219.69
317.148	226.69
317.377	224.69
317.607	245.69
317.836	255.69
318.065	320.69
318.295	329.69
318.524	264.69
318.753	221.69
318.983	235.69
319.212	243.69
319.441	268.69
319.67	280.69
319.9	298.69
320.129	251.69
320.358	253.69
320.587	235.69
320.816	283.69
321.046	294.69
321.275	289.69
321.504	281.69
321.733	266.69
321.962	275.69
322.191	220.69
322.42	208.69
322.649	203.69
322.878	211.69
323.108	223.69
323.337	248.69
323.566	241.69
323.795	238.69
324.024	245.69
324.253	212.69
324.482	194.69
324.71	196.69
324.939	200.69
325.168	219.69
325.397	201.69
325.626	204.69
325.855	192.69
326.084	189.69
326.313	208.69
326.542	227.69
326.77	222.69
326.999	209.69
327.228	217.69
327.457	212.69
327.686	199.69
327.914	198.69
328.143	206.69
328.372	198.69
328.6	197.69
328.829	215.69
329.058	222.69
329.287	242.69
329.515	237.69
329.744	232.69
329.972	216.69
330.201	215.69
330.43	213.69
330.658	259.69
330.887	285.69
331.115	285.69
331.344	287.69
331.572	243.69
331.801	240.69
332.03	236.69
332.258	251.69
332.486	270.69
332.715	258.69
332.943	245.69
333.172	261.69
333.4	272.69
333.629	316.69
333.857	346.69
334.085	308.69
334.314	325.69
334.542	298.69
334.771	259.69
334.999	284.69
335.227	267.69
335.455	290.69
335.684	345.69
335.912	386.69
336.14	382.69
336.369	372.69
336.597	398.69
336.825	423.69
337.053	378.69
337.281	302.69
337.51	275.69
337.738	292.69
337.966	310.69
338.194	342.69
338.422	249.69
338.65	242.69
338.878	222.69
339.106	256.69
339.334	280.69
339.562	256.69
339.79	243.69
340.018	264.69
340.246	297.69
340.474	339.69
340.702	320.69
340.93	333.69
341.158	303.69
341.386	233.69
341.614	231.69
341.842	283.69
342.07	348.69
342.298	387.69
342.526	307.69
342.754	243.69
342.981	248.69
343.209	273.69
343.437	280.69
343.665	270.69
343.893	215.69
344.12	205.69
344.348	219.69
344.576	230.69
344.804	224.69
345.031	208.69
345.259	205.69
345.487	220.69
345.714	212.69
345.942	211.69
346.17	202.69
346.397	194.69
346.625	193.69
346.853	195.69
347.08	207.69
347.308	198.69
347.535	198.69
347.763	205.69
347.99	195.69
348.218	199.69
348.445	184.69
348.673	187.69
348.9	182.69
349.128	169.69
349.355	190.69
349.583	196.69
349.81	196.69
350.037	170.69
350.265	182.69
350.492	171.69
350.72	196.69
350.947	186.69
351.174	189.69
351.402	194.69
351.629	184.69
351.856	192.69
352.083	175.69
352.311	187.69
352.538	183.69
352.765	169.69
352.992	178.69
353.22	200.69
353.447	198.69
353.674	177.69
353.901	181.69
354.128	168.69
354.355	164.69
354.583	185.69
354.81	191.69
355.037	203.69
355.264	196.69
355.491	193.69
355.718	196.69
355.945	201.69
356.172	213.69
356.399	202.69
356.626	211.69
356.853	216.69
357.08	212.69
357.307	247.69
357.534	283.69
357.761	321.69
357.988	368.69
358.215	308.69
358.441	267.69
358.668	260.69
358.895	261.69
359.122	249.69
359.349	318.69
359.576	298.69
359.802	238.69
360.029	241.69
360.256	266.69
360.483	310.69
360.709	299.69
360.936	244.69
361.163	214.69
361.39	187.69
361.616	192.69
361.843	187.69
362.07	190.69
362.296	180.69
362.523	188.69
362.749	207.69
362.976	202.69
363.203	210.69
363.429	224.69
363.656	228.69
363.882	210.69
364.109	230.69
364.335	237.69
364.562	208.69
364.788	192.69
365.015	228.69
365.241	214.69
365.468	217.69
365.694	211.69
365.92	196.69
366.147	185.69
366.373	199.69
366.599	203.69
366.826	183.69
367.052	204.69
367.278	196.69
367.505	221.69
367.731	228.69
367.957	222.69
368.184	194.69
368.41	199.69
368.636	215.69
368.862	190.69
369.089	185.69
369.315	189.69
369.541	181.69
369.767	196.69
369.993	193.69
370.219	179.69
370.445	179.69
370.672	183.69
370.898	188.69
371.124	206.69
371.35	210.69
371.576	205.69
371.802	201.69
372.028	197.69
372.254	206.69
372.48	198.69
372.706	188.69
372.932	215.69
373.158	202.69
373.384	186.69
373.61	197.69
373.835	191.69
374.061	216.69
374.287	230.69
374.513	245.69
374.739	210.69
374.965	211.69
375.191	219.69
375.416	204.69
375.642	208.69
375.868	191.69
376.094	204.69
376.319	190.69
376.545	195.69
376.771	193.69
376.997	188.69
377.222	178.69
377.448	173.69
377.674	186.69
377.899	191.69
378.125	175.69
378.35	204.69
378.576	176.69
378.802	199.69
379.027	214.69
379.253	214.69
379.478	216.69
379.704	191.69
379.929	197.69
380.155	195.69
380.38	199.69
380.606	203.69
380.831	198.69
381.057	212.69
381.282	205.69
381.507	212.69
381.733	228.69
381.958	212.69
382.184	210.69
382.409	211.69
382.634	206.69
382.86	202.69
383.085	218.69
383.31	195.69
383.535	208.69
383.761	189.69
383.986	196.69
384.211	234.69
384.436	222.69
384.662	219.69
384.887	219.69
385.112	241.69
385.337	249.69
385.562	236.69
385.787	216.69
386.013	242.69
386.238	222.69
386.463	227.69
386.688	235.69
386.913	234.69
387.138	201.69
387.363	209.69
387.588	222.69
387.813	214.69
388.038	217.69
388.263	226.69
388.488	247.69
388.713	247.69
388.938	208.69
389.163	191.69
389.387	197.69
389.612	214.69
389.837	216.69
390.062	210.69
390.287	197.69
390.512	206.69
390.736	221.69
390.961	231.69
391.186	228.69
391.411	230.69
391.636	218.69
391.86	230.69
392.085	260.69
392.31	214.69
392.534	194.69
392.759	211.69
392.984	201.69
393.208	223.69
393.433	195.69
393.658	201.69
393.882	214.69
394.107	205.69
394.331	194.69
394.556	202.69
394.78	203.69
395.005	199.69
395.229	206.69
395.454	205.69
395.678	203.69
395.903	209.69
396.127	208.69
396.352	267.69
396.576	258.69
396.801	254.69
397.025	261.69
397.249	242.69
397.474	245.69
397.698	246.69
397.922	247.69
398.147	246.69
398.371	250.69
398.595	251.69
398.82	248.69
399.044	253.69
399.268	282.69
399.492	281.69
399.717	261.69
399.941	250.69
400.165	264.69
400.389	244.69
400.613	220.69
400.837	236.69
401.062	245.69
401.286	231.69
401.51	230.69
401.734	214.69
401.958	213.69
402.182	228.69
402.406	232.69
402.63	244.69
402.854	228.69
403.078	226.69
403.302	237.69
403.526	241.69
403.75	242.69
403.974	250.69
404.198	233.69
404.422	234.69
404.645	227.69
404.869	251.69
405.093	228.69
405.317	245.69
405.541	237.69
405.765	226.69
405.988	233.69
406.212	241.69
406.436	219.69
406.66	231.69
406.883	239.69
407.107	240.69
407.331	243.69
407.555	246.69
407.778	248.69
408.002	237.69
408.226	242.69
408.449	232.69
408.673	218.69
408.896	242.69
409.12	239.69
409.344	226.69
409.567	216.69
409.791	219.69
410.014	220.69
410.238	224.69
410.461	229.69
410.685	232.69
410.908	221.69
411.132	236.69
411.355	226.69
411.578	246.69
411.802	215.69
412.025	230.69
412.249	240.69
412.472	254.69
412.695	249.69
412.919	225.69
413.142	215.69
413.365	234.69
413.589	226.69
413.812	209.69
414.035	226.69
414.258	226.69
414.482	236.69
414.705	234.69
414.928	207.69
415.151	206.69
415.374	222.69
415.597	235.69
415.821	203.69
416.044	199.69
416.267	232.69
416.49	217.69
416.713	220.69
416.936	226.69
417.159	232.69
417.382	218.69
417.605	223.69
417.828	231.69
418.051	250.69
418.274	223.69
418.497	218.69
418.72	231.69
418.943	222.69
419.166	245.69
419.389	253.69
419.611	245.69
419.834	234.69
420.057	230.69
420.28	206.69
420.503	214.69
420.726	232.69
420.948	211.69
421.171	247.69
421.394	222.69
421.617	226.69
421.839	208.69
422.062	217.69
422.285	209.69
422.507	223.69
422.73	221.69
422.953	236.69
423.175	231.69
423.398	217.69
423.621	210.69
423.843	214.69
424.066	242.69
424.288	242.69
424.511	248.69
424.733	234.69
424.956	239.69
425.178	263.69
425.401	352.69
425.623	406.69
425.846	285.69
426.068	238.69
426.291	255.69
426.513	239.69
426.735	223.69
426.958	244.69
427.18	256.69
427.402	326.69
427.625	393.69
427.847	270.69
428.069	236.69
428.292	232.69
428.514	230.69
428.736	246.69
428.958	307.69
429.181	336.69
429.403	269.69
429.625	236.69
429.847	236.69
430.069	235.69
430.292	233.69
430.514	210.69
430.736	212.69
430.958	222.69
431.18	203.69
431.402	197.69
431.624	207.69
431.846	211.69
432.068	195.69
432.29	204.69
432.512	213.69
432.734	188.69
432.956	209.69
433.178	205.69
433.4	210.69
433.622	231.69
433.844	261.69
434.066	293.69
434.287	262.69
434.509	258.69
434.731	258.69
434.953	227.69
435.175	267.69
435.397	271.69
435.618	234.69
435.84	223.69
436.062	246.69
436.284	222.69
436.505	222.69
436.727	203.69
436.949	242.69
437.17	232.69
437.392	220.69
437.614	219.69
437.835	219.69
438.057	211.69
438.278	206.69
438.5	213.69
438.721	214.69
438.943	218.69
439.165	206.69
439.386	185.69
439.608	205.69
439.829	211.69
440.05	196.69
440.272	202.69
440.493	215.69
440.715	206.69
440.936	196.69
441.158	203.69
441.379	218.69
441.6	214.69
441.822	223.69
442.043	212.69
442.264	218.69
442.486	217.69
442.707	237.69
442.928	224.69
443.149	223.69
443.371	218.69
443.592	207.69
443.813	221.69
444.034	218.69
444.255	222.69
444.476	220.69
444.698	213.69
444.919	226.69
445.14	291.69
445.361	260.69
445.582	224.69
445.803	223.69
446.024	219.69
446.245	214.69
446.466	220.69
446.687	228.69
446.908	201.69
447.129	201.69
447.35	193.69
447.571	218.69
447.792	192.69
448.013	205.69
448.234	204.69
448.455	218.69
448.675	203.69
448.896	206.69
449.117	220.69
449.338	205.69
449.559	217.69
449.779	244.69
450	233.69
450.221	197.69
450.442	202.69
450.662	215.69
450.883	196.69
451.104	216.69
451.324	224.69
451.545	222.69
451.766	197.69
451.986	243.69
452.207	203.69
452.428	215.69
452.648	227.69
452.869	236.69
453.089	219.69
453.31	215.69
453.53	212.69
453.751	221.69
453.971	204.69
454.192	233.69
454.412	222.69
454.633	219.69
454.853	210.69
455.073	192.69
455.294	190.69
455.514	215.69
455.734	226.69
455.955	230.69
456.175	216.69
456.395	212.69
456.616	198.69
456.836	196.69
457.056	205.69
457.276	193.69
457.497	190.69
457.717	210.69
457.937	222.69
458.157	176.69
458.377	211.69
458.598	212.69
458.818	223.69
459.038	232.69
459.258	230.69
459.478	237.69
459.698	218.69
459.918	229.69
460.138	236.69
460.358	257.69
460.578	223.69
460.798	224.69
461.018	193.69
461.238	207.69
461.458	239.69
461.678	261.69
461.898	271.69
462.118	266.69
462.338	259.69
462.558	277.69
462.777	268.69
462.997	252.69
463.217	260.69
463.437	249.69
463.657	244.69
463.876	263.69
464.096	243.69
464.316	259.69
464.536	247.69
464.755	291.69
464.975	274.69
465.195	259.69
465.414	245.69
465.634	231.69
465.854	213.69
466.073	206.69
466.293	216.69
466.512	215.69
466.732	230.69
466.951	218.69
467.171	209.69
467.391	216.69
467.61	198.69
467.829	205.69
468.049	212.69
468.268	198.69
468.488	200.69
468.707	187.69
468.927	191.69
469.146	210.69
469.365	212.69
469.585	203.69
469.804	221.69
470.023	222.69
470.243	211.69
470.462	202.69
470.681	204.69
470.901	216.69
471.12	208.69
471.339	193.69
471.558	218.69
471.777	224.69
471.997	219.69
472.216	218.69
472.435	208.69
472.654	211.69
472.873	210.69
473.092	230.69
473.311	234.69
473.53	206.69
473.749	219.69
473.968	218.69
474.187	204.69
474.406	212.69
474.625	217.69
474.844	197.69
475.063	220.69
475.282	213.69
475.501	243.69
475.72	259.69
475.939	228.69
476.158	230.69
476.377	213.69
476.596	218.69
476.814	226.69
477.033	215.69
477.252	198.69
477.471	210.69
477.69	218.69
477.908	204.69
478.127	216.69
478.346	233.69
478.564	235.69
478.783	242.69
479.002	252.69
479.22	251.69
479.439	221.69
479.658	234.69
479.876	238.69
480.095	236.69
480.313	263.69
480.532	234.69
480.751	242.69
480.969	219.69
481.188	232.69
481.406	223.69
481.624	234.69
481.843	215.69
482.061	222.69
482.28	231.69
482.498	253.69
482.717	233.69
482.935	231.69
483.153	237.69
483.372	223.69
483.59	234.69
483.808	243.69
484.027	228.69
484.245	223.69
484.463	243.69
484.681	255.69
484.9	245.69
485.118	266.69
485.336	216.69
485.554	223.69
485.772	226.69
485.99	235.69
486.209	243.69
486.427	253.69
486.645	242.69
486.863	238.69
487.081	263.69
487.299	261.69
487.517	260.69
487.735	253.69
487.953	243.69
488.171	223.69
488.389	221.69
488.607	254.69
488.825	296.69
489.043	238.69
489.261	231.69
489.479	231.69
489.696	227.69
489.914	233.69
490.132	238.69
490.35	262.69
490.568	247.69
490.786	239.69
491.003	236.69
491.221	221.69
491.439	250.69
491.657	238.69
491.874	238.69
492.092	262.69
492.31	311.69
492.527	306.69
492.745	275.69
492.963	242.69
493.18	234.69
493.398	256.69
493.615	253.69
493.833	269.69
494.05	258.69
494.268	243.69
494.485	258.69
494.703	247.69
494.92	262.69
495.138	258.69
495.355	270.69
495.573	262.69
495.79	272.69
496.008	260.69
496.225	273.69
496.442	244.69
496.66	251.69
496.877	262.69
497.094	258.69
497.312	265.69
497.529	271.69
497.746	265.69
497.963	270.69
498.181	274.69
498.398	266.69
498.615	274.69
498.832	301.69
499.049	292.69
499.267	328.69
499.484	347.69
499.701	338.69
499.918	348.69
500.135	355.69
500.352	398.69
500.569	371.69
500.786	380.69
501.003	354.69
501.22	342.69
501.437	336.69
501.654	336.69
501.871	321.69
502.088	309.69
502.305	292.69
502.522	294.69
502.739	285.69
502.956	267.69
503.172	267.69
503.389	274.69
503.606	280.69
