Data from StA_HRD10591_041.txt Node
Date: Fri May 16 15:19:04 EDT 2025
User: Yrep
Spectrometer: HR+D1059
Trigger mode: 1
Integration Time (sec): 1.000000E-1
Scans to average: 1
Electric dark correction enabled: true
Nonlinearity correction enabled: false
Boxcar width: 0
XAxis mode: Wavelengths
Number of Pixels in Spectrum: 2048
>>>>>Begin Spectral Data<<<<<
223.165	-19.44
223.4	-19.44
223.635	-19.44
223.869	-30.44
224.104	-26.44
224.338	-20.44
224.573	-3.44
224.808	-9.44
225.042	1.56
225.277	-10.44
225.511	-3.44
225.746	-6.44
225.98	1.56
226.215	18.56
226.449	18.56
226.683	22.56
226.918	30.56
227.152	36.56
227.387	37.56
227.621	49.56
227.856	40.56
228.09	44.56
228.324	46.56
228.559	57.56
228.793	55.56
229.027	81.56
229.262	81.56
229.496	89.56
229.73	75.56
229.964	73.56
230.199	98.56
230.433	97.56
230.667	99.56
230.901	94.56
231.136	81.56
231.37	86.56
231.604	89.56
231.838	107.56
232.072	85.56
232.306	103.56
232.541	91.56
232.775	87.56
233.009	93.56
233.243	106.56
233.477	81.56
233.711	107.56
233.945	90.56
234.179	81.56
234.413	96.56
234.647	102.56
234.881	89.56
235.115	99.56
235.349	74.56
235.583	94.56
235.817	93.56
236.051	87.56
236.285	103.56
236.519	85.56
236.753	94.56
236.987	107.56
237.221	91.56
237.455	86.56
237.689	97.56
237.922	96.56
238.156	99.56
238.39	94.56
238.624	80.56
238.858	73.56
239.091	81.56
239.325	76.56
239.559	87.56
239.793	94.56
240.027	88.56
240.26	91.56
240.494	99.56
240.728	91.56
240.961	105.56
241.195	87.56
241.429	101.56
241.662	104.56
241.896	99.56
242.13	112.56
242.363	101.56
242.597	98.56
242.83	91.56
243.064	94.56
243.298	83.56
243.531	84.56
243.765	96.56
243.998	108.56
244.232	104.56
244.465	113.56
244.699	96.56
244.932	101.56
245.166	99.56
245.399	103.56
245.633	106.56
245.866	93.56
246.099	99.56
246.333	103.56
246.566	111.56
246.8	110.56
247.033	107.56
247.266	104.56
247.5	103.56
247.733	98.56
247.966	127.56
248.2	120.56
248.433	110.56
248.666	122.56
248.899	126.56
249.133	132.56
249.366	135.56
249.599	135.56
249.832	124.56
250.066	127.56
250.299	127.56
250.532	125.56
250.765	135.56
250.998	120.56
251.231	144.56
251.465	135.56
251.698	140.56
251.931	150.56
252.164	145.56
252.397	152.56
252.63	146.56
252.863	152.56
253.096	142.56
253.329	139.56
253.562	152.56
253.795	149.56
254.028	144.56
254.261	153.56
254.494	146.56
254.727	137.56
254.96	136.56
255.193	165.56
255.426	130.56
255.659	133.56
255.892	153.56
256.124	133.56
256.357	168.56
256.59	158.56
256.823	164.56
257.056	159.56
257.289	193.56
257.521	175.56
257.754	180.56
257.987	166.56
258.22	172.56
258.452	179.56
258.685	159.56
258.918	175.56
259.151	160.56
259.383	161.56
259.616	160.56
259.849	166.56
260.081	153.56
260.314	157.56
260.547	151.56
260.779	157.56
261.012	185.56
261.244	184.56
261.477	177.56
261.71	166.56
261.942	190.56
262.175	187.56
262.407	200.56
262.64	191.56
262.872	185.56
263.105	186.56
263.337	157.56
263.57	183.56
263.802	173.56
264.035	172.56
264.267	181.56
264.499	180.56
264.732	174.56
264.964	170.56
265.197	180.56
265.429	211.56
265.661	230.56
265.894	224.56
266.126	259.56
266.358	295.56
266.591	321.56
266.823	343.56
267.055	320.56
267.287	320.56
267.52	340.56
267.752	357.56
267.984	380.56
268.216	298.56
268.448	247.56
268.681	264.56
268.913	283.56
269.145	312.56
269.377	285.56
269.609	279.56
269.841	303.56
270.073	339.56
270.306	298.56
270.538	269.56
270.77	252.56
271.002	258.56
271.234	272.56
271.466	264.56
271.698	231.56
271.93	248.56
272.162	263.56
272.394	279.56
272.626	283.56
272.858	239.56
273.09	209.56
273.322	181.56
273.553	187.56
273.785	205.56
274.017	254.56
274.249	265.56
274.481	309.56
274.713	327.56
274.945	359.56
275.176	379.56
275.408	406.56
275.64	379.56
275.872	414.56
276.104	467.56
276.335	458.56
276.567	434.56
276.799	440.56
277.031	377.56
277.262	293.56
277.494	253.56
277.726	267.56
277.957	316.56
278.189	331.56
278.421	321.56
278.652	302.56
278.884	328.56
279.115	296.56
279.347	286.56
279.579	264.56
279.81	254.56
280.042	278.56
280.273	298.56
280.505	274.56
280.736	263.56
280.968	297.56
281.199	298.56
281.431	315.56
281.662	310.56
281.894	347.56
282.125	384.56
282.356	395.56
282.588	370.56
282.819	359.56
283.051	435.56
283.282	478.56
283.513	567.56
283.745	618.56
283.976	567.56
284.207	529.56
284.439	527.56
284.67	503.56
284.901	505.56
285.132	548.56
285.364	555.56
285.595	531.56
285.826	548.56
286.057	541.56
286.288	570.56
286.52	607.56
286.751	596.56
286.982	534.56
287.213	465.56
287.444	480.56
287.675	491.56
287.906	453.56
288.138	375.56
288.369	337.56
288.6	313.56
288.831	350.56
289.062	419.56
289.293	429.56
289.524	438.56
289.755	444.56
289.986	423.56
290.217	340.56
290.448	290.56
290.679	253.56
290.91	259.56
291.141	264.56
291.371	309.56
291.602	280.56
291.833	293.56
292.064	331.56
292.295	384.56
292.526	423.56
292.757	403.56
292.987	408.56
293.218	387.56
293.449	379.56
293.68	375.56
293.91	314.56
294.141	289.56
294.372	287.56
294.603	263.56
294.833	288.56
295.064	285.56
295.295	273.56
295.525	283.56
295.756	262.56
295.987	256.56
296.217	254.56
296.448	260.56
296.679	272.56
296.909	296.56
297.14	343.56
297.37	373.56
297.601	334.56
297.831	327.56
298.062	363.56
298.292	361.56
298.523	366.56
298.753	392.56
298.984	363.56
299.214	313.56
299.445	252.56
299.675	272.56
299.905	242.56
300.136	224.56
300.366	248.56
300.597	221.56
300.827	222.56
301.057	235.56
301.288	279.56
301.518	300.56
301.748	307.56
301.979	301.56
302.209	278.56
302.439	284.56
302.669	311.56
302.9	299.56
303.13	271.56
303.36	263.56
303.59	284.56
303.82	292.56
304.051	347.56
304.281	346.56
304.511	316.56
304.741	298.56
304.971	314.56
305.201	315.56
305.431	287.56
305.661	247.56
305.891	237.56
306.121	224.56
306.352	219.56
306.582	196.56
306.812	208.56
307.042	207.56
307.272	207.56
307.502	212.56
307.731	214.56
307.961	204.56
308.191	209.56
308.421	205.56
308.651	217.56
308.881	223.56
309.111	229.56
309.341	240.56
309.571	240.56
309.8	246.56
310.03	218.56
310.26	211.56
310.49	209.56
310.72	234.56
310.949	227.56
311.179	251.56
311.409	312.56
311.639	366.56
311.868	519.56
312.098	571.56
312.328	589.56
312.557	596.56
312.787	574.56
313.017	545.56
313.246	579.56
313.476	560.56
313.706	431.56
313.935	338.56
314.165	313.56
314.394	292.56
314.624	301.56
314.853	311.56
315.083	291.56
315.312	269.56
315.542	241.56
315.771	225.56
316.001	223.56
316.23	216.56
316.46	224.56
316.689	207.56
316.919	227.56
317.148	203.56
317.377	224.56
317.607	258.56
317.836	276.56
318.065	308.56
318.295	318.56
318.524	268.56
318.753	239.56
318.983	214.56
319.212	227.56
319.441	246.56
319.67	286.56
319.9	315.56
320.129	266.56
320.358	229.56
320.587	256.56
320.816	258.56
321.046	298.56
321.275	278.56
321.504	257.56
321.733	265.56
321.962	279.56
322.191	247.56
322.42	185.56
322.649	194.56
322.878	214.56
323.108	204.56
323.337	241.56
323.566	253.56
323.795	237.56
324.024	236.56
324.253	203.56
324.482	199.56
324.71	192.56
324.939	213.56
325.168	211.56
325.397	188.56
325.626	197.56
325.855	204.56
326.084	198.56
326.313	195.56
326.542	205.56
326.77	222.56
326.999	219.56
327.228	215.56
327.457	213.56
327.686	184.56
327.914	195.56
328.143	201.56
328.372	200.56
328.6	205.56
328.829	201.56
329.058	211.56
329.287	239.56
329.515	233.56
329.744	235.56
329.972	199.56
330.201	187.56
330.43	224.56
330.658	246.56
330.887	273.56
331.115	270.56
331.344	281.56
331.572	257.56
331.801	239.56
332.03	232.56
332.258	244.56
332.486	277.56
332.715	260.56
332.943	237.56
333.172	247.56
333.4	270.56
333.629	308.56
333.857	319.56
334.085	345.56
334.314	302.56
334.542	283.56
334.771	293.56
334.999	279.56
335.227	260.56
335.455	279.56
335.684	315.56
335.912	380.56
336.14	403.56
336.369	379.56
336.597	379.56
336.825	429.56
337.053	403.56
337.281	309.56
337.51	264.56
337.738	278.56
337.966	304.56
338.194	306.56
338.422	271.56
338.65	259.56
338.878	220.56
339.106	259.56
339.334	273.56
339.562	254.56
339.79	269.56
340.018	282.56
340.246	296.56
340.474	344.56
340.702	319.56
340.93	341.56
341.158	284.56
341.386	243.56
341.614	249.56
341.842	269.56
342.07	331.56
342.298	365.56
342.526	320.56
342.754	240.56
342.981	240.56
343.209	272.56
343.437	308.56
343.665	253.56
343.893	221.56
344.12	218.56
344.348	214.56
344.576	233.56
344.804	212.56
345.031	200.56
345.259	211.56
345.487	216.56
345.714	211.56
345.942	219.56
346.17	222.56
346.397	199.56
346.625	193.56
346.853	183.56
347.08	194.56
347.308	207.56
347.535	198.56
347.763	193.56
347.99	184.56
348.218	183.56
348.445	182.56
348.673	182.56
348.9	188.56
349.128	178.56
349.355	185.56
349.583	192.56
349.81	194.56
350.037	177.56
350.265	192.56
350.492	182.56
350.72	170.56
350.947	187.56
351.174	184.56
351.402	199.56
351.629	191.56
351.856	191.56
352.083	179.56
352.311	198.56
352.538	197.56
352.765	186.56
352.992	188.56
353.22	180.56
353.447	192.56
353.674	187.56
353.901	177.56
354.128	187.56
354.355	198.56
354.583	200.56
354.81	210.56
355.037	201.56
355.264	201.56
355.491	206.56
355.718	198.56
355.945	191.56
356.172	210.56
356.399	225.56
356.626	216.56
356.853	207.56
357.08	209.56
357.307	237.56
357.534	260.56
357.761	326.56
357.988	363.56
358.215	296.56
358.441	272.56
358.668	271.56
358.895	239.56
359.122	257.56
359.349	310.56
359.576	295.56
359.802	243.56
360.029	233.56
360.256	248.56
360.483	301.56
360.709	299.56
360.936	228.56
361.163	203.56
361.39	201.56
361.616	195.56
361.843	192.56
362.07	193.56
362.296	189.56
362.523	196.56
362.749	185.56
362.976	215.56
363.203	222.56
363.429	223.56
363.656	225.56
363.882	218.56
364.109	214.56
364.335	227.56
364.562	211.56
364.788	211.56
365.015	221.56
365.241	204.56
365.468	212.56
365.694	202.56
365.92	193.56
366.147	192.56
366.373	196.56
366.599	210.56
366.826	212.56
367.052	201.56
367.278	188.56
367.505	188.56
367.731	220.56
367.957	234.56
368.184	214.56
368.41	197.56
368.636	208.56
368.862	204.56
369.089	189.56
369.315	176.56
369.541	191.56
369.767	190.56
369.993	199.56
370.219	191.56
370.445	180.56
370.672	192.56
370.898	208.56
371.124	208.56
371.35	193.56
371.576	207.56
371.802	200.56
372.028	191.56
372.254	190.56
372.48	194.56
372.706	197.56
372.932	190.56
373.158	186.56
373.384	204.56
373.61	200.56
373.835	193.56
374.061	199.56
374.287	239.56
374.513	244.56
374.739	235.56
374.965	222.56
375.191	201.56
375.416	204.56
375.642	189.56
375.868	205.56
376.094	220.56
376.319	211.56
376.545	197.56
376.771	190.56
376.997	182.56
377.222	178.56
377.448	172.56
377.674	176.56
377.899	198.56
378.125	191.56
378.35	215.56
378.576	202.56
378.802	194.56
379.027	195.56
379.253	215.56
379.478	211.56
379.704	211.56
379.929	198.56
380.155	206.56
380.38	194.56
380.606	213.56
380.831	213.56
381.057	202.56
381.282	204.56
381.507	205.56
381.733	223.56
381.958	201.56
382.184	215.56
382.409	216.56
382.634	225.56
382.86	211.56
383.085	231.56
383.31	224.56
383.535	216.56
383.761	210.56
383.986	212.56
384.211	213.56
384.436	217.56
384.662	205.56
384.887	212.56
385.112	244.56
385.337	249.56
385.562	217.56
385.787	252.56
386.013	223.56
386.238	214.56
386.463	233.56
386.688	252.56
386.913	239.56
387.138	216.56
387.363	219.56
387.588	191.56
387.813	232.56
388.038	234.56
388.263	247.56
388.488	232.56
388.713	220.56
388.938	224.56
389.163	207.56
389.387	215.56
389.612	199.56
389.837	211.56
390.062	202.56
390.287	201.56
390.512	222.56
390.736	217.56
390.961	223.56
391.186	226.56
391.411	240.56
391.636	233.56
391.86	250.56
392.085	248.56
392.31	223.56
392.534	230.56
392.759	217.56
392.984	220.56
393.208	210.56
393.433	204.56
393.658	222.56
393.882	205.56
394.107	209.56
394.331	211.56
394.556	196.56
394.78	195.56
395.005	200.56
395.229	198.56
395.454	206.56
395.678	213.56
395.903	231.56
396.127	219.56
396.352	273.56
396.576	267.56
396.801	243.56
397.025	261.56
397.249	268.56
397.474	244.56
397.698	269.56
397.922	247.56
398.147	255.56
398.371	254.56
398.595	261.56
398.82	252.56
399.044	252.56
399.268	280.56
399.492	276.56
399.717	258.56
399.941	246.56
400.165	251.56
400.389	243.56
400.613	224.56
400.837	238.56
401.062	244.56
401.286	239.56
401.51	238.56
401.734	218.56
401.958	229.56
402.182	222.56
402.406	214.56
402.63	223.56
402.854	217.56
403.078	238.56
403.302	233.56
403.526	236.56
403.75	249.56
403.974	247.56
404.198	244.56
404.422	229.56
404.645	225.56
404.869	224.56
405.093	212.56
405.317	242.56
405.541	254.56
405.765	233.56
405.988	236.56
406.212	235.56
406.436	243.56
406.66	239.56
406.883	236.56
407.107	228.56
407.331	234.56
407.555	262.56
407.778	232.56
408.002	224.56
408.226	226.56
408.449	238.56
408.673	229.56
408.896	228.56
409.12	235.56
409.344	218.56
409.567	214.56
409.791	212.56
410.014	231.56
410.238	231.56
410.461	224.56
410.685	225.56
410.908	231.56
411.132	235.56
411.355	233.56
411.578	249.56
411.802	232.56
412.025	238.56
412.249	235.56
412.472	246.56
412.695	245.56
412.919	227.56
413.142	247.56
413.365	243.56
413.589	225.56
413.812	233.56
414.035	250.56
414.258	241.56
414.482	195.56
414.705	235.56
414.928	199.56
415.151	239.56
415.374	238.56
415.597	219.56
415.821	216.56
416.044	217.56
416.267	225.56
416.49	214.56
416.713	215.56
416.936	220.56
417.159	213.56
417.382	230.56
417.605	228.56
417.828	221.56
418.051	219.56
418.274	211.56
418.497	217.56
418.72	231.56
418.943	219.56
419.166	243.56
419.389	244.56
419.611	233.56
419.834	229.56
420.057	237.56
420.28	222.56
420.503	225.56
420.726	216.56
420.948	219.56
421.171	241.56
421.394	213.56
421.617	203.56
421.839	194.56
422.062	217.56
422.285	213.56
422.507	218.56
422.73	223.56
422.953	211.56
423.175	221.56
423.398	227.56
423.621	219.56
423.843	239.56
424.066	235.56
424.288	239.56
424.511	221.56
424.733	233.56
424.956	237.56
425.178	266.56
425.401	331.56
425.623	380.56
425.846	268.56
426.068	236.56
426.291	253.56
426.513	239.56
426.735	233.56
426.958	240.56
427.18	266.56
427.402	302.56
427.625	373.56
427.847	291.56
428.069	237.56
428.292	244.56
428.514	244.56
428.736	247.56
428.958	299.56
429.181	304.56
429.403	236.56
429.625	225.56
429.847	240.56
430.069	231.56
430.292	218.56
430.514	227.56
430.736	208.56
430.958	199.56
431.18	210.56
431.402	221.56
431.624	212.56
431.846	202.56
432.068	208.56
432.29	234.56
432.512	218.56
432.734	216.56
432.956	199.56
433.178	212.56
433.4	209.56
433.622	235.56
433.844	255.56
434.066	266.56
434.287	253.56
434.509	276.56
434.731	263.56
434.953	235.56
435.175	268.56
435.397	265.56
435.618	218.56
435.84	221.56
436.062	226.56
436.284	227.56
436.505	217.56
436.727	197.56
436.949	207.56
437.17	218.56
437.392	211.56
437.614	205.56
437.835	199.56
438.057	203.56
438.278	192.56
438.5	231.56
438.721	235.56
438.943	207.56
439.165	199.56
439.386	188.56
439.608	208.56
439.829	195.56
440.05	209.56
440.272	220.56
440.493	222.56
440.715	217.56
440.936	194.56
441.158	224.56
441.379	208.56
441.6	215.56
441.822	213.56
442.043	217.56
442.264	221.56
442.486	223.56
442.707	216.56
442.928	225.56
443.149	242.56
443.371	244.56
443.592	232.56
443.813	227.56
444.034	218.56
444.255	222.56
444.476	240.56
444.698	224.56
444.919	219.56
445.14	325.56
445.361	252.56
445.582	211.56
445.803	214.56
446.024	211.56
446.245	223.56
446.466	223.56
446.687	201.56
446.908	196.56
447.129	215.56
447.35	214.56
447.571	209.56
447.792	200.56
448.013	188.56
448.234	196.56
448.455	213.56
448.675	218.56
448.896	202.56
449.117	213.56
449.338	201.56
449.559	211.56
449.779	225.56
450	223.56
450.221	207.56
450.442	210.56
450.662	187.56
450.883	194.56
451.104	195.56
451.324	201.56
451.545	218.56
451.766	224.56
451.986	216.56
452.207	208.56
452.428	202.56
452.648	208.56
452.869	229.56
453.089	222.56
453.31	227.56
453.53	209.56
453.751	217.56
453.971	222.56
454.192	239.56
454.412	218.56
454.633	231.56
454.853	203.56
455.073	188.56
455.294	186.56
455.514	209.56
455.734	218.56
455.955	233.56
456.175	219.56
456.395	201.56
456.616	224.56
456.836	209.56
457.056	219.56
457.276	184.56
457.497	183.56
457.717	200.56
457.937	200.56
458.157	219.56
458.377	197.56
458.598	188.56
458.818	221.56
459.038	234.56
459.258	212.56
459.478	235.56
459.698	221.56
459.918	222.56
460.138	229.56
460.358	233.56
460.578	229.56
460.798	230.56
461.018	223.56
461.238	238.56
461.458	236.56
461.678	266.56
461.898	256.56
462.118	255.56
462.338	266.56
462.558	256.56
462.777	252.56
462.997	257.56
463.217	248.56
463.437	275.56
463.657	236.56
463.876	231.56
464.096	240.56
464.316	267.56
464.536	247.56
464.755	278.56
464.975	263.56
465.195	267.56
465.414	286.56
465.634	227.56
465.854	207.56
466.073	197.56
466.293	203.56
466.512	217.56
466.732	217.56
466.951	232.56
467.171	220.56
467.391	205.56
467.61	188.56
467.829	211.56
468.049	195.56
468.268	201.56
468.488	197.56
468.707	197.56
468.927	188.56
469.146	210.56
469.365	207.56
469.585	211.56
469.804	225.56
470.023	229.56
470.243	215.56
470.462	215.56
470.681	207.56
470.901	214.56
471.12	197.56
471.339	200.56
471.558	199.56
471.777	215.56
471.997	224.56
472.216	209.56
472.435	227.56
472.654	204.56
472.873	213.56
473.092	204.56
473.311	219.56
473.53	203.56
473.749	204.56
473.968	221.56
474.187	186.56
474.406	200.56
474.625	201.56
474.844	249.56
475.063	204.56
475.282	216.56
475.501	229.56
475.72	237.56
475.939	220.56
476.158	216.56
476.377	220.56
476.596	221.56
476.814	206.56
477.033	227.56
477.252	220.56
477.471	216.56
477.69	203.56
477.908	206.56
478.127	227.56
478.346	231.56
478.564	224.56
478.783	215.56
479.002	239.56
479.22	248.56
479.439	233.56
479.658	259.56
479.876	234.56
480.095	236.56
480.313	251.56
480.532	240.56
480.751	240.56
480.969	243.56
481.188	222.56
481.406	213.56
481.624	233.56
481.843	240.56
482.061	238.56
482.28	220.56
482.498	253.56
482.717	235.56
482.935	230.56
483.153	245.56
483.372	227.56
483.59	215.56
483.808	235.56
484.027	219.56
484.245	225.56
484.463	223.56
484.681	232.56
484.9	251.56
485.118	243.56
485.336	235.56
485.554	224.56
485.772	219.56
485.99	238.56
486.209	260.56
486.427	249.56
486.645	235.56
486.863	215.56
487.081	244.56
487.299	252.56
487.517	243.56
487.735	244.56
487.953	242.56
488.171	228.56
488.389	235.56
488.607	238.56
488.825	283.56
489.043	256.56
489.261	242.56
489.479	218.56
489.696	216.56
489.914	252.56
490.132	219.56
490.35	249.56
490.568	239.56
490.786	234.56
491.003	257.56
491.221	237.56
491.439	240.56
491.657	247.56
491.874	234.56
492.092	246.56
492.31	305.56
492.527	304.56
492.745	257.56
492.963	259.56
493.18	257.56
493.398	245.56
493.615	257.56
493.833	253.56
494.05	249.56
494.268	252.56
494.485	247.56
494.703	249.56
494.92	232.56
495.138	233.56
495.355	250.56
495.573	263.56
495.79	269.56
496.008	255.56
496.225	256.56
496.442	248.56
496.66	264.56
496.877	254.56
497.094	253.56
497.312	267.56
497.529	266.56
497.746	265.56
497.963	276.56
498.181	269.56
498.398	263.56
498.615	279.56
498.832	305.56
499.049	298.56
499.267	309.56
499.484	343.56
499.701	331.56
499.918	365.56
500.135	381.56
500.352	370.56
500.569	402.56
500.786	393.56
501.003	378.56
501.22	365.56
501.437	331.56
501.654	322.56
501.871	317.56
502.088	306.56
502.305	280.56
502.522	297.56
502.739	291.56
502.956	276.56
503.172	293.56
503.389	263.56
503.606	256.56
