Data from StA_HRD10591_011.txt Node
Date: Fri May 16 15:18:50 EDT 2025
User: Yrep
Spectrometer: HR+D1059
Trigger mode: 1
Integration Time (sec): 1.000000E-1
Scans to average: 1
Electric dark correction enabled: true
Nonlinearity correction enabled: false
Boxcar width: 0
XAxis mode: Wavelengths
Number of Pixels in Spectrum: 2048
>>>>>Begin Spectral Data<<<<<
223.165	-6.88
223.4	-6.88
223.635	-6.88
223.869	-21.88
224.104	-26.88
224.338	-4.88
224.573	-10.88
224.808	-3.88
225.042	-15.88
225.277	-13.88
225.511	-2.88
225.746	10.12
225.98	16.12
226.215	1.12
226.449	6.12
226.683	15.12
226.918	19.12
227.152	40.12
227.387	23.12
227.621	49.12
227.856	51.12
228.09	66.12
228.324	48.12
228.559	59.12
228.793	48.12
229.027	64.12
229.262	72.12
229.496	82.12
229.73	73.12
229.964	89.12
230.199	88.12
230.433	89.12
230.667	87.12
230.901	85.12
231.136	95.12
231.37	83.12
231.604	101.12
231.838	85.12
232.072	92.12
232.306	94.12
232.541	92.12
232.775	104.12
233.009	92.12
233.243	86.12
233.477	95.12
233.711	85.12
233.945	83.12
234.179	94.12
234.413	91.12
234.647	95.12
234.881	86.12
235.115	88.12
235.349	82.12
235.583	99.12
235.817	80.12
236.051	93.12
236.285	76.12
236.519	88.12
236.753	88.12
236.987	88.12
237.221	91.12
237.455	70.12
237.689	90.12
237.922	79.12
238.156	95.12
238.39	84.12
238.624	83.12
238.858	92.12
239.091	95.12
239.325	81.12
239.559	80.12
239.793	89.12
240.027	104.12
240.26	84.12
240.494	101.12
240.728	79.12
240.961	82.12
241.195	81.12
241.429	96.12
241.662	74.12
241.896	93.12
242.13	77.12
242.363	83.12
242.597	96.12
242.83	108.12
243.064	78.12
243.298	83.12
243.531	96.12
243.765	90.12
243.998	103.12
244.232	91.12
244.465	99.12
244.699	96.12
244.932	99.12
245.166	101.12
245.399	122.12
245.633	101.12
245.866	93.12
246.099	95.12
246.333	110.12
246.566	90.12
246.8	124.12
247.033	94.12
247.266	101.12
247.5	115.12
247.733	97.12
247.966	101.12
248.2	105.12
248.433	115.12
248.666	118.12
248.899	121.12
249.133	129.12
249.366	119.12
249.599	135.12
249.832	124.12
250.066	138.12
250.299	117.12
250.532	119.12
250.765	125.12
250.998	129.12
251.231	132.12
251.465	135.12
251.698	133.12
251.931	141.12
252.164	139.12
252.397	141.12
252.63	142.12
252.863	139.12
253.096	153.12
253.329	151.12
253.562	144.12
253.795	137.12
254.028	137.12
254.261	148.12
254.494	142.12
254.727	141.12
254.96	147.12
255.193	133.12
255.426	136.12
255.659	134.12
255.892	141.12
256.124	126.12
256.357	152.12
256.59	150.12
256.823	154.12
257.056	156.12
257.289	157.12
257.521	152.12
257.754	154.12
257.987	160.12
258.22	164.12
258.452	141.12
258.685	156.12
258.918	160.12
259.151	171.12
259.383	150.12
259.616	153.12
259.849	145.12
260.081	152.12
260.314	174.12
260.547	175.12
260.779	175.12
261.012	172.12
261.244	189.12
261.477	163.12
261.71	165.12
261.942	175.12
262.175	184.12
262.407	171.12
262.64	183.12
262.872	163.12
263.105	189.12
263.337	168.12
263.57	167.12
263.802	176.12
264.035	163.12
264.267	179.12
264.499	163.12
264.732	160.12
264.964	159.12
265.197	185.12
265.429	190.12
265.661	221.12
265.894	203.12
266.126	230.12
266.358	262.12
266.591	272.12
266.823	283.12
267.055	284.12
267.287	302.12
267.52	299.12
267.752	320.12
267.984	337.12
268.216	271.12
268.448	220.12
268.681	242.12
268.913	261.12
269.145	275.12
269.377	264.12
269.609	255.12
269.841	276.12
270.073	292.12
270.306	251.12
270.538	239.12
270.77	223.12
271.002	220.12
271.234	242.12
271.466	225.12
271.698	211.12
271.93	246.12
272.162	253.12
272.394	254.12
272.626	235.12
272.858	218.12
273.09	219.12
273.322	180.12
273.553	193.12
273.785	209.12
274.017	225.12
274.249	254.12
274.481	278.12
274.713	296.12
274.945	311.12
275.176	363.12
275.408	353.12
275.64	334.12
275.872	381.12
276.104	407.12
276.335	391.12
276.567	398.12
276.799	374.12
277.031	323.12
277.262	267.12
277.494	252.12
277.726	254.12
277.957	293.12
278.189	289.12
278.421	293.12
278.652	296.12
278.884	281.12
279.115	285.12
279.347	265.12
279.579	245.12
279.81	235.12
280.042	266.12
280.273	261.12
280.505	247.12
280.736	225.12
280.968	220.12
281.199	277.12
281.431	301.12
281.662	291.12
281.894	314.12
282.125	355.12
282.356	372.12
282.588	306.12
282.819	317.12
283.051	344.12
283.282	455.12
283.513	507.12
283.745	535.12
283.976	518.12
284.207	486.12
284.439	488.12
284.67	454.12
284.901	439.12
285.132	490.12
285.364	491.12
285.595	463.12
285.826	472.12
286.057	463.12
286.288	485.12
286.52	524.12
286.751	527.12
286.982	461.12
287.213	406.12
287.444	421.12
287.675	418.12
287.906	406.12
288.138	329.12
288.369	303.12
288.6	296.12
288.831	311.12
289.062	368.12
289.293	376.12
289.524	380.12
289.755	385.12
289.986	403.12
290.217	316.12
290.448	284.12
290.679	239.12
290.91	249.12
291.141	247.12
291.371	256.12
291.602	269.12
291.833	276.12
292.064	313.12
292.295	351.12
292.526	351.12
292.757	362.12
292.987	375.12
293.218	347.12
293.449	340.12
293.68	325.12
293.91	283.12
294.141	265.12
294.372	255.12
294.603	248.12
294.833	263.12
295.064	251.12
295.295	249.12
295.525	237.12
295.756	244.12
295.987	214.12
296.217	252.12
296.448	244.12
296.679	261.12
296.909	279.12
297.14	308.12
297.37	337.12
297.601	305.12
297.831	299.12
298.062	337.12
298.292	327.12
298.523	325.12
298.753	339.12
298.984	320.12
299.214	267.12
299.445	248.12
299.675	239.12
299.905	227.12
300.136	222.12
300.366	213.12
300.597	202.12
300.827	223.12
301.057	223.12
301.288	245.12
301.518	278.12
301.748	303.12
301.979	277.12
302.209	263.12
302.439	274.12
302.669	271.12
302.9	290.12
303.13	265.12
303.36	233.12
303.59	253.12
303.82	272.12
304.051	296.12
304.281	291.12
304.511	298.12
304.741	283.12
304.971	297.12
305.201	288.12
305.431	253.12
305.661	227.12
305.891	221.12
306.121	212.12
306.352	208.12
306.582	205.12
306.812	185.12
307.042	190.12
307.272	188.12
307.502	185.12
307.731	214.12
307.961	204.12
308.191	210.12
308.421	197.12
308.651	201.12
308.881	188.12
309.111	214.12
309.341	213.12
309.571	232.12
309.8	231.12
310.03	211.12
310.26	215.12
310.49	220.12
310.72	221.12
310.949	227.12
311.179	249.12
311.409	263.12
311.639	346.12
311.868	463.12
312.098	522.12
312.328	515.12
312.557	504.12
312.787	484.12
313.017	484.12
313.246	534.12
313.476	456.12
313.706	350.12
313.935	307.12
314.165	294.12
314.394	258.12
314.624	267.12
314.853	270.12
315.083	271.12
315.312	237.12
315.542	225.12
315.771	214.12
316.001	187.12
316.23	187.12
316.46	183.12
316.689	206.12
316.919	207.12
317.148	213.12
317.377	226.12
317.607	236.12
317.836	249.12
318.065	289.12
318.295	309.12
318.524	263.12
318.753	211.12
318.983	191.12
319.212	206.12
319.441	229.12
319.67	254.12
319.9	281.12
320.129	256.12
320.358	212.12
320.587	225.12
320.816	239.12
321.046	252.12
321.275	242.12
321.504	239.12
321.733	262.12
321.962	252.12
322.191	218.12
322.42	197.12
322.649	198.12
322.878	208.12
323.108	204.12
323.337	218.12
323.566	245.12
323.795	232.12
324.024	200.12
324.253	189.12
324.482	180.12
324.71	180.12
324.939	181.12
325.168	184.12
325.397	219.12
325.626	196.12
325.855	199.12
326.084	193.12
326.313	200.12
326.542	204.12
326.77	208.12
326.999	224.12
327.228	218.12
327.457	186.12
327.686	203.12
327.914	181.12
328.143	179.12
328.372	179.12
328.6	195.12
328.829	202.12
329.058	201.12
329.287	215.12
329.515	216.12
329.744	225.12
329.972	215.12
330.201	199.12
330.43	233.12
330.658	233.12
330.887	257.12
331.115	266.12
331.344	256.12
331.572	240.12
331.801	230.12
332.03	213.12
332.258	225.12
332.486	249.12
332.715	233.12
332.943	242.12
333.172	233.12
333.4	247.12
333.629	274.12
333.857	280.12
334.085	318.12
334.314	286.12
334.542	278.12
334.771	252.12
334.999	214.12
335.227	238.12
335.455	264.12
335.684	293.12
335.912	326.12
336.14	357.12
336.369	335.12
336.597	344.12
336.825	373.12
337.053	342.12
337.281	257.12
337.51	246.12
337.738	249.12
337.966	288.12
338.194	278.12
338.422	249.12
338.65	222.12
338.878	205.12
339.106	238.12
339.334	243.12
339.562	254.12
339.79	234.12
340.018	232.12
340.246	270.12
340.474	304.12
340.702	278.12
340.93	305.12
341.158	269.12
341.386	219.12
341.614	246.12
341.842	241.12
342.07	293.12
342.298	329.12
342.526	264.12
342.754	243.12
342.981	230.12
343.209	241.12
343.437	261.12
343.665	246.12
343.893	205.12
344.12	209.12
344.348	219.12
344.576	195.12
344.804	204.12
345.031	195.12
345.259	197.12
345.487	236.12
345.714	219.12
345.942	197.12
346.17	163.12
346.397	180.12
346.625	187.12
346.853	174.12
347.08	189.12
347.308	201.12
347.535	189.12
347.763	169.12
347.99	189.12
348.218	188.12
348.445	183.12
348.673	188.12
348.9	197.12
349.128	172.12
349.355	189.12
349.583	184.12
349.81	182.12
350.037	178.12
350.265	187.12
350.492	175.12
350.72	175.12
350.947	188.12
351.174	185.12
351.402	202.12
351.629	172.12
351.856	169.12
352.083	168.12
352.311	196.12
352.538	184.12
352.765	186.12
352.992	180.12
353.22	179.12
353.447	172.12
353.674	179.12
353.901	179.12
354.128	183.12
354.355	189.12
354.583	185.12
354.81	176.12
355.037	191.12
355.264	199.12
355.491	197.12
355.718	193.12
355.945	185.12
356.172	200.12
356.399	185.12
356.626	197.12
356.853	187.12
357.08	193.12
357.307	210.12
357.534	237.12
357.761	285.12
357.988	291.12
358.215	261.12
358.441	237.12
358.668	238.12
358.895	250.12
359.122	255.12
359.349	266.12
359.576	261.12
359.802	202.12
360.029	217.12
360.256	249.12
360.483	270.12
360.709	275.12
360.936	222.12
361.163	193.12
361.39	190.12
361.616	193.12
361.843	206.12
362.07	187.12
362.296	179.12
362.523	186.12
362.749	178.12
362.976	210.12
363.203	211.12
363.429	206.12
363.656	211.12
363.882	200.12
364.109	215.12
364.335	191.12
364.562	203.12
364.788	208.12
365.015	203.12
365.241	211.12
365.468	196.12
365.694	196.12
365.92	191.12
366.147	203.12
366.373	202.12
366.599	201.12
366.826	181.12
367.052	194.12
367.278	192.12
367.505	192.12
367.731	198.12
367.957	202.12
368.184	191.12
368.41	202.12
368.636	177.12
368.862	197.12
369.089	186.12
369.315	166.12
369.541	199.12
369.767	192.12
369.993	180.12
370.219	168.12
370.445	187.12
370.672	186.12
370.898	179.12
371.124	192.12
371.35	203.12
371.576	199.12
371.802	193.12
372.028	188.12
372.254	175.12
372.48	197.12
372.706	187.12
372.932	194.12
373.158	185.12
373.384	190.12
373.61	196.12
373.835	193.12
374.061	195.12
374.287	211.12
374.513	230.12
374.739	216.12
374.965	203.12
375.191	193.12
375.416	190.12
375.642	185.12
375.868	201.12
376.094	202.12
376.319	177.12
376.545	198.12
376.771	199.12
376.997	190.12
377.222	192.12
377.448	174.12
377.674	186.12
377.899	180.12
378.125	191.12
378.35	180.12
378.576	185.12
378.802	181.12
379.027	207.12
379.253	199.12
379.478	191.12
379.704	198.12
379.929	203.12
380.155	191.12
380.38	181.12
380.606	192.12
380.831	199.12
381.057	206.12
381.282	176.12
381.507	199.12
381.733	213.12
381.958	219.12
382.184	204.12
382.409	193.12
382.634	204.12
382.86	205.12
383.085	199.12
383.31	217.12
383.535	208.12
383.761	209.12
383.986	201.12
384.211	213.12
384.436	203.12
384.662	220.12
384.887	229.12
385.112	227.12
385.337	231.12
385.562	213.12
385.787	206.12
386.013	217.12
386.238	216.12
386.463	216.12
386.688	238.12
386.913	218.12
387.138	202.12
387.363	205.12
387.588	213.12
387.813	211.12
388.038	215.12
388.263	209.12
388.488	215.12
388.713	221.12
388.938	196.12
389.163	211.12
389.387	209.12
389.612	207.12
389.837	211.12
390.062	209.12
390.287	209.12
390.512	205.12
390.736	207.12
390.961	212.12
391.186	206.12
391.411	227.12
391.636	231.12
391.86	234.12
392.085	235.12
392.31	220.12
392.534	202.12
392.759	231.12
392.984	214.12
393.208	203.12
393.433	212.12
393.658	213.12
393.882	195.12
394.107	216.12
394.331	204.12
394.556	205.12
394.78	210.12
395.005	212.12
395.229	187.12
395.454	204.12
395.678	215.12
395.903	209.12
396.127	219.12
396.352	237.12
396.576	229.12
396.801	223.12
397.025	257.12
397.249	234.12
397.474	233.12
397.698	251.12
397.922	225.12
398.147	233.12
398.371	259.12
398.595	249.12
398.82	229.12
399.044	247.12
399.268	268.12
399.492	250.12
399.717	251.12
399.941	247.12
400.165	246.12
400.389	222.12
400.613	241.12
400.837	229.12
401.062	207.12
401.286	233.12
401.51	239.12
401.734	228.12
401.958	201.12
402.182	218.12
402.406	227.12
402.63	225.12
402.854	216.12
403.078	223.12
403.302	223.12
403.526	221.12
403.75	223.12
403.974	243.12
404.198	217.12
404.422	221.12
404.645	239.12
404.869	231.12
405.093	205.12
405.317	218.12
405.541	223.12
405.765	235.12
405.988	222.12
406.212	243.12
406.436	222.12
406.66	235.12
406.883	222.12
407.107	247.12
407.331	235.12
407.555	248.12
407.778	243.12
408.002	241.12
408.226	236.12
408.449	227.12
408.673	237.12
408.896	223.12
409.12	244.12
409.344	236.12
409.567	235.12
409.791	225.12
410.014	211.12
410.238	237.12
410.461	227.12
410.685	225.12
410.908	236.12
411.132	224.12
411.355	221.12
411.578	211.12
411.802	239.12
412.025	230.12
412.249	248.12
412.472	231.12
412.695	239.12
412.919	227.12
413.142	236.12
413.365	223.12
413.589	212.12
413.812	216.12
414.035	229.12
414.258	211.12
414.482	199.12
414.705	202.12
414.928	198.12
415.151	203.12
415.374	225.12
415.597	216.12
415.821	221.12
416.044	236.12
416.267	217.12
416.49	216.12
416.713	202.12
416.936	225.12
417.159	198.12
417.382	229.12
417.605	218.12
417.828	216.12
418.051	230.12
418.274	209.12
418.497	205.12
418.72	213.12
418.943	216.12
419.166	229.12
419.389	248.12
419.611	237.12
419.834	220.12
420.057	229.12
420.28	214.12
420.503	231.12
420.726	208.12
420.948	230.12
421.171	235.12
421.394	215.12
421.617	209.12
421.839	214.12
422.062	224.12
422.285	237.12
422.507	241.12
422.73	208.12
422.953	190.12
423.175	217.12
423.398	207.12
423.621	224.12
423.843	207.12
424.066	201.12
424.288	234.12
424.511	223.12
424.733	210.12
424.956	210.12
425.178	247.12
425.401	307.12
425.623	351.12
425.846	259.12
426.068	225.12
426.291	243.12
426.513	238.12
426.735	235.12
426.958	244.12
427.18	238.12
427.402	293.12
427.625	331.12
427.847	261.12
428.069	216.12
428.292	233.12
428.514	219.12
428.736	231.12
428.958	282.12
429.181	292.12
429.403	227.12
429.625	214.12
429.847	220.12
430.069	218.12
430.292	217.12
430.514	186.12
430.736	214.12
430.958	211.12
431.18	196.12
431.402	216.12
431.624	199.12
431.846	200.12
432.068	199.12
432.29	203.12
432.512	215.12
432.734	205.12
432.956	203.12
433.178	193.12
433.4	200.12
433.622	217.12
433.844	238.12
434.066	270.12
434.287	234.12
434.509	253.12
434.731	241.12
434.953	245.12
435.175	263.12
435.397	244.12
435.618	211.12
435.84	210.12
436.062	235.12
436.284	209.12
436.505	216.12
436.727	210.12
436.949	209.12
437.17	190.12
437.392	203.12
437.614	214.12
437.835	207.12
438.057	213.12
438.278	218.12
438.5	201.12
438.721	199.12
438.943	223.12
439.165	192.12
439.386	200.12
439.608	205.12
439.829	193.12
440.05	207.12
440.272	209.12
440.493	196.12
440.715	213.12
440.936	208.12
441.158	201.12
441.379	208.12
441.6	205.12
441.822	204.12
442.043	218.12
442.264	210.12
442.486	221.12
442.707	215.12
442.928	212.12
443.149	238.12
443.371	226.12
443.592	215.12
443.813	203.12
444.034	223.12
444.255	221.12
444.476	229.12
444.698	220.12
444.919	222.12
445.14	300.12
445.361	246.12
445.582	213.12
445.803	209.12
446.024	212.12
446.245	203.12
446.466	213.12
446.687	208.12
446.908	213.12
447.129	207.12
447.35	205.12
447.571	204.12
447.792	208.12
448.013	200.12
448.234	198.12
448.455	202.12
448.675	211.12
448.896	216.12
449.117	212.12
449.338	210.12
449.559	210.12
449.779	218.12
450	216.12
450.221	218.12
450.442	221.12
450.662	195.12
450.883	203.12
451.104	202.12
451.324	216.12
451.545	215.12
451.766	229.12
451.986	209.12
452.207	208.12
452.428	207.12
452.648	204.12
452.869	219.12
453.089	207.12
453.31	220.12
453.53	212.12
453.751	199.12
453.971	194.12
454.192	204.12
454.412	207.12
454.633	226.12
454.853	197.12
455.073	196.12
455.294	200.12
455.514	210.12
455.734	202.12
455.955	229.12
456.175	211.12
456.395	201.12
456.616	215.12
456.836	199.12
457.056	190.12
457.276	190.12
457.497	187.12
457.717	189.12
457.937	189.12
458.157	196.12
458.377	200.12
458.598	212.12
458.818	216.12
459.038	221.12
459.258	236.12
459.478	235.12
459.698	216.12
459.918	231.12
460.138	225.12
460.358	238.12
460.578	216.12
460.798	215.12
461.018	214.12
461.238	224.12
461.458	222.12
461.678	230.12
461.898	247.12
462.118	267.12
462.338	246.12
462.558	257.12
462.777	265.12
462.997	241.12
463.217	264.12
463.437	240.12
463.657	216.12
463.876	245.12
464.096	244.12
464.316	211.12
464.536	264.12
464.755	279.12
464.975	254.12
465.195	235.12
465.414	235.12
465.634	224.12
465.854	227.12
466.073	211.12
466.293	194.12
466.512	203.12
466.732	220.12
466.951	218.12
467.171	207.12
467.391	203.12
467.61	187.12
467.829	195.12
468.049	191.12
468.268	197.12
468.488	179.12
468.707	190.12
468.927	189.12
469.146	197.12
469.365	188.12
469.585	215.12
469.804	203.12
470.023	212.12
470.243	204.12
470.462	192.12
470.681	194.12
470.901	214.12
471.12	203.12
471.339	199.12
471.558	203.12
471.777	207.12
471.997	231.12
472.216	211.12
472.435	204.12
472.654	194.12
472.873	198.12
473.092	202.12
473.311	214.12
473.53	214.12
473.749	199.12
473.968	204.12
474.187	199.12
474.406	209.12
474.625	211.12
474.844	200.12
475.063	197.12
475.282	208.12
475.501	227.12
475.72	211.12
475.939	223.12
476.158	214.12
476.377	209.12
476.596	213.12
476.814	224.12
477.033	199.12
477.252	205.12
477.471	191.12
477.69	195.12
477.908	192.12
478.127	224.12
478.346	206.12
478.564	204.12
478.783	217.12
479.002	252.12
479.22	233.12
479.439	239.12
479.658	243.12
479.876	224.12
480.095	247.12
480.313	231.12
480.532	254.12
480.751	221.12
480.969	223.12
481.188	201.12
481.406	232.12
481.624	236.12
481.843	222.12
482.061	211.12
482.28	222.12
482.498	248.12
482.717	229.12
482.935	221.12
483.153	252.12
483.372	227.12
483.59	230.12
483.808	220.12
484.027	220.12
484.245	211.12
484.463	214.12
484.681	238.12
484.9	245.12
485.118	250.12
485.336	228.12
485.554	221.12
485.772	216.12
485.99	227.12
486.209	222.12
486.427	253.12
486.645	240.12
486.863	235.12
487.081	251.12
487.299	250.12
487.517	236.12
487.735	248.12
487.953	240.12
488.171	248.12
488.389	224.12
488.607	243.12
488.825	246.12
489.043	258.12
489.261	233.12
489.479	219.12
489.696	227.12
489.914	223.12
490.132	222.12
490.35	244.12
490.568	240.12
490.786	231.12
491.003	222.12
491.221	233.12
491.439	228.12
491.657	235.12
491.874	243.12
492.092	232.12
492.31	279.12
492.527	286.12
492.745	237.12
492.963	237.12
493.18	228.12
493.398	250.12
493.615	244.12
493.833	245.12
494.05	234.12
494.268	250.12
494.485	237.12
494.703	248.12
494.92	247.12
495.138	234.12
495.355	236.12
495.573	268.12
495.79	267.12
496.008	237.12
496.225	243.12
496.442	259.12
496.66	261.12
496.877	239.12
497.094	254.12
497.312	269.12
497.529	253.12
497.746	264.12
497.963	275.12
498.181	288.12
498.398	265.12
498.615	288.12
498.832	296.12
499.049	283.12
499.267	307.12
499.484	312.12
499.701	322.12
499.918	353.12
500.135	359.12
500.352	359.12
500.569	375.12
500.786	390.12
501.003	363.12
501.22	344.12
501.437	327.12
501.654	329.12
501.871	315.12
502.088	289.12
502.305	281.12
502.522	287.12
502.739	283.12
502.956	281.12
503.172	280.12
503.389	284.12
503.606	266.12
503.823	261.12
